timestamps,TP9,AF7,AF8,TP10,Right AUX,Marker0
1583501050.783,96.680,59.570,62.012,98.633,9.277,0
1583501050.787,95.215,64.453,67.383,90.820,-7.324,0
1583501050.791,93.750,60.059,64.453,87.402,-13.672,0
1583501050.795,90.820,57.617,59.570,91.309,25.391,0
1583501050.799,90.332,59.082,62.012,86.914,30.273,0
1583501050.803,92.285,58.105,64.453,85.449,38.086,0
1583501050.807,90.332,57.129,62.988,80.566,42.480,0
1583501050.810,84.961,54.688,59.082,81.055,43.457,0
1583501050.814,82.520,52.734,58.105,85.449,38.574,0
1583501050.818,79.590,51.758,59.570,77.637,4.395,0
1583501050.822,74.707,49.316,60.547,74.707,-7.324,0
1583501050.826,73.242,47.363,60.547,74.219,-21.973,0
1583501050.823,70.312,49.805,58.594,75.195,-9.277,0
1583501050.827,69.336,53.223,59.082,78.613,35.645,0
1583501050.831,71.289,53.711,62.988,74.219,39.551,0
1583501050.835,68.848,57.129,66.406,75.195,44.434,0
1583501050.839,67.383,57.129,66.406,78.613,10.254,0
1583501050.843,63.477,53.711,62.012,73.730,20.996,0
1583501050.847,55.664,50.293,58.105,62.988,72.754,0
1583501050.850,55.176,46.875,56.152,58.105,39.062,0
1583501050.854,53.711,45.410,59.082,57.617,66.895,0
1583501050.858,52.246,45.898,58.594,53.711,121.582,0
1583501050.862,52.734,46.387,53.711,47.852,68.359,0
1583501050.866,54.199,46.875,53.711,47.852,54.688,0
1583501050.864,60.059,49.805,55.664,59.570,55.176,0
1583501050.868,61.523,52.246,58.105,63.477,68.848,0
1583501050.872,62.500,54.688,61.035,57.129,61.523,0
1583501050.876,60.547,52.734,61.035,56.641,28.320,0
1583501050.880,57.617,50.293,59.082,61.523,41.016,0
1583501050.884,58.105,54.199,60.059,65.430,87.402,0
1583501050.888,62.500,55.664,59.570,61.035,63.965,0
1583501050.891,64.453,55.664,61.035,56.152,-16.113,0
1583501050.895,53.223,56.641,58.105,55.176,-9.277,0
1583501050.899,53.223,58.594,55.176,54.199,44.434,0
1583501050.903,61.035,61.035,59.082,57.129,52.246,0
1583501050.907,54.199,59.570,59.570,52.246,11.719,0
1583501050.924,49.805,59.082,62.500,47.852,9.766,0
1583501050.928,52.246,60.059,62.012,47.363,7.812,0
1583501050.932,50.781,59.082,59.082,42.480,0.977,0
1583501050.936,48.340,58.105,60.059,41.504,11.719,0
1583501050.940,47.852,58.594,59.570,41.016,-6.348,0
1583501050.944,51.270,62.012,60.059,43.945,3.418,0
1583501050.948,50.781,62.988,60.547,47.852,55.664,0
1583501050.951,48.828,61.035,59.082,47.852,93.750,0
1583501050.955,47.363,61.523,58.594,47.363,40.527,0
1583501050.959,41.992,61.035,59.570,45.898,-21.973,0
1583501050.963,41.016,57.129,60.547,51.270,21.973,0
1583501050.967,39.062,57.617,61.035,50.781,82.520,0
1583501050.964,36.133,59.082,61.523,42.480,42.969,0
1583501050.968,37.598,62.988,63.477,40.039,-10.254,0
1583501050.972,34.668,63.477,61.523,36.621,25.879,0
1583501050.976,32.715,60.059,57.617,41.504,60.547,0
1583501050.980,27.344,58.105,59.570,41.992,40.039,0
1583501050.984,21.484,55.176,56.641,34.668,-15.625,0
1583501050.988,23.438,55.664,55.664,41.504,-5.859,0
1583501050.991,24.414,56.152,58.105,41.992,31.738,0
1583501050.995,23.926,52.734,58.594,34.668,20.996,0
1583501050.999,23.926,49.805,60.059,33.691,-1.465,0
1583501051.003,26.855,49.805,56.641,31.738,-10.254,0
1583501051.007,33.203,49.316,53.223,35.645,-6.348,0
1583501051.003,34.180,50.293,57.129,37.598,12.207,0
1583501051.007,34.668,51.270,57.129,36.621,13.672,0
1583501051.011,40.039,52.246,53.223,35.156,16.113,0
1583501051.015,40.039,52.246,52.246,36.133,13.672,0
1583501051.019,39.062,51.270,51.270,37.598,17.090,0
1583501051.023,42.969,53.711,51.758,33.203,22.949,0
1583501051.027,40.527,52.734,50.293,33.203,0.000,0
1583501051.030,37.598,52.734,52.734,37.109,-6.836,0
1583501051.034,38.574,53.223,53.223,34.668,0.000,0
1583501051.038,34.668,45.410,49.316,30.762,42.969,0
1583501051.042,32.715,44.922,50.293,31.738,42.480,0
1583501051.046,28.320,43.457,52.734,36.133,10.742,0
1583501051.064,23.926,41.016,53.223,40.039,30.273,0
1583501051.068,26.367,42.969,52.734,40.039,58.594,0
1583501051.072,24.902,41.504,51.758,41.016,73.730,0
1583501051.076,27.832,37.109,50.781,41.992,77.637,0
1583501051.080,30.762,30.273,48.828,41.504,36.133,0
1583501051.084,30.273,25.391,48.340,39.551,-7.812,0
1583501051.088,24.902,20.996,48.828,38.574,27.344,0
1583501051.091,24.902,19.531,44.922,35.156,11.719,0
1583501051.095,30.273,18.066,47.852,36.133,13.184,0
1583501051.099,28.809,12.695,45.410,42.969,38.574,0
1583501051.103,31.250,14.160,43.945,42.480,95.215,0
1583501051.107,30.273,20.996,47.852,45.898,51.758,0
1583501051.103,37.598,29.297,49.805,51.270,17.578,0
1583501051.107,39.062,34.180,50.293,49.316,48.828,0
1583501051.111,36.133,36.621,53.711,47.852,39.062,0
1583501051.115,40.039,39.551,56.152,50.781,-0.977,0
1583501051.119,40.039,37.598,49.316,52.246,13.184,0
1583501051.123,40.039,37.598,48.340,55.176,93.262,0
1583501051.127,43.945,40.527,51.270,58.594,95.703,0
1583501051.130,42.969,41.016,51.270,55.664,105.469,0
1583501051.134,42.480,42.480,52.734,58.105,76.172,0
1583501051.138,45.898,44.922,54.199,62.500,16.113,0
1583501051.142,51.270,48.828,57.129,63.965,27.344,0
1583501051.146,54.199,52.246,59.570,65.918,49.316,0
1583501051.143,52.246,53.711,60.547,67.383,54.199,0
1583501051.147,51.758,56.152,59.570,68.359,36.133,0
1583501051.151,55.176,61.035,62.012,70.312,24.902,0
1583501051.155,62.988,68.359,68.848,67.871,52.246,0
1583501051.159,70.801,70.801,70.801,74.707,89.355,0
1583501051.163,71.777,72.266,68.848,86.914,66.406,0
1583501051.167,70.312,70.312,66.895,83.008,54.199,0
1583501051.170,74.707,69.336,67.383,82.520,69.336,0
1583501051.174,73.730,70.801,67.383,81.055,44.434,0
1583501051.178,72.754,70.312,66.895,83.984,81.543,0
1583501051.182,74.707,70.801,67.871,85.449,100.586,0
1583501051.186,69.824,69.824,65.430,76.660,57.129,0
1583501051.203,67.871,68.848,64.453,72.754,23.438,0
1583501051.207,69.336,66.406,64.941,74.219,-8.789,0
1583501051.211,64.941,63.965,63.965,74.707,12.695,0
1583501051.215,60.059,61.035,64.453,70.312,14.160,0
1583501051.219,57.617,60.547,64.941,66.895,19.043,0
1583501051.223,59.082,64.941,65.918,67.383,65.430,0
1583501051.227,55.176,62.500,63.965,64.453,71.777,0
1583501051.230,47.852,57.129,60.547,58.105,102.051,0
1583501051.234,51.270,61.035,60.059,56.641,117.676,0
1583501051.238,55.664,64.941,59.570,56.641,82.520,0
1583501051.242,50.781,64.453,60.059,55.664,60.059,0
1583501051.246,47.852,63.965,59.570,57.617,88.867,0
1583501051.243,51.758,66.895,61.035,59.570,97.168,0
1583501051.247,53.711,69.336,67.871,59.570,58.594,0
1583501051.251,57.129,68.359,68.848,62.012,79.590,0
1583501051.255,62.012,71.289,68.848,67.871,118.164,0
1583501051.259,66.406,74.707,72.754,72.266,145.508,0
1583501051.263,72.266,77.148,76.660,72.754,161.621,0
1583501051.267,76.172,80.566,79.590,63.965,164.062,0
1583501051.270,74.707,78.125,77.637,64.453,166.992,0
1583501051.274,70.801,75.195,77.148,65.918,187.500,0
1583501051.278,62.500,73.242,76.172,51.270,162.109,0
1583501051.282,52.246,66.895,70.801,45.898,196.289,0
1583501051.286,44.922,63.477,67.383,54.199,248.535,0
1583501051.284,38.086,62.988,64.941,52.734,248.535,0
1583501051.288,36.133,64.941,64.941,48.340,246.582,0
1583501051.292,35.645,68.359,65.918,46.387,247.070,0
1583501051.296,36.133,69.824,66.895,47.363,229.980,0
1583501051.300,35.156,67.383,64.941,47.852,222.656,0
1583501051.304,30.762,65.430,62.988,35.645,208.008,0
1583501051.308,28.320,65.918,62.500,27.344,176.270,0
1583501051.311,30.762,66.406,62.988,24.902,162.598,0
1583501051.315,30.273,66.895,65.430,20.996,147.949,0
1583501051.319,25.879,66.895,66.406,21.973,116.211,0
1583501051.323,20.508,65.430,66.406,12.207,88.867,0
1583501051.327,17.090,64.941,66.895,6.836,63.965,0
1583501051.343,14.648,65.918,64.941,13.672,39.062,0
1583501051.347,16.113,65.918,64.941,12.695,23.926,0
1583501051.351,21.484,65.918,66.406,0.977,-15.625,0
1583501051.355,21.973,68.359,65.430,-1.465,-62.012,0
1583501051.359,15.625,68.359,67.383,7.812,-83.496,0
1583501051.363,14.648,70.312,70.801,-0.977,-75.684,0
1583501051.367,18.066,70.312,68.359,-15.137,-112.793,0
1583501051.370,10.742,67.871,64.453,-15.625,-119.629,0
1583501051.374,3.906,68.848,67.871,-13.184,-92.773,0
1583501051.378,2.441,69.824,70.312,-16.602,-135.254,0
1583501051.382,1.465,71.777,69.336,-24.414,-119.629,0
1583501051.386,-5.371,70.312,67.871,-32.715,-94.727,0
1583501051.403,-20.508,66.406,66.406,-42.969,-138.672,0
1583501051.407,-31.250,62.988,63.965,-53.223,-159.180,0
1583501051.411,-30.273,66.406,64.941,-56.641,-118.652,0
1583501051.415,-25.391,72.266,65.918,-59.570,-116.211,0
1583501051.419,-29.297,67.383,63.477,-61.523,-120.605,0
1583501051.423,-25.879,62.988,63.477,-50.293,-104.980,0
1583501051.427,-14.160,63.965,64.941,-38.086,-84.473,0
1583501051.430,-3.418,63.477,67.383,-23.926,-79.102,0
1583501051.434,6.348,64.941,67.383,-12.207,-94.727,0
1583501051.438,10.742,65.430,66.895,-0.977,-75.684,0
1583501051.442,15.625,62.988,64.453,9.766,-44.922,0
1583501051.446,22.949,65.430,62.500,12.695,-40.527,0
1583501051.446,28.809,67.871,65.430,22.461,-73.242,0
1583501051.450,33.203,68.848,70.312,33.691,-43.457,0
1583501051.454,38.086,70.312,67.871,40.527,23.926,0
1583501051.458,46.875,70.312,66.406,46.875,-19.043,0
1583501051.462,49.805,66.406,63.477,49.316,-63.965,0
1583501051.466,44.434,65.430,61.523,47.852,-42.480,0
1583501051.470,43.457,68.848,62.012,46.875,-56.152,0
1583501051.473,51.270,70.801,63.965,52.246,-84.961,0
1583501051.477,55.664,68.359,63.477,56.152,-57.617,0
1583501051.481,60.059,66.895,61.523,57.129,2.441,0
1583501051.485,66.406,67.383,62.988,61.523,-19.531,0
1583501051.489,75.195,67.383,62.988,64.453,-100.098,0
1583501051.483,80.078,69.824,65.430,58.594,-20.508,0
1583501051.487,84.473,72.266,66.895,68.848,42.969,0
1583501051.491,85.449,73.242,68.848,83.008,16.113,0
1583501051.495,82.031,70.312,68.359,77.148,-20.508,0
1583501051.499,81.543,66.895,64.453,71.289,5.371,0
1583501051.503,80.566,68.848,62.500,66.895,54.688,0
1583501051.507,77.637,67.871,62.012,67.383,35.156,0
1583501051.510,75.684,64.941,56.641,65.430,16.602,0
1583501051.514,76.660,65.918,55.664,62.500,46.875,0
1583501051.518,70.312,62.500,56.641,58.105,11.719,0
1583501051.522,66.406,60.059,55.176,51.270,-40.527,0
1583501051.526,66.895,62.500,55.664,48.828,23.926,0
1583501051.523,65.918,62.500,55.664,49.316,3.906,0
1583501051.527,62.012,61.035,56.641,47.852,-7.812,0
1583501051.531,61.523,57.617,58.105,45.898,-23.438,0
1583501051.535,59.082,53.711,55.664,46.387,-12.695,0
1583501051.539,47.852,47.363,49.316,42.480,44.922,0
1583501051.543,44.434,44.922,48.340,30.762,28.320,0
1583501051.547,47.852,46.387,48.828,33.691,6.836,0
1583501051.550,44.922,44.922,45.410,38.574,13.184,0
1583501051.554,37.598,44.922,43.457,31.738,30.273,0
1583501051.558,37.598,44.434,43.457,28.320,25.391,0
1583501051.562,36.133,39.551,38.086,23.438,-4.883,0
1583501051.566,34.180,40.039,34.668,24.414,-5.371,0
1583501051.583,32.227,40.527,35.645,28.320,12.695,0
1583501051.587,30.762,42.480,39.551,30.273,22.949,0
1583501051.591,35.156,42.480,37.598,29.297,-10.254,0
1583501051.595,35.645,41.992,39.551,31.738,11.719,0
1583501051.599,34.668,43.945,43.457,36.133,54.688,0
1583501051.603,33.691,39.551,40.527,31.250,49.316,0
1583501051.607,25.391,36.133,36.133,21.973,41.016,0
1583501051.610,22.461,37.109,34.180,14.160,29.297,0
1583501051.614,20.996,34.180,33.691,15.137,-11.719,0
1583501051.618,23.438,34.668,31.738,21.484,8.301,0
1583501051.622,30.762,39.062,34.180,24.414,15.625,0
1583501051.626,26.855,39.551,37.598,25.391,20.020,0
1583501051.623,28.809,38.086,39.551,27.832,27.832,0
1583501051.627,37.598,40.527,42.480,30.762,32.227,0
1583501051.631,38.574,44.434,45.410,35.645,83.008,0
1583501051.635,36.133,44.922,46.875,35.645,60.547,0
1583501051.639,41.504,45.898,50.781,39.551,0.488,0
1583501051.643,46.875,49.316,51.758,40.039,-30.762,0
1583501051.647,45.898,49.805,48.340,33.203,-22.949,0
1583501051.650,48.828,55.664,51.758,35.645,60.547,0
1583501051.654,55.176,62.988,57.617,45.410,58.105,0
1583501051.658,59.082,62.500,59.082,49.805,-2.930,0
1583501051.662,60.547,64.453,61.523,47.363,15.625,0
1583501051.666,64.453,67.383,64.941,44.434,-7.324,0
1583501051.664,67.871,69.336,66.895,47.363,-10.742,0
1583501051.668,68.359,70.801,66.406,50.781,66.406,0
1583501051.672,64.941,74.219,65.918,54.199,27.832,0
1583501051.676,63.965,73.730,63.477,50.781,-1.953,0
1583501051.680,59.570,68.359,59.082,48.828,103.027,0
1583501051.684,58.594,69.824,61.035,53.711,105.957,0
1583501051.688,55.664,68.359,62.988,52.246,-5.371,0
1583501051.691,47.852,68.848,61.523,52.734,-14.648,0
1583501051.695,46.387,73.242,62.500,53.711,32.227,0
1583501051.699,41.992,71.289,63.477,50.781,3.418,0
1583501051.703,33.203,67.383,61.035,56.641,19.043,0
1583501051.707,27.832,66.406,59.082,56.641,56.152,0
1583501051.723,16.602,64.941,57.617,49.316,9.766,0
1583501051.727,10.254,65.918,59.082,44.434,-31.738,0
1583501051.731,14.160,64.941,57.617,48.828,14.160,0
1583501051.735,8.301,59.082,50.781,52.246,36.133,0
1583501051.739,1.465,56.641,49.316,48.340,19.531,0
1583501051.743,3.418,59.570,49.316,53.223,-6.836,0
1583501051.747,9.277,62.988,50.781,62.988,23.438,0
1583501051.750,13.672,66.406,56.152,62.988,87.891,0
1583501051.754,11.719,65.430,58.594,58.105,74.707,0
1583501051.758,10.742,65.430,58.594,57.617,40.039,0
1583501051.762,12.207,67.383,59.570,61.523,40.527,0
1583501051.766,20.996,72.754,66.406,68.848,76.660,0
1583501051.763,21.973,74.707,66.406,64.941,49.316,0
1583501051.767,16.113,71.289,60.547,57.129,72.266,0
1583501051.771,16.602,67.871,58.594,56.641,50.293,0
1583501051.775,18.066,67.871,59.082,59.570,26.855,0
1583501051.779,25.879,70.801,61.035,60.059,27.832,0
1583501051.783,27.344,70.801,62.012,56.641,-2.930,0
1583501051.787,24.902,71.777,62.988,60.547,-5.859,0
1583501051.790,27.344,71.777,65.918,61.523,-13.672,0
1583501051.794,29.785,69.336,68.848,61.035,-0.977,0
1583501051.798,22.461,69.824,71.289,58.105,21.484,0
1583501051.802,20.508,73.242,73.730,56.152,38.574,0
1583501051.806,26.367,71.289,71.289,62.500,-11.230,0
1583501051.803,20.020,68.848,67.383,60.059,-6.836,0
1583501051.807,21.484,68.359,65.430,56.152,56.641,0
1583501051.811,24.902,67.383,65.918,57.129,58.105,0
1583501051.815,22.461,66.895,66.895,52.246,29.297,0
1583501051.819,23.926,66.895,65.918,52.734,78.613,0
1583501051.823,28.809,66.406,66.406,41.504,90.820,0
1583501051.827,25.391,62.988,66.406,36.133,56.152,0
1583501051.830,19.531,63.965,63.965,55.176,65.918,0
1583501051.834,21.973,67.871,66.895,54.688,33.203,0
1583501051.838,23.438,67.383,70.312,43.457,0.977,0
1583501051.842,24.414,62.988,65.918,47.363,0.488,0
1583501051.846,30.762,65.430,64.453,52.734,7.324,0
1583501051.863,30.762,66.895,68.848,59.570,32.715,0
1583501051.867,28.320,65.430,68.848,57.617,52.734,0
1583501051.871,30.273,66.895,63.965,47.852,55.176,0
1583501051.875,29.297,65.430,63.477,44.922,68.359,0
1583501051.879,38.574,63.965,65.918,49.805,35.156,0
1583501051.883,48.828,63.477,62.500,50.293,-17.090,0
1583501051.887,44.434,61.035,59.082,38.574,0.977,0
1583501051.890,31.738,56.152,56.152,36.133,43.457,0
1583501051.894,23.926,55.664,56.152,47.363,64.453,0
1583501051.898,29.785,57.129,58.105,37.109,44.434,0
1583501051.902,28.809,58.105,58.594,40.039,7.812,0
1583501051.906,25.391,62.012,60.059,50.781,4.395,0
1583501051.903,22.949,61.035,58.594,44.922,20.508,0
1583501051.907,22.461,59.082,56.641,43.945,-2.930,0
1583501051.911,20.508,59.082,56.641,46.875,-30.273,0
1583501051.915,22.461,57.617,57.129,40.527,22.949,0
1583501051.919,26.855,58.594,58.105,37.598,66.895,0
1583501051.923,32.227,58.105,56.152,43.945,98.633,0
1583501051.927,39.551,57.129,54.688,27.344,67.383,0
1583501051.930,36.133,56.152,54.199,28.809,32.715,0
1583501051.934,33.203,51.270,54.199,44.434,10.254,0
1583501051.938,41.992,54.199,59.082,45.410,-5.859,0
1583501051.942,45.410,57.129,58.105,39.551,24.414,0
1583501051.946,40.527,53.711,51.758,32.227,49.805,0
1583501051.943,38.574,53.223,51.758,33.203,77.637,0
1583501051.947,40.527,51.758,51.758,40.039,119.629,0
1583501051.951,41.016,51.270,52.734,21.484,121.094,0
1583501051.955,52.734,51.758,53.711,7.812,61.523,0
1583501051.959,62.012,53.223,49.805,31.250,63.477,0
1583501051.963,61.523,53.711,50.781,41.016,93.262,0
1583501051.967,62.012,51.758,50.781,36.621,19.043,0
1583501051.970,58.105,53.711,50.293,37.598,5.859,0
1583501051.974,51.758,56.641,52.734,43.945,16.113,0
1583501051.978,53.223,57.617,56.641,42.480,-3.418,0
1583501051.982,54.688,54.688,55.176,40.527,2.930,0
1583501051.986,51.758,49.316,49.316,33.203,4.883,0
1583501052.003,57.129,48.340,47.852,25.879,-8.789,0
1583501052.007,58.105,49.805,50.781,25.391,22.949,0
1583501052.011,57.129,47.852,51.758,24.414,31.738,0
1583501052.015,54.688,44.922,47.852,21.973,32.715,0
1583501052.019,61.035,44.434,46.387,26.855,69.824,0
1583501052.023,70.801,43.457,47.363,30.273,35.156,0
1583501052.027,68.848,40.527,46.875,21.484,15.137,0
1583501052.030,68.359,39.062,43.945,16.113,33.203,0
1583501052.034,70.312,40.039,40.039,28.809,-7.324,0
1583501052.038,74.219,41.504,41.992,29.785,-14.160,0
1583501052.042,74.219,41.992,41.016,30.762,7.324,0
1583501052.046,71.777,38.086,37.109,28.809,36.621,0
1583501052.043,70.801,34.668,34.668,27.832,9.277,0
1583501052.047,66.895,34.668,32.715,16.113,21.973,0
1583501052.051,64.941,36.133,32.227,12.207,74.707,0
1583501052.055,69.336,36.621,33.691,33.203,70.801,0
1583501052.059,69.824,37.109,37.598,30.762,58.105,0
1583501052.063,69.824,38.086,36.133,30.273,50.781,0
1583501052.067,75.684,39.551,35.645,33.203,65.918,0
1583501052.070,77.637,44.434,39.062,35.645,52.734,0
1583501052.074,71.289,41.992,38.086,36.133,50.781,0
1583501052.078,65.918,38.574,36.621,28.809,40.039,0
1583501052.082,64.941,39.551,36.621,16.602,-6.348,0
1583501052.086,58.105,38.574,36.621,15.625,0.488,0
1583501052.083,55.664,38.086,38.086,24.902,79.102,0
1583501052.087,54.688,41.016,39.062,25.391,114.746,0
1583501052.091,59.570,42.969,40.527,4.883,104.004,0
1583501052.095,61.035,44.922,43.945,12.695,53.223,0
1583501052.099,61.523,48.340,45.898,36.133,32.227,0
1583501052.103,61.523,47.852,48.828,28.320,-30.273,0
1583501052.107,54.688,42.969,45.410,17.090,-52.734,0
1583501052.110,59.082,45.410,46.875,19.531,20.996,0
1583501052.114,66.406,46.387,51.758,24.902,44.434,0
1583501052.118,61.035,41.016,49.805,22.949,20.020,0
1583501052.122,62.500,41.992,47.852,21.484,14.648,0
1583501052.126,62.988,44.434,47.852,22.949,51.758,0
1583501052.144,57.617,42.969,47.852,31.738,26.855,0
1583501052.148,60.547,45.898,48.828,35.645,-19.531,0
1583501052.152,68.359,47.363,52.246,36.133,-6.348,0
1583501052.156,70.801,49.805,56.152,39.551,2.441,0
1583501052.160,64.941,54.199,55.664,32.227,8.789,0
1583501052.164,61.523,53.223,53.223,28.320,29.785,0
1583501052.168,55.664,48.828,49.805,34.668,55.664,0
1583501052.171,57.617,45.410,47.363,24.902,41.504,0
1583501052.175,62.500,44.434,49.316,21.973,-5.371,0
1583501052.179,60.059,45.410,50.293,30.762,-15.137,0
1583501052.183,56.641,43.945,47.852,21.973,-4.883,0
1583501052.187,55.176,41.992,47.852,8.301,13.184,0
1583501052.183,53.223,40.527,47.363,29.297,34.668,0
1583501052.187,53.711,40.039,46.387,28.809,63.965,0
1583501052.191,55.176,40.527,48.828,26.367,35.156,0
1583501052.195,55.664,43.945,50.293,33.691,3.906,0
1583501052.199,44.922,42.969,48.828,22.949,68.359,0
1583501052.203,44.434,37.109,45.898,22.461,68.359,0
1583501052.207,51.758,39.551,42.969,25.879,32.715,0
1583501052.210,45.898,42.480,43.945,25.391,62.500,0
1583501052.214,39.551,39.062,44.922,13.184,30.273,0
1583501052.218,30.273,38.086,45.410,9.277,20.508,0
1583501052.222,21.973,40.527,46.387,25.879,74.219,0
1583501052.226,15.137,39.062,48.828,29.297,15.625,0
1583501052.223,10.254,36.621,50.781,28.809,-19.531,0
1583501052.227,7.812,40.527,51.758,27.832,-25.391,0
1583501052.231,6.348,43.945,50.781,30.273,-18.066,0
1583501052.235,2.441,40.039,47.852,28.320,5.371,0
1583501052.239,-6.348,37.109,47.363,21.484,-20.996,0
1583501052.243,-3.906,39.062,47.852,24.902,-0.488,0
1583501052.247,7.324,41.992,50.293,31.250,10.254,0
1583501052.250,0.977,41.016,52.246,33.203,20.020,0
1583501052.254,0.977,41.016,57.129,15.625,51.270,0
1583501052.258,3.906,40.527,53.223,5.371,48.340,0
1583501052.262,-6.348,38.574,44.434,29.785,91.797,0
1583501052.266,-11.719,38.574,44.434,31.738,115.234,0
1583501052.283,-5.371,41.504,43.945,28.320,65.918,0
1583501052.287,-8.789,39.551,41.504,20.508,16.602,0
1583501052.291,-15.137,35.156,36.621,13.184,19.531,0
1583501052.295,-17.090,37.598,35.156,17.578,78.613,0
1583501052.299,-15.625,36.621,36.621,19.043,44.922,0
1583501052.303,-18.066,36.133,37.598,11.719,7.324,0
1583501052.307,-11.719,39.551,36.621,13.184,-6.348,0
1583501052.310,-4.395,36.621,35.156,18.555,-31.250,0
1583501052.314,-3.418,34.668,36.621,19.531,33.203,0
1583501052.318,3.418,35.645,37.598,19.531,20.020,0
1583501052.322,0.977,34.180,37.109,11.719,37.598,0
1583501052.326,5.371,33.691,38.574,12.695,66.406,0
1583501052.324,17.090,40.527,43.457,19.531,7.812,0
1583501052.328,13.672,42.969,43.457,19.531,41.504,0
1583501052.332,5.859,38.086,40.527,14.648,35.156,0
1583501052.336,8.789,37.109,41.504,20.508,22.949,0
1583501052.340,8.301,39.062,42.480,28.809,24.902,0
1583501052.344,9.277,43.457,45.410,27.344,-3.418,0
1583501052.348,9.277,46.387,47.363,20.508,13.184,0
1583501052.351,9.766,45.410,46.875,23.926,24.414,0
1583501052.355,12.695,40.039,43.945,12.207,26.855,0
1583501052.359,13.672,37.109,44.434,5.371,37.598,0
1583501052.363,19.043,39.062,47.852,24.414,57.129,0
1583501052.367,20.020,40.527,49.316,27.832,54.688,0
1583501052.364,11.719,38.574,46.387,29.785,0.977,0
1583501052.368,16.113,37.109,43.945,30.762,9.277,0
1583501052.372,19.043,37.598,45.898,27.832,41.992,0
1583501052.376,16.113,37.109,45.898,20.508,75.684,0
1583501052.380,17.578,37.598,45.898,15.137,103.516,0
1583501052.384,22.461,35.645,42.480,17.090,54.688,0
1583501052.388,24.414,38.086,40.527,18.555,38.086,0
1583501052.391,25.391,41.992,42.480,16.113,56.641,0
1583501052.395,28.809,41.504,45.410,19.043,41.016,0
1583501052.399,29.785,44.434,48.340,26.855,18.066,0
1583501052.403,33.203,45.898,51.270,30.273,-10.254,0
1583501052.407,33.203,41.504,50.293,27.344,0.488,0
1583501052.423,37.109,42.969,50.293,24.902,4.883,0
1583501052.427,39.551,44.922,50.781,26.855,22.461,0
1583501052.431,38.574,44.434,46.387,25.879,39.551,0
1583501052.435,44.434,44.922,45.898,6.836,35.156,0
1583501052.439,51.758,46.387,46.875,25.391,5.859,0
1583501052.443,49.316,45.898,46.387,48.828,-32.227,0
1583501052.447,44.434,50.781,51.270,37.109,10.254,0
1583501052.450,43.945,51.758,54.688,36.133,69.336,0
1583501052.454,41.992,48.340,50.293,33.691,75.684,0
1583501052.458,40.527,48.828,51.270,35.645,25.391,0
1583501052.462,38.574,47.363,51.270,31.738,40.039,0
1583501052.466,32.715,46.875,54.199,33.203,60.059,0
1583501052.463,27.344,47.363,58.105,38.086,24.414,0
1583501052.467,26.855,50.781,56.152,35.156,55.176,0
1583501052.471,23.926,50.781,57.129,41.016,49.316,0
1583501052.475,22.461,51.270,60.059,40.039,-0.488,0
1583501052.479,24.414,55.176,63.477,39.062,39.062,0
1583501052.483,20.020,56.152,64.941,41.016,76.660,0
1583501052.487,20.508,58.594,66.406,46.387,54.688,0
1583501052.490,23.438,57.617,66.895,46.387,3.418,0
1583501052.494,19.043,55.664,64.453,43.457,17.090,0
1583501052.498,15.137,57.617,66.406,41.016,17.578,0
1583501052.502,11.719,57.617,66.406,35.645,-11.719,0
1583501052.506,10.742,56.641,65.918,22.461,46.387,0
1583501052.503,16.113,60.059,66.406,33.691,25.879,0
1583501052.507,19.531,65.918,65.918,54.199,48.340,0
1583501052.511,19.531,63.965,66.406,49.316,60.547,0
1583501052.515,19.531,61.523,65.430,46.875,24.902,0
1583501052.519,23.438,66.895,67.871,43.945,19.531,0
1583501052.523,25.391,63.965,68.359,42.480,50.293,0
1583501052.527,22.949,62.988,63.965,43.457,55.176,0
1583501052.530,22.461,68.848,64.941,42.969,6.348,0
1583501052.534,23.438,65.918,66.895,35.645,35.645,0
1583501052.538,20.020,61.523,63.477,31.250,39.062,0
1583501052.542,12.695,63.477,62.988,37.598,14.648,0
1583501052.546,8.301,63.477,66.406,43.945,43.457,0
1583501052.563,14.160,63.477,68.359,39.551,42.969,0
1583501052.567,19.043,62.500,67.871,44.434,72.754,0
1583501052.571,16.113,61.523,68.848,53.223,64.941,0
1583501052.575,23.438,57.129,68.848,58.594,25.879,0
1583501052.579,28.809,60.547,69.824,63.477,87.402,0
1583501052.583,19.531,70.801,66.406,49.805,49.805,0
1583501052.587,16.602,71.777,60.059,31.738,-28.320,0
1583501052.590,29.297,73.242,56.152,29.297,-43.945,0
1583501052.594,39.062,73.730,55.176,36.133,20.508,0
1583501052.598,41.992,75.195,54.199,37.598,58.594,0
1583501052.602,46.387,79.102,55.176,31.250,26.367,0
1583501052.606,51.270,79.590,55.664,28.320,20.508,0
1583501052.605,49.805,80.566,56.641,33.691,41.992,0
1583501052.609,48.340,80.078,57.129,31.738,43.457,0
1583501052.613,51.270,77.637,57.129,32.715,1.953,0
1583501052.617,53.711,78.613,61.035,38.574,11.230,0
1583501052.621,59.570,75.684,60.547,38.574,31.738,0
1583501052.625,63.477,72.266,60.059,41.504,-50.781,0
1583501052.629,61.523,71.289,59.082,40.527,-21.973,0
1583501052.632,62.500,69.336,61.035,43.945,11.230,0
1583501052.636,63.477,69.824,61.035,51.270,11.719,0
1583501052.640,64.941,71.777,63.965,52.734,54.688,0
1583501052.644,67.871,71.289,65.918,55.664,64.453,0
1583501052.648,62.500,71.289,61.523,55.176,76.660,0
1583501052.643,54.688,70.801,60.547,51.758,8.301,0
1583501052.647,57.617,72.266,62.012,56.641,-16.113,0
1583501052.651,57.617,72.266,61.523,61.523,59.570,0
1583501052.655,54.688,70.801,57.617,54.199,12.695,0
1583501052.659,44.922,75.195,52.246,41.992,-85.938,0
1583501052.663,39.551,75.684,45.898,41.504,-39.551,0
1583501052.667,46.387,75.684,39.551,29.297,41.504,0
1583501052.670,48.828,75.684,40.527,20.508,64.453,0
1583501052.674,39.551,67.383,46.387,31.250,74.219,0
1583501052.678,29.297,62.988,44.434,29.297,28.320,0
1583501052.682,32.227,67.383,42.969,26.855,67.383,0
1583501052.686,43.457,67.871,45.410,28.809,71.289,0
1583501052.703,48.340,69.336,47.363,35.645,9.766,0
1583501052.707,41.504,69.336,45.410,39.551,47.363,0
1583501052.711,39.062,65.918,43.945,44.922,45.898,0
1583501052.715,36.621,67.383,45.410,43.457,30.762,0
1583501052.719,39.062,70.801,46.875,40.527,41.992,0
1583501052.723,37.598,69.824,48.340,39.551,30.762,0
1583501052.727,29.297,65.430,46.875,38.086,2.930,0
1583501052.730,26.855,62.012,42.969,38.086,-17.578,0
1583501052.734,23.438,61.523,42.969,36.621,-31.738,0
1583501052.738,21.973,62.500,42.480,36.133,35.645,0
1583501052.742,20.508,61.523,42.969,42.969,48.828,0
1583501052.746,25.879,60.059,42.969,48.340,22.949,0
1583501052.743,28.809,59.570,41.992,41.016,60.059,0
1583501052.747,26.855,59.570,42.480,36.133,39.062,0
1583501052.751,30.762,58.594,42.969,38.574,37.598,0
1583501052.755,23.438,56.641,44.434,37.598,32.715,0
1583501052.759,17.578,57.129,45.898,40.527,54.688,0
1583501052.763,20.508,55.176,46.387,38.574,74.219,0
1583501052.767,17.090,54.199,54.688,43.945,-29.297,0
1583501052.770,19.043,55.664,55.176,44.434,-26.367,0
1583501052.774,19.531,51.270,50.293,37.598,48.340,0
1583501052.778,12.207,50.293,56.152,32.715,23.926,0
1583501052.782,7.324,51.758,55.664,26.855,32.227,0
1583501052.786,6.836,51.270,52.246,20.508,70.801,0
1583501052.803,7.812,55.176,51.270,18.066,76.172,0
1583501052.807,2.441,60.547,52.734,16.113,92.773,0
1583501052.811,-5.859,60.059,57.617,4.883,71.777,0
1583501052.815,-14.648,60.059,61.035,-2.441,13.672,0
1583501052.819,-21.484,64.453,63.477,-12.695,-1.953,0
1583501052.823,-26.367,72.266,64.453,-27.832,20.996,0
1583501052.827,-44.434,73.242,71.777,-45.410,11.719,0
1583501052.830,-69.336,63.965,80.566,-62.500,-32.227,0
1583501052.834,-87.402,64.453,82.520,-81.543,1.953,0
1583501052.838,-104.980,71.777,79.102,-103.027,79.102,0
1583501052.842,-117.676,74.219,76.172,-120.605,46.875,0
1583501052.846,-129.883,73.242,75.195,-131.348,-25.391,0
1583501052.844,-136.719,72.754,74.707,-139.648,32.227,0
1583501052.848,-135.254,73.730,75.684,-144.043,64.453,0
1583501052.852,-133.301,75.684,79.102,-136.719,39.551,0
1583501052.856,-128.906,74.219,78.125,-129.883,31.738,0
1583501052.860,-126.465,70.312,69.824,-126.953,8.789,0
1583501052.864,-114.258,71.289,69.824,-115.723,-14.648,0
1583501052.868,-99.609,70.312,71.777,-110.352,10.742,0
1583501052.871,-93.750,68.359,71.777,-102.539,34.668,0
1583501052.875,-81.543,63.477,71.777,-83.496,74.219,0
1583501052.879,-67.383,59.570,72.266,-66.895,118.652,0
1583501052.883,-58.594,58.594,74.707,-57.129,56.152,0
1583501052.887,-45.898,54.199,69.824,-49.805,5.859,0
1583501052.883,-27.344,53.223,65.918,-33.691,-14.648,0
1583501052.887,-17.090,49.805,65.430,-21.484,0.488,0
1583501052.891,-0.977,46.387,61.035,-9.766,27.832,0
1583501052.895,24.902,49.316,62.012,14.160,59.082,0
1583501052.899,31.738,41.992,60.547,25.391,86.914,0
1583501052.903,40.039,35.156,52.734,33.691,52.734,0
1583501052.907,55.176,37.109,53.223,46.387,3.418,0
1583501052.910,58.105,35.156,52.246,51.758,22.461,0
1583501052.914,65.430,34.668,47.363,61.035,55.176,0
1583501052.918,75.195,34.668,43.457,70.801,30.273,0
1583501052.922,79.102,29.785,39.551,79.102,22.949,0
1583501052.926,86.426,28.809,39.551,83.496,21.973,0
1583501052.924,85.449,29.785,38.574,83.984,2.930,0
1583501052.928,91.797,29.785,35.156,93.750,-9.277,0
1583501052.932,102.051,32.715,35.645,96.680,12.207,0
1583501052.936,99.609,30.762,35.156,94.238,62.500,0
1583501052.940,98.633,26.367,32.227,95.215,83.984,0
1583501052.944,111.816,27.832,34.180,103.516,19.043,0
1583501052.948,118.652,28.809,33.691,113.770,-6.348,0
1583501052.951,114.258,27.344,32.227,107.422,26.367,0
1583501052.955,112.793,26.367,31.738,98.633,54.688,0
1583501052.959,117.676,26.855,30.273,96.191,75.684,0
1583501052.963,124.512,31.250,33.203,100.586,39.551,0
1583501052.967,122.559,31.250,36.133,104.980,42.480,0
1583501052.983,115.723,28.809,35.645,98.145,43.457,0
1583501052.987,112.305,30.762,33.691,91.797,13.672,0
1583501052.991,114.258,33.203,35.645,98.145,30.762,0
1583501052.995,117.676,34.668,38.574,104.492,83.496,0
1583501052.999,117.188,34.668,37.109,100.586,88.867,0
1583501053.003,112.305,33.691,33.203,90.332,54.199,0
1583501053.007,116.211,38.086,37.109,95.215,53.711,0
1583501053.010,119.141,39.551,40.039,98.633,38.086,0
1583501053.014,109.375,34.180,37.598,89.844,-26.855,0
1583501053.018,104.980,34.668,36.621,86.914,15.625,0
1583501053.022,104.492,37.109,40.039,85.449,26.367,0
1583501053.026,95.215,33.203,41.016,82.520,12.207,0
1583501053.023,95.215,31.738,37.109,76.172,15.137,0
1583501053.027,95.703,35.645,37.598,76.172,-10.254,0
1583501053.031,90.332,36.621,39.551,80.078,32.227,0
1583501053.035,86.914,35.156,41.016,75.684,77.637,0
1583501053.039,82.031,36.133,39.062,70.801,42.969,0
1583501053.043,79.102,35.645,36.621,64.941,16.602,0
1583501053.047,79.102,36.133,39.062,64.941,37.109,0
1583501053.050,79.590,38.574,42.969,67.383,35.156,0
1583501053.054,73.730,34.668,41.016,61.523,28.809,0
1583501053.058,67.871,31.738,40.039,53.711,41.504,0
1583501053.062,68.848,32.715,38.086,50.293,66.895,0
1583501053.066,65.918,35.156,38.086,55.176,49.316,0
1583501053.083,69.824,37.598,41.504,62.988,10.742,0
1583501053.087,79.102,40.527,42.969,64.941,37.598,0
1583501053.091,72.754,40.039,43.457,61.035,68.359,0
1583501053.095,73.730,38.574,44.434,58.105,45.410,0
1583501053.099,70.801,42.480,41.992,56.152,-2.441,0
1583501053.103,64.941,42.480,40.527,54.199,-3.418,0
1583501053.107,67.383,41.992,40.527,50.781,28.320,0
1583501053.110,62.500,44.434,42.969,50.781,-2.441,0
1583501053.114,60.547,43.457,44.434,53.223,-27.344,0
1583501053.118,56.641,41.504,43.945,51.270,12.695,0
1583501053.122,58.105,36.621,46.387,52.246,11.230,0
1583501053.126,65.430,36.621,47.852,56.641,35.645,0
1583501053.123,55.664,44.434,45.410,45.898,63.477,0
1583501053.127,43.945,47.852,40.527,34.180,50.781,0
1583501053.131,46.875,48.340,38.574,39.062,67.383,0
1583501053.135,49.805,47.852,39.551,38.574,59.082,0
1583501053.139,43.457,48.828,41.504,33.691,45.410,0
1583501053.143,31.738,49.805,41.992,28.320,0.977,0
1583501053.147,29.297,48.340,33.691,17.090,26.855,0
1583501053.150,33.691,47.852,27.832,11.719,68.359,0
1583501053.154,37.598,51.758,33.203,20.020,20.020,0
1583501053.158,38.086,48.828,33.691,28.320,67.383,0
1583501053.162,33.203,43.457,31.738,21.484,95.703,0
1583501053.166,31.738,42.480,33.691,15.137,47.852,0
1583501053.164,33.691,40.527,36.133,27.344,36.621,0
1583501053.168,31.250,40.039,34.180,30.762,3.418,0
1583501053.172,33.691,41.504,31.738,24.414,-2.930,0
1583501053.176,38.086,43.945,33.691,24.902,14.160,0
1583501053.180,37.598,45.410,32.227,26.855,15.137,0
1583501053.184,35.645,45.410,30.762,29.297,1.465,0
1583501053.188,31.738,41.016,29.297,27.832,24.902,0
1583501053.191,32.715,43.457,30.762,26.367,-19.531,0
1583501053.195,35.156,47.852,34.668,26.855,-52.734,0
1583501053.199,33.691,42.480,31.738,20.996,32.715,0
1583501053.203,30.273,38.086,26.855,20.020,10.742,0
1583501053.207,29.785,39.062,31.250,20.508,-25.391,0
1583501053.224,30.762,39.062,32.715,16.113,39.551,0
1583501053.228,30.273,39.062,29.297,19.043,37.109,0
1583501053.232,29.297,39.551,31.738,25.879,-5.371,0
1583501053.236,29.785,38.574,34.180,25.391,9.277,0
1583501053.240,33.691,41.016,34.668,21.484,44.922,0
1583501053.244,34.180,42.480,38.086,26.367,37.598,0
1583501053.248,38.086,44.922,41.992,34.180,66.895,0
1583501053.251,46.875,44.922,41.016,32.715,67.383,0
1583501053.255,44.922,40.527,38.086,28.320,1.953,0
1583501053.259,38.086,38.086,35.645,20.508,-21.973,0
1583501053.263,35.645,38.574,34.668,20.020,44.434,0
1583501053.267,40.527,41.504,36.621,29.297,60.547,0
1583501053.264,42.480,41.992,36.621,24.902,39.551,0
1583501053.268,40.527,40.527,38.086,19.043,20.020,0
1583501053.272,37.598,39.551,40.039,20.508,18.555,0
1583501053.276,34.668,41.016,39.062,22.949,4.395,0
1583501053.280,35.156,43.457,42.969,25.391,-72.266,0
1583501053.284,30.273,41.504,42.480,22.461,-50.781,0
1583501053.288,25.879,41.016,41.992,22.461,39.551,0
1583501053.291,25.391,42.480,47.363,26.367,26.855,0
1583501053.295,18.555,39.551,42.480,19.043,44.922,0
1583501053.299,17.090,39.062,37.598,16.602,8.789,0
1583501053.303,16.602,38.086,41.504,16.602,31.738,0
1583501053.307,9.277,35.645,39.551,15.137,0.977,0
1583501053.305,6.836,33.691,35.156,19.043,-23.438,0
1583501053.309,7.324,32.715,37.598,19.043,57.617,0
1583501053.313,8.301,34.180,39.551,13.184,101.074,0
1583501053.317,9.277,34.668,39.551,11.719,42.969,0
1583501053.321,4.883,32.227,38.086,13.184,32.715,0
1583501053.325,0.000,32.227,36.133,9.766,37.598,0
1583501053.329,-2.930,32.227,35.156,6.836,18.066,0
1583501053.332,-2.930,32.715,36.621,8.789,57.617,0
1583501053.336,-1.953,33.203,36.621,10.742,17.578,0
1583501053.340,-1.465,27.832,35.156,8.789,2.441,0
1583501053.344,2.441,25.391,34.668,4.883,66.895,0
1583501053.348,0.977,27.832,33.203,6.348,92.773,0
1583501053.363,1.465,32.227,35.645,13.672,11.719,0
1583501053.367,-1.953,33.691,39.062,12.695,-57.129,0
1583501053.371,-5.859,28.320,35.156,6.348,-9.766,0
1583501053.375,-7.324,27.832,31.250,4.883,32.227,0
1583501053.379,-6.348,30.273,34.668,9.277,48.340,0
1583501053.383,-2.930,29.785,36.133,11.230,51.758,0
1583501053.387,2.930,31.250,35.645,7.812,13.672,0
1583501053.390,8.789,34.668,37.598,10.742,-1.953,0
1583501053.394,14.160,33.691,37.109,25.391,-24.414,0
1583501053.398,4.395,27.344,41.992,23.926,7.324,0
1583501053.402,-11.719,21.484,45.898,3.418,27.832,0
1583501053.406,-9.766,22.461,44.434,3.418,13.672,0
1583501053.404,-6.348,24.902,45.410,-0.488,7.812,0
1583501053.408,-2.930,28.809,46.387,-10.254,2.930,0
1583501053.412,-2.441,28.809,44.922,10.742,5.859,0
1583501053.416,-10.742,21.973,43.457,11.230,28.320,0
1583501053.420,-15.137,21.484,42.969,1.953,34.668,0
1583501053.424,-14.648,23.926,41.992,9.277,16.113,0
1583501053.428,-17.578,22.949,41.504,11.230,43.945,0
1583501053.431,-13.672,24.414,43.457,8.301,65.918,0
1583501053.435,-5.371,27.832,41.504,5.371,97.168,0
1583501053.439,-4.395,25.391,41.504,8.301,81.055,0
1583501053.443,-3.418,19.531,44.434,8.789,51.758,0
1583501053.447,-1.953,20.996,41.504,7.812,15.137,0
1583501053.444,-2.930,24.414,41.016,10.254,39.551,0
1583501053.448,-1.465,26.367,42.480,11.230,77.148,0
1583501053.452,7.812,26.855,40.039,14.648,55.176,0
1583501053.456,15.625,25.879,40.527,16.602,52.246,0
1583501053.460,15.137,24.414,39.062,7.324,13.672,0
1583501053.464,20.020,24.902,35.645,8.301,44.434,0
1583501053.468,27.832,27.344,34.668,10.742,54.199,0
1583501053.471,33.203,28.320,35.156,4.883,6.836,0
1583501053.475,38.086,27.832,39.062,9.277,47.363,0
1583501053.479,43.457,26.367,37.598,10.254,79.102,0
1583501053.483,42.480,23.926,32.227,9.766,44.922,0
1583501053.487,36.621,22.461,31.738,8.789,26.855,0
1583501053.504,38.086,27.344,36.621,14.160,55.664,0
1583501053.508,32.227,29.785,41.016,20.508,57.617,0
1583501053.512,19.043,25.391,37.109,17.578,-12.207,0
1583501053.516,16.113,24.414,33.203,18.555,45.898,0
1583501053.520,17.578,26.367,34.668,15.625,100.586,0
1583501053.524,15.137,25.879,35.645,12.207,33.203,0
1583501053.528,9.766,25.879,37.598,16.602,12.207,0
1583501053.531,2.441,24.902,32.227,-7.812,6.348,0
1583501053.535,-0.488,25.391,28.809,-3.418,3.906,0
1583501053.539,3.418,30.273,34.668,18.066,-1.465,0
1583501053.543,0.977,32.227,35.156,6.836,-23.438,0
1583501053.547,-6.836,30.762,32.227,5.859,-44.922,0
1583501053.544,-6.836,31.250,32.715,6.348,-21.973,0
1583501053.548,-7.812,30.762,32.227,7.324,65.430,0
1583501053.552,-9.277,31.738,32.227,7.324,33.691,0
1583501053.556,-6.836,30.273,32.227,9.766,1.953,0
1583501053.560,-9.277,28.809,30.273,12.207,16.602,0
1583501053.564,-10.254,29.297,27.832,4.883,-26.855,0
1583501053.568,-10.254,28.809,26.855,0.000,8.789,0
1583501053.571,-12.207,27.344,25.879,2.441,54.688,0
1583501053.575,-5.859,22.949,24.414,7.324,7.812,0
1583501053.579,9.277,23.926,29.297,13.184,23.926,0
1583501053.583,15.625,26.855,34.180,11.719,93.750,0
1583501053.587,12.207,21.973,27.832,7.812,84.473,0
1583501053.584,7.812,19.043,23.926,9.277,51.758,0
1583501053.588,1.465,21.484,26.855,8.301,4.395,0
1583501053.592,-0.977,24.902,28.809,6.348,43.457,0
1583501053.596,-4.395,23.926,31.738,6.836,59.570,0
1583501053.600,-8.301,21.973,30.273,10.254,57.129,0
1583501053.604,2.930,23.438,27.344,14.160,72.266,0
1583501053.608,19.043,23.926,26.367,19.043,6.348,0
1583501053.611,14.648,21.973,31.250,20.020,-62.988,0
1583501053.615,-1.465,20.996,40.527,12.207,-71.777,0
1583501053.619,-7.812,17.578,39.551,6.836,23.438,0
1583501053.623,-6.836,14.160,35.645,1.953,106.934,0
1583501053.627,-5.859,14.160,34.668,-3.418,55.664,0
1583501053.644,3.906,12.695,32.715,3.906,40.527,0
1583501053.648,14.648,11.719,34.180,9.766,83.008,0
1583501053.652,18.066,13.672,33.203,1.953,60.059,0
1583501053.656,25.879,16.113,31.738,0.000,40.527,0
1583501053.660,39.551,19.043,32.227,5.371,78.125,0
1583501053.664,45.410,23.438,35.645,11.230,58.594,0
1583501053.668,41.992,21.973,35.645,4.883,9.766,0
1583501053.671,44.434,18.066,30.273,-1.465,-2.441,0
1583501053.675,44.434,15.625,26.855,0.000,42.969,0
1583501053.679,44.922,15.625,26.367,5.859,68.848,0
1583501053.683,49.316,15.625,25.879,13.184,38.574,0
1583501053.687,51.758,16.602,25.391,8.789,47.852,0
1583501053.684,55.664,17.578,21.973,6.836,76.172,0
1583501053.688,55.176,16.113,21.484,9.277,23.926,0
1583501053.692,53.223,15.625,20.020,8.301,5.859,0
1583501053.696,53.223,19.531,23.438,8.301,10.742,0
1583501053.700,49.316,19.043,25.879,6.836,35.156,0
1583501053.704,49.805,17.578,22.461,7.812,41.504,0
1583501053.708,51.270,17.578,23.926,11.230,26.367,0
1583501053.711,50.781,21.484,25.879,13.672,39.062,0
1583501053.715,50.293,20.508,22.949,11.719,-0.977,0
1583501053.719,55.664,20.508,23.926,15.625,-17.578,0
1583501053.723,61.523,23.438,25.879,19.043,12.695,0
1583501053.727,61.523,21.484,20.508,13.184,-0.977,0
1583501053.724,62.500,20.508,16.113,11.719,29.297,0
1583501053.728,62.500,21.484,15.137,12.207,25.391,0
1583501053.732,64.941,23.926,19.043,20.020,26.855,0
1583501053.736,61.523,23.926,22.461,22.461,50.293,0
1583501053.740,56.152,25.391,20.996,14.648,-5.859,0
1583501053.744,58.105,26.855,20.996,12.695,-17.578,0
1583501053.748,56.152,23.926,21.973,13.184,29.785,0
1583501053.751,51.758,24.902,20.508,13.672,7.812,0
1583501053.755,52.246,25.879,19.531,7.812,-5.859,0
1583501053.759,51.270,23.438,21.484,2.930,7.324,0
1583501053.763,49.316,24.414,21.484,5.859,51.758,0
1583501053.767,47.363,24.902,20.508,7.812,71.777,0
1583501053.784,41.992,24.414,20.508,10.742,49.805,0
1583501053.788,44.922,28.809,23.926,8.789,62.500,0
1583501053.792,46.875,29.785,25.879,4.395,43.457,0
1583501053.796,40.039,24.414,22.461,4.883,34.180,0
1583501053.800,40.039,21.484,21.973,7.324,56.641,0
1583501053.804,43.457,21.973,23.438,9.277,54.688,0
1583501053.808,40.527,21.973,25.391,1.953,53.711,0
1583501053.811,39.551,19.531,24.414,1.953,28.320,0
1583501053.815,39.062,18.555,20.996,4.883,-5.859,0
1583501053.819,37.109,20.020,21.484,0.977,3.418,0
1583501053.823,38.574,17.578,22.949,0.977,58.594,0
1583501053.827,43.945,19.043,20.020,7.324,76.172,0
1583501053.824,52.246,20.020,18.066,15.625,58.105,0
1583501053.828,43.457,18.066,27.832,12.695,26.855,0
1583501053.832,23.926,14.160,30.273,-3.418,27.832,0
1583501053.836,16.113,6.836,26.367,-10.254,21.973,0
1583501053.840,11.719,0.000,23.438,-11.719,-0.488,0
1583501053.844,1.465,-6.836,16.113,-19.531,22.949,0
1583501053.848,-8.301,-11.230,11.719,-25.391,0.000,0
1583501053.851,-13.184,-14.160,8.789,-29.297,-0.977,0
1583501053.855,-14.648,-18.555,5.371,-31.250,53.223,0
1583501053.859,-12.695,-15.625,5.371,-28.320,74.707,0
1583501053.863,-9.277,-12.207,3.906,-32.715,32.227,0
1583501053.867,-0.977,-11.230,2.441,-26.367,41.504,0
1583501053.865,-0.488,-13.184,0.000,-20.996,35.645,0
1583501053.869,-6.836,-17.578,-5.859,-24.902,29.297,0
1583501053.873,-2.441,-18.066,-6.348,-25.391,81.543,0
1583501053.877,-0.488,-18.555,-8.789,-28.320,52.734,0
1583501053.881,-0.488,-19.531,-11.719,-25.879,-1.953,0
1583501053.885,0.000,-16.602,-11.230,-22.461,12.207,0
1583501053.889,-3.906,-16.113,-14.160,-22.949,4.883,0
1583501053.892,-8.789,-18.066,-17.578,-26.855,21.973,0
1583501053.896,-9.766,-15.625,-14.648,-28.809,103.516,0
1583501053.900,-6.836,-12.695,-11.719,-20.508,73.242,0
1583501053.904,-4.883,-14.648,-13.184,-21.484,72.754,0
1583501053.908,-7.324,-19.043,-13.672,-27.832,111.328,0
1583501053.924,-10.742,-20.020,-11.719,-26.855,76.172,0
1583501053.928,-11.230,-21.484,-12.207,-25.391,56.152,0
1583501053.932,-11.230,-24.414,-15.137,-26.855,39.551,0
1583501053.936,-8.301,-23.438,-15.625,-29.297,23.926,0
1583501053.940,-7.324,-21.973,-14.160,-27.344,59.570,0
1583501053.944,-10.254,-20.508,-11.230,-26.367,116.211,0
1583501053.948,-14.648,-22.461,-15.625,-34.180,113.770,0
1583501053.951,-18.066,-25.391,-24.902,-37.598,45.410,0
1583501053.955,-23.438,-26.855,-27.344,-41.504,-24.414,0
1583501053.959,-26.855,-26.367,-27.832,-41.504,28.320,0
1583501053.963,-26.855,-26.855,-30.273,-41.992,80.566,0
1583501053.967,-33.691,-30.273,-33.203,-48.828,-10.742,0
1583501053.964,-36.621,-33.691,-36.133,-54.688,-7.812,0
1583501053.968,-36.133,-36.621,-39.062,-58.594,76.172,0
1583501053.972,-38.086,-37.598,-37.109,-51.758,60.547,0
1583501053.976,-37.109,-37.109,-33.691,-49.316,49.316,0
1583501053.980,-36.621,-36.621,-34.668,-59.570,89.355,0
1583501053.984,-40.039,-36.133,-33.691,-59.082,8.301,0
1583501053.988,-38.574,-34.180,-30.762,-51.270,14.160,0
1583501053.991,-32.227,-32.227,-29.785,-47.363,28.809,0
1583501053.995,-30.762,-34.180,-30.273,-49.805,40.527,0
1583501053.999,-34.668,-33.691,-27.832,-57.129,66.895,0
1583501054.003,-33.203,-30.762,-26.855,-53.711,33.203,0
1583501054.007,-28.809,-32.227,-29.785,-46.387,28.809,0
1583501054.004,-27.832,-31.738,-28.809,-46.387,38.086,0
1583501054.008,-25.879,-29.785,-25.879,-47.363,71.289,0
1583501054.012,-23.438,-28.809,-25.879,-46.875,84.473,0
1583501054.016,-24.902,-28.809,-28.320,-43.457,51.758,0
1583501054.020,-23.438,-24.902,-25.391,-40.527,31.738,0
1583501054.024,-25.391,-22.949,-19.531,-41.016,-18.555,0
1583501054.028,-33.691,-26.855,-22.949,-47.363,-22.949,0
1583501054.031,-34.668,-28.320,-25.391,-47.363,111.816,0
1583501054.035,-34.668,-28.809,-23.438,-43.945,160.645,0
1583501054.039,-32.715,-29.785,-24.902,-48.828,63.965,0
1583501054.043,-30.273,-29.785,-23.438,-50.293,-10.742,0
1583501054.047,-30.762,-29.297,-20.020,-45.898,-24.414,0
1583501054.064,-30.273,-27.832,-19.043,-43.457,7.324,0
1583501054.068,-30.273,-28.320,-20.508,-44.922,30.273,0
1583501054.072,-27.832,-27.344,-21.484,-49.805,40.527,0
1583501054.076,-24.902,-26.367,-20.996,-49.316,17.578,0
1583501054.080,-24.902,-23.926,-17.090,-43.945,-44.434,0
1583501054.084,-20.020,-19.043,-14.160,-39.062,33.691,0
1583501054.088,-20.508,-19.043,-16.602,-39.551,61.035,0
1583501054.091,-28.320,-21.484,-19.531,-44.434,41.016,0
1583501054.095,-23.926,-19.043,-16.602,-39.551,65.430,0
1583501054.099,-18.066,-16.113,-14.648,-36.133,26.855,0
1583501054.103,-18.555,-15.137,-14.160,-37.109,24.414,0
1583501054.107,-16.113,-12.207,-11.719,-34.668,41.016,0
1583501054.104,-13.184,-9.277,-10.742,-31.738,16.602,0
1583501054.108,-12.695,-8.301,-10.254,-26.367,3.906,0
1583501054.112,-15.625,-10.742,-10.742,-26.855,11.719,0
1583501054.116,-16.602,-10.742,-10.742,-31.250,38.086,0
1583501054.120,-11.719,-6.348,-6.836,-25.879,61.035,0
1583501054.124,0.488,-3.418,-7.812,-16.113,56.152,0
1583501054.128,11.230,-2.441,-9.766,-11.230,25.879,0
1583501054.131,0.000,-3.906,-6.348,-20.020,9.766,0
1583501054.135,-15.625,-5.859,-1.953,-28.320,36.133,0
1583501054.139,-17.578,-7.812,3.418,-20.996,-11.719,0
1583501054.143,-13.184,-10.742,2.441,-19.531,-7.812,0
1583501054.147,-16.113,-11.719,-0.977,-29.785,55.176,0
1583501054.144,-15.625,-11.230,2.441,-28.809,52.246,0
1583501054.148,-6.836,-8.301,5.371,-18.066,65.918,0
1583501054.152,-6.836,-8.301,3.418,-20.996,31.738,0
1583501054.156,-5.859,-8.301,-0.977,-26.855,17.578,0
1583501054.160,0.488,-4.883,-1.465,-28.809,47.852,0
1583501054.164,3.906,-1.465,0.000,-22.461,33.203,0
1583501054.168,-0.977,-2.441,-3.418,-16.602,16.113,0
1583501054.171,-5.371,-5.371,0.000,-19.531,21.484,0
1583501054.175,-5.859,-2.930,4.395,-19.531,1.465,0
1583501054.179,-1.465,2.441,4.883,-12.207,8.301,0
1583501054.183,3.418,4.395,7.812,-6.348,48.340,0
1583501054.187,-1.953,1.465,2.930,-13.672,-4.395,0
1583501054.204,-4.883,-0.488,0.488,-17.578,3.906,0
1583501054.208,-3.418,-0.977,0.488,-13.184,62.500,0
1583501054.212,-1.465,-0.977,-0.488,-11.230,54.199,0
1583501054.216,-1.465,-2.441,-0.488,-10.742,13.184,0
1583501054.220,-3.906,-0.977,0.488,-13.184,0.977,0
1583501054.224,1.465,5.859,3.418,-12.207,46.875,0
1583501054.228,2.930,7.812,6.836,-8.789,26.367,0
1583501054.231,-1.465,2.930,1.953,-11.719,1.465,0
1583501054.235,3.906,4.395,-1.953,-16.602,-7.324,0
1583501054.239,4.883,4.395,-0.977,-15.625,14.160,0
1583501054.243,6.348,6.348,0.488,-9.766,22.461,0
1583501054.247,6.348,7.812,0.977,-8.301,-7.812,0
1583501054.245,7.812,8.789,1.465,-12.695,-72.266,0
1583501054.249,12.695,13.672,3.906,-13.672,-29.785,0
1583501054.253,15.625,14.160,4.395,-7.324,35.645,0
1583501054.257,16.113,12.207,5.371,-4.883,77.148,0
1583501054.261,20.020,14.160,6.836,-4.883,76.172,0
1583501054.265,19.043,16.113,7.324,-6.348,21.484,0
1583501054.269,10.742,12.207,4.395,-13.672,51.270,0
1583501054.272,9.277,8.789,-1.465,-14.160,9.766,0
1583501054.276,11.230,9.277,-0.488,-8.789,-39.062,0
1583501054.280,12.207,10.254,4.395,-10.254,-12.207,0
1583501054.284,7.812,9.277,6.348,-15.137,-10.742,0
1583501054.288,5.859,9.766,4.395,-11.719,6.348,0
1583501054.284,8.789,11.719,3.906,-8.301,27.344,0
1583501054.288,13.184,12.695,4.883,-11.230,27.832,0
1583501054.292,15.137,17.090,10.254,-7.324,38.086,0
1583501054.296,10.742,15.137,10.254,-4.395,66.406,0
1583501054.300,9.277,10.254,8.789,-7.324,59.082,0
1583501054.304,14.160,10.742,11.230,-5.859,17.578,0
1583501054.308,13.184,12.695,8.789,-6.836,34.180,0
1583501054.311,12.695,14.648,11.719,-6.836,45.898,0
1583501054.315,15.137,15.137,13.672,-5.859,-7.324,0
1583501054.319,12.695,12.695,10.742,-4.883,45.898,0
1583501054.323,11.230,10.254,9.277,-4.883,46.875,0
1583501054.327,11.230,7.812,8.301,-2.441,-21.484,0
1583501054.363,14.648,11.719,13.672,4.395,27.344,0
1583501054.367,13.672,10.254,13.672,5.371,37.598,0
1583501054.371,9.277,6.348,10.254,-0.977,83.496,0
1583501054.375,9.766,9.277,8.301,-2.930,41.992,0
1583501054.379,4.395,9.277,8.789,-0.488,-53.223,0
1583501054.383,1.465,7.812,13.184,-1.465,33.203,0
1583501054.387,5.371,10.254,14.160,0.977,77.148,0
1583501054.390,6.348,9.277,12.695,0.977,46.387,0
1583501054.394,3.906,8.301,13.184,-2.930,15.137,0
1583501054.398,3.906,10.254,14.160,1.465,39.551,0
1583501054.402,1.465,9.277,15.137,2.930,50.293,0
1583501054.406,-1.953,5.371,13.184,-3.906,49.316,0
1583501054.383,-1.465,4.883,12.695,-2.930,62.012,0
1583501054.387,-1.465,6.836,13.672,4.395,11.719,0
1583501054.391,-2.930,4.883,11.719,2.441,-2.930,0
1583501054.395,1.465,7.324,12.207,-0.488,21.484,0
1583501054.399,1.953,7.812,12.695,-1.953,-12.207,0
1583501054.403,0.488,5.371,15.137,0.000,-27.832,0
1583501054.407,-0.488,4.883,15.137,1.465,-5.859,0
1583501054.410,0.488,9.277,15.137,-2.441,4.883,0
1583501054.414,4.395,15.137,18.066,-1.953,35.645,0
1583501054.418,-0.488,12.695,15.137,-2.441,57.617,0
1583501054.422,-3.418,7.324,10.254,-5.371,76.172,0
1583501054.426,0.977,9.766,10.254,-4.883,-2.930,0
1583501054.423,1.465,11.719,12.207,-5.859,-12.207,0
1583501054.427,-1.465,12.207,11.230,-2.930,47.852,0
1583501054.431,0.000,15.625,10.742,-1.465,0.488,0
1583501054.435,3.906,17.090,13.184,-3.418,16.113,0
1583501054.439,2.441,15.625,10.742,-2.930,35.156,0
1583501054.443,-2.441,15.625,7.812,-3.906,62.500,0
1583501054.447,-2.930,16.113,7.812,-2.930,45.410,0
1583501054.450,1.953,16.602,8.789,-0.977,10.742,0
1583501054.454,2.930,15.137,11.230,-0.977,25.391,0
1583501054.458,-13.672,11.230,14.648,-5.859,32.227,0
1583501054.462,-31.738,8.789,16.113,-12.695,5.859,0
1583501054.466,-33.203,5.859,17.090,-8.789,0.977,0
1583501054.483,-36.133,4.395,17.578,-11.230,31.250,0
1583501054.487,-45.898,3.906,18.555,-18.066,-11.230,0
1583501054.491,-55.664,-0.488,16.602,-16.602,-36.621,0
1583501054.495,-59.570,-4.395,13.184,-19.531,10.254,0
1583501054.499,-55.664,0.000,12.207,-19.531,54.688,0
1583501054.503,-55.176,2.930,10.742,-22.949,52.734,0
1583501054.507,-59.570,1.953,14.160,-20.996,-32.227,0
1583501054.510,-62.012,2.441,17.090,-13.672,-13.672,0
1583501054.514,-56.641,4.883,14.160,-12.695,30.762,0
1583501054.518,-54.199,2.930,14.648,-12.207,-43.945,0
1583501054.522,-52.734,1.465,17.578,-12.207,26.367,0
1583501054.526,-46.875,4.883,16.602,-2.930,86.914,0
1583501054.523,-46.387,6.348,15.137,1.953,64.453,0
1583501054.527,-52.734,5.371,16.113,-10.254,92.773,0
1583501054.531,-53.223,5.371,14.648,-13.672,131.348,0
1583501054.535,-48.340,4.883,14.648,-5.371,127.441,0
1583501054.539,-51.758,5.371,16.602,-2.930,53.223,0
1583501054.543,-51.758,7.812,16.113,-4.883,6.348,0
1583501054.547,-47.363,9.277,16.602,-6.348,28.320,0
1583501054.550,-49.805,7.812,14.160,-6.836,29.785,0
1583501054.554,-48.828,7.812,15.137,-6.348,47.363,0
1583501054.558,-42.480,10.742,19.043,-10.254,35.156,0
1583501054.562,-37.109,10.742,18.066,-8.789,19.531,0
1583501054.566,-34.668,8.301,15.625,-4.883,18.066,0
1583501054.564,-30.273,9.277,13.184,-1.953,12.207,0
1583501054.568,-22.461,10.742,14.648,-2.441,39.062,0
1583501054.572,-22.949,6.836,19.043,-4.883,3.906,0
1583501054.576,-25.879,3.906,18.555,0.977,6.348,0
1583501054.580,-26.367,3.906,14.160,3.906,16.113,0
1583501054.584,-25.879,3.906,12.695,5.371,7.324,0
1583501054.588,-25.391,3.418,14.160,-1.465,24.902,0
1583501054.591,-22.461,4.395,13.184,-4.395,44.434,0
1583501054.595,-20.508,5.371,13.672,1.953,89.355,0
1583501054.599,-25.879,-0.488,12.695,-3.418,85.938,0
1583501054.603,-25.391,-4.883,11.230,-7.324,24.902,0
1583501054.607,-22.461,-4.883,14.648,-7.324,26.855,0
1583501054.623,-19.043,-3.906,17.090,-5.371,17.578,0
1583501054.627,-13.184,0.488,13.672,-1.465,-5.371,0
1583501054.631,-9.766,6.836,11.230,-6.348,29.297,0
1583501054.635,-5.371,7.812,12.207,-9.277,30.273,0
1583501054.639,0.488,9.766,17.578,-0.488,59.082,0
1583501054.643,5.859,13.672,20.996,3.418,52.734,0
1583501054.647,7.812,10.742,17.578,-1.953,14.160,0
1583501054.650,7.324,9.766,19.043,-6.348,11.719,0
1583501054.654,10.254,13.184,19.531,-1.953,-3.418,0
1583501054.658,10.742,12.207,17.578,3.418,-4.883,0
1583501054.662,11.719,11.719,20.508,0.488,27.344,0
1583501054.666,19.043,13.184,23.438,0.977,64.941,0
1583501054.664,23.926,20.020,23.438,7.812,55.176,0
1583501054.668,23.926,25.879,20.020,8.301,32.715,0
1583501054.672,14.648,23.438,16.602,-0.488,69.824,0
1583501054.676,7.812,22.461,17.578,-7.324,87.402,0
1583501054.680,14.160,23.438,17.090,-7.812,52.246,0
1583501054.684,19.531,23.926,20.508,-1.953,14.648,0
1583501054.688,21.973,21.973,20.996,0.488,27.344,0
1583501054.691,23.438,20.996,20.020,-4.883,49.805,0
1583501054.695,21.484,20.020,20.020,-7.812,55.664,0
1583501054.699,23.926,19.531,18.066,-4.395,35.156,0
1583501054.703,26.855,20.996,16.602,1.953,-25.879,0
1583501054.707,28.320,23.926,20.020,1.953,-14.160,0
1583501054.724,30.273,20.996,21.484,-4.883,26.855,0
1583501054.728,28.809,19.043,21.484,-6.348,35.156,0
1583501054.732,23.926,18.555,20.996,-4.395,68.848,0
1583501054.736,22.949,16.602,17.090,-0.977,67.383,0
1583501054.740,23.926,18.066,16.113,-1.465,40.527,0
1583501054.744,20.508,20.020,15.625,-2.441,56.641,0
1583501054.748,21.973,20.996,16.113,3.418,12.695,0
1583501054.751,23.438,21.484,19.043,2.930,9.766,0
1583501054.755,21.973,21.973,21.484,-2.930,61.523,0
1583501054.759,15.625,20.020,18.555,-3.418,49.805,0
1583501054.763,10.254,17.090,16.113,-1.953,21.973,0
1583501054.767,12.695,19.043,17.090,0.000,-40.527,0
1583501054.764,15.137,18.555,17.090,2.930,38.086,0
1583501054.768,18.555,19.531,19.531,3.418,69.336,0
1583501054.772,19.043,22.949,22.461,4.883,44.434,0
1583501054.776,15.137,22.949,20.996,5.371,39.062,0
1583501054.780,14.160,24.902,19.531,3.906,0.488,0
1583501054.784,17.090,27.832,23.438,2.930,-1.465,0
1583501054.788,13.672,24.414,22.461,-0.488,-18.555,0
1583501054.791,12.695,20.508,16.113,0.000,-0.488,0
1583501054.795,15.625,19.531,14.648,1.953,-11.719,0
1583501054.799,16.113,18.066,17.090,3.906,4.395,0
1583501054.803,18.555,20.020,20.020,1.465,82.520,0
1583501054.807,20.996,21.484,20.508,0.977,26.367,0
1583501054.804,19.531,20.020,20.508,6.836,7.812,0
1583501054.808,16.113,19.043,20.020,2.441,40.527,0
1583501054.812,15.625,18.555,19.531,-0.488,52.246,0
1583501054.816,19.043,23.438,22.461,4.395,34.180,0
1583501054.820,19.043,23.438,21.973,6.836,5.371,0
1583501054.824,16.113,17.578,20.020,2.441,77.148,0
1583501054.828,14.648,15.625,20.020,-2.441,59.082,0
1583501054.831,18.555,17.090,18.066,1.465,16.113,0
1583501054.835,20.020,20.996,20.020,3.906,26.855,0
1583501054.839,16.602,19.043,21.484,-1.953,43.945,0
1583501054.843,20.996,14.648,18.555,-1.465,101.074,0
1583501054.847,26.367,19.531,21.973,4.395,71.777,0
1583501054.864,27.344,23.926,26.855,9.766,5.371,0
1583501054.868,25.391,19.043,26.855,9.766,35.645,0
1583501054.872,23.926,14.160,23.926,4.883,9.277,0
1583501054.876,22.461,18.066,23.926,2.441,-73.730,0
1583501054.880,25.879,20.996,22.949,2.441,-54.199,0
1583501054.884,36.133,22.949,21.484,11.719,-1.465,0
1583501054.888,44.434,23.926,23.438,20.020,31.738,0
1583501054.891,30.762,17.578,29.297,8.789,41.992,0
1583501054.895,14.648,11.719,34.668,-0.977,61.035,0
1583501054.899,11.230,8.789,35.645,2.441,68.359,0
1583501054.903,12.207,6.836,36.133,7.812,29.297,0
1583501054.907,13.184,11.230,41.504,6.348,-12.695,0
1583501054.904,10.254,11.719,44.434,-2.930,2.441,0
1583501054.908,5.859,7.812,38.574,-3.418,22.461,0
1583501054.912,8.789,8.301,37.598,1.953,52.734,0
1583501054.916,14.648,8.301,36.133,4.395,53.223,0
1583501054.920,15.625,7.324,31.738,5.371,-18.555,0
1583501054.924,16.113,8.789,29.297,6.348,35.645,0
1583501054.928,18.066,13.184,30.762,6.836,66.406,0
1583501054.931,19.043,15.625,31.250,2.441,6.348,0
1583501054.935,19.043,14.648,31.738,2.930,8.789,0
1583501054.939,20.996,15.625,31.250,6.836,27.832,0
1583501054.943,18.066,15.137,29.785,3.906,47.852,0
1583501054.947,13.184,13.184,26.855,-2.441,28.320,0
1583501054.944,12.695,12.695,26.855,-2.441,22.949,0
1583501054.948,13.184,13.672,25.879,2.930,69.824,0
1583501054.952,16.602,18.066,25.879,7.812,63.477,0
1583501054.956,21.973,19.043,26.855,9.277,49.316,0
1583501054.960,22.461,18.066,23.438,4.395,62.500,0
1583501054.964,23.438,19.043,23.926,1.465,43.945,0
1583501054.968,26.367,18.066,25.391,3.418,-4.395,0
1583501054.971,22.949,18.066,24.414,5.371,-27.832,0
1583501054.975,19.531,18.555,28.320,-1.465,7.812,0
1583501054.979,21.484,20.996,29.785,-4.395,7.812,0
1583501054.983,19.531,18.555,21.973,0.000,60.059,0
1583501054.987,20.020,17.090,19.043,0.977,108.887,0
1583501055.024,20.508,16.602,20.020,-0.977,62.500,0
1583501055.028,20.508,15.625,19.043,-0.977,40.527,0
1583501055.032,20.996,17.090,17.578,-0.488,20.020,0
1583501055.036,20.996,17.090,17.578,0.488,20.020,0
1583501055.040,23.438,19.043,19.531,3.418,22.461,0
1583501055.044,21.484,22.461,18.555,-1.465,8.301,0
1583501055.048,18.555,22.461,20.996,-0.488,50.293,0
1583501055.051,22.461,23.926,25.391,5.371,65.430,0
1583501055.055,20.996,20.996,22.949,3.906,12.695,0
1583501055.059,15.625,17.578,19.043,-2.441,14.160,0
1583501055.063,17.090,20.020,17.578,-2.930,30.273,0
1583501055.067,24.414,23.438,20.020,0.488,21.484,0
1583501055.044,32.227,24.414,20.020,-3.906,32.227,0
1583501055.048,34.180,23.438,18.066,-8.301,26.855,0
1583501055.052,30.273,24.414,20.996,-2.441,-6.348,0
1583501055.056,27.344,25.391,21.973,6.348,-21.484,0
1583501055.060,27.832,28.320,23.926,13.184,39.062,0
1583501055.064,24.902,28.320,26.367,11.230,66.895,0
1583501055.068,19.043,24.414,22.461,-4.883,3.418,0
1583501055.071,16.113,21.484,22.461,-1.465,-23.926,0
1583501055.075,16.113,20.508,26.367,12.695,11.230,0
1583501055.079,14.648,24.414,27.344,13.184,78.613,0
1583501055.083,14.648,24.902,25.391,6.348,63.965,0
1583501055.087,16.602,20.996,24.414,6.836,41.504,0
1583501055.104,17.578,23.926,24.902,18.066,61.523,0
1583501055.108,18.555,28.320,26.367,19.531,64.941,0
1583501055.112,13.672,26.855,27.344,11.719,-17.578,0
1583501055.116,7.812,24.902,26.367,6.348,-22.461,0
1583501055.120,8.789,25.391,23.438,10.254,34.180,0
1583501055.124,8.789,26.855,24.902,15.137,12.207,0
1583501055.128,5.859,26.855,23.438,10.742,19.531,0
1583501055.131,7.324,24.902,22.949,11.230,20.508,0
1583501055.135,16.113,25.391,27.832,18.066,31.250,0
1583501055.139,20.020,31.250,24.902,21.484,30.273,0
1583501055.143,11.230,33.691,22.461,13.672,2.441,0
1583501055.147,-1.953,26.367,21.484,-1.465,37.109,0
1583501055.144,-0.977,21.973,19.531,2.930,54.199,0
1583501055.148,4.395,23.438,21.484,2.930,22.461,0
1583501055.152,5.371,18.066,21.973,-0.488,-41.504,0
1583501055.156,11.719,12.207,20.508,9.277,20.508,0
1583501055.160,11.230,11.230,19.043,4.395,64.941,0
1583501055.164,5.371,9.277,20.508,6.836,13.672,0
1583501055.168,14.160,9.277,26.855,18.066,33.691,0
1583501055.171,20.020,9.766,28.320,14.648,-5.371,0
1583501055.175,11.719,9.277,24.902,9.766,16.602,0
1583501055.179,7.324,7.812,24.414,12.207,112.305,0
1583501055.183,11.230,6.836,23.926,13.672,33.691,0
1583501055.187,10.742,10.742,22.949,5.371,18.555,0
1583501055.183,10.254,14.160,24.902,3.418,18.555,0
1583501055.187,14.648,15.625,24.414,10.742,16.602,0
1583501055.191,18.066,19.043,24.414,13.184,69.336,0
1583501055.195,19.531,20.508,23.438,10.254,20.996,0
1583501055.199,21.973,22.949,23.926,9.277,-4.883,0
1583501055.203,21.973,25.879,27.344,10.254,17.090,0
1583501055.207,20.508,27.344,27.344,11.719,37.598,0
1583501055.210,20.996,26.367,25.391,8.789,21.973,0
1583501055.214,14.648,20.996,21.973,-4.395,-30.273,0
1583501055.218,12.207,18.555,24.414,-1.953,32.227,0
1583501055.222,16.602,22.461,26.855,4.395,85.449,0
1583501055.226,16.602,23.926,24.902,4.395,83.984,0
1583501055.223,19.531,24.902,25.879,11.230,81.055,0
1583501055.227,22.461,27.344,28.320,13.184,30.762,0
1583501055.231,23.438,28.809,30.273,15.625,18.066,0
1583501055.235,20.996,29.785,30.273,20.508,-26.367,0
1583501055.239,19.043,33.203,33.203,17.578,-1.953,0
1583501055.243,18.066,34.668,36.621,16.113,98.633,0
1583501055.247,9.766,29.297,31.738,19.043,64.453,0
1583501055.250,9.277,29.785,28.320,20.508,41.992,0
1583501055.254,7.812,32.227,31.738,14.648,70.801,0
1583501055.258,1.465,32.227,30.273,7.324,35.645,0
1583501055.262,0.488,32.227,27.832,8.789,22.949,0
1583501055.266,-1.465,29.785,29.297,7.812,26.855,0
1583501055.283,3.906,29.785,28.809,10.742,-6.348,0
1583501055.287,7.812,31.250,29.297,11.719,-3.906,0
1583501055.291,3.418,27.832,30.273,11.230,52.734,0
1583501055.295,4.395,29.785,30.273,16.602,51.758,0
1583501055.299,7.324,33.691,32.715,15.137,19.043,0
1583501055.303,7.324,32.715,32.227,10.742,48.828,0
1583501055.307,11.230,37.598,33.203,7.812,32.227,0
1583501055.310,12.695,40.527,35.645,9.277,8.301,0
1583501055.314,9.766,33.691,31.250,14.160,19.043,0
1583501055.318,8.789,31.738,26.855,10.254,34.668,0
1583501055.322,12.207,35.156,28.809,10.254,53.223,0
1583501055.326,14.160,37.598,29.785,14.160,23.438,0
1583501055.323,16.113,36.133,29.785,9.766,4.883,0
1583501055.327,16.602,33.203,31.738,9.766,21.484,0
1583501055.331,16.602,32.227,31.250,2.930,-5.371,0
1583501055.335,17.090,29.785,31.738,2.441,-9.766,0
1583501055.339,13.672,28.809,35.645,19.043,24.414,0
1583501055.343,14.160,28.809,31.738,14.648,-8.301,0
1583501055.347,15.137,31.250,29.297,9.277,0.977,0
1583501055.350,13.184,31.738,32.715,8.789,97.656,0
1583501055.354,21.484,34.180,30.762,13.672,92.285,0
1583501055.358,25.879,36.133,31.738,17.578,65.918,0
1583501055.362,25.879,35.645,34.180,13.672,27.344,0
1583501055.366,24.902,34.668,35.645,12.207,-13.184,0
1583501055.363,33.203,35.156,33.691,16.602,78.125,0
1583501055.367,37.598,38.574,34.180,18.555,145.996,0
1583501055.371,36.133,38.086,37.598,15.625,18.555,0
1583501055.375,34.180,33.203,34.180,6.836,-8.301,0
1583501055.379,30.762,29.785,31.738,7.812,44.922,0
1583501055.383,30.273,31.738,33.203,9.277,29.785,0
1583501055.387,28.809,32.227,30.762,2.441,27.344,0
1583501055.390,28.320,30.273,30.273,0.977,-10.254,0
1583501055.394,27.832,31.738,30.273,-1.465,-22.949,0
1583501055.398,26.855,30.762,28.320,-0.977,18.555,0
1583501055.402,26.855,25.391,28.809,3.906,67.383,0
1583501055.406,32.227,27.344,26.855,2.930,57.129,0
1583501055.423,27.344,30.273,24.902,5.859,1.465,0
1583501055.427,24.414,28.320,21.973,7.812,31.738,0
1583501055.431,33.203,29.785,21.973,7.812,23.926,0
1583501055.435,37.109,31.738,26.855,11.230,29.297,0
1583501055.439,31.738,27.832,28.809,11.230,62.988,0
1583501055.443,29.297,24.414,26.855,11.230,50.781,0
1583501055.447,30.762,23.926,25.391,10.742,-5.859,0
1583501055.450,27.832,21.484,25.879,11.230,-11.230,0
1583501055.454,30.273,16.602,25.391,14.160,-3.906,0
1583501055.458,38.574,19.043,22.949,20.508,23.438,0
1583501055.462,40.527,30.762,21.484,21.484,31.250,0
1583501055.466,27.832,32.715,18.066,-8.789,3.906,0
1583501055.463,19.043,30.273,10.254,-23.926,-2.930,0
1583501055.467,24.902,32.715,4.395,-11.719,62.012,0
1583501055.471,25.391,33.691,4.395,-8.789,88.379,0
1583501055.475,13.184,33.203,7.324,-14.160,-24.414,0
1583501055.479,5.859,35.156,8.301,-27.344,-16.602,0
1583501055.483,7.324,34.668,7.812,-22.461,36.621,0
1583501055.487,8.789,33.203,9.277,-29.785,17.090,0
1583501055.490,13.184,32.715,12.207,-26.855,46.875,0
1583501055.494,16.602,30.762,10.254,-7.324,58.594,0
1583501055.498,13.184,28.320,10.254,-10.742,50.293,0
1583501055.502,16.113,27.832,14.160,0.000,38.086,0
1583501055.506,21.484,28.809,15.137,5.371,21.973,0
1583501055.503,18.066,29.785,14.648,4.883,23.926,0
1583501055.507,21.484,32.715,16.113,9.766,20.020,0
1583501055.511,23.926,34.668,17.578,10.254,39.551,0
1583501055.515,22.461,34.180,20.020,10.254,62.988,0
1583501055.519,23.438,34.668,23.438,12.207,84.961,0
1583501055.523,20.508,32.227,21.484,4.395,79.590,0
1583501055.527,18.066,29.785,18.555,2.441,28.320,0
1583501055.530,13.672,27.832,17.578,8.301,29.785,0
1583501055.534,13.184,25.879,15.137,2.930,71.289,0
1583501055.538,15.137,23.926,14.160,-0.977,53.711,0
1583501055.542,23.438,24.414,17.578,0.000,34.668,0
1583501055.546,27.832,21.484,19.531,5.859,16.602,0
1583501055.564,23.438,23.438,20.996,9.277,69.336,0
1583501055.568,27.344,29.297,22.461,5.371,16.602,0
1583501055.572,30.762,27.832,20.020,2.930,13.672,0
1583501055.576,33.203,30.762,20.020,9.277,34.668,0
1583501055.580,36.133,37.109,23.926,16.113,-17.578,0
1583501055.584,34.180,34.668,24.414,16.602,20.996,0
1583501055.588,32.227,30.762,23.926,8.789,15.137,0
1583501055.591,33.691,30.762,24.414,4.883,11.719,0
1583501055.595,35.156,31.738,24.902,14.648,30.762,0
1583501055.599,36.621,30.273,25.391,15.137,21.973,0
1583501055.603,39.062,34.180,28.809,19.531,66.895,0
1583501055.607,38.574,36.621,30.273,25.391,92.773,0
1583501055.605,37.598,33.691,26.855,22.949,85.938,0
1583501055.609,41.992,35.645,28.320,28.320,74.219,0
1583501055.613,44.434,38.574,30.273,28.320,28.809,0
1583501055.617,37.598,34.668,28.809,26.855,31.738,0
1583501055.621,33.203,32.227,28.809,25.879,53.711,0
1583501055.625,38.574,30.762,28.320,22.949,87.891,0
1583501055.629,43.457,30.273,26.367,18.066,74.219,0
1583501055.632,36.133,31.738,24.902,17.090,11.719,0
1583501055.636,34.180,33.203,25.391,18.555,32.715,0
1583501055.640,33.691,32.715,27.344,15.625,22.949,0
1583501055.644,21.484,30.273,26.367,6.836,34.668,0
1583501055.648,23.926,31.250,25.391,8.301,20.996,0
1583501055.644,26.855,32.227,26.367,12.695,-29.785,0
1583501055.648,23.438,32.227,26.855,14.160,-26.367,0
1583501055.652,23.438,28.320,25.391,7.324,7.812,0
1583501055.656,21.484,25.391,24.414,0.488,30.273,0
1583501055.660,21.484,27.832,26.367,-1.953,22.949,0
1583501055.664,22.949,28.809,26.855,7.812,23.926,0
1583501055.668,23.438,28.320,24.414,17.578,19.531,0
1583501055.671,27.832,33.203,27.832,15.625,37.598,0
1583501055.675,28.809,33.203,31.738,11.719,26.367,0
1583501055.679,25.879,30.762,26.367,9.766,-32.227,0
1583501055.683,20.508,32.715,21.973,13.184,21.484,0
1583501055.687,18.555,32.715,23.926,9.766,62.988,0
1583501055.705,17.090,32.715,28.320,4.883,8.789,0
1583501055.709,16.113,32.715,27.344,3.906,-9.766,0
1583501055.713,18.555,31.250,25.879,-1.953,-2.441,0
1583501055.717,17.090,30.273,26.367,-2.441,10.254,0
1583501055.721,18.066,32.715,27.832,7.324,54.199,0
1583501055.725,20.020,34.180,28.809,1.953,49.316,0
1583501055.729,20.996,33.691,27.832,1.465,80.078,0
1583501055.732,27.832,36.133,28.320,9.277,101.562,0
1583501055.736,28.809,32.715,26.855,6.836,51.270,0
1583501055.740,22.461,28.320,22.461,-0.488,49.316,0
1583501055.744,20.020,30.273,23.438,2.930,56.641,0
1583501055.748,25.879,32.227,26.855,1.465,19.531,0
1583501055.764,27.344,32.715,28.320,-10.742,-9.766,0
1583501055.768,26.367,33.203,29.785,1.465,-5.859,0
1583501055.772,25.391,31.738,29.297,11.719,1.465,0
1583501055.776,23.926,29.297,30.762,12.207,20.996,0
1583501055.780,23.926,31.250,33.203,6.836,27.832,0
1583501055.784,19.531,35.156,33.203,0.000,33.203,0
1583501055.788,18.066,36.133,35.156,7.324,20.020,0
1583501055.791,5.371,33.203,32.715,-0.488,-42.969,0
1583501055.795,-4.883,35.645,24.414,-15.137,-55.176,0
1583501055.799,-10.254,40.527,27.832,-25.879,-16.113,0
1583501055.803,-32.227,41.992,33.691,-42.480,30.762,0
1583501055.807,-46.387,46.875,37.109,-52.246,53.223,0
1583501055.784,-63.477,48.340,39.551,-66.406,21.973,0
1583501055.788,-84.473,47.852,40.527,-85.449,22.461,0
1583501055.792,-98.145,51.758,43.457,-103.027,14.160,0
1583501055.796,-114.258,54.688,44.922,-117.676,-26.367,0
1583501055.800,-144.043,54.688,50.781,-135.254,-0.977,0
1583501055.804,-163.574,54.199,55.176,-158.203,3.418,0
1583501055.808,-157.227,57.129,50.293,-166.504,-8.789,0
1583501055.811,-158.203,62.500,50.781,-163.574,24.902,0
1583501055.815,-164.062,63.965,49.805,-163.574,-3.906,0
1583501055.819,-167.969,61.035,45.410,-167.480,9.277,0
1583501055.823,-167.969,56.641,44.434,-168.457,31.738,0
1583501055.827,-153.320,55.664,40.039,-159.180,2.441,0
1583501055.844,-137.695,56.641,40.039,-143.066,67.383,0
1583501055.848,-127.930,55.664,38.574,-135.254,77.637,0
1583501055.852,-107.910,51.270,33.691,-121.582,1.953,0
1583501055.856,-89.355,44.922,34.180,-103.027,-3.906,0
1583501055.860,-73.730,39.062,32.227,-81.543,53.223,0
1583501055.864,-52.246,37.598,34.668,-56.152,26.367,0
1583501055.868,-34.180,36.133,35.156,-42.969,102.051,0
1583501055.871,-20.020,25.879,24.414,-37.109,138.184,0
1583501055.875,-0.977,16.602,21.484,-18.066,91.309,0
1583501055.879,15.137,17.090,23.438,0.977,58.105,0
1583501055.883,25.879,20.020,23.438,7.324,4.395,0
1583501055.887,33.203,17.578,20.020,12.207,55.176,0
1583501055.884,38.086,13.184,18.555,28.320,53.711,0
1583501055.888,41.016,11.230,21.484,43.945,-8.301,0
1583501055.892,46.875,10.742,20.996,48.340,18.555,0
1583501055.896,53.711,10.742,19.531,52.734,17.090,0
1583501055.900,58.594,11.719,19.043,57.617,37.109,0
1583501055.904,64.941,11.230,17.090,62.012,79.102,0
1583501055.908,66.406,8.789,17.090,67.871,33.691,0
1583501055.911,64.941,6.348,19.043,70.801,18.555,0
1583501055.915,68.359,8.301,20.996,70.801,20.508,0
1583501055.919,71.777,10.254,25.391,75.684,-43.945,0
1583501055.923,73.730,9.766,22.949,78.125,26.855,0
1583501055.927,79.102,11.230,23.438,79.102,71.289,0
1583501055.924,76.172,10.742,22.949,75.684,-24.414,0
1583501055.928,69.824,10.254,19.531,75.684,31.738,0
1583501055.932,70.312,12.207,19.043,76.172,61.523,0
1583501055.936,66.406,13.672,17.578,69.336,29.785,0
1583501055.940,61.523,9.277,15.625,62.988,22.949,0
1583501055.944,71.289,5.859,20.508,68.848,11.230,0
1583501055.948,70.312,10.254,23.438,74.219,-20.020,0
1583501055.951,68.359,16.113,20.996,67.871,-8.301,0
1583501055.955,73.242,17.090,20.020,66.895,49.805,0
1583501055.959,73.242,16.113,19.043,64.941,70.312,0
1583501055.963,74.219,17.578,19.531,65.918,67.383,0
1583501055.967,80.078,20.996,20.020,72.754,45.898,0
1583501055.984,79.590,19.531,20.020,69.336,122.559,0
1583501055.988,71.289,13.672,20.020,55.664,94.238,0
1583501055.992,69.824,17.090,18.555,58.105,44.434,0
1583501055.996,72.266,18.555,18.555,63.477,75.195,0
1583501056.000,68.848,16.602,19.531,54.688,22.461,0
1583501056.004,69.336,22.949,20.020,50.293,-20.508,0
1583501056.008,67.871,24.414,17.578,51.270,10.254,0
1583501056.011,62.988,19.043,19.043,54.688,45.898,0
1583501056.015,62.500,16.602,19.531,50.293,70.801,0
1583501056.019,67.871,18.066,18.555,47.363,25.879,0
1583501056.023,66.895,22.949,23.926,54.688,-16.602,0
1583501056.027,62.012,22.461,24.414,53.711,8.789,0
1583501056.024,61.035,20.996,19.043,45.898,29.297,0
1583501056.028,60.059,21.484,19.531,43.457,-13.184,0
1583501056.032,64.453,23.438,19.531,48.828,1.465,0
1583501056.036,67.383,23.438,19.531,55.176,0.000,0
1583501056.040,64.941,21.484,21.484,56.641,-0.977,0
1583501056.044,66.895,21.484,20.508,54.688,35.645,0
1583501056.048,70.312,21.973,20.996,54.688,40.039,0
1583501056.051,63.477,19.531,24.902,60.059,64.453,0
1583501056.055,56.152,20.996,27.344,62.500,97.168,0
1583501056.059,62.500,25.391,23.926,55.176,62.500,0
1583501056.063,64.453,21.973,22.461,49.805,58.594,0
1583501056.067,60.059,19.043,23.438,45.410,14.648,0
1583501056.064,62.012,20.996,23.438,48.340,-49.316,0
1583501056.068,62.500,23.926,24.414,50.781,21.484,0
1583501056.072,59.082,23.926,22.461,40.039,34.668,0
1583501056.076,62.012,24.902,17.090,36.621,-18.555,0
1583501056.080,58.594,27.344,20.020,46.875,6.836,0
1583501056.084,47.363,27.344,22.461,48.340,-2.441,0
1583501056.088,44.922,26.367,18.066,40.039,-21.973,0
1583501056.091,42.480,26.367,17.578,36.621,13.672,0
1583501056.095,35.645,25.879,20.508,37.109,-10.254,0
1583501056.099,35.645,24.414,16.113,40.527,-0.488,0
1583501056.103,32.227,24.902,11.230,32.227,27.832,0
1583501056.107,24.902,24.414,13.672,25.391,84.473,0
1583501056.124,24.902,23.926,14.648,31.738,84.961,0
1583501056.128,22.461,22.461,8.301,29.785,39.062,0
1583501056.132,21.484,25.391,12.207,24.902,110.352,0
1583501056.136,30.273,30.273,18.555,28.320,123.047,0
1583501056.140,33.203,28.809,17.578,33.691,43.457,0
1583501056.144,32.227,27.832,15.625,37.109,-0.488,0
1583501056.148,38.086,30.762,14.160,42.969,-12.695,0
1583501056.151,36.621,31.738,11.719,44.922,6.836,0
1583501056.155,29.297,28.320,11.230,43.945,55.176,0
1583501056.159,20.020,22.949,12.207,46.875,51.270,0
1583501056.163,15.625,23.926,13.672,43.457,-9.766,0
1583501056.167,13.672,28.809,14.648,41.504,-30.273,0
1583501056.164,5.859,27.832,14.160,39.551,37.598,0
1583501056.168,1.953,27.832,11.719,37.598,83.496,0
1583501056.172,5.859,29.297,13.672,42.969,61.035,0
1583501056.176,10.742,31.250,20.020,43.945,34.180,0
1583501056.180,5.859,31.250,19.043,39.551,29.297,0
1583501056.184,1.953,29.785,20.020,40.039,35.645,0
1583501056.188,3.418,30.762,20.508,37.598,5.859,0
1583501056.191,4.395,32.227,15.137,31.250,51.758,0
1583501056.195,5.371,34.668,19.043,29.297,67.383,0
1583501056.199,3.906,34.180,23.438,29.297,6.348,0
1583501056.203,4.395,32.715,22.461,29.297,44.922,0
1583501056.207,3.906,37.109,26.855,29.785,33.691,0
1583501056.224,5.859,40.527,28.320,32.227,-3.418,0
1583501056.228,10.254,38.086,23.438,27.832,-3.906,0
1583501056.232,10.254,34.668,21.484,25.391,11.230,0
1583501056.236,17.578,35.645,21.973,29.297,46.875,0
1583501056.240,24.414,38.086,22.461,28.320,87.891,0
1583501056.244,31.738,38.086,23.438,31.738,37.109,0
1583501056.248,33.691,37.598,25.391,40.527,12.207,0
1583501056.251,31.738,40.527,28.809,39.551,29.785,0
1583501056.255,30.762,39.062,26.367,36.133,-11.719,0
1583501056.259,27.832,38.086,24.902,34.668,-20.996,0
1583501056.263,20.508,39.062,28.320,32.715,-10.742,0
1583501056.267,16.602,36.621,25.391,33.691,13.184,0
1583501056.264,16.113,34.180,24.414,25.879,51.270,0
1583501056.268,12.695,33.691,29.785,16.602,32.715,0
1583501056.272,15.625,33.203,30.762,21.484,22.949,0
1583501056.276,17.578,32.715,27.344,23.438,73.730,0
1583501056.280,11.719,31.250,27.344,17.578,81.055,0
1583501056.284,10.742,29.785,30.762,11.719,23.438,0
1583501056.288,11.719,28.809,28.809,9.277,46.875,0
1583501056.291,9.766,25.879,24.902,5.859,57.129,0
1583501056.295,10.254,29.297,23.926,4.883,28.809,0
1583501056.299,11.719,29.297,28.320,0.000,3.906,0
1583501056.303,5.371,25.391,27.832,-8.789,31.738,0
1583501056.307,3.418,24.902,24.902,-4.395,27.344,0
1583501056.304,-0.977,21.484,25.879,-5.371,18.555,0
1583501056.308,-5.859,21.484,26.367,-15.137,50.781,0
1583501056.312,-0.488,24.902,27.344,-10.254,10.742,0
1583501056.316,-0.977,27.832,31.738,-8.789,-20.020,0
1583501056.320,0.977,32.227,31.738,-8.301,-10.254,0
1583501056.324,4.395,33.691,31.738,-3.418,38.574,0
1583501056.328,0.977,29.785,33.203,-10.742,36.621,0
1583501056.331,0.977,31.250,33.203,-11.719,21.484,0
1583501056.335,-1.465,35.156,38.574,-9.277,28.809,0
1583501056.339,-0.488,32.227,38.086,-6.348,54.688,0
1583501056.343,0.000,27.344,37.598,-5.371,54.199,0
1583501056.347,-8.789,24.414,41.504,-2.930,58.105,0
1583501056.363,-2.930,31.250,35.645,5.371,34.668,0
1583501056.367,-1.953,37.109,31.738,3.418,48.340,0
1583501056.371,-9.277,36.621,34.668,-2.930,71.289,0
1583501056.375,-9.766,36.133,37.109,-2.930,28.320,0
1583501056.379,-10.742,36.621,40.527,0.977,50.293,0
1583501056.383,-6.348,37.109,45.410,0.000,-2.930,0
1583501056.387,-3.418,34.668,45.898,-4.883,-33.691,0
1583501056.390,-3.418,33.691,40.039,-10.254,34.180,0
1583501056.394,1.465,33.203,38.086,-4.395,6.348,0
1583501056.398,3.418,31.738,42.480,4.395,-10.254,0
1583501056.402,0.977,34.668,42.480,4.883,27.344,0
1583501056.406,-1.953,36.621,37.598,5.859,-4.395,0
1583501056.404,-6.348,35.156,37.109,7.812,-19.531,0
1583501056.408,-9.277,34.668,35.645,4.883,36.133,0
1583501056.412,-1.465,35.156,34.180,4.883,62.500,0
1583501056.416,4.883,36.621,34.668,4.883,62.012,0
1583501056.420,12.695,39.551,36.133,7.324,58.594,0
1583501056.424,17.090,41.016,37.598,9.277,38.086,0
1583501056.428,9.766,39.551,35.156,7.324,-7.812,0
1583501056.431,6.348,35.156,36.133,3.418,25.391,0
1583501056.435,4.883,31.738,36.133,2.930,63.965,0
1583501056.439,6.348,30.762,37.598,4.883,50.293,0
1583501056.443,16.113,33.691,38.086,13.672,57.129,0
1583501056.447,14.160,34.180,36.621,16.602,90.332,0
1583501056.443,4.883,31.250,36.133,8.301,84.961,0
1583501056.447,2.441,33.691,38.086,6.836,35.645,0
1583501056.451,-0.977,34.668,39.551,2.441,36.133,0
1583501056.455,-0.977,36.621,37.598,4.395,30.762,0
1583501056.459,-3.418,36.621,40.039,10.742,43.457,0
1583501056.463,-9.277,34.668,39.062,8.301,40.039,0
1583501056.467,-12.207,35.156,35.645,8.301,8.789,0
1583501056.470,-16.113,32.715,33.203,8.301,58.594,0
1583501056.474,-19.043,32.715,33.691,6.836,15.625,0
1583501056.478,-20.020,32.715,33.691,3.418,-32.715,0
1583501056.482,-17.578,31.738,33.691,7.812,43.945,0
1583501056.486,-21.484,31.250,37.598,12.207,59.570,0
1583501056.504,-25.879,32.227,38.086,11.719,74.219,0
1583501056.508,-25.879,33.203,35.645,7.812,19.531,0
1583501056.512,-17.578,27.832,37.109,11.719,4.395,0
1583501056.516,-6.348,26.855,35.156,11.719,37.598,0
1583501056.520,-12.207,39.062,30.762,3.418,44.434,0
1583501056.524,-29.297,43.945,29.785,-19.043,-5.371,0
1583501056.528,-36.621,41.504,19.043,-33.203,-18.066,0
1583501056.531,-27.344,38.574,12.695,-20.508,39.062,0
1583501056.535,-25.879,35.156,16.113,-20.020,59.082,0
1583501056.539,-33.203,38.086,14.648,-34.668,21.973,0
1583501056.543,-36.621,40.527,14.648,-44.434,-5.859,0
1583501056.547,-27.344,41.504,14.160,-32.715,-16.602,0
1583501056.544,-20.508,39.551,13.184,-23.438,3.418,0
1583501056.548,-20.508,38.086,16.602,-20.996,63.965,0
1583501056.552,-13.184,42.969,22.461,-15.137,69.824,0
1583501056.556,-6.836,39.062,18.555,-13.672,1.953,0
1583501056.560,-4.883,32.715,13.672,-13.184,-20.020,0
1583501056.564,-3.906,34.668,21.484,-9.277,23.438,0
1583501056.568,1.953,38.086,21.484,-7.324,85.938,0
1583501056.571,9.277,36.133,18.066,-5.371,75.684,0
1583501056.575,14.160,33.203,20.020,-5.859,33.691,0
1583501056.579,19.043,34.668,22.461,0.000,97.656,0
1583501056.583,20.020,35.156,24.414,5.371,79.590,0
1583501056.587,16.602,32.715,24.414,-0.488,-11.230,0
1583501056.583,16.113,33.203,25.391,-1.953,-30.273,0
1583501056.587,16.113,34.668,26.367,1.465,0.488,0
1583501056.591,19.531,38.574,29.785,7.324,26.367,0
1583501056.595,19.043,38.086,26.855,11.230,-5.371,0
1583501056.599,11.719,31.250,23.438,6.348,45.898,0
1583501056.603,14.160,32.227,28.809,6.836,78.613,0
1583501056.607,12.207,34.668,29.297,2.930,2.441,0
1583501056.610,8.789,30.762,27.832,0.977,-10.742,0
1583501056.614,9.277,28.809,32.715,-1.953,6.836,0
1583501056.618,12.695,31.250,28.809,3.418,-0.977,0
1583501056.622,8.789,30.273,31.738,4.883,-8.301,0
1583501056.626,11.719,33.203,39.062,6.348,16.602,0
1583501056.644,22.949,39.062,34.180,23.438,65.918,0
1583501056.648,20.020,37.598,32.227,22.461,64.941,0
1583501056.652,20.020,34.668,27.344,11.719,-10.254,0
1583501056.656,25.879,34.668,28.809,6.836,-18.066,0
1583501056.660,24.414,34.180,26.367,3.906,41.504,0
1583501056.664,20.020,33.203,23.926,11.230,78.125,0
1583501056.668,20.020,32.715,30.762,15.137,46.875,0
1583501056.671,16.602,29.297,31.250,9.277,37.109,0
1583501056.675,9.277,30.762,23.926,10.742,58.594,0
1583501056.679,10.742,32.227,22.461,12.207,69.336,0
1583501056.683,12.695,28.320,25.879,15.625,40.039,0
1583501056.687,2.441,26.367,27.832,11.719,29.785,0
1583501056.683,-0.977,25.391,26.855,2.930,5.859,0
1583501056.687,0.977,27.344,25.391,0.488,41.016,0
1583501056.691,-0.977,26.855,28.809,0.977,55.176,0
1583501056.695,0.000,26.367,33.691,6.348,48.340,0
1583501056.699,6.348,30.273,30.762,13.184,107.910,0
1583501056.703,2.930,29.297,28.809,12.695,89.355,0
1583501056.707,0.977,26.855,35.645,8.789,37.109,0
1583501056.710,5.859,28.320,35.156,8.789,41.992,0
1583501056.714,2.930,29.297,26.367,7.324,33.691,0
1583501056.718,0.000,26.367,29.297,4.395,22.461,0
1583501056.722,2.930,24.414,30.273,5.371,61.523,0
1583501056.726,2.930,22.949,24.902,9.766,60.547,0
1583501056.723,5.859,21.484,27.832,9.277,18.555,0
1583501056.727,8.789,22.461,29.785,5.371,-14.160,0
1583501056.731,6.836,21.484,30.762,8.301,-47.363,0
1583501056.735,2.441,20.996,27.344,12.207,-19.043,0
1583501056.739,0.977,22.461,27.344,7.324,12.207,0
1583501056.743,6.348,26.855,35.156,5.859,19.043,0
1583501056.747,8.789,25.391,34.668,14.160,47.852,0
1583501056.750,4.883,22.461,27.832,14.160,41.504,0
1583501056.754,2.441,21.973,25.391,8.789,46.387,0
1583501056.758,10.742,23.438,24.414,6.836,28.320,0
1583501056.762,21.973,26.367,28.809,20.996,13.184,0
1583501056.766,18.555,22.949,33.691,33.691,50.293,0
1583501056.783,10.742,21.484,35.645,27.344,42.969,0
1583501056.787,10.254,23.438,40.527,20.996,56.641,0
1583501056.791,14.648,24.902,39.551,20.996,90.332,0
1583501056.795,19.531,22.949,36.621,25.879,64.941,0
1583501056.799,13.184,22.949,36.621,26.367,40.527,0
1583501056.803,18.555,26.367,36.621,25.879,41.016,0
1583501056.807,28.320,25.879,35.156,23.438,93.262,0
1583501056.810,23.926,22.949,36.621,19.531,78.125,0
1583501056.814,27.832,23.926,35.645,26.367,23.438,0
1583501056.818,32.715,27.832,28.809,31.250,-19.043,0
1583501056.822,29.785,27.344,27.832,24.414,12.207,0
1583501056.826,31.250,28.809,37.109,24.902,14.648,0
1583501056.823,33.691,31.250,37.598,32.227,-11.230,0
1583501056.827,36.133,27.344,34.180,32.227,31.250,0
1583501056.831,40.039,24.902,37.109,31.738,26.855,0
1583501056.835,39.551,29.785,32.715,29.297,1.953,0
1583501056.839,43.945,33.203,29.785,30.273,11.719,0
1583501056.843,49.316,29.785,34.180,30.273,94.727,0
1583501056.847,50.293,27.344,37.598,29.297,80.566,0
1583501056.850,49.316,28.320,38.086,21.973,20.020,0
1583501056.854,54.688,29.297,37.598,28.809,69.336,0
1583501056.858,58.105,32.715,38.086,36.133,37.598,0
1583501056.862,54.199,31.738,36.621,21.973,56.641,0
1583501056.866,53.711,29.785,36.621,18.555,94.238,0
1583501056.864,54.688,27.344,34.668,29.297,68.848,0
1583501056.868,57.129,28.809,32.715,33.691,80.078,0
1583501056.872,57.129,31.738,32.715,27.344,72.754,0
1583501056.876,54.199,30.762,32.227,20.508,66.895,0
1583501056.880,53.223,28.809,37.598,21.973,6.348,0
1583501056.884,52.734,27.344,37.598,30.273,-51.758,0
1583501056.888,52.734,29.785,35.645,32.227,-10.254,0
1583501056.891,53.711,31.250,37.598,26.855,16.602,0
1583501056.895,49.316,26.367,32.715,20.020,39.551,0
1583501056.899,43.457,23.926,28.809,15.625,15.625,0
1583501056.903,41.992,24.902,31.250,14.648,-20.996,0
1583501056.907,41.016,26.855,29.785,11.230,37.109,0
1583501056.923,39.062,29.297,27.344,12.207,53.711,0
1583501056.927,33.691,28.809,30.762,18.066,49.805,0
1583501056.931,31.250,29.785,31.738,18.555,29.785,0
1583501056.935,28.320,30.762,29.297,17.090,-15.137,0
1583501056.939,28.320,32.227,31.738,15.625,27.832,0
1583501056.943,29.297,35.156,36.621,22.461,-10.742,0
1583501056.947,21.973,32.715,35.156,14.160,9.277,0
1583501056.950,19.043,28.320,36.621,4.883,68.848,0
1583501056.954,20.508,27.832,35.645,10.742,65.430,0
1583501056.958,20.020,27.344,30.273,14.648,51.270,0
1583501056.962,16.602,24.414,34.180,18.555,0.977,0
1583501056.966,17.090,24.414,33.691,16.113,-10.254,0
1583501056.964,14.160,23.926,31.250,8.301,-4.395,0
1583501056.968,15.137,29.297,33.203,11.719,-3.418,0
1583501056.972,13.184,33.203,33.203,16.113,36.621,0
1583501056.976,11.230,28.809,32.715,19.531,67.383,0
1583501056.980,16.113,28.320,35.645,17.578,47.852,0
1583501056.984,16.602,27.344,35.156,11.719,73.242,0
1583501056.988,18.066,23.926,30.762,15.625,77.637,0
1583501056.991,16.113,24.414,30.762,16.602,-7.812,0
1583501056.995,13.184,22.461,30.762,15.137,6.836,0
1583501056.999,18.066,24.414,33.203,10.254,28.320,0
1583501057.003,15.625,29.297,32.227,11.230,22.461,0
1583501057.007,14.648,31.738,28.320,18.066,-17.090,0
1583501057.003,28.809,35.645,30.273,23.438,-23.438,0
1583501057.007,30.762,33.203,33.691,21.973,40.527,0
1583501057.011,13.184,24.414,37.598,10.254,60.547,0
1583501057.015,5.371,20.508,39.551,6.836,33.203,0
1583501057.019,6.348,20.508,39.551,14.648,-16.113,0
1583501057.023,11.230,20.996,38.574,19.043,23.926,0
1583501057.027,9.277,20.508,39.551,15.137,38.574,0
1583501057.030,1.953,21.973,41.016,12.695,-4.395,0
1583501057.034,4.883,22.949,42.969,8.301,-32.227,0
1583501057.038,8.789,23.926,43.457,11.230,-12.207,0
1583501057.042,13.184,25.391,43.945,18.555,36.133,0
1583501057.046,16.602,26.367,41.016,18.555,14.648,0
1583501057.063,13.184,21.484,36.133,17.090,11.230,0
1583501057.067,12.695,20.996,34.180,13.672,17.578,0
1583501057.071,12.207,24.902,34.180,18.555,30.762,0
1583501057.075,13.672,24.414,35.645,20.508,38.086,0
1583501057.079,17.578,24.902,36.133,17.090,-10.742,0
1583501057.083,21.973,28.320,36.133,20.020,23.438,0
1583501057.087,21.484,27.832,37.109,9.277,47.852,0
1583501057.090,23.438,25.879,33.691,6.348,37.598,0
1583501057.094,24.902,27.344,35.645,16.602,7.812,0
1583501057.098,22.461,24.902,37.598,13.672,33.203,0
1583501057.102,22.461,23.926,32.227,5.859,6.836,0
1583501057.106,25.879,25.879,29.785,8.301,-6.836,0
1583501057.103,31.738,28.320,28.809,17.090,-1.953,0
1583501057.107,33.203,29.297,29.785,15.137,-26.367,0
1583501057.111,29.785,29.785,29.785,10.254,41.016,0
1583501057.115,26.855,28.809,31.250,10.254,87.402,0
1583501057.119,25.879,29.297,34.668,10.742,40.527,0
1583501057.123,24.902,29.785,30.273,9.766,38.086,0
1583501057.127,20.508,27.344,30.273,6.348,39.062,0
1583501057.130,28.320,30.273,28.320,10.742,-2.441,0
1583501057.134,33.203,32.227,25.391,17.090,-2.930,0
1583501057.138,29.297,28.320,29.297,16.113,-14.160,0
1583501057.142,29.785,25.879,30.273,11.719,23.926,0
1583501057.146,31.250,24.902,34.668,8.789,70.801,0
1583501057.144,33.691,28.320,37.109,9.277,38.574,0
1583501057.148,30.273,31.738,31.738,12.695,40.039,0
1583501057.152,28.320,29.297,28.809,16.113,87.402,0
1583501057.156,27.832,30.762,27.344,13.672,37.598,0
1583501057.160,30.273,32.227,27.344,9.277,-27.344,0
1583501057.164,35.156,31.738,27.344,14.648,50.781,0
1583501057.168,39.062,35.156,25.879,17.578,139.160,0
1583501057.171,36.133,35.156,28.809,14.160,104.004,0
1583501057.175,27.344,29.785,28.320,8.301,25.879,0
1583501057.179,25.391,26.367,24.414,6.836,25.391,0
1583501057.183,26.367,28.320,28.320,9.766,0.977,0
1583501057.187,27.344,31.250,31.250,12.207,48.340,0
1583501057.204,28.809,34.180,31.738,12.695,9.766,0
1583501057.208,26.855,31.738,32.227,11.230,-26.855,0
1583501057.212,26.855,29.785,33.203,14.648,29.785,0
1583501057.216,27.344,31.738,30.273,14.648,32.227,0
1583501057.220,31.250,33.691,25.879,15.137,22.461,0
1583501057.224,35.156,36.133,26.367,14.648,33.691,0
1583501057.228,28.320,31.250,24.902,6.836,27.344,0
1583501057.231,21.484,26.367,21.484,2.441,43.457,0
1583501057.235,20.020,26.367,20.996,5.859,28.809,0
1583501057.239,19.531,27.832,21.484,6.348,17.578,0
1583501057.243,15.625,29.785,19.531,11.719,46.387,0
1583501057.247,13.672,29.785,19.531,12.207,13.184,0
1583501057.246,17.578,28.809,18.555,8.789,17.090,0
1583501057.250,18.066,34.180,23.438,9.766,27.344,0
1583501057.254,16.113,35.645,27.344,12.695,20.020,0
1583501057.258,9.766,29.297,22.949,11.719,7.812,0
1583501057.262,7.812,27.344,19.531,8.789,18.066,0
1583501057.266,10.742,29.785,21.973,5.371,19.043,0
1583501057.270,9.766,27.832,24.902,6.348,1.465,0
1583501057.273,8.301,26.855,20.996,15.625,5.859,0
1583501057.277,6.836,28.320,20.020,15.137,18.555,0
1583501057.281,8.301,27.344,22.949,6.836,24.414,0
1583501057.285,12.695,28.320,20.508,2.930,59.570,0
1583501057.289,15.137,30.762,18.066,10.742,52.246,0
1583501057.284,14.648,27.344,16.602,11.719,-5.371,0
1583501057.288,15.625,26.367,16.602,6.836,23.438,0
1583501057.292,20.508,27.832,14.648,6.836,25.879,0
1583501057.296,25.879,24.902,10.254,10.742,13.672,0
1583501057.300,26.367,23.926,14.648,12.207,54.199,0
1583501057.304,30.273,28.320,14.648,8.301,73.730,0
1583501057.308,29.785,30.273,13.184,7.812,81.055,0
1583501057.311,32.227,30.273,16.113,7.324,83.008,0
1583501057.315,45.898,33.203,15.625,15.625,61.035,0
1583501057.319,46.387,36.621,16.113,22.461,16.602,0
1583501057.323,25.391,30.273,15.625,9.277,62.988,0
1583501057.327,11.719,21.973,17.578,-1.465,65.430,0
1583501057.344,19.043,23.438,26.367,5.371,12.695,0
1583501057.348,18.555,24.902,31.250,5.859,41.016,0
1583501057.352,10.254,24.902,29.297,-0.488,60.547,0
1583501057.356,1.953,23.926,28.809,-6.836,-2.930,0
1583501057.360,-6.836,20.996,28.320,-10.742,-6.348,0
1583501057.364,-5.371,22.461,28.320,-0.977,7.324,0
1583501057.368,3.418,26.367,29.785,-0.488,-10.742,0
1583501057.371,7.812,27.344,26.367,-3.418,6.348,0
1583501057.375,3.418,23.926,25.391,-2.930,7.812,0
1583501057.379,-3.906,22.949,24.902,-2.930,22.949,0
1583501057.383,-4.883,22.949,25.879,-0.977,39.551,0
1583501057.387,6.836,22.949,23.926,-1.465,-7.812,0
1583501057.384,10.254,23.926,17.578,-2.441,19.531,0
1583501057.388,1.953,27.344,18.066,-1.953,67.871,0
1583501057.392,5.371,27.344,17.090,-4.883,26.367,0
1583501057.396,8.301,25.879,20.996,-13.672,53.223,0
1583501057.400,1.465,25.879,23.926,-13.672,83.008,0
1583501057.404,3.418,26.855,22.461,-1.465,71.289,0
1583501057.408,13.184,28.809,26.367,0.488,23.438,0
1583501057.411,15.137,26.367,19.043,-10.254,-0.488,0
1583501057.415,14.160,24.902,18.066,-11.230,72.266,0
1583501057.419,18.555,29.297,17.578,-2.930,82.520,0
1583501057.423,20.020,28.320,10.742,-4.395,63.965,0
1583501057.427,23.926,28.320,12.207,-6.348,53.223,0
1583501057.424,28.809,31.738,13.672,-4.883,79.102,0
1583501057.428,26.367,31.250,19.043,-2.441,41.504,0
1583501057.432,18.066,31.250,23.926,-2.441,-30.762,0
1583501057.436,13.184,26.855,24.902,-7.324,18.066,0
1583501057.440,18.555,29.785,24.902,-2.930,57.617,0
1583501057.444,17.578,32.715,27.344,0.000,-21.973,0
1583501057.448,13.672,27.832,24.902,-2.441,25.879,0
1583501057.451,17.578,30.762,24.902,1.465,69.336,0
1583501057.455,20.508,33.691,28.320,0.488,21.484,0
1583501057.459,19.531,35.156,31.738,-0.977,35.156,0
1583501057.463,20.020,36.133,32.227,3.906,62.500,0
1583501057.467,20.996,34.668,33.203,4.395,28.809,0
1583501057.483,20.508,34.180,34.180,3.906,-4.395,0
1583501057.487,22.461,33.691,32.715,4.395,-19.043,0
1583501057.491,20.996,34.180,37.109,8.789,-22.461,0
1583501057.495,20.508,34.180,40.039,16.602,2.930,0
1583501057.499,20.508,29.785,36.133,12.207,37.109,0
1583501057.503,18.066,25.879,35.645,7.812,73.242,0
1583501057.507,18.066,26.367,36.621,9.277,83.008,0
1583501057.510,16.113,29.297,35.156,1.953,62.500,0
1583501057.514,12.695,30.273,36.133,-5.371,56.152,0
1583501057.518,9.277,26.855,38.086,-4.395,29.297,0
1583501057.522,6.836,28.320,38.574,-1.953,61.035,0
1583501057.526,6.836,30.273,35.645,0.977,58.594,0
1583501057.523,10.254,31.738,35.645,3.418,18.555,0
1583501057.527,12.207,31.250,35.156,-1.465,-20.996,0
1583501057.531,11.230,27.832,31.250,-4.883,-56.152,0
1583501057.535,13.184,26.855,31.738,2.930,-6.836,0
1583501057.539,12.207,25.391,33.203,2.441,59.082,0
1583501057.543,14.160,24.414,33.691,0.488,42.969,0
1583501057.547,16.113,25.391,33.203,5.371,48.340,0
1583501057.550,14.160,26.855,28.809,7.812,86.426,0
1583501057.554,16.602,26.855,27.832,11.230,39.551,0
1583501057.558,19.531,31.738,33.203,9.277,42.480,0
1583501057.562,22.461,34.668,38.086,3.418,19.043,0
1583501057.566,24.414,28.809,36.133,7.812,27.832,0
1583501057.564,22.461,27.344,29.785,15.625,105.957,0
1583501057.568,21.973,28.809,30.762,14.160,43.945,0
1583501057.572,20.996,27.832,31.250,8.301,32.227,0
1583501057.576,21.973,26.367,29.297,10.254,100.586,0
1583501057.580,22.949,27.344,24.414,14.648,81.543,0
1583501057.584,20.996,26.855,23.926,16.113,0.488,0
1583501057.588,23.438,28.320,29.297,14.648,49.805,0
1583501057.591,25.391,31.250,30.273,10.254,83.008,0
1583501057.595,20.508,27.344,25.391,11.719,35.156,0
1583501057.599,16.113,24.414,24.414,13.184,56.641,0
1583501057.603,20.996,26.367,24.414,10.742,63.965,0
1583501057.607,24.902,29.297,25.391,13.184,23.438,0
1583501057.623,21.973,28.809,25.879,14.648,47.852,0
1583501057.627,21.973,27.344,24.902,18.066,27.832,0
1583501057.631,26.367,31.250,29.785,24.902,-34.180,0
1583501057.635,24.902,32.715,27.344,21.484,-2.930,0
1583501057.639,21.484,29.785,21.973,13.184,4.883,0
1583501057.643,18.555,30.762,26.855,11.719,-33.203,0
1583501057.647,18.066,28.320,25.879,12.695,4.883,0
1583501057.650,20.020,27.344,21.973,16.602,19.043,0
1583501057.654,20.508,29.297,23.438,15.137,15.137,0
1583501057.658,22.461,27.344,23.438,17.578,43.945,0
1583501057.662,23.438,29.785,23.926,20.996,58.105,0
1583501057.666,22.949,32.715,25.391,15.137,47.852,0
1583501057.663,19.043,29.785,23.438,11.230,16.113,0
1583501057.667,15.137,29.297,24.414,11.230,40.039,0
1583501057.671,20.508,34.668,28.809,18.555,22.949,0
1583501057.675,21.484,37.109,31.250,16.602,0.488,0
1583501057.679,16.602,31.250,28.320,6.348,-10.254,0
1583501057.683,16.602,27.344,23.926,12.207,54.688,0
1583501057.687,19.043,27.832,21.484,11.230,75.684,0
1583501057.690,19.043,25.879,22.949,5.859,34.180,0
1583501057.694,18.555,26.367,26.367,4.395,15.625,0
1583501057.698,18.066,31.250,27.832,5.371,9.766,0
1583501057.702,19.531,33.691,26.367,11.719,2.441,0
1583501057.706,15.625,29.785,24.414,8.789,-28.320,0
1583501057.723,13.672,28.320,21.484,4.883,52.246,3
1583501057.727,18.066,33.203,23.926,9.277,82.520,0
1583501057.731,19.531,35.645,24.414,12.207,6.836,0
1583501057.735,17.090,33.203,23.438,9.766,-28.320,0
1583501057.739,18.066,33.691,27.832,12.207,-18.066,0
1583501057.743,18.066,34.180,28.809,16.602,-0.977,0
1583501057.747,13.184,36.621,27.832,12.695,69.824,0
1583501057.750,16.113,41.016,30.762,14.160,114.746,0
1583501057.754,20.020,38.574,32.227,18.555,48.340,0
1583501057.758,23.438,39.062,32.715,20.508,-9.277,0
1583501057.762,26.367,41.016,34.180,23.438,22.949,0
1583501057.766,23.438,36.621,34.180,15.137,45.410,0
1583501057.763,21.484,35.156,34.180,8.301,37.598,0
1583501057.767,22.461,34.180,31.738,9.277,80.078,0
1583501057.771,22.949,32.227,35.156,10.742,93.750,0
1583501057.775,23.926,33.691,37.109,15.625,24.902,0
1583501057.779,24.902,34.180,33.691,15.625,37.598,0
1583501057.783,26.367,32.227,35.645,9.766,64.453,0
1583501057.787,27.344,33.203,36.621,9.277,71.289,0
1583501057.790,27.832,34.180,37.598,14.648,26.367,0
1583501057.794,27.832,31.250,34.668,14.648,-18.555,0
1583501057.798,25.879,27.344,30.762,9.277,10.254,0
1583501057.802,25.391,29.785,32.715,9.277,-4.395,0
1583501057.806,23.926,32.227,36.133,8.301,-14.648,0
1583501057.804,24.902,33.691,34.180,13.672,-25.391,0
1583501057.808,31.250,39.062,33.203,18.555,29.297,0
1583501057.812,32.715,40.039,36.621,15.137,83.984,0
1583501057.816,27.344,39.551,36.621,14.648,54.199,0
1583501057.820,26.367,40.039,37.109,17.578,31.250,0
1583501057.824,25.879,41.992,39.551,18.066,58.594,0
1583501057.828,20.020,40.527,35.156,13.672,45.410,0
1583501057.831,16.113,37.598,32.715,12.695,60.547,0
1583501057.835,13.672,36.133,34.180,15.137,83.984,0
1583501057.839,16.602,36.621,32.227,17.090,6.348,0
1583501057.843,21.484,36.621,33.691,17.578,5.371,0
1583501057.847,24.902,35.645,36.621,20.996,19.531,0
1583501057.863,26.855,39.062,33.691,20.996,-15.137,0
1583501057.867,25.391,41.992,31.738,19.043,-15.137,0
1583501057.871,26.855,36.621,35.156,16.602,11.230,0
1583501057.875,32.715,35.156,36.133,18.066,-8.789,0
1583501057.879,36.621,41.992,36.133,27.344,18.066,0
1583501057.883,34.180,41.992,38.086,32.715,5.859,0
1583501057.887,31.250,38.086,35.645,27.344,38.574,0
1583501057.890,28.320,34.668,34.180,16.602,100.586,0
1583501057.894,26.367,32.715,36.621,17.578,32.227,0
1583501057.898,28.809,35.156,35.645,25.879,41.016,0
1583501057.902,30.273,35.645,33.691,20.508,22.949,0
1583501057.906,33.691,34.668,30.273,21.484,74.219,0
1583501057.903,36.621,36.621,31.250,26.367,59.570,0
1583501057.907,34.180,38.086,32.715,25.879,23.438,0
1583501057.911,34.668,41.016,33.691,23.926,73.730,0
1583501057.915,34.180,40.039,33.691,19.043,7.812,0
1583501057.919,32.227,38.086,32.715,14.160,-3.906,0
1583501057.923,31.738,39.062,30.273,21.973,-35.645,0
1583501057.927,36.621,37.598,26.855,27.832,24.414,0
1583501057.930,35.645,36.133,27.344,23.926,115.723,0
1583501057.934,35.645,36.621,31.250,24.414,56.152,0
1583501057.938,38.574,36.133,33.691,27.344,0.977,0
1583501057.942,34.180,33.691,34.180,19.531,-33.203,0
1583501057.946,30.273,34.180,33.203,15.137,-41.992,0
1583501057.943,27.344,36.133,34.668,20.020,26.367,0
1583501057.947,18.555,33.691,36.133,18.066,30.273,0
1583501057.951,11.230,30.273,31.738,20.020,-17.578,0
1583501057.955,5.859,29.785,32.227,19.531,-8.301,0
1583501057.959,1.465,27.832,35.156,14.648,16.113,0
1583501057.963,-1.465,27.832,37.598,16.113,35.645,0
1583501057.967,-3.418,30.273,39.062,16.113,45.410,0
1583501057.970,-3.906,30.762,37.598,14.160,32.715,0
1583501057.974,-4.395,33.691,35.156,14.648,48.828,0
1583501057.978,-1.465,35.156,37.109,10.254,47.363,0
1583501057.982,4.883,35.645,37.598,13.672,34.668,0
1583501057.986,10.742,39.551,38.574,21.484,46.387,0
1583501058.003,16.113,42.480,41.504,20.996,15.625,0
1583501058.007,17.090,40.527,36.133,18.555,-3.906,0
1583501058.011,11.230,36.133,33.203,19.043,34.180,0
1583501058.015,12.207,36.621,38.086,21.484,40.527,0
1583501058.019,17.578,37.598,38.086,20.020,8.301,0
1583501058.023,17.090,38.086,35.645,20.020,39.062,0
1583501058.027,18.066,41.992,36.133,21.484,56.641,0
1583501058.030,21.484,40.039,38.086,21.973,26.367,0
1583501058.034,25.391,38.086,38.574,26.367,54.199,0
1583501058.038,27.344,41.504,37.598,25.391,80.078,0
1583501058.042,25.391,40.039,35.156,23.438,49.805,0
1583501058.046,31.738,40.039,36.133,32.227,14.648,0
1583501058.063,38.574,42.969,37.598,37.109,14.160,0
1583501058.067,30.273,40.039,32.715,26.855,38.574,0
1583501058.071,26.855,34.668,30.762,24.414,7.324,0
1583501058.075,34.180,31.738,31.250,30.273,20.020,0
1583501058.079,43.457,38.574,28.809,38.574,60.059,0
1583501058.083,41.504,47.852,22.949,33.691,47.852,0
1583501058.087,30.273,47.852,17.090,11.719,104.980,0
1583501058.090,29.785,46.387,17.090,12.207,96.680,0
1583501058.094,28.320,43.945,18.555,17.578,20.508,0
1583501058.098,20.508,45.410,20.996,13.672,11.719,0
1583501058.102,23.926,47.363,23.926,12.695,-9.766,0
1583501058.106,20.996,42.480,22.949,7.812,21.973,0
1583501058.083,19.043,38.086,24.414,8.301,69.336,0
1583501058.087,23.926,39.551,23.438,12.207,69.824,0
1583501058.091,20.508,41.504,24.414,16.602,57.129,0
1583501058.095,18.555,41.016,28.320,12.207,43.457,0
1583501058.099,20.020,41.016,26.855,11.230,35.645,0
1583501058.103,21.973,42.969,29.297,20.508,38.574,0
1583501058.107,26.855,42.969,34.180,25.879,26.855,0
1583501058.110,30.762,40.527,33.691,27.344,20.020,0
1583501058.114,25.879,34.180,32.227,26.855,46.875,0
1583501058.118,23.926,33.691,33.203,22.461,30.273,0
1583501058.122,24.902,39.551,33.203,21.973,13.184,0
1583501058.126,21.973,41.016,33.691,18.555,61.035,0
1583501058.143,17.578,38.574,35.156,11.719,67.871,0
1583501058.147,14.160,39.551,37.109,18.066,72.754,0
1583501058.151,14.648,37.598,35.156,13.672,53.223,0
1583501058.155,16.113,36.621,33.691,14.648,35.645,0
1583501058.159,14.648,41.016,35.645,20.020,8.789,0
1583501058.163,9.277,39.551,34.180,14.160,-31.250,0
1583501058.167,9.766,37.109,33.691,14.160,22.461,0
1583501058.170,8.789,35.156,36.621,7.812,55.176,0
1583501058.174,9.277,35.645,37.109,1.953,69.336,0
1583501058.178,15.137,36.133,33.691,12.207,99.609,0
1583501058.182,18.555,36.133,33.691,16.113,29.297,0
1583501058.186,20.020,36.133,35.156,11.230,-9.277,0
1583501058.183,21.484,34.668,33.691,9.277,43.945,0
1583501058.187,22.461,36.133,33.691,11.719,98.145,0
1583501058.191,25.391,38.086,39.062,16.113,24.902,0
1583501058.195,25.391,33.691,38.574,11.230,-37.109,0
1583501058.199,24.414,30.762,36.133,9.766,9.766,0
1583501058.203,22.949,32.227,34.668,5.371,17.090,0
1583501058.207,20.020,33.691,33.691,5.371,-8.789,0
1583501058.210,17.090,35.645,35.645,9.277,-7.324,0
1583501058.214,19.531,35.156,35.156,11.230,4.883,0
1583501058.218,22.949,34.668,35.156,16.113,-14.160,0
1583501058.222,19.531,36.133,37.598,13.672,20.996,0
1583501058.226,21.484,39.551,39.062,11.230,-17.090,0
1583501058.223,21.484,38.086,35.156,13.672,-32.227,0
1583501058.227,19.531,32.227,34.180,8.301,19.043,0
1583501058.231,21.973,31.738,34.668,4.395,-3.418,0
1583501058.235,20.996,33.203,35.156,5.859,21.484,0
1583501058.239,20.020,33.691,38.574,9.766,108.887,0
1583501058.243,22.461,36.133,41.504,14.160,42.480,0
1583501058.247,22.949,37.109,38.574,15.625,27.832,0
1583501058.250,21.973,36.621,35.645,20.996,104.004,0
1583501058.254,22.949,37.109,41.504,14.648,54.688,0
1583501058.258,25.879,40.039,45.898,12.207,-12.695,0
1583501058.262,21.484,39.062,36.133,14.648,-5.371,0
1583501058.266,14.648,35.156,28.809,14.160,72.754,0
1583501058.283,12.207,32.715,31.738,15.137,45.410,0
1583501058.287,12.695,34.180,33.691,12.695,16.602,0
1583501058.291,20.996,37.598,30.762,13.672,59.570,0
1583501058.295,23.438,37.109,31.250,21.484,11.230,0
1583501058.299,7.812,30.762,35.156,20.020,-32.715,0
1583501058.303,0.977,30.762,40.039,11.719,4.883,0
1583501058.307,5.371,34.180,42.969,6.348,28.809,0
1583501058.310,9.277,36.621,42.480,10.254,2.930,0
1583501058.314,10.254,36.133,40.527,14.160,-18.066,0
1583501058.318,5.371,30.273,39.062,6.836,-44.434,0
1583501058.322,7.812,29.297,39.551,5.371,-11.230,0
1583501058.326,11.719,34.180,42.480,11.230,80.566,0
1583501058.323,10.742,33.203,42.480,17.578,5.859,0
1583501058.327,11.719,32.227,38.574,19.043,-19.531,0
1583501058.331,10.742,33.691,39.062,15.625,24.902,0
1583501058.335,8.789,31.250,39.551,12.695,16.113,0
1583501058.339,14.648,32.715,39.551,15.137,14.160,0
1583501058.343,14.648,38.086,40.039,19.043,4.395,0
1583501058.347,7.324,33.691,38.574,15.137,19.531,0
1583501058.350,13.184,32.715,36.133,14.160,22.949,0
1583501058.354,18.555,38.574,34.668,20.996,31.250,0
1583501058.358,19.531,38.086,37.109,20.508,41.016,0
1583501058.362,21.973,37.598,39.062,15.625,26.367,0
1583501058.366,22.949,37.598,34.668,16.113,32.715,0
1583501058.363,20.996,34.180,33.691,20.996,46.387,0
1583501058.367,16.602,32.227,34.668,28.320,27.832,0
1583501058.371,17.578,37.109,35.645,24.902,-21.973,0
1583501058.375,19.531,39.062,40.527,21.484,-33.203,0
1583501058.379,12.207,33.203,36.621,20.020,53.711,0
1583501058.383,8.301,31.738,34.180,20.508,-1.465,0
1583501058.387,11.719,30.273,35.645,22.949,31.250,0
1583501058.390,13.184,30.762,35.156,19.043,65.918,0
1583501058.394,12.695,35.156,35.156,18.555,30.273,0
1583501058.398,8.789,35.156,34.668,22.949,41.992,0
1583501058.402,6.348,33.691,36.133,28.320,6.348,0
1583501058.406,4.883,33.203,34.668,26.367,68.359,0
1583501058.424,6.836,36.133,34.668,23.926,59.570,0
1583501058.428,14.648,41.016,39.551,31.250,-12.207,0
1583501058.432,13.184,38.574,40.039,31.738,9.766,0
1583501058.436,8.789,33.691,37.598,20.020,12.207,0
1583501058.440,10.742,34.180,38.086,17.578,-5.371,0
1583501058.444,14.648,35.156,39.551,26.367,-2.930,0
1583501058.448,16.113,37.109,36.133,27.832,64.453,0
1583501058.451,17.090,38.086,31.738,23.438,80.566,0
1583501058.455,19.531,37.109,33.203,21.973,31.250,0
1583501058.459,16.602,37.598,34.180,20.020,69.336,0
1583501058.463,17.090,41.504,36.133,30.273,77.148,0
1583501058.467,13.672,41.016,36.621,31.738,25.879,0
1583501058.464,4.883,34.180,31.738,20.996,57.617,0
1583501058.468,1.465,34.180,31.738,18.066,62.988,0
1583501058.472,-1.953,35.156,33.691,18.066,96.191,0
1583501058.476,5.371,32.715,35.156,19.531,137.207,0
1583501058.480,11.230,33.203,33.203,17.090,64.941,0
1583501058.484,10.742,35.156,32.715,13.672,-9.766,0
1583501058.488,15.137,35.645,37.598,19.531,12.207,0
1583501058.491,12.695,33.691,37.598,23.438,16.113,0
1583501058.495,12.695,31.250,35.645,21.484,60.059,0
1583501058.499,17.090,39.062,41.992,20.020,82.520,0
1583501058.503,15.137,39.551,43.945,13.672,40.039,0
1583501058.507,6.348,32.227,41.016,15.625,29.785,0
1583501058.504,6.836,31.738,41.016,20.996,18.555,0
1583501058.508,12.695,34.180,41.992,20.020,1.465,0
1583501058.512,11.719,32.227,41.016,19.043,31.738,0
1583501058.516,16.113,30.762,37.598,22.461,63.965,0
1583501058.520,20.508,34.180,34.668,21.484,82.031,0
1583501058.524,19.043,34.668,36.621,18.555,81.055,0
1583501058.528,21.484,36.621,39.062,18.066,44.922,0
1583501058.531,23.438,39.551,39.062,20.508,46.387,0
1583501058.535,20.020,36.621,36.133,13.184,17.578,0
1583501058.539,16.113,32.227,31.738,5.371,9.766,0
1583501058.543,19.531,34.180,32.227,13.184,25.879,0
1583501058.547,20.996,36.133,29.785,18.066,60.059,0
1583501058.564,17.578,36.133,28.320,19.043,83.496,0
1583501058.568,19.531,35.645,30.273,18.066,56.641,0
1583501058.572,23.438,35.156,33.203,18.066,37.109,0
1583501058.576,24.414,35.645,35.645,21.484,34.180,0
1583501058.580,28.320,37.109,38.574,25.879,28.809,0
1583501058.584,24.414,35.645,37.598,25.391,41.016,0
1583501058.588,19.531,32.715,35.156,17.090,5.859,0
1583501058.591,25.391,32.227,35.645,20.996,-17.578,0
1583501058.595,28.809,31.738,36.133,27.344,46.875,0
1583501058.599,25.879,33.203,37.109,21.973,60.547,0
1583501058.603,23.926,34.180,39.062,19.531,16.113,0
1583501058.607,26.855,31.738,38.086,15.625,-9.766,0
1583501058.604,29.297,31.250,31.738,13.672,-17.578,0
1583501058.608,27.832,29.785,30.273,16.602,-29.785,0
1583501058.612,28.809,30.273,32.715,15.625,36.621,0
1583501058.616,38.574,38.574,36.621,18.555,61.035,0
1583501058.620,41.504,40.039,36.133,21.973,0.977,0
1583501058.624,40.527,36.133,33.691,13.184,14.648,0
1583501058.628,43.945,37.598,32.227,6.836,34.180,0
1583501058.631,49.316,41.016,29.785,10.254,57.617,0
1583501058.635,49.805,42.480,27.344,11.719,68.359,0
1583501058.639,47.852,43.457,29.785,12.207,20.508,0
1583501058.643,45.410,43.457,34.180,11.230,7.812,0
1583501058.647,44.922,42.969,32.715,10.742,-25.391,0
1583501058.643,45.898,43.457,30.762,15.137,-2.930,0
1583501058.647,40.039,39.062,31.738,16.113,8.789,0
1583501058.651,37.598,33.203,34.180,17.578,10.742,0
1583501058.655,42.480,32.227,35.645,22.461,52.246,0
1583501058.659,41.504,31.250,35.156,19.043,57.129,0
1583501058.663,38.086,29.785,34.668,22.949,13.672,0
1583501058.667,36.621,32.227,34.180,31.250,-17.090,0
1583501058.670,34.668,33.691,31.250,23.438,22.461,0
1583501058.674,31.738,31.738,27.832,11.230,36.133,0
1583501058.678,31.738,30.273,25.879,15.625,51.758,0
1583501058.682,34.180,32.227,28.809,23.926,59.082,0
1583501058.686,30.273,29.785,28.809,20.020,-3.418,0
1583501058.723,29.297,29.297,26.855,12.207,-10.254,0
1583501058.727,30.273,31.250,28.809,19.043,16.113,0
1583501058.731,28.809,32.715,27.832,22.949,58.594,0
1583501058.735,25.879,34.668,28.320,17.578,53.223,0
1583501058.739,24.902,33.691,29.297,19.043,-36.621,0
1583501058.743,29.297,35.156,30.762,21.973,-13.672,0
1583501058.747,34.180,35.645,30.273,20.996,17.578,0
1583501058.750,34.180,34.668,30.762,16.113,41.504,0
1583501058.754,36.133,37.598,33.203,16.113,23.438,0
1583501058.758,31.738,34.668,31.738,14.160,29.297,0
1583501058.762,24.414,29.297,30.273,9.277,60.547,0
1583501058.766,19.043,24.414,29.785,7.812,33.691,0
1583501058.745,17.090,23.438,27.832,7.812,57.617,0
1583501058.749,18.555,26.855,27.832,6.348,54.688,0
1583501058.753,9.766,26.367,26.855,6.348,52.734,0
1583501058.757,2.930,25.391,23.438,8.789,61.523,0
1583501058.761,2.930,26.855,25.391,11.230,11.230,0
1583501058.765,0.488,30.273,27.832,10.742,29.785,0
1583501058.769,-3.418,28.320,26.367,11.230,37.598,0
1583501058.772,-4.395,24.414,24.414,19.043,-13.184,0
1583501058.776,-1.465,29.297,24.902,19.531,23.438,0
1583501058.780,4.395,33.203,25.879,13.184,63.965,0
1583501058.784,8.301,31.738,25.391,11.230,18.555,0
1583501058.788,11.230,36.133,26.855,14.648,14.648,0
1583501058.804,14.160,37.598,26.855,19.043,36.133,0
1583501058.808,18.555,32.715,25.879,19.043,22.949,0
1583501058.812,24.414,33.691,28.320,12.207,15.625,0
1583501058.816,27.344,35.156,25.879,5.371,55.176,0
1583501058.820,27.344,33.691,22.461,10.742,91.309,0
1583501058.824,28.809,33.691,26.367,16.113,57.617,0
1583501058.828,28.809,31.738,27.832,9.766,-15.137,0
1583501058.831,28.320,31.738,25.879,13.184,36.621,3
1583501058.835,23.438,32.715,27.832,14.160,86.914,0
1583501058.839,19.043,28.809,28.320,9.277,42.480,0
1583501058.843,19.531,28.320,28.320,11.719,32.227,0
1583501058.847,14.648,27.832,28.320,12.207,29.297,0
1583501058.843,8.301,26.367,31.250,15.625,16.602,0
1583501058.847,9.766,28.320,34.180,14.648,-9.277,0
1583501058.851,9.766,28.320,35.156,14.160,15.625,0
1583501058.855,6.348,29.297,31.250,12.207,20.508,0
1583501058.859,3.906,29.785,28.809,6.348,24.902,0
1583501058.863,1.953,29.785,31.250,15.137,47.852,0
1583501058.867,3.906,27.832,28.809,14.648,105.469,0
1583501058.870,5.371,25.879,26.367,8.789,125.000,0
1583501058.874,0.488,25.879,26.855,13.184,20.996,0
1583501058.878,-3.418,27.832,27.832,13.672,-7.812,0
1583501058.882,-3.418,32.715,29.785,13.184,3.418,0
1583501058.886,-9.277,30.762,31.738,7.324,-15.137,0
1583501058.883,-13.672,25.879,29.297,4.395,-16.113,0
1583501058.887,-15.625,29.297,24.902,10.254,-1.465,0
1583501058.891,-19.043,32.227,25.391,13.184,7.324,0
1583501058.895,-14.160,33.691,25.879,12.207,35.156,0
1583501058.899,-10.742,35.156,24.902,10.742,16.602,0
1583501058.903,-11.230,36.133,27.344,12.695,-29.785,0
1583501058.907,-8.301,36.621,26.855,16.113,-0.488,0
1583501058.910,-3.906,37.109,22.461,16.113,68.848,0
1583501058.914,5.371,38.086,28.809,19.531,50.293,0
1583501058.918,14.648,41.504,35.645,19.531,19.043,0
1583501058.922,16.602,42.480,31.250,13.184,21.484,0
1583501058.926,17.578,38.086,29.297,11.719,70.801,0
1583501058.923,14.160,36.621,33.203,14.648,36.621,0
1583501058.927,10.742,39.062,35.645,18.066,16.602,0
1583501058.931,13.184,40.039,34.180,22.461,52.734,0
1583501058.935,14.160,35.645,32.715,22.461,-23.438,0
1583501058.939,10.742,32.715,34.180,12.695,11.719,0
1583501058.943,3.906,31.250,36.621,9.277,111.816,0
1583501058.947,4.883,28.809,38.574,15.625,97.656,0
1583501058.950,4.883,29.785,38.086,15.137,87.402,0
1583501058.954,-2.441,27.832,32.227,7.324,73.730,0
1583501058.958,-5.859,23.926,27.344,3.906,52.246,0
1583501058.962,-5.859,26.367,27.344,7.812,36.133,0
1583501058.966,-7.324,28.320,30.273,10.742,1.465,0
1583501058.983,-3.418,28.809,31.250,8.301,81.055,0
1583501058.987,1.465,30.762,30.762,9.277,86.426,0
1583501058.991,0.977,29.785,30.273,16.113,72.754,0
1583501058.995,3.418,30.762,30.273,20.020,79.102,0
1583501058.999,6.348,30.762,30.273,16.602,52.734,0
1583501059.003,8.301,32.227,29.785,13.184,41.016,0
1583501059.007,12.207,36.133,32.227,17.578,0.000,0
1583501059.010,15.625,36.133,32.715,26.367,66.895,0
1583501059.014,13.672,34.180,30.762,24.414,72.266,0
1583501059.018,10.254,33.691,29.297,21.484,19.531,0
1583501059.022,13.672,33.691,30.273,21.973,31.250,0
1583501059.026,18.066,34.668,28.809,19.043,42.480,0
1583501059.023,20.508,36.133,28.809,23.926,27.832,0
1583501059.027,20.020,37.109,31.738,24.414,3.418,0
1583501059.031,15.625,35.645,34.180,17.578,40.527,0
1583501059.035,14.160,34.668,33.691,17.578,29.785,0
1583501059.039,13.184,33.691,32.715,19.531,5.371,0
1583501059.043,9.277,31.738,35.156,14.160,26.855,0
1583501059.047,9.766,33.203,37.109,14.648,0.488,0
1583501059.050,12.695,33.203,39.062,18.066,7.324,0
1583501059.054,10.254,29.297,34.180,15.625,47.363,0
1583501059.058,7.812,26.367,34.180,13.672,48.340,0
1583501059.062,6.348,23.926,37.598,14.648,-0.488,0
1583501059.066,4.395,24.902,35.645,20.996,28.809,0
1583501059.063,5.371,27.344,37.109,23.438,80.078,0
1583501059.067,6.836,32.227,38.574,20.996,23.438,0
1583501059.071,5.859,35.156,38.086,14.648,-59.082,0
1583501059.075,7.324,31.738,36.133,12.695,-13.672,0
1583501059.079,12.207,33.203,34.668,20.020,0.000,0
1583501059.083,15.625,37.109,36.621,25.391,-42.480,0
1583501059.087,12.695,31.738,36.133,21.484,0.000,0
1583501059.090,12.207,28.320,33.691,15.625,42.969,0
1583501059.094,17.090,31.250,34.180,16.602,32.715,0
1583501059.098,15.137,32.227,33.691,18.555,5.859,0
1583501059.102,18.066,32.227,31.250,19.043,35.645,0
1583501059.106,20.508,33.691,32.227,20.996,81.055,0
1583501059.123,19.043,34.180,35.156,21.484,49.316,0
1583501059.127,18.555,32.715,35.156,19.531,38.086,0
1583501059.131,19.531,33.203,32.715,16.113,34.180,0
1583501059.135,16.602,34.180,30.762,11.719,69.336,0
1583501059.139,14.648,37.109,33.203,12.207,71.777,0
1583501059.143,14.648,40.039,36.621,15.137,16.602,0
1583501059.147,7.812,36.133,32.227,10.254,66.895,0
1583501059.150,4.395,31.738,26.855,8.789,82.520,0
1583501059.154,1.465,30.762,30.762,11.719,13.672,0
1583501059.158,-1.953,30.273,30.273,12.695,-6.836,0
1583501059.162,-1.953,30.273,31.250,11.719,3.418,0
1583501059.166,-2.930,27.832,34.180,5.371,20.020,0
1583501059.163,-1.953,28.320,30.762,12.207,10.742,0
1583501059.167,3.418,32.227,32.227,21.484,24.414,0
1583501059.171,5.371,33.203,36.133,27.344,41.504,0
1583501059.175,4.883,35.645,36.133,31.738,17.578,0
1583501059.179,8.789,35.156,31.738,23.438,41.992,0
1583501059.183,10.254,34.668,30.273,21.484,54.199,0
1583501059.187,5.371,36.621,30.762,21.973,2.930,0
1583501059.190,6.348,38.086,33.691,23.926,-37.109,0
1583501059.194,9.277,37.109,36.133,23.438,-23.438,0
1583501059.198,7.812,35.156,34.668,19.043,82.031,0
1583501059.202,9.277,36.133,31.250,25.879,75.684,0
1583501059.206,16.113,35.156,33.203,30.762,-20.020,0
1583501059.203,23.438,33.203,35.645,27.344,35.645,0
1583501059.207,22.461,32.227,34.180,25.391,80.566,0
1583501059.211,23.926,30.762,33.691,23.926,56.641,0
1583501059.215,25.391,32.227,30.762,21.973,23.438,0
1583501059.219,23.926,34.180,33.203,19.043,-13.184,0
1583501059.223,24.902,34.180,35.645,17.578,35.156,0
1583501059.227,24.414,33.691,33.691,21.484,48.828,0
1583501059.230,23.438,35.645,33.691,18.066,22.461,0
1583501059.234,22.461,35.156,32.715,16.113,20.508,0
1583501059.238,24.414,32.227,31.250,13.672,4.883,0
1583501059.242,27.344,31.250,31.738,10.742,24.902,0
1583501059.246,27.832,29.785,30.762,18.555,6.836,0
1583501059.264,32.715,31.738,35.156,20.020,20.996,0
1583501059.268,39.551,35.645,38.086,23.926,63.477,0
1583501059.272,39.551,35.645,33.691,20.020,92.773,0
1583501059.276,39.062,34.668,29.297,9.766,98.633,0
1583501059.280,39.551,34.180,27.344,18.066,53.711,0
1583501059.284,41.016,34.668,30.273,15.625,67.383,0
1583501059.288,41.992,34.180,30.273,9.766,79.590,0
1583501059.291,40.039,34.180,27.832,13.184,70.312,0
1583501059.295,39.062,34.180,27.344,14.160,11.719,0
1583501059.299,41.504,38.086,26.367,16.113,-31.250,0
1583501059.303,42.480,39.551,29.785,14.648,13.184,0
1583501059.307,38.574,35.156,30.273,13.672,41.016,0
1583501059.304,36.133,32.227,27.832,14.648,13.184,0
1583501059.308,34.180,31.738,28.809,9.766,7.324,0
1583501059.312,29.297,31.738,25.879,7.324,-6.348,0
1583501059.316,28.809,30.762,27.344,11.230,2.441,0
1583501059.320,30.762,29.785,27.344,14.160,57.617,0
1583501059.324,31.738,32.715,25.879,14.648,-10.254,0
1583501059.328,31.250,32.715,28.320,6.836,-61.035,0
1583501059.331,30.762,33.691,28.320,5.371,54.688,0
1583501059.335,39.551,37.598,31.738,14.648,55.664,0
1583501059.339,45.410,35.645,31.738,13.184,-37.598,0
1583501059.343,40.039,31.738,29.297,1.953,22.461,0
1583501059.347,42.969,34.180,25.879,4.395,15.625,0
1583501059.364,44.922,35.156,24.414,11.719,3.418,0
1583501059.368,42.480,35.645,26.855,10.254,59.570,0
1583501059.372,42.480,34.668,24.902,6.836,59.082,0
1583501059.376,41.504,35.645,25.391,1.465,52.734,0
1583501059.380,42.969,35.645,27.344,3.418,-6.836,0
1583501059.384,41.016,32.227,25.391,8.789,-43.457,0
1583501059.388,44.434,33.691,23.438,4.883,9.766,0
1583501059.391,42.480,33.691,21.973,2.930,55.176,0
1583501059.395,37.598,33.691,21.973,2.441,62.012,0
1583501059.399,40.039,34.180,21.484,4.883,36.133,0
1583501059.403,43.457,34.180,20.508,9.766,12.207,0
1583501059.407,44.922,34.668,24.902,8.789,30.273,0
1583501059.404,38.574,34.180,27.832,5.859,42.969,0
1583501059.408,32.715,34.180,27.344,7.324,109.375,0
1583501059.412,32.715,35.645,28.809,10.742,91.309,0
1583501059.416,36.621,38.086,32.227,12.207,28.320,0
1583501059.420,33.691,35.645,30.273,11.719,43.457,0
1583501059.424,34.180,33.691,27.344,13.184,13.672,0
1583501059.428,36.133,33.691,26.855,6.348,63.477,0
1583501059.431,35.645,33.691,25.879,1.953,80.078,0
1583501059.435,34.180,34.180,25.879,7.812,63.965,0
1583501059.439,36.621,37.598,27.832,12.695,45.898,0
1583501059.443,37.598,37.109,27.344,11.230,52.734,0
1583501059.447,31.250,34.180,30.273,7.812,81.055,0
1583501059.464,30.273,37.109,33.691,9.766,41.504,0
1583501059.468,33.691,37.598,25.879,5.371,16.113,0
1583501059.472,32.227,34.180,24.902,4.395,35.156,0
1583501059.476,32.227,30.762,25.879,6.836,31.738,0
1583501059.480,40.527,28.809,22.949,4.883,-1.953,0
1583501059.484,42.480,29.297,24.902,7.324,46.875,0
1583501059.488,42.480,30.762,24.902,8.789,70.312,0
1583501059.491,44.434,29.297,22.461,10.254,56.152,0
1583501059.495,43.945,29.297,25.391,9.277,8.789,0
1583501059.499,45.898,32.227,30.762,7.812,6.836,0
1583501059.503,50.781,35.645,34.668,16.113,19.043,0
1583501059.507,50.293,33.691,32.715,20.996,1.953,0
1583501059.504,47.363,29.297,29.297,18.066,38.086,0
1583501059.508,47.363,27.832,31.738,15.137,18.555,0
1583501059.512,46.387,25.879,29.785,17.090,34.668,0
1583501059.516,42.969,24.902,28.320,13.184,64.941,0
1583501059.520,40.527,24.902,29.297,9.766,1.953,0
1583501059.524,41.504,25.879,30.762,20.996,-1.465,0
1583501059.528,36.133,27.344,30.762,20.996,45.898,0
1583501059.531,31.738,30.273,34.180,21.484,55.176,0
1583501059.535,33.203,29.785,37.109,25.391,58.105,0
1583501059.539,26.855,26.855,31.250,20.508,34.668,0
1583501059.543,20.020,26.367,28.320,12.695,39.551,0
1583501059.547,30.273,28.809,29.297,16.113,53.223,0
1583501059.544,39.062,28.320,29.297,21.484,76.660,0
1583501059.548,34.180,24.902,28.809,18.555,24.414,0
1583501059.552,31.250,25.391,29.297,14.648,-72.754,0
1583501059.556,31.250,25.879,29.785,15.625,39.062,0
1583501059.560,32.715,27.344,29.785,17.578,69.824,0
1583501059.564,34.180,28.320,31.250,17.578,25.391,0
1583501059.568,23.926,25.879,30.762,15.137,72.754,0
1583501059.571,15.625,23.438,27.344,15.137,27.832,0
1583501059.575,11.719,23.926,26.855,10.254,-23.926,0
1583501059.579,14.160,24.902,29.297,9.766,1.953,0
1583501059.583,17.090,24.902,30.762,6.836,70.312,0
1583501059.587,16.113,23.926,27.832,0.977,91.797,0
1583501059.584,21.484,25.391,24.902,15.137,-5.859,0
1583501059.588,22.461,25.879,26.855,21.973,-31.250,0
1583501059.592,23.438,27.832,30.273,18.066,-35.645,0
1583501059.596,27.344,29.297,33.203,18.555,32.227,0
1583501059.600,21.973,26.367,30.762,18.555,61.523,0
1583501059.604,18.555,26.855,26.367,16.113,-9.277,0
1583501059.608,20.996,27.832,28.320,11.719,-39.551,0
1583501059.611,18.066,27.832,29.297,8.301,-26.855,0
1583501059.615,20.020,28.320,31.738,9.766,-20.020,0
