timestamps,TP9,AF7,AF8,TP10,Right AUX,Marker0
1583341432.207,35.645,31.250,34.668,23.438,-55.664,0
1583341432.211,37.598,31.738,42.480,38.086,-4.395,0
1583341432.215,68.359,38.086,43.457,47.852,4.395,0
1583341432.219,46.387,37.109,45.898,38.086,-8.301,0
1583341432.223,22.461,31.250,41.504,48.340,17.578,0
1583341432.227,41.992,34.668,39.062,58.105,65.918,0
1583341432.231,49.316,37.109,37.598,53.711,50.293,0
1583341432.234,37.598,41.016,29.297,54.688,39.551,0
1583341432.238,27.344,36.621,35.156,50.293,74.707,0
1583341432.242,32.227,28.809,43.457,35.156,35.645,0
1583341432.246,54.199,33.691,35.156,43.457,19.531,0
1583341432.250,46.875,34.180,30.762,55.664,-19.531,0
1583341432.248,29.297,34.668,34.668,43.945,-34.180,0
1583341432.252,47.363,34.180,39.551,48.340,-4.395,0
1583341432.256,52.734,38.574,34.180,40.527,32.715,0
1583341432.260,41.504,39.062,30.762,34.180,37.598,0
1583341432.264,29.785,34.180,35.156,55.176,14.160,0
1583341432.268,41.016,39.551,36.621,43.945,35.645,0
1583341432.272,70.312,38.574,35.645,41.504,61.035,0
1583341432.275,47.363,35.156,35.156,59.082,64.453,0
1583341432.279,15.625,33.691,38.086,52.246,67.383,0
1583341432.283,34.668,31.250,36.133,52.246,67.871,0
1583341432.287,59.570,34.180,34.180,39.551,23.438,0
1583341432.291,55.176,40.039,33.691,29.785,19.043,0
1583341432.307,25.391,37.598,38.574,43.945,49.805,0
1583341432.311,11.719,24.414,37.109,48.340,25.391,0
1583341432.315,35.645,28.320,27.344,50.293,47.852,0
1583341432.319,64.453,35.156,32.715,46.875,36.621,0
1583341432.323,43.457,33.691,38.086,33.691,6.348,0
1583341432.327,24.902,35.156,31.738,39.551,13.184,0
1583341432.331,30.762,30.762,30.762,48.340,58.594,0
1583341432.334,21.973,35.645,32.715,42.969,84.961,0
1583341432.338,20.996,41.992,32.715,43.945,1.465,0
1583341432.342,21.484,27.832,39.551,43.945,6.348,0
1583341432.346,27.344,28.320,34.668,38.086,30.273,0
1583341432.350,31.250,32.715,30.762,47.852,16.602,0
1583341432.348,21.484,30.273,35.645,47.852,22.461,0
1583341432.352,7.812,32.715,37.109,37.598,26.855,0
1583341432.356,20.508,33.203,35.156,30.762,-23.438,0
1583341432.360,33.203,28.320,35.156,33.203,4.883,0
1583341432.364,28.320,28.809,32.715,34.668,48.340,0
1583341432.368,34.180,30.273,32.227,26.855,64.941,0
1583341432.372,23.438,29.785,33.203,38.086,83.496,0
1583341432.375,23.438,28.809,33.691,43.457,24.414,0
1583341432.379,44.922,29.297,32.227,30.762,24.902,0
1583341432.383,47.852,31.250,31.738,27.832,65.430,0
1583341432.387,30.762,32.715,32.227,29.785,52.734,0
1583341432.391,27.832,32.715,33.691,40.039,33.691,0
1583341432.407,39.062,31.738,39.062,41.504,-11.230,0
1583341432.411,53.223,33.691,37.598,55.664,80.078,0
1583341432.415,48.828,37.598,34.668,56.152,108.398,0
1583341432.419,34.180,40.039,34.668,44.434,7.812,0
1583341432.423,48.828,38.574,32.715,36.621,22.461,0
1583341432.427,58.594,35.156,35.645,39.551,-3.418,0
1583341432.431,50.781,36.133,35.156,59.570,-17.090,0
1583341432.434,42.969,37.598,35.645,55.664,9.766,0
1583341432.438,41.504,35.645,35.645,49.316,22.461,0
1583341432.442,46.387,32.715,34.668,41.016,4.883,0
1583341432.446,45.410,37.109,33.203,39.551,20.996,0
1583341432.450,43.457,40.527,35.645,45.410,32.715,0
1583341432.447,43.945,37.598,39.062,51.270,6.836,0
1583341432.451,50.781,38.574,36.621,44.922,18.555,0
1583341432.455,49.805,38.574,32.715,39.551,10.254,0
1583341432.459,37.109,37.598,33.203,47.852,26.855,0
1583341432.463,34.180,39.062,32.715,41.016,85.449,0
1583341432.467,35.645,40.527,33.203,30.762,90.820,0
1583341432.471,39.062,39.062,29.785,30.762,56.641,0
1583341432.474,43.457,43.945,25.879,32.227,50.293,0
1583341432.478,47.363,45.898,27.832,35.156,62.988,0
1583341432.482,45.410,40.527,32.227,36.133,33.691,0
1583341432.486,37.109,38.574,32.715,42.480,41.992,0
1583341432.490,26.367,36.133,33.203,39.551,65.918,0
1583341432.527,34.180,37.109,31.250,23.926,20.020,0
1583341432.531,39.062,37.109,31.250,34.668,-17.090,0
1583341432.535,43.945,40.039,33.691,39.062,27.344,0
1583341432.539,47.852,41.504,33.691,31.250,72.266,0
1583341432.543,34.668,38.086,33.203,35.156,26.367,0
1583341432.547,35.156,37.109,32.715,33.203,33.203,0
1583341432.551,45.410,39.062,31.250,30.762,70.312,0
1583341432.554,39.062,38.086,33.203,27.344,-10.742,0
1583341432.558,28.320,34.668,32.227,31.250,-70.312,0
1583341432.562,24.414,33.203,31.738,29.785,-26.855,0
1583341432.566,33.691,32.227,34.180,24.902,19.531,0
1583341432.570,37.109,32.715,33.203,33.691,38.574,0
1583341432.530,24.414,31.250,34.668,37.109,51.758,0
1583341432.534,29.785,29.785,35.156,26.367,42.480,0
1583341432.538,35.156,31.738,35.645,26.855,67.871,0
1583341432.542,25.391,32.227,41.504,33.203,74.219,0
1583341432.546,28.809,34.668,43.945,37.109,-3.906,0
1583341432.550,33.203,35.645,40.039,39.551,-42.969,0
1583341432.554,34.180,31.738,37.598,36.133,8.789,0
1583341432.557,35.645,31.250,41.016,32.715,77.148,0
1583341432.561,36.621,34.668,37.109,30.273,91.797,0
1583341432.565,33.691,35.156,31.738,34.180,40.039,0
1583341432.569,32.227,34.180,33.691,40.527,62.500,0
1583341432.573,43.945,33.691,32.715,36.133,82.031,0
1583341432.587,41.016,33.203,33.691,33.691,76.172,0
1583341432.591,23.438,32.715,37.598,33.203,62.988,0
1583341432.595,30.273,35.645,31.738,31.738,29.297,0
1583341432.599,39.551,37.598,27.832,35.645,43.457,0
1583341432.603,30.762,39.062,30.762,34.180,40.527,0
1583341432.607,32.715,38.574,30.273,32.227,45.410,0
1583341432.611,31.738,36.621,33.203,27.344,34.180,0
1583341432.614,35.156,36.621,36.133,23.438,0.000,0
1583341432.618,42.969,38.574,34.668,32.227,-18.066,0
1583341432.622,38.086,37.598,31.738,35.645,-2.930,0
1583341432.626,40.039,37.598,32.715,34.668,56.152,0
1583341432.630,41.504,38.574,34.668,40.039,43.945,0
1583341432.627,42.480,37.598,34.180,43.457,2.441,0
1583341432.631,44.434,39.062,34.180,41.504,60.059,0
1583341432.635,39.062,37.109,36.621,35.645,57.129,0
1583341432.639,34.180,34.180,33.691,36.133,-20.020,0
1583341432.643,37.109,34.668,31.250,40.039,20.996,0
1583341432.647,38.086,33.691,32.227,37.109,51.758,0
1583341432.651,41.016,35.645,30.273,29.297,21.973,0
1583341432.654,36.621,35.156,31.738,29.785,26.367,0
1583341432.658,32.227,33.203,34.668,42.480,10.742,0
1583341432.662,29.785,35.156,34.668,37.598,29.297,0
1583341432.666,28.320,39.551,31.738,20.020,35.156,0
1583341432.670,29.297,40.527,32.715,18.555,57.129,0
1583341432.687,28.809,37.109,32.715,25.391,75.684,0
1583341432.691,33.691,38.574,31.250,28.809,75.195,0
1583341432.695,29.297,40.527,34.180,25.879,26.367,0
1583341432.699,24.414,39.551,33.691,29.785,19.531,0
1583341432.703,25.879,37.598,30.273,29.297,65.430,0
1583341432.707,27.832,36.133,31.250,32.227,35.156,0
1583341432.711,27.344,41.016,30.762,35.156,56.152,0
1583341432.714,30.762,40.527,32.715,25.879,29.297,0
1583341432.718,30.762,34.668,36.621,26.367,-12.207,0
1583341432.722,34.180,36.133,35.156,30.762,4.395,0
1583341432.726,40.039,37.598,33.203,31.738,39.551,0
1583341432.730,35.156,36.621,31.250,31.738,54.199,0
1583341432.727,31.738,36.133,31.250,24.414,39.062,0
1583341432.731,44.434,35.645,28.809,29.785,18.066,0
1583341432.735,52.734,34.180,25.879,36.621,57.129,0
1583341432.739,40.527,35.645,25.391,28.809,82.031,0
1583341432.743,34.180,36.621,28.320,30.273,75.195,0
1583341432.747,33.203,33.691,34.180,36.621,-10.742,0
1583341432.751,39.062,33.691,30.762,29.785,-64.941,0
1583341432.754,42.969,36.133,27.832,33.203,17.578,0
1583341432.758,33.203,36.133,30.762,40.527,81.055,0
1583341432.762,29.785,35.645,32.715,33.203,54.688,0
1583341432.766,38.574,36.133,33.203,33.203,43.945,0
1583341432.770,39.062,38.574,30.762,33.691,82.520,0
1583341432.767,31.738,38.086,28.320,28.320,74.219,0
1583341432.771,35.645,39.551,28.320,33.691,34.668,0
1583341432.775,41.016,40.039,30.762,34.668,67.871,0
1583341432.779,43.457,36.133,31.250,32.715,69.824,0
1583341432.783,39.551,34.180,31.250,31.738,8.789,0
1583341432.787,25.879,33.691,33.203,33.203,43.457,0
1583341432.791,26.367,33.203,36.133,33.691,107.910,0
1583341432.794,32.227,30.762,37.598,30.762,52.734,0
1583341432.798,29.785,31.738,35.156,31.250,-20.996,0
1583341432.802,26.367,35.645,33.691,28.320,12.207,0
1583341432.806,28.320,35.645,33.691,27.344,10.254,0
1583341432.810,38.086,36.133,31.738,30.273,-7.324,0
1583341432.807,29.297,35.156,31.250,26.367,47.363,0
1583341432.811,20.020,35.156,32.227,22.461,32.715,0
1583341432.815,27.344,36.621,31.738,18.555,1.465,0
1583341432.819,27.832,35.645,32.715,21.484,-6.836,0
1583341432.823,26.855,35.156,35.156,31.738,25.879,0
1583341432.827,21.973,34.668,35.156,28.809,25.879,0
1583341432.831,19.043,31.738,38.086,16.113,-25.391,0
1583341432.834,31.250,31.738,36.133,18.066,9.766,0
1583341432.838,37.109,32.715,33.691,29.297,23.926,0
1583341432.842,29.785,35.645,36.133,35.156,48.340,0
1583341432.846,25.879,38.086,37.598,38.086,56.641,0
1583341432.850,32.227,35.156,38.574,31.250,10.254,0
1583341432.867,30.762,33.691,34.668,25.391,-0.977,0
1583341432.871,24.414,33.691,33.203,22.461,18.066,0
1583341432.875,24.414,34.668,36.621,22.461,12.207,0
1583341432.879,22.949,35.645,35.645,27.344,17.090,0
1583341432.883,26.855,35.156,33.691,28.809,37.598,0
1583341432.887,29.297,34.668,34.180,28.320,23.926,0
1583341432.891,30.762,34.668,34.668,30.273,22.949,0
1583341432.894,33.691,33.203,36.621,34.668,53.223,0
1583341432.898,39.062,32.715,38.086,38.574,75.684,0
1583341432.902,39.551,32.715,36.621,39.551,23.438,0
1583341432.906,34.180,32.227,37.598,42.969,-17.090,0
1583341432.910,32.715,33.203,36.621,43.945,41.016,0
1583341432.907,31.738,34.180,32.715,38.086,28.320,0
1583341432.911,36.133,34.180,33.203,38.574,39.551,0
1583341432.915,30.762,34.180,34.180,36.621,82.031,0
1583341432.919,25.391,34.668,34.668,36.133,3.418,0
1583341432.923,30.762,34.668,35.156,38.086,24.414,0
1583341432.927,40.527,37.109,33.691,40.527,76.172,0
1583341432.931,42.480,38.574,34.180,46.387,-13.672,0
1583341432.934,29.785,36.133,35.156,39.551,2.441,0
1583341432.938,35.645,37.109,34.180,30.273,30.762,0
1583341432.942,42.969,37.109,34.180,34.180,12.695,0
1583341432.946,38.574,36.133,34.180,35.156,56.152,0
1583341432.950,34.668,35.156,34.180,30.273,86.914,0
1583341432.947,34.180,34.668,33.691,34.668,12.695,0
1583341432.951,40.039,38.086,34.668,43.945,-0.977,0
1583341432.955,38.086,40.527,35.156,39.062,77.637,0
1583341432.959,33.691,39.062,35.156,39.551,68.359,0
1583341432.963,26.855,35.645,38.086,42.480,9.766,0
1583341432.967,20.508,31.250,42.969,40.039,36.133,0
1583341432.971,29.785,32.227,41.016,43.945,59.082,0
1583341432.974,28.809,34.180,40.039,36.621,45.898,0
1583341432.978,23.438,32.715,41.016,25.391,44.922,0
1583341432.982,24.414,27.832,37.598,32.227,38.574,0
1583341432.986,25.879,27.344,31.250,37.109,68.848,0
1583341432.990,28.320,31.250,30.762,35.645,66.406,0
1583341433.007,26.855,33.691,33.203,41.504,80.078,0
1583341433.011,26.855,32.227,35.645,40.527,65.918,0
1583341433.015,29.785,32.227,38.086,37.109,-2.930,0
1583341433.019,33.203,33.691,35.156,44.434,24.902,0
1583341433.023,29.785,33.203,29.297,44.434,52.734,0
1583341433.027,25.879,32.227,30.273,38.086,70.312,0
1583341433.031,28.809,30.762,39.062,34.180,78.125,0
1583341433.034,30.273,32.715,33.691,35.156,71.289,0
1583341433.038,24.414,35.156,28.320,35.156,66.895,0
1583341433.042,27.832,32.227,33.203,35.645,40.527,0
1583341433.046,35.645,33.203,30.762,37.109,31.738,0
1583341433.050,35.645,35.156,28.320,36.621,1.953,0
1583341433.047,35.156,36.621,28.320,37.598,-4.395,0
1583341433.051,29.297,34.180,32.227,32.715,-10.742,0
1583341433.055,30.273,30.762,34.180,31.250,-42.480,0
1583341433.059,38.574,31.250,34.668,40.527,-38.086,0
1583341433.063,34.668,29.785,37.109,41.992,15.625,0
1583341433.067,27.832,33.203,35.156,32.715,61.523,0
1583341433.071,34.668,34.668,29.297,33.203,35.645,0
1583341433.074,43.945,31.250,23.926,41.504,14.160,0
1583341433.078,37.598,31.250,30.273,40.039,50.781,0
1583341433.082,32.227,32.715,32.227,34.180,69.336,0
1583341433.086,36.133,32.715,28.320,27.832,71.777,0
1583341433.090,40.039,33.691,29.785,33.691,52.734,0
1583341433.087,41.016,34.668,30.762,37.109,13.184,0
1583341433.091,36.133,37.109,29.297,29.785,2.930,0
1583341433.095,32.715,33.691,31.738,28.809,55.664,0
1583341433.099,36.133,32.227,29.785,34.668,125.977,0
1583341433.103,38.574,35.645,26.855,35.645,32.715,0
1583341433.107,35.156,30.762,30.273,32.715,9.277,0
1583341433.111,37.109,30.273,30.273,35.156,60.059,0
1583341433.114,38.086,34.180,33.691,34.180,10.742,0
1583341433.118,42.969,35.645,33.203,35.156,23.438,0
1583341433.122,46.387,35.156,33.203,38.574,52.734,0
1583341433.126,39.551,36.133,32.227,41.992,66.895,0
1583341433.130,40.527,39.062,29.785,46.875,37.109,0
1583341433.147,44.922,37.109,32.715,42.480,36.133,0
1583341433.151,41.992,35.645,34.180,33.691,45.410,0
1583341433.155,36.133,36.621,33.691,38.574,15.625,0
1583341433.159,37.598,35.156,35.645,46.387,27.832,0
1583341433.163,44.922,33.203,36.621,33.691,67.871,0
1583341433.167,44.922,35.645,34.180,30.762,16.602,0
1583341433.171,39.062,36.133,36.621,39.551,-10.742,0
1583341433.174,38.574,35.156,35.645,36.621,-3.906,0
1583341433.178,44.434,36.133,32.227,36.133,-21.484,0
1583341433.182,47.363,36.133,35.645,39.551,48.828,0
1583341433.186,46.875,36.133,33.203,37.109,48.828,0
1583341433.190,44.434,37.109,27.344,33.203,6.348,0
1583341433.187,41.504,36.621,27.832,34.668,-16.602,0
1583341433.191,47.363,38.086,31.250,41.992,26.367,0
1583341433.195,46.875,41.016,33.203,41.992,110.840,0
1583341433.199,35.156,36.133,35.645,34.668,55.176,0
1583341433.203,32.715,29.785,36.133,35.645,61.035,0
1583341433.207,36.621,34.668,30.762,41.992,69.336,0
1583341433.211,37.109,36.621,28.320,41.016,-8.301,0
1583341433.214,36.133,35.645,30.762,42.480,32.227,0
1583341433.218,35.156,36.133,30.273,41.016,49.316,0
1583341433.222,38.086,37.598,28.809,30.762,69.336,0
1583341433.226,38.574,36.621,32.227,30.762,72.754,0
1583341433.230,35.645,35.645,29.785,35.645,60.059,0
1583341433.267,37.598,38.086,28.809,39.551,100.098,0
1583341433.271,39.551,37.598,29.785,39.062,25.879,0
1583341433.275,38.086,38.086,25.879,39.551,-14.160,0
1583341433.279,37.109,37.598,25.391,37.109,33.691,0
1583341433.283,30.273,35.645,25.391,35.645,63.477,0
1583341433.287,29.297,35.645,26.855,35.645,24.902,0
1583341433.291,38.574,37.109,31.250,31.250,5.859,0
1583341433.294,35.156,34.180,34.180,23.926,-11.719,0
1583341433.298,27.344,30.762,30.762,26.367,-24.902,0
1583341433.302,31.250,30.762,28.809,27.832,-11.719,0
1583341433.306,35.156,30.273,31.738,22.949,38.086,0
1583341433.310,33.691,31.738,35.645,27.344,42.969,0
1583341433.287,33.691,34.668,33.691,34.668,6.348,0
1583341433.291,30.762,34.180,31.738,34.668,19.531,0
1583341433.295,33.691,33.203,33.203,28.809,68.359,0
1583341433.299,36.621,33.691,36.133,27.344,29.297,0
1583341433.303,33.203,31.738,34.180,32.715,-7.324,0
1583341433.307,30.762,31.250,37.109,33.203,28.320,0
1583341433.311,37.598,33.203,35.156,40.039,20.996,0
1583341433.314,40.039,32.715,33.203,44.922,-12.695,0
1583341433.318,32.227,31.738,31.738,35.645,10.742,0
1583341433.322,27.832,32.227,28.320,32.715,-4.395,0
1583341433.326,37.598,32.715,27.832,33.691,33.203,0
1583341433.330,54.688,34.180,27.832,43.945,71.777,0
1583341433.331,43.945,31.738,37.109,46.387,64.453,0
1583341433.335,17.090,25.879,38.086,22.461,21.973,0
1583341433.339,17.578,23.926,36.621,24.414,-6.348,0
1583341433.343,29.785,23.926,43.945,41.016,31.250,0
1583341433.347,33.203,25.879,43.457,43.457,23.438,0
1583341433.351,31.738,24.902,41.504,42.969,22.461,0
1583341433.355,27.344,24.902,47.852,39.551,46.387,0
1583341433.358,26.367,25.879,50.781,35.156,47.852,0
1583341433.362,28.320,25.879,46.387,25.879,53.711,0
1583341433.366,26.855,28.320,41.992,25.879,21.484,0
1583341433.370,22.461,27.344,41.504,36.621,3.906,0
1583341433.374,26.367,27.832,37.598,36.133,48.340,0
1583341433.387,34.668,26.855,37.109,31.738,15.137,0
1583341433.391,30.762,25.879,41.016,32.715,-22.461,0
1583341433.395,21.973,30.273,38.574,30.273,44.922,0
1583341433.399,24.902,31.738,36.621,34.180,62.500,0
1583341433.403,29.785,33.203,38.086,39.551,19.531,0
1583341433.407,27.832,33.203,38.086,39.062,-5.371,0
1583341433.411,25.391,32.227,35.645,32.715,23.438,0
1583341433.414,23.438,31.250,35.645,25.391,54.199,0
1583341433.418,28.809,32.715,36.133,22.461,97.168,0
1583341433.422,32.227,33.691,36.621,26.855,62.988,0
1583341433.426,28.320,32.715,35.156,31.738,23.438,0
1583341433.430,27.832,34.668,28.809,32.227,48.340,0
1583341433.428,30.762,37.109,25.879,30.762,0.488,0
1583341433.432,34.668,37.598,30.273,30.273,43.945,0
1583341433.436,39.062,35.156,34.180,33.691,80.566,0
1583341433.440,37.598,31.738,34.180,33.691,7.324,0
1583341433.444,36.621,34.668,32.715,34.180,-11.719,0
1583341433.448,36.133,38.086,31.738,36.133,-6.348,0
1583341433.452,35.156,35.645,34.180,35.156,14.648,0
1583341433.455,31.738,37.109,35.156,32.715,50.293,0
1583341433.459,34.180,35.645,32.227,31.250,46.387,0
1583341433.463,42.969,36.133,33.203,33.691,12.207,0
1583341433.467,42.480,41.016,31.250,38.086,-7.812,0
1583341433.471,38.086,39.062,31.738,39.551,30.273,0
1583341433.467,33.203,36.133,35.156,34.668,58.105,0
1583341433.471,36.133,36.621,30.762,38.574,52.734,0
1583341433.475,41.504,35.156,29.297,40.527,60.059,0
1583341433.479,35.645,35.645,33.203,32.227,69.824,0
1583341433.483,26.855,36.133,33.203,30.762,-1.465,0
1583341433.487,30.762,34.180,32.715,35.156,17.090,0
1583341433.491,35.156,35.645,30.273,33.691,84.473,0
1583341433.494,35.156,38.574,25.879,37.109,48.340,0
1583341433.498,30.273,37.598,28.320,32.715,22.461,0
1583341433.502,31.738,37.109,27.344,25.391,37.109,0
1583341433.506,37.598,38.574,28.320,30.273,10.254,0
1583341433.510,36.133,40.039,30.273,35.156,-45.898,0
1583341433.527,36.133,38.574,29.785,37.598,-5.371,0
1583341433.531,35.645,36.621,27.832,35.645,6.348,0
1583341433.535,35.645,35.645,24.414,32.715,20.020,0
1583341433.539,34.180,33.691,30.762,33.203,22.949,0
1583341433.543,28.809,34.668,33.691,27.344,-67.871,0
1583341433.547,25.391,35.645,30.762,23.926,-27.344,0
1583341433.551,27.344,34.180,33.203,25.879,4.883,0
1583341433.554,26.855,32.227,31.738,24.414,-30.762,0
1583341433.558,24.902,33.203,27.344,28.320,33.203,0
1583341433.562,28.320,35.645,25.391,33.203,54.199,0
1583341433.566,32.715,35.156,26.855,31.738,4.395,0
1583341433.570,36.133,34.180,27.832,29.297,4.395,0
1583341433.567,31.250,32.227,29.297,29.297,12.207,0
1583341433.571,28.320,30.762,30.273,31.738,-5.859,0
1583341433.575,36.621,32.227,25.879,29.785,-16.602,0
1583341433.579,43.457,32.715,22.461,30.762,46.387,0
1583341433.583,44.922,27.832,25.879,37.109,79.590,0
1583341433.587,48.340,28.320,28.809,40.527,70.312,0
1583341433.591,41.016,32.227,24.414,29.785,94.238,0
1583341433.594,43.945,33.691,21.973,26.367,54.688,0
1583341433.598,54.688,35.645,22.949,35.156,51.758,0
1583341433.602,39.551,32.227,23.926,27.344,43.457,0
1583341433.606,22.949,31.250,23.926,18.066,48.340,0
1583341433.610,24.414,34.180,24.902,18.066,-5.371,0
1583341433.607,26.855,35.645,26.367,24.414,2.930,0
1583341433.611,21.973,38.086,26.855,27.344,58.105,0
1583341433.615,23.438,39.062,27.832,26.855,59.082,0
1583341433.619,28.320,38.086,28.320,30.273,23.438,0
1583341433.623,30.762,38.086,27.344,32.227,35.645,0
1583341433.627,28.809,35.645,27.832,33.691,75.684,0
1583341433.631,24.902,36.133,29.297,37.109,20.020,0
1583341433.634,26.855,38.086,28.809,37.598,0.488,0
1583341433.638,37.598,35.156,29.297,37.598,-12.207,0
1583341433.642,40.039,32.715,28.809,35.156,-16.602,0
1583341433.646,37.109,37.109,27.832,40.527,23.438,0
1583341433.650,33.203,38.574,31.738,38.574,-19.531,0
1583341433.667,34.180,38.086,32.227,38.574,-32.715,0
1583341433.671,37.598,40.039,32.715,38.086,23.926,0
1583341433.675,32.715,40.039,30.762,33.203,52.246,0
1583341433.679,31.738,41.016,26.367,36.133,23.438,0
1583341433.683,32.227,40.039,24.902,36.621,33.691,0
1583341433.687,29.785,38.086,27.344,34.180,75.684,0
1583341433.691,25.391,38.574,24.902,30.762,79.590,0
1583341433.694,19.531,37.109,29.785,25.391,14.160,0
1583341433.698,24.414,35.156,33.203,26.367,-10.254,0
1583341433.702,28.320,36.133,28.320,32.227,61.035,0
1583341433.706,25.391,36.621,28.809,35.156,65.918,0
1583341433.710,25.879,37.598,28.320,37.109,40.039,0
1583341433.707,28.320,35.645,29.297,34.668,39.062,0
1583341433.711,35.156,35.645,27.832,37.109,-10.742,0
1583341433.715,34.180,33.203,25.879,38.086,-1.953,0
1583341433.719,28.320,31.250,27.344,38.574,29.785,0
1583341433.723,31.738,35.156,27.832,36.133,8.301,0
1583341433.727,36.133,37.109,26.855,35.645,44.922,0
1583341433.731,35.645,36.621,27.344,40.527,71.289,0
1583341433.734,35.156,36.621,28.809,41.504,65.430,0
1583341433.738,34.668,35.156,30.273,38.086,45.898,0
1583341433.742,35.156,36.133,32.227,40.527,-2.441,0
1583341433.746,39.062,36.621,34.180,36.133,8.789,0
1583341433.750,38.574,34.668,33.691,32.227,1.465,0
1583341433.747,29.297,34.668,30.762,35.156,-13.672,0
1583341433.751,30.273,34.180,28.320,38.574,43.457,0
1583341433.755,34.668,29.297,33.691,36.621,68.359,0
1583341433.759,35.645,31.738,31.738,30.762,42.480,0
1583341433.763,38.086,36.621,28.809,32.715,71.289,0
1583341433.767,31.738,35.645,34.668,30.762,83.496,0
1583341433.771,30.762,34.180,33.203,25.391,84.473,0
1583341433.774,38.574,36.621,34.180,30.273,73.242,0
1583341433.778,35.156,39.062,36.621,25.391,40.039,0
1583341433.782,27.344,36.133,32.715,17.578,20.020,0
1583341433.786,30.273,36.133,31.250,22.461,0.488,0
1583341433.790,36.621,39.551,30.273,26.855,13.672,0
1583341433.807,34.180,39.062,31.250,28.809,22.949,0
1583341433.811,26.367,37.109,33.203,26.367,22.461,0
1583341433.815,28.320,33.203,32.715,28.809,7.812,0
1583341433.819,29.297,30.273,30.762,29.785,0.977,0
1583341433.823,26.367,28.809,28.320,31.738,18.066,0
1583341433.827,24.902,29.785,30.762,35.156,55.664,0
1583341433.831,25.391,32.227,32.227,27.832,44.922,0
1583341433.834,28.320,31.738,32.227,27.832,15.625,0
1583341433.838,32.227,30.762,33.203,30.273,42.969,0
1583341433.842,28.320,31.738,31.250,30.762,23.438,0
1583341433.846,25.391,33.691,30.762,30.762,46.875,0
1583341433.850,32.227,31.738,33.203,28.809,75.195,0
1583341433.847,37.109,28.809,29.785,28.320,57.129,0
1583341433.851,36.133,28.809,28.320,34.180,90.820,0
1583341433.855,33.691,29.785,32.715,37.598,74.219,0
1583341433.859,35.645,27.832,31.738,38.574,33.691,0
1583341433.863,40.527,26.855,33.203,39.062,83.984,0
1583341433.867,36.621,31.738,33.691,34.668,76.172,0
1583341433.871,33.203,29.785,32.227,37.109,-3.906,0
1583341433.874,38.574,28.809,33.203,42.480,9.766,0
1583341433.878,40.527,31.738,33.203,43.457,-4.883,0
1583341433.882,33.691,33.203,33.203,39.551,-20.508,0
1583341433.886,28.809,31.250,35.156,32.715,18.066,0
1583341433.890,27.832,31.250,32.715,30.273,52.734,0
1583341433.887,33.691,33.691,29.297,30.762,54.199,0
1583341433.891,34.668,31.738,30.273,31.738,15.137,0
1583341433.895,28.320,33.691,28.320,35.156,9.766,0
1583341433.899,27.344,36.621,26.367,34.180,31.250,0
1583341433.903,31.250,33.691,30.762,31.738,32.227,0
1583341433.907,31.738,31.738,32.227,32.227,61.523,0
1583341433.911,27.344,32.715,32.227,33.691,-32.227,0
1583341433.914,24.902,34.668,34.180,30.762,-62.012,0
1583341433.918,26.855,34.668,34.180,25.391,14.648,0
1583341433.922,29.785,36.621,33.203,23.926,28.809,0
1583341433.926,26.855,36.621,33.691,22.461,45.898,0
1583341433.930,24.902,33.203,32.227,22.461,13.184,0
1583341433.947,26.367,32.715,26.855,28.320,-4.883,0
1583341433.951,34.668,33.203,26.855,30.762,60.547,0
1583341433.955,37.598,33.691,32.227,28.320,74.219,0
1583341433.959,31.250,37.109,32.715,29.297,40.527,0
1583341433.963,33.203,34.668,34.180,29.785,63.965,0
1583341433.967,37.109,32.715,32.227,28.809,85.938,0
1583341433.971,35.156,35.645,29.297,24.414,71.777,0
1583341433.974,28.809,34.180,31.738,18.555,18.555,0
1583341433.978,29.297,35.156,33.203,29.785,37.598,0
1583341433.982,38.086,34.668,33.203,39.551,80.078,0
1583341433.986,43.457,33.691,35.156,34.180,69.824,0
1583341433.990,41.992,35.156,32.227,32.227,40.039,0
1583341433.987,39.062,32.715,29.297,32.715,-13.672,0
1583341433.991,38.086,30.273,30.273,31.738,1.465,0
1583341433.995,38.086,31.738,32.715,31.738,33.691,0
1583341433.999,31.250,32.227,36.133,34.180,54.688,0
1583341434.003,23.438,31.738,34.180,34.668,30.273,0
1583341434.007,25.879,30.273,33.203,34.668,59.570,0
1583341434.011,30.762,30.273,34.180,32.227,70.312,0
1583341434.014,28.809,29.297,33.691,28.320,29.785,0
1583341434.018,26.855,32.715,30.273,27.344,54.688,0
1583341434.022,24.414,34.668,28.320,27.344,69.824,0
1583341434.026,28.809,34.668,30.273,26.367,34.180,0
1583341434.030,32.715,36.621,30.762,24.902,63.477,0
1583341434.028,31.738,36.133,31.250,25.879,52.246,0
1583341434.032,30.762,35.156,29.297,23.438,-16.602,0
1583341434.036,31.738,36.133,28.809,22.461,-21.973,0
1583341434.040,33.691,35.645,27.344,25.879,12.207,0
1583341434.044,32.715,35.156,28.320,24.414,16.602,0
1583341434.048,31.738,34.668,32.715,26.855,13.672,0
1583341434.052,36.133,38.086,30.762,28.809,13.184,0
1583341434.055,47.852,40.527,27.832,31.250,39.551,0
1583341434.059,55.176,37.598,33.691,40.527,21.484,0
1583341434.063,41.992,33.203,40.527,36.133,-43.457,0
1583341434.067,26.367,29.297,39.062,21.973,-10.742,0
1583341434.071,26.367,24.414,41.016,22.461,88.867,0
1583341434.087,28.320,21.973,42.480,28.320,140.137,0
1583341434.091,18.066,24.414,42.480,26.367,86.426,0
1583341434.095,9.766,20.508,41.992,17.090,25.391,0
1583341434.099,13.672,17.578,45.410,20.508,6.348,0
1583341434.103,16.602,21.484,47.363,21.484,22.461,0
1583341434.107,14.160,24.902,45.410,23.926,61.035,0
1583341434.111,14.648,25.879,41.992,22.461,50.293,0
1583341434.114,19.043,27.832,38.574,19.043,12.695,0
1583341434.118,25.391,27.832,38.086,22.461,34.668,0
1583341434.122,26.855,27.344,37.598,25.879,73.730,0
1583341434.126,27.832,31.738,39.551,30.762,65.918,0
1583341434.130,27.832,31.250,40.527,32.227,44.434,0
1583341434.167,27.832,29.785,39.062,32.227,57.129,0
1583341434.171,29.785,29.785,37.109,28.320,50.781,0
1583341434.175,21.973,27.832,37.109,26.367,16.113,0
1583341434.179,21.973,27.344,39.551,28.809,-0.488,0
1583341434.183,35.645,32.227,39.062,32.715,24.902,0
1583341434.187,39.551,34.180,39.551,31.738,34.180,0
1583341434.191,33.691,30.273,42.969,34.668,25.879,0
1583341434.194,36.621,30.273,42.480,47.852,51.758,0
1583341434.198,41.016,31.250,38.574,49.805,71.289,0
1583341434.202,43.457,34.180,36.133,41.504,30.762,0
1583341434.206,42.480,36.133,40.039,40.039,58.105,0
1583341434.210,39.551,35.156,42.969,40.527,40.527,0
1583341434.187,42.969,33.203,40.039,42.969,-47.363,0
1583341434.191,42.480,30.762,38.086,42.969,27.832,0
1583341434.195,38.086,32.715,38.086,41.016,63.965,0
1583341434.199,31.250,36.133,39.062,39.551,0.000,0
1583341434.203,33.691,34.668,39.551,38.086,14.160,0
1583341434.207,43.457,32.715,39.062,44.434,42.969,0
1583341434.211,45.898,40.527,34.180,45.410,16.602,0
1583341434.214,39.062,41.504,34.180,41.504,48.340,0
1583341434.218,32.715,36.133,33.691,37.598,105.469,0
1583341434.222,36.621,37.109,27.832,35.156,55.664,0
1583341434.226,39.551,37.109,29.785,36.621,77.637,0
1583341434.230,37.109,36.621,34.668,37.598,55.664,0
1583341434.229,34.668,41.992,37.598,39.062,47.363,0
1583341434.233,36.621,40.527,36.621,33.691,49.316,0
1583341434.237,36.621,36.133,32.715,31.738,-44.922,0
1583341434.241,31.250,35.645,31.250,30.762,-23.438,0
1583341434.245,28.320,34.180,33.203,25.879,33.691,0
1583341434.249,30.762,32.715,34.668,25.391,19.531,0
1583341434.253,34.668,34.180,33.691,22.949,57.617,0
1583341434.256,34.180,32.715,35.156,24.902,62.012,0
1583341434.260,29.785,30.762,33.691,28.320,36.133,0
1583341434.264,30.762,30.762,27.832,27.832,62.500,0
1583341434.268,37.109,31.738,30.273,29.785,60.059,0
1583341434.272,38.086,36.133,34.668,25.879,11.230,0
1583341434.287,37.109,37.109,31.250,25.391,-36.621,0
1583341434.291,39.062,35.645,31.738,29.297,0.000,0
1583341434.295,45.410,36.133,31.250,33.691,34.180,0
1583341434.299,47.363,36.621,27.344,33.203,10.742,0
1583341434.303,38.574,35.156,25.879,31.738,39.062,0
1583341434.307,31.738,36.621,29.297,35.645,54.688,0
1583341434.311,33.691,37.598,31.250,37.109,62.988,0
1583341434.314,42.480,34.180,29.785,45.410,63.477,0
1583341434.318,41.992,36.133,28.809,47.852,47.363,0
1583341434.322,21.973,39.062,27.832,29.297,58.594,0
1583341434.326,20.020,38.574,23.926,21.973,47.363,0
1583341434.330,25.391,37.598,24.902,31.250,12.695,0
1583341434.307,25.879,38.086,25.879,31.250,20.508,0
1583341434.311,29.297,40.527,20.996,26.855,11.719,0
1583341434.315,20.996,40.039,20.996,16.113,-7.812,0
1583341434.319,23.438,41.992,15.625,13.184,8.789,0
1583341434.323,28.320,42.480,15.625,19.043,22.949,0
1583341434.327,21.973,38.574,19.531,23.438,35.645,0
1583341434.331,23.438,39.551,15.137,23.926,-1.953,0
1583341434.334,29.785,39.062,19.043,20.508,-6.348,0
1583341434.338,33.691,37.598,23.438,23.438,41.016,0
1583341434.342,28.320,35.645,20.996,21.484,21.973,0
1583341434.346,26.855,35.645,20.508,18.555,16.113,0
1583341434.350,34.180,38.574,18.555,23.926,52.246,0
1583341434.367,35.645,41.016,20.020,23.438,80.078,0
1583341434.371,28.809,41.992,20.996,16.602,39.551,0
1583341434.375,22.461,38.574,20.996,20.020,36.133,0
1583341434.379,28.809,36.621,20.996,23.926,76.172,0
1583341434.383,36.621,40.039,21.484,27.832,95.215,0
1583341434.387,37.109,42.480,24.414,33.203,62.500,0
1583341434.391,30.273,38.086,23.926,25.879,74.219,0
1583341434.394,29.785,35.645,23.438,23.926,30.273,0
1583341434.398,37.598,38.574,26.855,32.227,-7.812,0
1583341434.402,34.668,38.574,29.785,32.227,12.207,0
1583341434.406,28.320,36.133,30.273,28.320,32.715,0
1583341434.410,29.785,35.156,28.809,25.391,36.621,0
1583341434.407,35.156,37.598,29.297,25.879,9.277,0
1583341434.411,40.527,38.086,29.785,31.250,0.000,0
1583341434.415,36.133,36.621,28.809,32.227,14.160,0
1583341434.419,32.715,38.086,27.832,31.738,5.859,0
1583341434.423,39.062,41.504,24.414,36.621,-13.672,0
1583341434.427,41.016,37.598,27.344,37.109,41.016,0
1583341434.431,39.062,35.156,29.785,40.039,49.316,0
1583341434.434,36.621,38.574,27.344,46.387,40.039,0
1583341434.438,36.621,38.086,28.320,40.527,78.613,0
1583341434.442,42.480,35.156,31.738,29.785,31.738,0
1583341434.446,45.898,35.645,33.203,32.715,15.137,0
1583341434.450,40.527,37.109,35.645,42.480,42.969,0
1583341434.447,38.574,36.621,36.621,42.480,47.363,0
1583341434.451,46.875,35.156,30.273,45.898,65.430,0
1583341434.455,43.945,33.203,27.832,42.480,85.449,0
1583341434.459,35.645,34.668,30.762,39.062,32.715,0
1583341434.463,37.109,38.574,27.832,39.062,39.551,0
1583341434.467,41.016,37.598,25.879,38.086,77.148,0
1583341434.471,41.504,31.738,28.320,38.086,17.578,0
1583341434.474,33.203,29.785,29.785,31.250,22.461,0
1583341434.478,27.832,30.762,33.203,25.879,29.297,0
1583341434.482,33.691,32.227,34.180,29.785,51.758,0
1583341434.486,36.621,31.250,29.785,33.203,45.898,0
1583341434.490,35.156,32.227,29.785,31.250,40.039,0
1583341434.507,30.273,35.645,31.738,29.785,32.227,0
1583341434.511,31.738,37.109,30.273,25.879,24.414,0
1583341434.515,36.621,37.598,28.320,26.855,6.836,0
1583341434.519,31.250,35.156,25.879,29.785,-37.109,0
1583341434.523,23.438,32.715,24.414,23.926,20.508,0
1583341434.527,23.926,33.203,27.344,20.996,17.090,0
1583341434.531,29.785,34.180,26.367,22.461,4.883,0
1583341434.534,31.738,33.691,25.391,24.902,70.801,0
1583341434.538,30.762,35.645,26.855,25.879,59.570,0
1583341434.542,30.273,37.109,25.391,27.344,34.668,0
1583341434.546,36.621,34.180,25.391,29.297,18.066,0
1583341434.550,40.527,32.715,26.855,29.785,19.531,0
1583341434.547,34.180,35.156,30.273,27.344,4.883,0
1583341434.551,30.273,35.645,29.785,26.367,16.602,0
1583341434.555,35.156,36.133,29.785,28.320,58.105,0
1583341434.559,40.039,38.086,26.855,25.879,42.969,0
1583341434.563,39.062,36.133,27.344,24.902,59.082,0
1583341434.567,36.621,34.668,30.273,28.320,76.660,0
1583341434.571,36.621,35.645,28.809,33.203,24.414,0
1583341434.574,41.504,33.691,27.344,38.086,1.953,0
1583341434.578,42.969,32.227,26.367,35.156,-22.461,0
1583341434.582,36.133,34.668,27.832,26.855,4.883,0
1583341434.586,34.668,33.691,29.297,28.809,53.223,0
1583341434.590,38.086,32.227,26.855,32.715,91.309,0
1583341434.587,41.016,36.133,29.297,31.250,109.863,0
1583341434.591,39.062,36.621,32.715,29.297,33.203,0
1583341434.595,36.621,34.668,35.156,30.273,-33.691,0
1583341434.599,38.574,36.133,34.668,34.180,-16.113,0
1583341434.603,38.086,37.109,32.715,35.645,-37.598,0
1583341434.607,37.109,36.621,34.180,36.133,17.090,0
1583341434.611,29.785,38.574,36.621,40.039,64.453,0
1583341434.614,28.320,37.109,35.156,35.156,62.988,0
1583341434.618,33.203,36.133,32.715,26.855,86.914,0
1583341434.622,31.250,35.645,32.715,31.250,63.965,0
1583341434.626,27.344,35.645,34.668,31.250,56.152,0
1583341434.630,26.855,34.180,31.250,26.367,46.875,0
1583341434.647,27.344,30.273,30.273,25.391,24.902,0
1583341434.651,30.273,29.297,33.203,26.367,18.555,0
1583341434.655,25.391,29.785,34.180,26.367,77.148,0
1583341434.659,20.020,32.227,34.668,25.391,58.594,0
1583341434.663,28.320,35.645,36.621,30.273,2.441,0
1583341434.667,33.691,33.203,34.668,34.180,-11.230,0
1583341434.671,26.855,30.762,30.273,29.785,-26.367,0
1583341434.674,23.926,30.762,30.273,28.320,-22.461,0
1583341434.678,28.320,30.762,30.762,28.809,2.441,0
1583341434.682,34.180,33.203,31.738,28.809,0.977,0
1583341434.686,33.203,35.156,30.762,28.320,6.348,0
1583341434.690,27.344,33.203,31.250,26.855,38.086,0
1583341434.687,30.762,34.668,30.273,28.320,52.246,0
1583341434.691,34.180,36.133,28.320,26.367,40.527,0
1583341434.695,34.180,32.715,30.762,26.855,45.410,0
1583341434.699,29.297,34.180,29.785,27.344,42.480,0
1583341434.703,24.902,32.715,29.785,23.438,-11.719,0
1583341434.707,25.391,31.738,31.250,26.367,-29.297,0
1583341434.711,26.855,33.203,31.250,25.879,56.641,0
1583341434.714,25.391,31.738,31.250,27.344,38.574,0
1583341434.718,28.809,30.273,30.762,28.320,37.109,0
1583341434.722,33.203,29.785,31.738,21.484,94.238,0
1583341434.726,34.180,26.367,30.273,24.414,61.035,0
1583341434.730,32.715,26.855,28.809,29.785,42.480,0
1583341434.747,27.344,29.297,26.855,29.297,57.129,0
1583341434.751,30.762,29.297,29.297,33.203,89.355,0
1583341434.755,36.621,30.762,34.668,38.574,88.379,0
1583341434.759,31.738,29.297,36.621,30.273,67.871,0
1583341434.763,26.367,30.273,35.156,25.879,6.836,0
1583341434.767,31.250,32.715,32.715,29.785,31.738,0
1583341434.771,31.250,33.203,33.203,29.297,68.359,0
1583341434.774,31.250,32.715,32.227,26.855,40.527,0
1583341434.778,28.809,31.250,28.809,25.391,48.340,0
1583341434.782,24.902,30.273,28.320,23.926,38.574,0
1583341434.786,28.320,29.297,30.273,21.484,22.461,0
1583341434.790,29.785,29.297,26.367,23.438,38.574,0
1583341434.787,28.809,28.809,25.391,29.785,15.625,0
1583341434.791,26.367,30.273,26.367,25.879,-29.785,0
1583341434.795,30.273,29.785,28.320,21.973,2.930,0
1583341434.799,36.621,30.762,29.297,30.273,60.059,0
1583341434.803,27.832,30.762,33.691,27.344,36.133,0
1583341434.807,24.902,31.738,34.668,25.391,10.254,0
1583341434.811,35.156,35.156,27.832,31.738,54.688,0
1583341434.814,34.180,32.227,27.832,27.832,26.855,0
1583341434.818,30.273,32.227,29.785,23.926,27.832,0
1583341434.822,29.785,33.691,30.762,25.879,59.082,0
1583341434.826,28.320,33.203,30.762,28.809,62.500,0
1583341434.830,27.832,32.715,35.156,23.926,115.234,0
1583341434.847,29.785,33.691,30.762,22.461,59.570,0
1583341434.851,29.785,38.086,26.367,28.320,23.438,0
1583341434.855,27.344,39.062,30.762,30.762,75.684,0
1583341434.859,32.715,36.621,29.785,31.738,24.414,0
1583341434.863,34.180,34.180,30.273,30.273,-9.766,0
1583341434.867,26.855,33.691,32.715,29.297,35.156,0
1583341434.871,19.531,33.691,32.715,30.762,12.207,0
1583341434.874,26.367,34.668,31.738,33.203,-0.488,0
1583341434.878,29.297,34.180,33.691,32.227,8.301,0
1583341434.882,25.391,31.738,33.691,25.391,62.500,0
1583341434.886,29.297,32.715,31.250,23.926,57.129,0
1583341434.890,31.738,34.180,35.156,27.832,23.926,0
1583341434.887,35.156,33.691,33.691,27.344,36.621,0
1583341434.891,32.715,34.180,38.086,24.902,26.855,0
1583341434.895,31.738,33.203,37.109,26.855,32.227,0
1583341434.899,37.109,33.203,27.344,34.668,-7.812,0
1583341434.903,38.574,36.133,29.297,32.715,26.367,0
1583341434.907,39.062,35.645,33.691,28.320,23.438,0
1583341434.911,38.574,37.109,36.133,33.691,39.551,0
1583341434.914,36.621,36.133,38.086,30.762,62.500,0
1583341434.918,36.133,33.203,37.109,25.391,29.785,0
1583341434.922,34.668,32.715,35.645,30.273,30.273,0
1583341434.926,29.785,32.227,36.133,30.762,20.996,0
1583341434.930,25.879,31.738,35.156,30.762,48.340,0
1583341434.947,28.809,34.180,36.133,29.297,98.633,0
1583341434.951,32.715,35.156,36.621,26.367,59.570,0
1583341434.955,30.273,32.227,33.691,27.344,27.832,0
1583341434.959,27.344,31.738,34.180,24.902,22.461,0
1583341434.963,26.367,32.227,37.598,27.832,-4.883,0
1583341434.967,28.809,32.227,33.691,28.320,28.320,0
1583341434.971,31.250,32.715,34.180,27.344,91.309,0
1583341434.974,24.902,31.738,35.645,26.367,49.805,0
1583341434.978,24.902,33.203,32.715,27.832,41.504,0
1583341434.982,28.809,34.668,33.691,31.250,72.754,0
1583341434.986,32.227,34.180,35.645,29.785,41.016,0
1583341434.990,31.250,33.691,35.645,35.156,11.719,0
1583341434.967,31.738,35.156,35.156,32.715,19.043,0
1583341434.971,38.086,37.109,36.621,28.809,38.086,0
1583341434.975,39.551,36.133,33.203,32.227,39.062,0
1583341434.979,39.062,35.645,28.809,33.203,14.648,0
1583341434.983,41.016,37.109,32.715,34.668,41.504,0
1583341434.987,44.434,37.598,35.645,40.527,73.242,0
1583341434.991,46.875,34.668,34.668,38.086,42.969,0
1583341434.994,43.457,34.180,35.156,33.691,62.500,0
1583341434.998,36.621,34.668,32.227,32.715,35.156,0
1583341435.002,34.180,33.203,29.297,35.645,4.883,0
1583341435.006,39.062,32.715,29.297,32.715,-5.371,0
1583341435.010,38.574,33.691,31.250,27.344,5.371,0
1583341435.027,33.203,33.691,31.250,28.320,31.738,0
1583341435.031,31.250,34.180,28.320,23.926,33.203,0
1583341435.035,34.668,32.715,29.297,24.414,30.762,0
1583341435.039,38.086,29.297,33.691,33.203,44.922,0
1583341435.043,37.598,29.297,30.273,36.621,20.508,0
1583341435.047,35.645,32.227,24.902,32.715,5.371,0
1583341435.051,34.668,33.203,24.414,27.344,-16.113,0
1583341435.054,31.738,33.203,29.785,25.879,-31.738,0
1583341435.058,28.809,31.738,32.227,26.855,25.391,0
1583341435.062,27.832,32.227,29.785,26.367,13.184,0
1583341435.066,25.879,30.273,28.320,26.367,8.789,0
1583341435.070,32.715,27.344,30.762,28.809,23.438,0
1583341435.087,35.645,29.297,27.832,32.227,19.531,0
1583341435.091,27.344,28.809,28.809,33.203,22.461,0
1583341435.095,27.344,28.809,32.227,34.668,4.395,0
1583341435.099,33.691,29.297,32.715,41.016,66.895,0
1583341435.103,35.645,28.809,34.180,42.480,99.609,0
1583341435.107,32.227,28.809,32.715,40.039,62.988,0
1583341435.111,32.227,30.762,30.762,39.062,13.184,0
1583341435.114,39.062,31.250,29.297,40.039,25.391,0
1583341435.118,44.922,30.273,29.297,41.992,60.059,0
1583341435.122,43.945,31.250,31.738,43.945,43.945,0
1583341435.126,44.434,34.180,29.297,41.016,8.301,0
1583341435.130,48.340,35.156,28.320,40.039,5.859,0
1583341435.107,48.828,33.691,32.715,37.598,7.324,0
1583341435.111,47.852,33.203,31.738,35.156,0.000,0
1583341435.115,43.945,33.691,32.715,34.180,87.402,0
1583341435.119,39.551,34.180,33.691,29.297,98.145,0
1583341435.123,41.992,33.203,27.832,29.785,24.902,0
1583341435.127,38.086,31.738,26.367,29.297,-17.090,0
1583341435.131,31.250,35.156,30.273,29.785,1.953,0
1583341435.134,30.273,36.133,28.320,29.297,76.660,0
1583341435.138,30.762,35.156,30.762,27.832,67.383,0
1583341435.142,30.273,35.156,33.203,25.391,34.180,0
1583341435.146,22.461,30.762,32.227,21.484,28.809,0
1583341435.150,19.531,30.273,33.691,24.902,41.504,0
1583341435.167,25.391,32.227,31.250,28.320,83.984,0
1583341435.171,25.391,31.250,32.715,24.902,36.621,0
1583341435.175,21.484,31.250,33.691,18.555,14.160,0
1583341435.179,21.973,34.180,27.344,20.020,32.227,0
1583341435.183,27.832,33.691,29.297,35.156,31.738,0
1583341435.187,40.527,30.273,35.156,51.270,48.828,0
1583341435.191,45.410,35.645,31.738,47.852,71.289,0
1583341435.194,32.227,42.969,25.879,30.762,18.555,0
1583341435.198,25.391,42.480,21.484,23.438,-30.762,0
1583341435.202,32.227,39.062,17.090,20.508,14.648,0
1583341435.206,37.598,40.039,18.066,27.344,-6.348,0
1583341435.210,33.203,43.457,20.020,27.832,-27.344,0
1583341435.227,26.855,44.922,17.578,11.230,-2.441,0
1583341435.231,36.133,44.434,14.160,13.672,74.219,0
1583341435.235,41.016,46.387,11.719,18.066,97.656,0
1583341435.239,35.156,47.363,11.230,14.648,46.875,0
1583341435.243,32.227,44.434,14.648,17.578,63.477,0
1583341435.247,34.668,42.480,18.555,17.090,63.965,0
1583341435.251,39.551,43.945,18.066,16.113,55.176,0
1583341435.254,37.109,42.969,18.555,20.996,118.164,0
1583341435.258,34.668,40.039,20.508,25.391,71.777,0
1583341435.262,39.062,41.992,21.973,25.879,16.602,0
1583341435.266,40.039,43.457,22.949,22.461,0.977,0
1583341435.270,37.109,40.527,22.949,20.996,-11.719,0
1583341435.267,32.715,36.621,25.391,23.438,38.574,0
1583341435.271,36.133,39.551,27.344,29.785,54.199,0
1583341435.275,42.480,41.016,28.320,31.250,54.688,0
1583341435.279,40.039,39.062,26.855,27.344,-57.129,0
1583341435.283,33.691,37.598,25.879,29.785,-24.902,0
1583341435.287,31.250,38.086,28.320,29.785,47.852,0
1583341435.291,38.574,41.016,28.320,28.809,43.945,0
1583341435.294,41.016,38.086,30.762,26.855,40.039,0
1583341435.298,30.762,34.668,27.832,22.461,-8.301,0
1583341435.302,27.344,33.691,21.973,18.066,23.926,0
1583341435.306,33.691,35.156,23.926,20.508,56.152,0
1583341435.310,34.180,37.109,26.855,25.391,3.906,0
1583341435.307,30.762,37.598,27.832,26.855,-6.836,0
1583341435.311,27.344,40.039,31.738,24.414,15.137,0
1583341435.315,29.785,36.621,30.273,22.461,15.625,0
1583341435.319,35.156,34.668,25.879,25.391,55.176,0
1583341435.323,33.691,36.621,26.367,27.832,26.367,0
1583341435.327,30.273,35.645,24.414,26.855,-58.105,0
1583341435.331,31.738,35.645,23.926,24.902,-19.531,0
1583341435.334,34.668,36.133,25.391,25.391,21.484,0
1583341435.338,36.621,37.598,25.391,23.926,26.367,0
1583341435.342,34.668,36.621,26.367,22.949,76.172,0
1583341435.346,35.156,36.621,24.902,24.902,39.062,0
1583341435.350,40.527,40.039,22.461,26.367,3.906,0
1583341435.367,41.992,39.551,24.414,23.926,29.785,0
1583341435.371,40.527,38.574,24.902,25.391,66.895,0
1583341435.375,32.715,38.574,25.391,27.344,84.961,0
1583341435.379,33.691,41.504,26.367,30.273,67.383,0
1583341435.383,42.480,42.969,31.250,30.273,29.297,0
1583341435.387,39.551,41.504,31.250,30.762,45.898,0
1583341435.391,36.621,41.504,24.902,32.715,49.316,0
1583341435.394,41.016,40.527,28.320,33.203,8.301,0
1583341435.398,42.969,37.598,27.832,32.715,-20.020,0
1583341435.402,39.062,35.645,28.809,31.738,33.691,0
1583341435.406,32.715,34.668,33.203,30.273,50.293,0
1583341435.410,31.738,33.203,31.738,28.809,24.414,0
1583341435.387,39.062,32.715,32.715,33.203,2.930,0
1583341435.391,41.016,32.715,35.156,35.645,-4.883,0
1583341435.395,35.156,33.203,34.180,34.668,25.879,0
1583341435.399,30.762,33.691,32.715,29.785,36.621,0
1583341435.403,36.621,35.645,31.738,30.762,15.625,0
1583341435.407,46.387,35.645,31.738,39.062,-1.465,0
1583341435.411,42.969,34.180,33.691,42.969,-23.926,0
1583341435.414,23.438,32.227,35.156,29.785,-8.789,0
1583341435.418,12.207,28.809,33.203,14.160,58.105,0
1583341435.422,17.578,25.879,36.621,15.625,62.500,0
1583341435.426,23.438,24.414,39.062,23.438,40.527,0
1583341435.430,23.438,23.926,39.551,26.855,79.102,0
1583341435.447,24.902,25.391,44.922,31.738,64.453,0
1583341435.451,25.879,28.320,46.387,32.715,32.227,0
1583341435.455,22.949,25.879,46.387,24.902,73.242,0
1583341435.459,21.973,26.855,44.434,26.855,51.758,0
1583341435.463,27.344,29.785,39.551,33.691,16.602,0
1583341435.467,32.715,28.320,40.039,35.156,48.340,0
1583341435.471,34.668,25.391,41.504,32.715,84.473,0
1583341435.474,31.738,26.367,41.504,32.715,50.293,0
1583341435.478,32.715,29.297,39.551,36.621,-13.672,0
1583341435.482,37.598,30.762,38.574,35.156,3.906,0
1583341435.486,40.039,31.738,35.156,35.645,-1.953,0
1583341435.490,34.180,31.738,36.133,36.133,6.836,0
1583341435.487,29.785,31.250,38.574,32.715,78.613,0
1583341435.491,36.133,31.250,35.156,36.133,67.383,0
1583341435.495,40.039,32.715,35.156,37.109,52.734,0
1583341435.499,38.574,30.762,36.621,32.227,43.457,0
1583341435.503,29.297,29.785,36.133,31.250,-3.418,0
1583341435.507,27.832,30.762,34.668,33.203,64.453,0
1583341435.511,34.668,31.250,34.668,30.273,74.707,0
1583341435.514,34.668,34.180,38.574,29.785,-8.301,0
1583341435.518,32.715,36.133,38.574,38.086,14.648,0
1583341435.522,31.250,36.621,35.645,39.062,51.758,0
1583341435.526,37.598,37.109,36.133,37.598,27.832,0
1583341435.530,42.480,37.109,37.598,41.992,-27.344,0
1583341435.547,34.180,38.086,36.621,40.527,-10.742,0
1583341435.551,27.832,37.598,35.645,36.621,-8.301,0
1583341435.555,26.855,35.156,37.109,31.738,-39.551,0
1583341435.559,28.809,34.668,36.621,29.297,-13.672,0
1583341435.563,26.855,34.180,32.227,28.809,18.066,0
1583341435.567,20.508,32.227,31.250,24.414,20.996,0
1583341435.571,20.020,29.785,32.227,24.902,0.977,0
1583341435.574,23.438,31.250,33.203,27.344,17.090,0
1583341435.578,20.508,32.227,34.180,21.484,74.707,0
1583341435.582,16.113,29.785,33.691,21.484,63.477,0
1583341435.586,22.461,29.297,34.180,28.320,59.570,0
1583341435.590,31.738,31.250,33.203,29.785,71.289,0
1583341435.587,31.250,31.738,32.715,29.297,83.984,0
1583341435.591,21.484,30.762,32.227,23.926,56.152,0
1583341435.595,18.555,31.250,33.691,24.414,36.621,0
1583341435.599,26.367,31.250,35.156,28.809,48.828,0
1583341435.603,32.715,32.227,39.062,28.809,42.480,0
1583341435.607,26.855,31.250,37.109,29.785,56.152,0
1583341435.611,27.344,31.738,33.203,33.691,24.902,0
1583341435.614,35.645,33.203,33.691,33.691,24.414,0
1583341435.618,41.992,33.691,32.715,34.180,11.719,0
1583341435.622,41.504,34.668,33.203,34.668,0.977,0
1583341435.626,34.668,35.645,36.133,30.273,39.551,0
1583341435.630,36.621,35.645,38.574,28.320,20.996,0
1583341435.647,41.992,33.203,36.133,28.809,23.438,0
1583341435.651,39.062,29.785,34.180,31.250,4.883,0
1583341435.655,31.250,28.809,37.109,31.250,20.508,0
1583341435.659,27.832,29.297,38.086,31.250,47.363,0
1583341435.663,35.645,30.273,33.691,30.762,38.086,0
1583341435.667,38.086,30.762,33.691,30.273,37.598,0
1583341435.671,31.738,30.273,36.621,31.738,10.742,0
1583341435.674,29.297,32.227,37.109,30.273,19.043,0
1583341435.678,29.785,35.156,33.691,27.832,66.895,0
1583341435.682,26.855,36.133,30.762,23.926,43.945,0
1583341435.686,22.461,34.668,30.762,22.949,-19.531,0
1583341435.690,21.484,31.738,29.297,22.949,-6.348,0
1583341435.668,26.855,33.203,32.715,24.902,51.270,0
1583341435.672,34.668,34.668,31.250,25.879,66.406,0
1583341435.676,38.574,34.180,27.344,29.785,43.457,0
1583341435.680,30.762,30.273,31.250,31.250,40.527,0
1583341435.684,21.973,26.367,34.668,23.926,55.176,0
1583341435.688,30.762,27.832,30.762,28.320,70.312,0
1583341435.692,36.621,28.320,27.832,29.785,104.004,0
1583341435.695,28.809,30.273,31.250,26.367,64.453,0
1583341435.699,28.809,32.227,35.156,25.879,-31.250,0
1583341435.703,33.203,30.762,34.180,26.367,-31.250,0
1583341435.707,33.691,29.297,33.691,26.855,24.414,0
1583341435.711,31.250,29.297,34.668,29.297,45.410,0
1583341435.727,29.785,32.227,35.645,26.855,23.926,0
1583341435.731,36.133,33.691,35.156,27.344,62.988,0
1583341435.735,41.016,34.180,33.691,30.273,62.012,0
1583341435.739,30.762,32.227,33.691,29.297,-8.789,0
1583341435.743,27.344,31.250,33.203,29.297,12.695,0
1583341435.747,36.133,34.668,34.180,30.273,42.480,0
1583341435.751,37.109,34.668,32.227,24.414,41.992,0
1583341435.754,34.180,34.180,30.273,23.926,35.645,0
1583341435.758,31.250,34.668,35.156,30.762,-12.207,0
1583341435.762,30.273,32.715,36.133,28.809,12.695,0
1583341435.766,33.691,32.227,34.180,27.832,73.730,0
1583341435.770,30.273,33.203,34.668,24.902,41.016,0
1583341435.767,24.902,33.203,34.180,24.902,-4.395,0
1583341435.771,24.902,33.203,35.156,24.902,40.039,0
1583341435.775,28.809,33.691,33.691,21.484,57.129,0
1583341435.779,32.227,35.156,31.738,23.438,0.000,0
1583341435.783,27.344,34.180,32.227,23.926,21.973,0
1583341435.787,25.879,32.715,32.715,24.414,53.223,0
1583341435.791,36.621,34.180,29.297,27.832,36.621,0
1583341435.794,41.016,35.645,25.879,28.320,47.363,0
1583341435.798,38.574,37.109,27.832,28.809,52.734,0
1583341435.802,36.621,37.109,31.738,28.320,53.711,0
1583341435.806,37.598,36.621,35.156,27.832,23.926,0
1583341435.810,46.387,38.086,36.133,34.668,7.324,0
1583341435.827,47.852,36.133,33.691,35.156,50.293,0
1583341435.831,41.016,34.668,33.691,33.691,45.410,0
1583341435.835,40.039,37.109,34.668,38.086,38.086,0
1583341435.839,43.945,36.621,34.668,42.969,83.984,0
1583341435.843,41.504,33.691,34.180,40.527,54.199,0
1583341435.847,35.645,35.645,37.598,35.156,41.504,0
1583341435.851,36.621,37.109,37.109,33.691,64.453,0
1583341435.854,39.062,35.645,36.133,30.762,16.602,0
1583341435.858,35.156,34.668,35.645,30.273,26.855,0
1583341435.862,35.156,34.180,34.668,33.203,63.477,0
1583341435.866,36.133,35.156,35.156,32.715,69.824,0
1583341435.870,34.668,33.691,36.621,30.273,109.863,0
1583341435.867,37.598,34.180,31.738,30.273,123.535,0
1583341435.871,31.250,37.598,26.367,25.879,85.938,0
1583341435.875,24.902,38.086,25.879,23.926,26.855,0
1583341435.879,31.250,37.109,25.879,27.832,7.324,0
1583341435.883,32.227,35.156,28.320,26.855,30.762,0
1583341435.887,31.250,38.574,29.297,30.273,37.109,0
1583341435.891,29.785,42.480,31.738,29.297,-13.184,0
1583341435.894,29.297,40.039,32.227,26.855,-17.090,0
1583341435.898,33.691,38.086,31.250,31.738,-1.465,0
1583341435.902,33.691,40.039,29.785,28.809,23.926,0
1583341435.906,28.320,39.551,26.855,25.391,-4.883,0
1583341435.910,28.809,38.574,25.879,20.996,22.949,0
1583341435.907,31.250,37.598,28.809,20.996,65.918,0
1583341435.911,33.691,38.574,29.785,27.832,47.363,0
1583341435.915,36.133,40.527,28.320,28.320,-2.930,0
1583341435.919,33.203,38.086,30.762,24.414,6.348,0
1583341435.923,35.645,37.109,31.738,25.879,20.020,0
1583341435.927,42.969,39.062,30.273,30.762,-20.508,0
1583341435.931,44.434,38.574,29.785,26.855,8.789,0
1583341435.934,41.992,38.574,27.832,23.438,92.773,0
1583341435.938,41.504,37.109,26.367,22.949,96.191,0
1583341435.942,42.969,35.156,30.762,23.438,88.867,0
1583341435.946,40.527,37.598,32.715,26.367,75.195,0
1583341435.950,37.598,39.062,29.785,28.320,45.898,0
1583341435.947,33.203,36.133,29.785,29.785,51.758,0
1583341435.951,37.109,38.086,30.273,35.156,6.836,0
1583341435.955,41.016,41.504,29.297,37.109,13.184,0
1583341435.959,35.645,38.574,29.785,31.738,28.809,0
1583341435.963,28.320,36.621,34.668,30.762,28.809,0
1583341435.967,28.320,36.621,36.621,29.785,37.598,0
1583341435.971,30.762,37.109,35.645,29.297,-34.180,0
1583341435.974,28.320,38.086,35.156,28.809,3.418,0
1583341435.978,25.391,36.621,32.227,26.367,83.984,0
1583341435.982,25.879,34.180,30.762,29.785,77.148,0
1583341435.986,32.227,35.645,30.762,29.297,11.719,0
1583341435.990,30.762,35.645,28.320,24.414,9.277,0
1583341436.006,19.531,32.227,29.297,23.926,22.461,0
1583341436.010,18.555,30.762,32.715,24.414,-26.367,0
1583341436.014,28.320,31.250,35.156,25.879,30.762,0
1583341436.018,40.039,35.645,33.691,34.180,69.336,0
1583341436.022,34.668,33.691,36.133,34.668,39.551,0
1583341436.026,17.578,28.809,44.434,21.973,14.160,0
1583341436.030,18.066,30.762,41.992,14.160,34.668,0
1583341436.033,23.926,26.367,38.574,19.531,70.801,0
1583341436.037,20.508,22.461,41.016,22.461,44.922,0
1583341436.041,20.020,28.809,38.574,23.926,-2.441,0
1583341436.045,26.367,31.250,39.062,25.391,42.969,0
1583341436.049,31.250,30.273,40.527,28.809,49.805,0
1583341436.047,33.203,34.180,39.551,33.691,18.066,0
1583341436.051,32.715,37.109,37.598,37.598,25.879,0
1583341436.055,36.621,35.156,37.109,40.039,41.504,0
1583341436.059,44.922,34.668,38.086,42.969,5.371,0
1583341436.063,42.480,34.668,37.598,40.039,-8.789,0
1583341436.067,41.992,34.180,36.133,38.574,9.277,0
1583341436.071,42.969,32.227,36.621,40.527,13.672,0
1583341436.074,42.969,34.180,35.156,40.039,49.316,0
1583341436.078,42.480,37.109,34.668,40.527,47.363,0
1583341436.082,38.086,35.645,37.109,34.668,21.973,0
1583341436.086,40.527,37.598,37.598,32.227,22.949,0
1583341436.090,43.457,37.109,35.645,36.133,42.969,0
1583341436.087,46.875,35.645,36.621,35.645,-3.906,0
1583341436.091,44.922,36.621,37.598,39.062,32.715,0
1583341436.095,37.598,38.086,35.156,39.062,55.664,0
1583341436.099,41.016,37.598,35.156,36.621,20.020,0
1583341436.103,44.434,37.598,37.598,38.086,-13.672,0
1583341436.107,45.410,39.551,36.621,37.598,-23.926,0
1583341436.111,41.016,41.992,37.109,41.016,35.156,0
1583341436.114,39.062,41.504,37.598,38.574,-6.348,0
1583341436.118,47.363,40.527,36.133,37.109,-24.902,0
1583341436.122,45.410,37.598,37.598,41.016,10.742,0
1583341436.126,40.039,37.598,37.598,36.133,4.883,0
1583341436.130,41.992,39.062,37.109,39.062,11.719,0
1583341436.147,46.875,38.574,34.668,40.527,11.230,0
1583341436.151,45.898,36.133,33.691,38.574,-28.320,0
1583341436.155,41.504,37.109,38.574,41.992,-4.395,0
1583341436.159,38.086,38.574,40.527,40.527,16.113,0
1583341436.163,39.551,37.109,39.551,40.039,-43.457,0
1583341436.167,40.527,37.109,38.574,39.062,-21.973,0
1583341436.171,34.180,37.598,39.062,31.250,15.625,0
1583341436.174,29.785,35.645,38.086,30.762,20.996,0
1583341436.178,36.133,36.133,35.645,34.180,43.945,0
1583341436.182,41.504,36.621,33.203,36.133,32.715,0
1583341436.186,36.133,37.109,33.203,31.250,28.320,0
1583341436.190,28.320,35.645,32.715,25.391,-13.184,0
1583341436.187,29.297,30.762,30.273,28.320,-9.766,0
1583341436.191,38.086,32.227,31.738,31.250,98.633,0
1583341436.195,37.109,35.645,32.227,32.227,90.820,0
1583341436.199,32.227,32.227,28.809,32.715,61.523,0
1583341436.203,31.250,30.762,27.344,33.691,103.516,0
1583341436.207,35.645,31.250,30.273,36.133,67.871,0
1583341436.211,37.598,29.785,33.691,33.691,76.660,0
1583341436.214,35.156,31.738,32.227,31.738,86.914,0
1583341436.218,33.691,32.227,34.180,35.156,53.711,0
1583341436.222,35.645,31.738,35.645,35.156,84.473,0
1583341436.226,48.828,33.691,31.250,43.457,64.453,0
1583341436.230,46.875,33.691,29.297,45.898,-12.695,0
1583341436.227,23.926,28.809,35.156,29.297,-40.527,0
1583341436.231,15.137,20.996,43.945,23.438,-37.109,0
1583341436.235,22.461,22.461,45.410,24.902,26.367,0
1583341436.239,24.902,26.855,43.945,24.902,26.855,0
1583341436.243,16.602,26.367,44.434,25.391,32.715,0
1583341436.247,9.766,28.809,45.898,19.531,-10.742,0
1583341436.251,15.625,28.809,46.387,21.973,16.113,0
1583341436.254,16.113,26.367,44.922,21.484,38.086,0
1583341436.258,14.648,26.367,41.992,18.555,16.113,0
1583341436.262,20.508,28.320,41.016,23.438,46.387,0
1583341436.266,29.785,26.367,42.969,23.438,12.207,0
1583341436.270,29.785,28.320,43.457,24.902,24.902,0
1583341436.287,24.414,30.762,38.086,25.879,96.680,0
1583341436.291,22.461,28.809,36.621,23.926,100.098,0
1583341436.295,21.973,28.809,37.598,25.391,48.828,0
1583341436.299,28.320,31.250,36.133,27.344,16.113,0
1583341436.303,30.762,30.762,36.621,29.785,-40.527,0
1583341436.307,27.832,30.762,34.668,28.809,-37.109,0
1583341436.311,29.297,32.227,35.156,30.273,19.043,0
1583341436.314,36.621,33.203,36.621,33.691,95.215,0
1583341436.318,39.551,33.203,33.203,33.203,60.059,0
1583341436.322,37.598,32.227,32.227,35.156,60.547,0
1583341436.326,39.551,33.691,35.156,36.133,101.562,0
1583341436.330,43.457,36.621,35.156,35.645,34.180,0
1583341436.327,44.922,34.668,35.156,39.551,52.734,0
1583341436.331,41.504,35.645,37.109,45.898,76.660,0
1583341436.335,38.086,38.086,37.598,44.922,34.180,0
1583341436.339,36.621,35.645,37.598,41.504,52.246,0
1583341436.343,37.109,33.691,37.109,38.574,72.266,0
1583341436.347,37.109,33.691,36.621,39.062,38.086,0
1583341436.351,31.738,33.203,36.133,40.039,38.574,0
1583341436.354,30.762,36.621,33.691,36.133,0.488,0
1583341436.358,37.109,41.504,31.738,31.250,-20.020,0
1583341436.362,33.203,41.016,35.156,27.344,22.461,0
1583341436.366,31.250,38.086,34.668,29.785,-7.812,0
1583341436.370,34.180,36.621,35.156,28.809,-33.203,0
1583341436.386,35.156,37.109,36.621,30.762,-5.371,0
1583341436.390,36.133,36.621,34.668,32.715,54.199,0
1583341436.394,30.762,34.668,30.273,32.227,60.547,0
1583341436.398,26.855,34.180,30.762,30.762,50.293,0
1583341436.402,31.738,35.645,33.691,29.785,67.383,0
1583341436.406,34.180,35.156,32.227,32.227,53.223,0
1583341436.410,31.738,34.668,29.297,33.691,20.508,0
1583341436.413,30.273,35.645,28.809,28.320,6.348,0
1583341436.417,37.109,34.180,29.297,29.297,2.441,0
1583341436.421,41.504,34.668,29.785,34.180,34.180,0
1583341436.425,38.086,37.109,29.785,31.738,61.523,0
1583341436.429,36.621,39.551,27.344,30.273,40.527,0
1583341436.427,39.551,39.062,27.832,32.715,13.184,0
1583341436.431,44.434,40.039,29.297,37.598,24.902,0
1583341436.435,45.898,41.504,31.250,38.086,7.812,0
1583341436.439,39.551,40.039,31.738,38.086,23.438,0
1583341436.443,40.039,41.016,32.715,41.016,75.195,0
1583341436.447,45.410,39.062,31.738,41.504,51.270,0
1583341436.451,43.945,36.133,29.785,41.992,18.555,0
1583341436.454,34.668,34.668,31.738,38.574,19.531,0
1583341436.458,30.762,31.738,33.203,34.668,44.434,0
1583341436.462,31.738,32.715,33.691,35.645,62.988,0
1583341436.466,31.250,35.645,35.156,32.227,41.504,0
1583341436.470,25.879,36.133,32.227,25.879,-17.578,0
1583341436.467,20.996,35.645,30.273,28.320,-8.301,0
1583341436.471,25.879,36.133,30.273,29.297,90.332,0
1583341436.475,29.785,35.156,30.762,29.785,94.238,0
1583341436.479,28.320,33.691,31.250,33.691,41.992,0
1583341436.483,26.855,35.156,30.762,34.180,52.734,0
1583341436.487,32.227,34.668,30.273,30.762,42.969,0
1583341436.491,35.156,33.691,26.855,26.855,-8.789,0
1583341436.494,31.738,34.180,25.391,26.367,48.340,0
1583341436.498,26.855,37.598,28.809,27.344,152.832,0
1583341436.502,30.273,37.598,33.203,29.297,111.328,0
1583341436.506,34.668,35.156,34.668,33.203,-5.859,0
1583341436.510,35.645,38.086,33.203,34.180,-1.465,0
1583341436.509,32.715,37.598,31.250,32.227,29.785,0
1583341436.513,33.203,37.598,29.785,35.645,6.836,0
1583341436.517,41.504,38.086,32.227,42.480,47.363,0
1583341436.521,44.434,34.180,33.691,42.969,97.656,0
1583341436.525,36.621,36.133,33.691,35.156,55.176,0
1583341436.529,31.738,40.527,33.203,34.180,41.016,0
1583341436.533,35.645,40.039,32.227,35.156,65.918,0
1583341436.536,41.504,41.016,32.715,32.715,62.988,0
1583341436.540,39.551,41.992,30.762,34.668,41.992,0
1583341436.544,35.156,42.480,30.273,36.621,42.969,0
1583341436.548,44.434,41.016,34.180,42.969,36.621,0
1583341436.552,48.340,38.086,40.527,46.387,-34.180,0
1583341436.569,31.250,34.668,41.992,35.156,24.414,0
1583341436.573,22.949,33.203,40.527,29.785,94.238,0
1583341436.577,23.926,28.320,43.457,32.715,84.473,0
1583341436.581,21.484,23.926,44.434,32.227,58.594,0
1583341436.585,21.973,24.902,44.434,31.738,27.344,0
1583341436.589,20.996,26.367,46.387,25.879,-9.766,0
1583341436.593,18.555,27.832,46.875,24.902,-33.203,0
1583341436.596,26.855,26.855,42.969,32.715,-9.766,0
1583341436.600,31.738,26.367,41.016,36.133,-3.906,0
1583341436.604,26.367,26.367,40.527,36.133,77.148,0
1583341436.608,22.949,26.855,40.039,36.133,107.422,0
1583341436.612,27.344,31.250,42.969,36.621,4.395,0
1583341436.608,34.180,33.203,44.922,36.621,-4.395,0
1583341436.612,34.180,35.156,44.922,40.527,-32.715,0
1583341436.616,27.832,35.156,41.992,42.480,2.441,0
1583341436.620,25.879,32.227,39.551,36.133,84.473,0
1583341436.624,31.738,32.715,41.016,31.250,61.035,0
1583341436.628,32.715,33.691,40.039,32.227,66.406,0
1583341436.632,30.273,32.715,39.551,32.715,80.078,0
1583341436.635,31.738,34.180,41.992,39.062,64.453,0
1583341436.639,41.016,38.574,41.504,41.016,50.293,0
1583341436.643,42.480,36.133,38.574,35.156,13.672,0
1583341436.647,38.574,34.668,38.086,33.691,-3.418,0
1583341436.651,39.551,37.598,39.062,33.691,62.012,0
1583341436.677,41.504,37.109,41.016,37.109,35.156,0
1583341436.681,42.969,35.156,39.062,34.180,10.742,0
1583341436.685,35.645,34.180,40.039,28.809,43.945,0
1583341436.689,27.344,35.645,44.434,33.691,-31.250,0
1583341436.693,35.645,36.133,41.992,35.156,7.812,0
1583341436.697,42.480,36.621,39.062,36.133,79.590,0
1583341436.701,37.598,36.133,39.062,36.133,42.480,0
1583341436.704,32.227,36.133,38.574,29.297,34.668,0
1583341436.708,35.156,37.109,41.016,30.762,13.184,0
1583341436.712,38.574,37.109,39.551,35.645,-4.395,0
1583341436.716,37.109,35.645,38.574,34.668,48.340,0
1583341436.720,30.273,37.109,41.992,33.691,53.223,0
1583341436.706,30.762,37.598,40.527,32.715,21.973,0
1583341436.710,38.086,36.133,40.039,33.691,26.855,0
1583341436.714,38.574,36.621,40.039,33.691,26.855,0
1583341436.718,32.715,36.133,37.109,34.668,17.090,0
1583341436.722,26.367,37.109,36.621,36.133,27.832,0
1583341436.726,25.879,39.551,37.109,32.227,38.086,0
1583341436.730,29.785,39.551,37.598,28.320,82.031,0
1583341436.733,27.344,39.062,38.086,28.320,103.516,0
1583341436.737,22.461,39.062,39.062,30.762,41.504,0
1583341436.741,26.367,35.156,41.016,30.762,-41.992,0
1583341436.745,33.203,35.645,35.645,23.438,-9.766,0
1583341436.749,30.762,38.574,33.203,21.484,12.207,0
1583341436.748,27.344,37.109,36.621,24.414,-7.324,0
1583341436.752,31.250,36.621,36.133,25.879,39.551,0
1583341436.756,36.133,37.109,34.180,25.391,41.992,0
1583341436.760,33.691,38.086,33.691,23.438,12.207,0
1583341436.764,31.250,39.062,35.156,24.414,20.020,0
1583341436.768,30.762,34.180,39.551,29.297,-0.977,0
1583341436.772,35.156,32.715,38.574,29.785,60.547,0
1583341436.775,44.922,35.156,36.133,30.762,47.363,0
1583341436.779,44.434,36.133,38.086,37.598,-30.762,0
1583341436.783,44.434,35.645,39.062,40.039,7.324,0
1583341436.787,47.852,34.668,36.621,40.039,17.090,0
1583341436.791,50.781,33.691,35.156,42.480,42.969,0
1583341436.806,47.852,29.297,35.156,39.551,9.277,0
1583341436.810,38.086,27.832,34.180,37.109,0.488,0
1583341436.814,33.691,26.855,34.668,37.109,49.805,0
1583341436.818,36.621,26.855,36.133,40.039,41.016,0
1583341436.822,34.668,28.320,39.062,38.574,8.789,0
1583341436.826,27.832,29.785,37.109,36.133,16.113,0
1583341436.830,28.809,30.762,31.738,34.180,14.160,0
1583341436.833,29.297,31.250,30.762,30.273,-25.391,0
1583341436.837,28.320,31.738,31.250,33.203,47.852,0
1583341436.841,30.273,32.227,29.297,35.156,53.223,0
1583341436.845,28.809,33.691,30.273,35.645,26.367,0
1583341436.849,31.250,34.668,30.762,35.645,78.613,0
1583341436.846,35.156,38.086,30.273,35.156,78.125,0
1583341436.850,31.738,38.086,29.785,36.621,21.484,0
1583341436.854,28.320,35.156,29.297,36.621,20.996,0
1583341436.858,30.762,36.133,31.250,35.645,62.500,0
1583341436.862,35.645,35.645,31.738,33.691,55.664,0
1583341436.866,32.227,34.180,29.297,30.762,28.809,0
1583341436.870,29.297,36.621,28.320,30.273,41.992,0
1583341436.873,33.203,37.598,29.785,32.227,73.242,0
1583341436.877,35.645,36.133,31.250,30.273,42.969,0
1583341436.881,37.109,36.133,32.227,29.297,19.531,0
1583341436.885,34.180,37.109,29.785,31.738,31.250,0
1583341436.889,27.832,35.156,26.367,28.809,25.879,0
1583341436.887,30.762,35.156,26.367,31.738,-11.719,0
1583341436.891,38.086,37.598,28.320,38.086,42.480,0
1583341436.895,29.785,35.645,29.297,30.273,87.402,0
1583341436.899,24.414,34.668,27.832,26.855,56.152,0
1583341436.903,32.715,36.133,28.809,34.668,90.332,0
1583341436.907,34.180,34.668,30.762,32.715,70.801,0
1583341436.911,30.762,34.180,29.785,30.273,-8.789,0
1583341436.914,25.879,35.645,29.297,26.855,-9.766,0
1583341436.918,26.855,36.133,32.715,22.461,13.672,0
1583341436.922,33.691,36.133,29.785,25.879,-29.785,0
1583341436.926,34.180,36.133,30.273,28.320,-19.043,0
1583341436.930,36.621,35.645,33.203,31.738,13.184,0
1583341436.966,45.410,34.668,33.203,43.457,49.805,0
1583341436.970,41.992,33.203,35.645,39.062,46.387,0
1583341436.974,32.227,32.715,37.109,27.344,-10.254,0
1583341436.978,22.949,29.297,38.574,26.367,-45.410,0
1583341436.982,19.043,26.855,41.504,27.832,-8.301,0
1583341436.986,30.762,30.762,42.969,34.180,56.641,0
1583341436.990,32.227,29.297,44.434,30.273,48.340,0
1583341436.993,17.578,25.879,43.457,19.531,2.930,0
1583341436.997,16.113,27.344,40.527,20.996,-14.160,0
1583341437.001,26.367,27.832,40.527,28.809,10.742,0
1583341437.005,29.785,29.297,40.039,26.855,39.551,0
1583341437.009,26.855,30.762,37.598,23.926,45.898,0
1583341436.988,24.414,32.715,37.109,31.250,7.812,0
1583341436.992,26.367,33.203,38.574,31.250,41.016,0
1583341436.996,32.227,29.785,38.574,29.785,76.172,0
1583341437.000,33.203,31.250,39.062,32.227,61.523,0
1583341437.004,34.180,32.715,40.527,36.133,91.309,0
1583341437.008,38.574,34.180,40.527,41.504,58.594,0
1583341437.012,41.992,35.645,39.551,43.457,47.852,0
1583341437.015,43.945,37.109,40.527,43.457,62.500,0
1583341437.019,38.086,37.109,38.086,38.086,17.578,0
1583341437.023,34.668,37.109,36.621,38.086,40.527,0
1583341437.027,42.480,37.109,38.574,40.527,96.680,0
1583341437.031,44.922,36.133,37.598,41.016,53.711,0
1583341437.027,37.109,37.598,36.621,40.527,12.695,0
1583341437.031,28.809,39.551,39.062,33.203,78.613,0
1583341437.035,30.273,36.133,40.527,28.809,100.586,0
1583341437.039,39.062,33.203,36.621,30.273,43.457,0
1583341437.043,34.180,34.668,35.156,30.273,29.297,0
1583341437.047,27.832,34.180,36.621,30.273,-2.441,0
1583341437.051,35.156,34.668,38.574,33.691,-27.344,0
1583341437.054,40.527,36.133,40.039,37.598,-10.742,0
1583341437.058,38.086,36.133,38.086,35.156,24.902,0
1583341437.062,35.645,36.133,34.668,31.738,85.938,0
1583341437.066,39.062,36.621,36.133,36.621,69.824,0
1583341437.070,41.992,37.598,36.133,41.016,26.855,0
1583341437.086,36.621,34.180,37.109,37.109,5.859,0
1583341437.090,35.645,32.715,36.133,30.762,77.148,0
1583341437.094,34.180,35.156,35.156,32.227,115.234,0
1583341437.098,34.180,36.133,39.551,36.133,77.637,0
1583341437.102,38.086,37.598,40.527,37.109,71.289,0
1583341437.106,35.645,36.621,38.574,40.039,34.668,0
1583341437.110,31.738,35.645,39.062,35.156,-0.977,0
1583341437.113,32.227,35.156,37.109,33.203,22.461,0
1583341437.117,34.668,33.691,31.738,39.062,58.594,0
1583341437.121,32.227,36.133,33.691,39.551,46.875,0
1583341437.125,30.762,40.039,35.156,39.062,13.184,0
1583341437.129,33.691,37.109,33.691,35.156,19.043,0
1583341437.127,38.086,34.180,32.715,35.156,47.363,0
1583341437.131,41.504,37.109,33.203,36.133,31.738,0
1583341437.135,35.156,38.574,36.621,38.574,4.883,0
1583341437.139,34.668,38.086,37.109,39.062,27.344,0
1583341437.143,40.527,36.621,36.621,38.574,21.973,0
1583341437.147,39.551,34.668,37.109,40.527,0.000,0
1583341437.151,34.180,31.738,37.109,41.504,8.301,0
1583341437.154,30.273,28.320,38.574,38.574,21.484,0
1583341437.158,31.250,29.297,37.109,34.180,8.301,0
1583341437.162,29.785,32.227,35.156,32.715,10.742,0
1583341437.166,26.367,33.691,34.180,29.785,24.902,0
1583341437.170,29.785,35.645,34.180,34.180,37.598,0
1583341437.167,35.645,34.668,35.645,36.621,64.941,0
1583341437.171,42.969,33.691,35.156,40.039,66.406,0
1583341437.175,44.922,34.180,37.109,45.410,31.250,0
1583341437.179,38.086,33.203,43.457,44.922,23.438,0
1583341437.183,39.062,33.691,43.945,43.457,57.129,0
1583341437.187,41.992,32.715,41.016,40.527,32.715,0
1583341437.191,39.062,30.273,37.598,40.527,50.293,0
1583341437.194,44.434,31.738,34.180,48.340,69.824,0
1583341437.198,49.805,38.574,33.203,45.410,80.566,0
1583341437.202,43.945,42.480,28.320,28.809,50.781,0
1583341437.206,38.086,41.016,24.902,20.996,12.695,0
1583341437.210,31.738,41.016,26.367,21.973,36.621,0
1583341437.246,24.902,38.574,28.320,21.484,-11.230,0
1583341437.250,31.738,36.133,28.320,25.391,11.719,0
1583341437.254,39.551,37.109,25.879,30.273,33.691,0
1583341437.258,37.598,39.062,25.391,32.715,-48.828,0
1583341437.262,34.668,38.086,30.762,32.227,-3.418,0
1583341437.266,35.156,35.645,34.180,33.203,62.500,0
1583341437.270,41.504,39.551,29.785,34.180,39.551,0
1583341437.273,41.992,39.551,27.832,33.691,54.688,0
1583341437.277,38.574,40.527,32.227,37.109,37.109,0
1583341437.281,41.504,41.504,33.691,39.551,32.715,0
1583341437.285,45.898,36.133,30.273,41.016,23.438,0
1583341437.289,43.945,35.645,29.785,39.551,-1.465,0
1583341437.266,38.574,36.133,27.344,37.109,47.363,0
1583341437.270,38.574,36.133,25.879,35.645,63.477,0
1583341437.274,42.480,37.598,28.809,35.156,10.254,0
1583341437.278,43.945,36.133,27.344,34.668,-18.066,0
1583341437.282,40.039,37.598,28.809,32.227,15.137,0
1583341437.286,34.668,38.574,29.297,34.668,47.852,0
1583341437.290,36.621,36.621,29.785,36.133,-7.812,0
1583341437.293,41.504,34.668,28.320,29.297,-52.734,0
1583341437.297,41.504,34.668,27.832,28.320,19.531,0
1583341437.301,36.133,35.645,30.762,29.785,23.926,0
1583341437.305,34.180,34.180,29.785,29.785,10.742,0
1583341437.309,40.527,34.180,29.785,33.691,28.320,0
1583341437.307,42.480,35.156,29.785,36.133,27.832,0
1583341437.311,38.574,37.598,29.785,33.691,52.734,0
1583341437.315,38.574,37.598,34.180,30.273,5.371,0
1583341437.319,41.016,35.156,38.086,29.297,-0.977,0
1583341437.323,43.457,34.668,37.109,39.551,33.691,0
1583341437.327,41.992,35.156,38.086,36.133,2.441,0
1583341437.331,39.551,34.668,37.109,32.227,1.465,0
1583341437.334,39.551,34.180,36.133,38.086,27.832,0
1583341437.338,42.969,34.180,34.668,35.156,40.039,0
1583341437.342,41.016,35.156,31.250,35.156,42.969,0
1583341437.346,36.621,35.645,33.203,39.062,16.602,0
1583341437.350,38.574,38.086,37.109,37.109,19.043,0
1583341437.367,38.574,37.109,34.180,34.668,31.250,0
1583341437.371,37.109,35.156,35.156,34.668,44.922,0
1583341437.375,31.738,33.203,34.180,32.227,33.203,0
1583341437.379,31.250,33.203,32.227,34.180,44.434,0
1583341437.383,36.133,33.203,34.668,36.621,75.195,0
1583341437.387,37.598,32.227,33.203,36.133,40.039,0
1583341437.391,35.156,35.156,28.809,34.668,2.441,0
1583341437.394,33.203,36.621,30.273,33.691,-1.953,0
1583341437.398,35.156,37.598,34.180,34.180,30.762,0
1583341437.402,36.133,34.668,33.691,36.133,56.152,0
1583341437.406,32.715,30.273,34.180,34.668,29.297,0
1583341437.410,34.668,32.715,35.645,33.691,-17.578,0
1583341437.407,37.598,34.668,36.133,36.133,31.250,0
1583341437.411,41.016,34.668,36.133,38.574,40.039,0
1583341437.415,40.039,35.156,35.645,43.457,0.977,0
1583341437.419,34.668,35.156,34.180,40.527,26.855,0
1583341437.423,34.668,36.133,34.180,35.645,51.270,0
1583341437.427,37.109,33.203,34.668,36.133,91.797,0
1583341437.431,32.715,30.273,34.180,34.668,44.434,0
1583341437.434,24.902,31.738,36.621,35.156,34.668,0
1583341437.438,26.855,31.250,35.156,34.668,71.289,0
1583341437.442,31.738,34.668,32.715,34.180,76.172,0
1583341437.446,31.250,38.086,30.273,32.227,107.422,0
1583341437.450,30.273,41.504,30.762,30.273,63.965,0
1583341437.447,29.785,42.480,34.668,26.855,41.992,0
1583341437.451,33.203,38.574,33.691,25.879,63.965,0
1583341437.455,34.668,39.551,31.250,26.855,54.688,0
1583341437.459,25.879,38.574,31.250,24.902,47.852,0
1583341437.463,22.949,36.133,33.203,24.414,66.895,0
1583341437.467,28.320,38.086,30.762,25.879,39.062,0
1583341437.471,32.227,38.574,27.832,28.320,22.949,0
1583341437.474,28.809,37.109,33.203,26.855,62.988,0
1583341437.478,27.344,35.645,34.668,25.879,76.172,0
1583341437.482,26.855,35.156,33.203,26.367,64.453,0
1583341437.486,33.203,36.621,33.203,26.367,36.621,0
1583341437.490,36.621,38.086,30.762,27.344,20.996,0
1583341437.507,32.227,39.062,29.297,26.367,80.566,0
1583341437.511,39.062,42.480,30.273,29.297,87.891,0
1583341437.515,48.340,42.969,28.320,36.133,29.785,0
1583341437.519,42.480,39.062,28.320,29.785,36.621,0
1583341437.523,28.320,34.668,34.180,21.484,48.828,0
1583341437.527,23.438,32.715,39.062,28.809,-2.930,0
1583341437.531,25.879,32.715,42.480,26.367,-13.672,0
1583341437.534,28.809,33.203,40.039,19.043,6.836,0
1583341437.538,26.367,33.203,37.109,20.020,58.594,0
1583341437.542,24.414,32.227,39.551,24.414,62.500,0
1583341437.546,26.855,32.715,37.598,26.367,3.418,0
1583341437.550,30.273,34.180,33.691,24.414,-3.906,0
1583341437.547,27.832,32.227,34.668,26.367,59.570,0
1583341437.551,26.855,33.691,33.691,27.832,58.594,0
1583341437.555,27.344,35.156,32.227,29.297,20.996,0
1583341437.559,31.250,35.156,32.715,29.785,7.324,0
1583341437.563,34.668,38.086,30.762,31.738,14.648,0
1583341437.567,32.227,35.645,35.156,33.691,49.316,0
1583341437.571,31.250,32.227,39.551,35.645,51.270,0
1583341437.574,33.203,30.762,36.621,36.621,42.480,0
1583341437.578,30.273,30.273,35.645,38.574,55.664,0
1583341437.582,22.461,31.250,39.062,33.203,43.457,0
1583341437.586,22.949,33.203,37.598,29.785,38.086,0
1583341437.590,28.809,34.668,33.203,32.715,15.625,0
1583341437.587,29.297,33.203,35.156,35.645,35.156,0
1583341437.591,25.879,31.738,38.086,34.180,68.359,0
1583341437.595,19.043,33.203,37.598,26.855,-5.859,0
1583341437.599,19.043,34.668,36.621,25.391,-4.395,0
1583341437.603,26.855,34.180,37.598,26.855,46.387,0
1583341437.607,29.297,34.668,41.016,28.320,31.250,0
1583341437.611,28.320,35.645,39.062,30.273,46.875,0
1583341437.614,30.273,36.133,39.062,31.250,34.180,0
1583341437.618,38.086,38.086,39.551,31.250,7.812,0
1583341437.622,45.410,39.062,30.273,34.180,1.953,0
1583341437.626,42.969,37.109,25.879,32.715,-0.977,0
1583341437.630,39.062,36.621,30.273,31.250,22.461,0
1583341437.646,46.387,37.598,31.738,30.762,25.391,0
1583341437.650,54.688,40.527,34.668,33.691,-5.859,0
1583341437.654,53.711,36.621,38.574,36.621,11.230,0
1583341437.658,47.852,33.203,39.062,32.227,0.977,0
1583341437.662,44.922,36.621,34.180,29.785,-9.766,0
1583341437.666,42.969,37.598,34.180,30.273,-1.465,0
1583341437.670,37.598,38.086,32.715,29.785,19.043,0
1583341437.673,33.691,40.039,27.832,31.250,30.273,0
1583341437.677,31.738,40.527,31.250,28.809,42.969,0
1583341437.681,31.738,37.109,32.715,26.855,52.734,0
1583341437.685,27.832,36.621,37.598,24.414,31.738,0
1583341437.689,23.438,38.574,43.457,22.461,41.504,0
1583341437.707,26.855,42.480,41.016,25.879,61.035,0
1583341437.711,26.855,41.504,36.621,21.973,31.738,0
1583341437.715,25.391,39.062,38.574,20.508,33.203,0
1583341437.719,13.672,43.945,43.457,18.555,39.062,0
1583341437.723,3.906,45.410,49.805,12.207,34.180,0
1583341437.727,12.695,49.316,62.012,10.742,62.500,0
1583341437.731,6.836,55.664,55.664,1.465,90.332,0
1583341437.734,-14.648,55.664,49.805,-20.020,53.711,0
1583341437.738,-31.738,58.594,54.688,-39.062,10.254,0
1583341437.742,-57.617,61.035,57.129,-63.477,0.977,0
1583341437.746,-77.637,58.594,61.523,-87.402,3.418,0
1583341437.750,-89.355,60.547,61.035,-101.074,-12.695,0
1583341437.727,-103.027,66.895,58.594,-111.328,-13.672,0
1583341437.731,-106.445,69.824,60.547,-113.281,-45.898,0
1583341437.735,-106.934,67.383,59.570,-115.723,-53.223,0
1583341437.739,-110.840,61.523,61.035,-117.676,24.902,0
1583341437.743,-106.445,61.523,62.500,-106.934,6.348,0
1583341437.747,-86.426,58.105,59.082,-84.961,17.090,0
1583341437.751,-67.383,51.758,56.152,-68.848,52.246,0
1583341437.754,-51.270,54.199,47.852,-60.547,34.180,0
1583341437.758,-35.645,52.734,40.527,-46.875,30.762,0
1583341437.762,-20.996,45.898,41.992,-26.367,13.672,0
1583341437.766,0.977,42.480,41.016,-5.371,35.645,0
1583341437.770,18.555,37.598,37.598,7.324,59.082,0
1583341437.788,23.438,31.738,39.551,12.695,44.922,0
1583341437.792,27.344,29.785,38.086,16.602,23.926,0
1583341437.796,39.062,28.320,34.668,28.809,9.766,0
1583341437.800,53.711,28.809,32.715,41.016,31.738,0
1583341437.804,58.594,27.344,30.273,47.852,28.809,0
1583341437.808,59.570,25.879,26.367,56.152,-7.324,0
1583341437.812,63.477,25.391,23.438,62.988,14.648,0
1583341437.815,70.312,24.902,22.949,65.918,100.098,0
1583341437.819,78.125,26.855,25.879,69.824,77.148,0
1583341437.823,76.172,25.391,25.391,72.754,6.836,0
1583341437.827,72.754,25.391,23.926,70.312,41.016,0
1583341437.831,77.148,28.320,24.902,67.871,43.457,0
1583341437.826,84.961,28.809,24.902,75.195,20.996,0
1583341437.830,83.496,26.855,24.414,79.102,26.367,0
1583341437.834,78.125,25.391,21.484,78.125,32.715,0
1583341437.838,82.031,28.320,20.508,78.125,60.547,0
1583341437.842,87.402,28.809,21.484,79.590,71.777,0
1583341437.846,82.031,25.879,20.996,77.637,58.594,0
1583341437.850,73.730,24.902,21.484,73.242,39.551,0
1583341437.853,78.613,26.855,20.996,76.660,65.430,0
1583341437.857,81.543,25.879,22.949,77.148,69.336,0
1583341437.861,72.754,22.949,25.879,67.383,3.418,0
1583341437.865,68.848,24.902,29.297,63.477,-18.066,0
1583341437.869,74.707,27.344,29.785,69.824,-6.836,0
1583341437.887,81.543,29.297,28.320,72.754,52.246,0
1583341437.891,81.543,31.250,28.320,72.754,110.352,0
1583341437.895,74.707,31.250,31.738,71.777,53.223,0
1583341437.899,69.824,30.273,29.297,72.266,-8.301,0
1583341437.903,72.266,29.297,22.949,71.777,-17.578,0
1583341437.907,75.195,30.762,24.414,69.336,20.508,0
1583341437.911,70.312,30.273,30.273,69.824,18.066,0
1583341437.914,65.918,28.320,32.715,66.406,-1.465,0
1583341437.918,72.754,28.320,29.297,65.430,87.402,0
1583341437.922,79.590,31.250,25.879,70.312,44.922,0
1583341437.926,75.195,33.691,27.832,72.754,37.598,0
1583341437.930,67.871,35.156,29.785,71.777,59.570,0
1583341437.927,69.336,36.133,29.785,72.754,56.152,0
1583341437.931,70.801,34.668,34.180,76.172,70.312,0
1583341437.935,67.871,33.203,35.645,73.730,38.574,0
1583341437.939,60.547,32.227,32.715,67.871,-14.648,0
1583341437.943,56.152,32.715,30.762,67.871,-35.156,0
1583341437.947,60.547,35.156,30.273,68.848,-23.926,0
1583341437.951,61.523,36.133,31.738,64.453,43.945,0
1583341437.954,55.664,34.180,32.227,59.082,85.938,0
1583341437.958,52.246,35.645,32.227,55.664,62.012,0
1583341437.962,59.570,37.109,34.668,60.547,55.664,0
1583341437.966,59.082,36.621,35.156,58.594,55.176,0
1583341437.970,49.805,35.156,31.250,46.875,95.703,0
1583341437.966,48.828,34.668,28.809,48.340,62.988,0
1583341437.970,51.758,33.691,31.250,52.734,-12.207,0
1583341437.974,52.246,32.227,35.156,55.176,22.949,0
1583341437.978,46.387,33.203,33.203,47.363,36.133,0
1583341437.982,41.504,34.180,32.715,45.410,8.789,0
1583341437.986,42.969,36.133,34.180,52.246,39.551,0
1583341437.990,46.875,37.598,33.691,46.875,33.691,0
1583341437.993,45.898,33.203,34.180,41.992,15.137,0
1583341437.997,41.992,34.668,28.809,41.504,68.359,0
1583341438.001,36.621,37.109,28.809,35.645,61.035,0
1583341438.005,33.203,28.809,34.180,33.691,16.113,0
1583341438.009,39.551,28.320,34.668,44.922,38.086,0
1583341438.027,50.781,35.156,34.668,54.688,42.480,0
1583341438.031,46.387,41.016,33.203,42.480,-15.137,0
1583341438.035,34.180,43.457,29.297,20.996,-10.254,0
1583341438.039,34.180,43.945,22.949,14.648,25.879,0
1583341438.043,41.504,45.898,19.043,22.949,50.293,0
1583341438.047,42.480,48.828,18.066,32.227,20.020,0
1583341438.051,35.645,50.293,14.648,25.879,-10.742,0
1583341438.054,32.715,53.223,10.742,14.160,25.391,0
1583341438.058,34.668,51.270,8.301,10.742,66.895,0
1583341438.062,36.133,50.293,4.395,9.766,55.664,0
1583341438.066,37.598,49.805,4.395,9.766,37.598,0
1583341438.070,35.156,47.363,10.742,11.719,75.195,0
1583341438.067,32.227,46.387,14.160,8.789,49.805,0
1583341438.071,33.203,42.969,12.207,11.719,-0.977,0
1583341438.075,35.645,41.504,13.184,21.973,23.438,0
1583341438.079,44.434,45.410,15.137,27.832,20.020,0
1583341438.083,49.316,46.387,14.648,29.785,-30.273,0
1583341438.087,44.434,45.898,16.602,35.156,-22.949,0
1583341438.091,41.016,43.457,19.531,39.062,-3.906,0
1583341438.094,38.574,41.992,22.461,38.086,-12.207,0
1583341438.098,41.016,43.945,20.508,34.668,58.105,0
1583341438.102,42.480,45.898,20.508,34.180,7.324,0
1583341438.106,34.668,43.945,24.414,30.273,-67.871,0
1583341438.110,39.551,41.504,23.438,30.762,21.484,0
1583341438.106,49.805,42.480,22.949,41.504,46.387,0
1583341438.110,46.875,43.945,28.809,40.527,32.715,0
1583341438.114,40.527,43.457,32.715,36.621,62.012,0
1583341438.118,40.527,42.969,30.762,35.156,63.965,0
1583341438.122,44.922,41.016,31.250,35.156,38.086,0
1583341438.126,45.410,40.527,30.762,37.598,38.574,0
1583341438.130,37.109,38.086,28.809,35.156,59.082,0
1583341438.133,32.715,33.203,26.855,33.691,22.949,0
1583341438.137,35.156,35.645,28.809,30.273,29.785,0
1583341438.141,37.598,39.551,34.180,28.809,7.812,0
1583341438.145,35.645,35.645,32.715,34.180,2.441,0
1583341438.149,32.715,35.156,31.250,36.621,55.176,0
1583341438.166,37.598,38.086,31.738,43.457,38.086,0
1583341438.170,45.410,39.551,28.320,41.992,44.434,0
1583341438.174,43.945,39.062,29.297,36.621,20.996,0
1583341438.178,39.062,38.086,31.250,39.551,36.133,0
1583341438.182,40.527,40.039,32.715,40.039,79.102,0
1583341438.186,43.945,39.062,33.691,38.574,68.359,0
1583341438.190,42.969,40.039,31.738,37.598,52.734,0
1583341438.193,39.062,41.992,33.203,35.156,21.973,0
1583341438.197,41.016,41.504,35.156,38.574,-0.488,0
1583341438.201,44.922,40.039,34.180,40.039,-3.418,0
1583341438.205,43.457,37.598,32.227,40.039,36.621,0
1583341438.209,41.016,39.062,32.715,45.410,70.801,0
1583341438.207,33.691,37.598,35.156,42.969,14.648,0
1583341438.211,34.180,35.156,37.598,36.133,-9.766,0
1583341438.215,37.109,36.621,34.668,36.133,57.129,0
1583341438.219,30.762,36.133,32.715,34.668,55.664,0
1583341438.223,27.344,34.668,31.738,33.691,-5.371,0
1583341438.227,33.203,34.180,29.297,32.715,-25.879,0
1583341438.231,35.645,34.180,30.762,28.320,24.414,0
1583341438.234,33.691,36.133,32.715,26.367,11.230,0
1583341438.238,33.691,37.598,33.203,27.832,-17.090,0
1583341438.242,33.691,39.062,34.668,27.344,25.391,0
1583341438.246,39.551,40.039,33.691,26.855,29.297,0
1583341438.250,43.457,39.062,28.809,29.297,38.574,0
1583341438.247,39.551,37.109,28.809,35.156,23.438,0
1583341438.251,37.598,37.109,29.297,35.156,67.383,0
1583341438.255,41.992,37.598,28.809,33.203,95.703,0
1583341438.259,42.969,34.668,32.715,32.715,29.297,0
1583341438.263,35.645,33.203,34.180,32.227,-21.973,0
1583341438.267,32.227,34.668,33.203,33.691,22.949,0
1583341438.271,39.551,34.668,30.273,33.691,27.832,0
1583341438.274,45.898,34.180,32.227,34.180,20.996,0
1583341438.278,43.945,34.180,35.645,33.691,73.730,0
1583341438.282,49.316,35.156,30.762,35.645,113.281,0
1583341438.286,53.223,36.621,31.250,44.922,86.426,0
1583341438.290,37.598,34.180,36.621,40.527,20.508,0
1583341438.327,25.391,33.203,39.062,29.297,48.340,0
1583341438.331,23.926,29.785,41.504,26.855,63.965,0
1583341438.335,22.461,28.320,40.527,32.227,-8.789,0
1583341438.339,23.926,28.809,39.062,34.668,7.812,0
1583341438.343,25.391,25.391,40.527,27.832,32.715,0
1583341438.347,20.996,25.879,38.574,28.320,11.719,0
1583341438.351,22.461,29.297,37.598,30.273,26.367,0
1583341438.354,31.738,28.809,39.551,28.809,6.348,0
1583341438.358,33.691,26.367,41.016,33.203,32.715,0
1583341438.362,27.832,28.320,41.504,39.062,0.000,0
1583341438.366,27.832,31.738,40.039,38.086,-45.410,0
1583341438.370,33.691,32.227,40.527,33.691,-5.371,0
1583341438.346,39.062,33.203,40.527,34.180,2.930,0
1583341438.350,41.504,33.691,37.109,37.109,48.828,0
1583341438.354,37.598,32.715,37.598,40.527,112.793,0
1583341438.358,38.086,32.227,36.133,38.086,112.793,0
1583341438.362,43.457,34.180,39.062,36.133,67.383,0
1583341438.366,41.504,34.668,40.039,39.062,0.977,0
1583341438.370,35.645,34.668,37.598,40.039,21.973,0
1583341438.373,35.156,35.156,38.574,36.621,34.668,0
1583341438.377,36.621,36.621,36.133,36.133,-1.953,0
1583341438.381,38.086,36.621,36.133,41.016,51.758,0
1583341438.385,32.227,34.180,39.551,38.574,140.625,0
1583341438.389,29.785,34.668,36.621,39.551,128.418,0
1583341438.388,38.574,34.668,36.621,40.039,41.992,0
1583341438.392,39.062,32.227,40.039,37.598,15.625,0
1583341438.396,34.180,31.250,38.574,40.527,28.320,0
1583341438.400,25.879,33.203,35.156,34.668,23.926,0
1583341438.404,22.949,34.180,34.180,30.273,-5.371,0
1583341438.408,38.574,34.180,36.621,34.668,38.086,0
1583341438.412,38.574,35.645,37.109,34.180,56.152,0
1583341438.415,35.156,33.203,34.668,33.691,34.180,0
1583341438.419,39.062,32.715,36.133,38.574,12.207,0
1583341438.423,42.480,34.180,37.598,40.527,6.348,0
1583341438.427,42.480,37.109,37.598,41.016,35.156,0
1583341438.431,35.645,36.621,38.574,41.016,55.664,0
1583341438.448,32.715,35.156,35.156,39.062,13.184,0
1583341438.452,36.621,37.109,36.621,32.227,-21.484,0
1583341438.456,35.156,35.645,38.086,28.809,-27.832,0
1583341438.460,30.273,33.203,34.668,30.762,-10.254,0
1583341438.464,24.902,33.691,35.645,29.785,42.969,0
1583341438.468,28.320,34.180,35.645,30.762,67.871,0
1583341438.472,31.738,33.691,32.715,32.227,8.789,0
1583341438.475,31.738,37.598,32.227,32.715,-13.672,0
1583341438.479,29.297,38.086,35.156,30.273,30.762,0
1583341438.483,30.273,33.203,35.645,26.367,56.152,0
1583341438.487,34.180,34.180,32.715,29.297,104.004,0
1583341438.491,33.203,32.715,29.785,27.832,64.453,0
1583341438.487,29.785,33.203,31.250,26.367,29.297,0
1583341438.491,34.180,34.668,32.715,35.645,41.992,0
1583341438.495,42.969,35.156,29.297,41.016,14.648,0
1583341438.499,46.387,38.574,27.832,35.645,25.879,0
1583341438.503,42.969,38.574,32.227,32.715,37.109,0
1583341438.507,43.457,36.621,35.645,34.180,42.969,0
1583341438.511,49.805,38.086,36.621,34.668,70.312,0
1583341438.514,49.805,36.621,35.156,35.645,52.246,0
1583341438.518,37.109,34.180,33.203,40.527,25.879,0
1583341438.522,28.809,35.645,34.668,36.133,2.930,0
1583341438.526,30.273,32.715,35.156,20.996,27.344,0
1583341438.530,28.320,30.273,32.227,18.066,14.648,0
1583341438.527,22.461,34.668,29.785,21.484,-4.883,0
1583341438.531,12.207,36.621,27.832,22.949,14.648,0
1583341438.535,14.648,35.156,28.809,27.832,-7.812,0
1583341438.539,27.832,36.621,31.250,32.227,-13.184,0
1583341438.543,28.809,37.109,35.156,31.250,69.824,0
1583341438.547,24.414,36.133,35.645,33.203,76.660,0
1583341438.551,25.879,34.668,35.645,33.203,49.805,0
1583341438.554,29.297,34.180,35.156,30.762,30.762,0
1583341438.558,24.902,34.668,31.738,23.438,-20.508,0
1583341438.562,24.414,31.738,26.855,17.578,0.488,0
1583341438.566,27.832,33.203,26.855,27.344,31.250,0
1583341438.570,32.715,35.645,29.785,33.691,20.508,0
1583341438.586,37.109,32.715,28.320,31.250,22.461,0
1583341438.590,36.621,34.180,28.809,30.273,45.410,0
1583341438.594,32.227,36.621,29.785,29.785,63.477,0
1583341438.598,35.156,38.574,31.738,34.668,74.707,0
1583341438.602,38.574,40.039,34.668,35.645,22.949,0
1583341438.606,33.691,39.551,33.203,31.738,-39.551,0
1583341438.610,32.715,40.039,32.227,24.414,4.883,0
1583341438.613,30.273,41.016,31.250,21.484,39.551,0
1583341438.617,37.109,40.039,30.762,32.227,23.438,0
1583341438.621,42.969,40.039,34.668,38.574,26.855,0
1583341438.625,20.996,36.133,38.574,24.902,-2.441,0
1583341438.629,15.625,31.250,39.551,17.090,39.551,0
1583341438.628,25.879,28.320,41.992,22.461,80.078,0
1583341438.632,22.461,29.785,43.457,21.973,17.090,0
1583341438.636,20.508,31.738,41.016,23.438,13.184,0
1583341438.640,21.973,29.785,43.457,25.391,41.504,0
1583341438.644,29.297,30.762,45.898,28.809,33.203,0
1583341438.648,36.133,33.691,43.457,36.133,-20.020,0
1583341438.652,32.715,33.203,41.016,35.645,14.648,0
1583341438.655,30.762,33.691,41.504,33.203,43.945,0
1583341438.659,27.832,35.156,41.016,34.668,1.953,0
1583341438.663,27.832,33.691,36.621,34.668,20.508,0
1583341438.667,35.156,33.691,33.691,40.039,30.273,0
1583341438.671,29.785,32.227,34.668,33.691,54.688,0
1583341438.666,29.297,30.273,36.133,28.809,51.758,0
1583341438.670,37.598,31.738,35.156,34.180,57.617,0
1583341438.674,36.621,30.273,34.180,29.785,78.125,0
1583341438.678,30.762,30.273,37.598,24.902,64.941,0
1583341438.682,33.203,32.715,37.598,26.855,39.551,0
1583341438.686,37.598,32.715,35.645,30.762,27.832,0
1583341438.690,34.668,29.785,30.762,29.297,52.246,0
1583341438.693,32.715,30.273,27.832,30.762,44.434,0
1583341438.697,33.203,30.273,33.691,28.320,18.555,0
1583341438.701,34.668,28.809,37.109,27.832,19.531,0
1583341438.705,44.922,32.715,34.668,36.133,12.207,0
1583341438.709,47.363,31.738,37.109,37.598,55.664,0
1583341438.727,39.062,30.273,36.621,38.574,73.730,0
1583341438.731,43.945,32.715,34.180,38.574,37.109,0
1583341438.735,50.293,33.203,34.180,37.598,26.855,0
1583341438.739,34.180,32.227,30.273,36.133,63.477,0
1583341438.743,28.320,33.691,24.414,38.086,33.203,0
1583341438.747,39.551,34.668,28.320,41.016,30.273,0
1583341438.751,41.016,33.691,34.180,36.621,64.941,0
1583341438.754,40.527,33.203,33.203,36.621,49.316,0
1583341438.758,41.504,35.156,32.715,38.574,29.297,0
1583341438.762,42.969,38.086,32.227,38.574,27.832,0
1583341438.766,48.828,38.574,31.250,38.086,32.227,0
1583341438.770,50.781,39.551,31.250,37.598,16.113,0
1583341438.767,43.945,38.574,29.785,36.621,-10.254,0
1583341438.771,39.062,35.645,32.715,35.645,11.230,0
1583341438.775,36.133,34.180,32.715,33.691,23.926,0
1583341438.779,40.039,36.133,29.297,34.668,17.090,0
1583341438.783,39.062,34.668,32.715,34.180,25.391,0
1583341438.787,30.273,34.668,34.668,34.180,-24.414,0
1583341438.791,32.227,35.645,33.203,33.691,-2.441,0
1583341438.794,40.039,36.133,29.785,28.320,70.312,0
1583341438.798,36.621,35.156,26.855,24.902,65.918,0
1583341438.802,27.344,33.691,24.902,22.461,56.152,0
1583341438.806,29.297,33.203,24.902,27.344,41.992,0
1583341438.810,36.621,34.668,24.414,34.180,23.438,0
1583341438.807,36.133,34.180,25.879,30.273,15.137,0
1583341438.811,28.809,32.227,30.762,33.203,15.137,0
1583341438.815,25.879,30.762,29.297,30.762,66.406,0
1583341438.819,22.949,30.762,24.414,26.367,28.320,0
1583341438.823,24.414,35.156,26.367,30.762,6.348,0
1583341438.827,30.273,35.156,30.762,30.273,27.344,0
1583341438.831,28.320,34.180,31.738,33.691,6.348,0
1583341438.834,34.180,35.645,32.227,34.180,81.543,0
1583341438.838,41.504,38.086,32.715,28.809,108.398,0
1583341438.842,39.551,37.598,32.715,31.250,-4.395,0
1583341438.846,32.715,35.645,31.738,33.203,-13.184,0
1583341438.850,36.133,35.645,31.738,30.273,13.672,0
1583341438.867,41.992,39.062,32.227,31.738,5.859,0
1583341438.871,41.016,37.598,27.832,35.645,37.598,0
1583341438.875,38.086,34.180,28.809,35.645,28.320,0
1583341438.879,37.598,36.133,31.738,37.109,-5.859,0
1583341438.883,39.551,34.668,33.691,35.156,23.926,0
1583341438.887,35.156,31.738,35.645,32.715,36.133,0
1583341438.891,32.715,32.227,32.715,27.344,-21.973,0
1583341438.894,32.227,33.691,31.250,27.344,-26.855,0
1583341438.898,36.133,35.156,35.645,37.109,13.184,0
1583341438.902,39.062,36.621,34.668,32.715,32.227,0
1583341438.906,30.273,37.109,33.203,27.344,67.383,0
1583341438.910,21.484,36.133,33.691,29.785,42.480,0
1583341438.907,33.691,39.062,32.227,34.180,25.391,0
1583341438.911,42.969,40.039,31.250,36.133,38.574,0
1583341438.915,36.621,36.621,33.203,31.250,105.469,0
1583341438.919,29.297,34.668,35.645,26.855,86.914,0
1583341438.923,32.227,34.180,36.621,29.297,24.414,0
1583341438.927,36.133,31.738,37.598,33.691,22.949,0
1583341438.931,35.645,30.762,34.180,33.691,18.555,0
1583341438.934,31.250,32.227,32.715,31.738,52.246,0
1583341438.938,29.297,34.668,32.715,32.227,47.363,0
1583341438.942,36.133,35.645,30.762,30.762,-1.465,0
1583341438.946,38.086,37.598,33.691,31.250,0.977,0
1583341438.950,28.320,39.551,37.598,29.785,18.066,0
1583341438.946,25.391,39.062,37.598,28.320,81.055,0
1583341438.950,34.180,38.086,37.598,31.250,81.055,0
1583341438.954,35.645,37.598,39.062,30.762,-15.625,0
1583341438.958,35.645,40.039,36.621,32.227,0.000,0
1583341438.962,34.668,40.039,32.227,30.762,65.918,0
1583341438.966,32.715,38.574,34.180,28.809,113.281,0
1583341438.970,32.715,36.133,36.133,28.320,61.523,0
1583341438.973,30.762,33.691,33.203,23.926,-21.973,0
1583341438.977,27.344,35.156,30.273,23.438,4.883,0
1583341438.981,24.414,34.180,30.273,22.949,36.133,0
1583341438.985,30.762,33.203,34.180,33.203,33.691,0
1583341438.989,41.992,34.668,38.086,46.387,50.781,0
1583341439.007,41.504,37.598,39.062,41.992,9.766,0
1583341439.011,34.668,41.016,34.668,28.320,1.465,0
1583341439.015,40.039,45.410,29.297,24.902,-11.230,0
1583341439.019,39.551,47.363,31.738,26.367,-5.859,0
1583341439.023,33.203,45.410,31.250,27.832,24.414,0
1583341439.027,27.832,41.504,30.273,21.484,8.301,0
1583341439.031,23.926,36.133,32.227,14.160,73.730,0
1583341439.034,32.227,37.109,30.273,24.902,85.938,0
1583341439.038,36.133,39.551,28.320,30.273,36.133,0
1583341439.042,32.715,39.062,30.273,29.785,53.223,0
1583341439.046,34.180,37.109,32.715,32.227,25.391,0
1583341439.050,39.551,38.574,34.668,30.762,3.906,0
1583341439.046,41.016,41.992,35.156,33.203,1.953,0
1583341439.050,39.062,40.527,32.715,36.621,45.410,0
1583341439.054,39.062,39.551,32.715,38.086,40.527,0
1583341439.058,42.480,39.062,31.738,38.574,47.363,0
1583341439.062,41.016,36.133,29.297,38.574,53.711,0
1583341439.066,33.691,31.250,28.809,33.203,20.020,0
1583341439.070,33.691,31.738,31.250,36.133,42.969,0
1583341439.073,36.621,32.227,31.738,34.180,80.566,0
1583341439.077,36.133,30.273,34.180,28.320,107.422,0
1583341439.081,32.715,32.715,32.227,24.414,102.051,0
1583341439.085,28.320,36.133,30.273,20.508,67.383,0
1583341439.089,27.832,35.645,28.320,23.438,30.762,0
1583341439.086,30.762,36.133,25.391,21.973,50.293,0
1583341439.090,31.738,35.156,30.762,25.391,-11.230,0
1583341439.094,26.367,32.715,31.250,29.297,20.996,0
1583341439.098,27.832,35.156,29.297,32.227,27.344,0
1583341439.102,35.156,35.645,32.227,37.109,-21.484,0
1583341439.106,36.621,33.203,33.691,38.086,33.691,0
1583341439.110,35.645,32.227,33.203,39.062,54.688,0
1583341439.113,34.668,36.133,34.668,35.645,21.484,0
1583341439.117,35.645,36.133,34.668,26.855,-5.371,0
1583341439.121,39.062,34.668,28.809,29.785,-13.184,0
1583341439.125,36.133,35.156,25.391,28.320,-6.348,0
1583341439.129,32.227,34.668,28.320,29.297,62.500,0
1583341439.147,35.645,36.133,32.227,36.133,102.539,0
1583341439.151,36.621,37.109,30.273,36.133,30.762,0
1583341439.155,35.156,38.086,30.762,31.250,10.742,0
1583341439.159,35.156,37.109,36.621,33.203,39.062,0
1583341439.163,39.551,35.156,36.621,35.645,40.039,0
1583341439.167,40.039,35.156,33.691,32.227,54.688,0
1583341439.171,35.156,34.180,34.180,25.391,71.289,0
1583341439.174,32.227,36.133,34.180,27.344,86.914,0
1583341439.178,32.715,36.621,34.668,31.738,79.590,0
1583341439.182,37.598,32.715,32.715,32.227,12.695,0
1583341439.186,38.086,35.156,31.738,34.668,17.578,0
1583341439.190,32.715,36.621,32.715,32.715,19.531,0
1583341439.186,36.133,34.180,32.227,35.645,7.324,0
1583341439.190,42.480,33.203,33.203,36.133,41.992,0
1583341439.194,40.527,34.668,34.668,35.645,51.758,0
1583341439.198,43.457,41.504,32.715,39.062,41.992,0
1583341439.202,50.781,40.527,28.320,42.480,9.277,0
1583341439.206,45.898,33.203,27.344,43.945,-0.488,0
1583341439.210,37.109,29.297,32.715,42.480,27.832,0
1583341439.213,21.484,27.832,40.039,32.715,22.461,0
1583341439.217,12.695,24.414,42.480,22.461,17.090,0
1583341439.221,23.438,22.949,43.945,25.879,12.207,0
1583341439.225,24.414,24.414,44.922,25.879,8.789,0
1583341439.229,20.020,25.391,44.434,24.414,29.785,0
1583341439.247,17.090,22.461,42.480,26.367,10.254,0
1583341439.251,19.531,20.996,39.062,31.250,10.742,0
1583341439.255,25.879,21.484,39.551,35.645,49.805,0
1583341439.259,30.762,25.879,41.016,34.668,75.195,0
1583341439.263,31.738,29.297,41.504,35.645,40.527,0
1583341439.267,28.320,25.391,41.504,36.133,13.672,0
1583341439.271,33.691,26.855,42.480,38.574,73.242,0
1583341439.274,40.039,30.273,39.551,40.527,65.430,0
1583341439.278,38.086,31.250,31.738,35.645,42.480,0
1583341439.282,36.133,32.227,32.227,36.133,20.996,0
1583341439.286,38.086,32.715,37.109,36.133,12.695,0
1583341439.290,42.480,36.133,39.551,34.180,54.199,0
1583341439.287,40.039,34.668,39.062,31.738,63.477,0
1583341439.291,36.133,30.273,38.086,26.855,23.926,0
1583341439.295,40.039,31.738,37.109,26.367,15.137,0
1583341439.299,44.434,33.203,37.109,32.227,13.184,0
1583341439.303,41.504,31.738,36.621,33.691,-7.324,0
1583341439.307,34.180,31.738,34.668,33.691,12.695,0
1583341439.311,37.598,35.645,29.785,35.156,13.672,0
1583341439.314,41.504,37.109,28.809,35.156,-13.672,0
1583341439.318,37.598,36.133,33.203,33.691,34.180,0
1583341439.322,31.738,37.109,34.668,31.738,41.992,0
1583341439.326,33.691,39.551,32.715,33.203,-10.254,0
1583341439.330,39.551,39.062,27.832,30.762,-41.992,0
1583341439.327,39.551,36.621,28.809,35.645,-1.953,0
1583341439.331,33.203,34.668,31.738,37.598,23.926,0
1583341439.335,31.250,36.133,29.785,36.621,-12.207,0
1583341439.339,35.156,36.621,29.297,37.598,-9.766,0
1583341439.343,38.574,37.109,31.738,29.785,39.551,0
1583341439.347,33.203,40.039,29.297,22.949,39.062,0
1583341439.351,28.320,41.016,28.809,27.344,20.508,0
1583341439.354,30.762,40.039,31.250,29.297,0.977,0
1583341439.358,35.645,39.062,33.203,28.809,21.484,0
1583341439.362,32.227,36.133,35.645,27.832,7.324,0
1583341439.366,27.832,33.203,33.691,29.297,23.438,0
1583341439.370,29.297,34.180,34.180,34.668,27.832,0
1583341439.367,34.180,32.715,37.109,33.203,30.273,0
1583341439.371,36.621,30.762,38.086,35.156,80.078,0
1583341439.375,30.273,30.762,36.621,35.156,28.320,0
1583341439.379,29.297,34.180,33.691,36.621,29.785,0
1583341439.383,35.645,34.180,33.203,41.016,35.156,0
1583341439.387,39.062,32.715,33.691,41.016,34.668,0
1583341439.391,35.645,33.691,34.668,41.016,8.789,0
1583341439.394,31.250,32.715,36.133,36.133,38.574,0
1583341439.398,35.645,33.691,36.133,37.109,100.098,0
1583341439.402,41.992,33.203,36.133,37.598,55.176,0
1583341439.406,38.574,33.691,40.039,37.109,20.508,0
1583341439.410,33.203,34.668,38.086,40.527,45.410,0
1583341439.426,33.203,33.203,34.668,38.086,76.660,0
1583341439.430,37.109,31.738,37.109,37.598,-13.672,0
1583341439.434,40.039,35.156,38.086,36.621,-32.715,0
1583341439.438,33.691,36.133,37.109,29.785,62.988,0
1583341439.442,31.250,35.645,36.621,31.738,26.855,0
1583341439.446,37.109,36.621,34.668,31.250,-17.578,0
1583341439.450,38.086,36.133,34.180,26.367,50.781,0
1583341439.453,36.621,36.133,34.668,33.203,58.594,0
1583341439.457,36.133,38.086,35.645,31.738,31.738,0
1583341439.461,36.621,39.551,35.156,22.949,36.133,0
1583341439.465,38.086,39.551,30.762,23.438,74.707,0
1583341439.469,33.203,37.109,31.738,22.461,75.195,0
1583341439.487,26.367,36.133,34.180,21.484,47.852,0
1583341439.491,25.879,35.156,33.203,23.926,55.176,0
1583341439.495,30.273,32.715,31.738,29.785,83.496,0
1583341439.499,29.785,32.227,30.273,33.203,48.340,0
1583341439.503,29.297,34.668,30.273,32.715,49.316,0
1583341439.507,31.738,37.598,32.715,37.109,12.695,0
1583341439.511,35.645,39.551,31.738,42.480,-18.555,0
1583341439.514,38.086,38.574,33.203,39.062,28.809,0
1583341439.518,33.691,37.598,34.668,36.133,41.504,0
1583341439.522,32.715,37.598,34.668,35.156,25.879,0
1583341439.526,39.551,37.109,37.109,35.156,21.484,0
1583341439.530,45.410,36.621,33.203,37.598,4.395,0
1583341439.526,41.016,35.645,28.320,38.086,9.277,0
1583341439.530,34.180,35.156,33.203,39.062,48.828,0
1583341439.534,35.645,35.645,37.109,39.062,55.176,0
1583341439.538,41.504,36.133,36.133,39.062,12.207,0
1583341439.542,41.016,37.109,37.109,41.016,7.324,0
1583341439.546,37.109,36.133,37.598,38.086,29.785,0
1583341439.550,38.086,32.227,37.598,33.691,90.820,0
1583341439.553,41.016,32.715,37.598,33.691,65.430,0
1583341439.557,44.434,35.645,35.645,37.598,-11.719,0
1583341439.561,44.434,38.086,34.668,40.527,4.395,0
1583341439.565,42.480,37.598,35.156,40.039,-6.836,0
1583341439.569,47.852,39.062,35.156,44.434,-19.043,0
1583341439.567,51.758,39.551,29.297,46.387,10.254,0
1583341439.571,52.734,37.598,24.414,47.852,43.945,0
1583341439.575,51.758,38.574,28.320,53.223,36.133,0
1583341439.579,44.434,37.598,39.062,44.434,-27.832,0
1583341439.583,35.156,35.645,43.945,35.645,13.672,0
1583341439.587,22.461,34.180,40.039,28.809,43.457,0
1583341439.591,18.555,29.785,41.504,33.203,30.762,0
1583341439.594,27.344,28.809,46.387,41.016,49.316,0
1583341439.598,25.879,28.320,44.922,30.762,65.430,0
1583341439.602,18.066,26.367,44.434,24.902,27.344,0
1583341439.606,17.090,27.344,46.875,28.809,15.137,0
1583341439.610,21.484,27.344,44.434,32.715,72.754,0
1583341439.607,26.367,27.832,42.480,36.133,84.473,0
1583341439.611,27.832,30.273,42.969,35.645,74.707,0
1583341439.615,28.809,30.273,40.527,37.598,26.367,0
1583341439.619,28.809,29.297,40.039,41.016,13.184,0
1583341439.623,31.738,27.832,43.457,43.457,41.016,0
1583341439.627,34.180,30.273,47.363,44.922,0.488,0
1583341439.631,29.297,31.738,47.363,36.621,-6.836,0
1583341439.634,27.344,32.715,41.504,36.133,-43.945,0
1583341439.638,32.715,35.645,39.551,37.598,-15.137,0
1583341439.642,31.738,35.645,41.992,29.297,29.297,0
1583341439.646,26.855,34.668,41.992,26.855,40.039,0
1583341439.650,28.320,35.156,41.504,27.832,98.633,0
1583341439.667,33.691,35.156,40.039,30.762,3.418,0
1583341439.671,36.133,33.691,38.086,33.203,-17.578,0
1583341439.675,32.715,33.203,37.109,34.668,50.293,0
1583341439.679,27.832,34.668,39.551,29.785,81.055,0
1583341439.683,32.227,34.180,37.598,30.273,87.402,0
1583341439.687,37.598,33.691,34.668,36.133,69.824,0
1583341439.691,37.598,31.738,35.645,36.621,23.438,0
1583341439.694,36.621,32.227,33.203,30.273,53.711,0
1583341439.698,36.621,33.691,32.227,33.691,51.270,0
1583341439.702,40.527,32.715,34.668,41.016,20.020,0
1583341439.706,38.574,31.250,34.180,35.645,47.363,0
1583341439.710,33.691,32.715,33.203,34.180,28.320,0
1583341439.707,30.762,33.203,33.691,40.527,5.859,0
1583341439.711,31.738,32.715,32.227,38.086,28.809,0
1583341439.715,36.621,34.668,29.785,31.250,75.195,0
1583341439.719,34.668,33.691,30.762,31.250,64.941,0
1583341439.723,26.367,31.738,34.180,32.227,31.250,0
1583341439.727,27.344,30.273,35.645,33.203,32.227,0
1583341439.731,33.203,32.227,37.598,35.645,71.777,0
1583341439.734,30.273,33.691,33.691,28.320,12.695,0
1583341439.738,32.715,33.203,34.668,30.273,9.766,0
1583341439.742,34.180,34.668,38.574,39.062,77.148,0
1583341439.746,35.645,36.133,37.598,34.180,90.332,0
1583341439.750,36.133,35.156,34.668,31.738,104.980,0
1583341439.746,28.320,35.156,34.180,34.668,60.547,0
1583341439.750,26.367,37.598,34.180,33.691,40.527,0
1583341439.754,34.668,40.527,35.645,39.062,11.719,0
1583341439.758,35.645,39.062,36.621,35.156,-27.344,0
1583341439.762,26.855,36.621,36.621,28.320,5.371,0
1583341439.766,20.508,34.668,38.086,30.762,18.555,0
1583341439.770,26.855,35.645,37.598,32.715,2.441,0
1583341439.773,30.762,36.133,36.621,38.086,63.477,0
1583341439.777,24.902,34.180,39.551,33.203,87.891,0
1583341439.781,20.508,33.203,38.574,25.391,31.250,0
1583341439.785,20.508,32.715,36.133,26.367,23.926,0
1583341439.789,25.391,34.180,34.180,27.344,35.156,0
1583341439.807,26.367,35.156,33.203,30.273,-4.395,0
1583341439.811,25.391,34.180,36.621,32.715,14.160,0
1583341439.815,28.320,33.691,36.621,29.785,9.766,0
1583341439.819,34.668,34.668,32.227,30.273,0.488,0
1583341439.823,38.086,36.133,32.715,32.715,17.578,0
1583341439.827,32.227,34.668,32.715,33.691,-18.066,0
1583341439.831,30.762,36.621,30.762,28.320,-0.977,0
1583341439.834,36.133,40.039,31.738,24.902,75.684,0
1583341439.838,39.551,37.109,27.832,29.785,64.941,0
1583341439.842,36.621,36.133,23.438,33.691,52.734,0
1583341439.846,31.250,36.621,30.273,34.180,-6.836,0
1583341439.850,38.574,36.621,34.180,36.133,19.043,0
1583341439.846,42.480,37.109,34.668,40.039,85.449,0
1583341439.850,38.086,35.156,36.133,38.574,18.066,0
1583341439.854,38.574,33.203,36.621,41.992,-30.762,0
1583341439.858,50.781,34.180,35.156,52.734,-11.230,0
1583341439.862,55.664,35.156,35.645,52.246,85.449,0
1583341439.866,43.945,32.227,37.598,43.945,65.918,0
1583341439.870,35.156,31.738,35.156,41.992,-28.809,0
1583341439.873,33.203,29.785,36.621,38.574,-20.996,0
1583341439.877,41.504,26.855,42.480,38.574,18.555,3
1583341439.881,44.922,31.250,41.016,40.527,-7.812,0
1583341439.885,30.273,35.156,35.645,28.320,32.715,0
1583341439.889,26.367,32.715,38.574,21.973,86.426,0
1583341439.887,34.668,31.738,44.434,29.785,14.160,0
1583341439.891,35.645,34.668,41.016,28.809,29.297,0
1583341439.895,29.297,37.109,37.598,27.344,19.531,0
1583341439.899,22.949,35.645,35.645,29.297,24.414,0
1583341439.903,27.832,32.227,36.133,29.297,37.109,0
1583341439.907,35.645,32.227,38.086,28.320,40.527,0
1583341439.911,35.645,34.668,37.109,31.738,106.445,0
1583341439.914,36.133,34.668,36.621,35.645,83.008,0
1583341439.918,39.062,32.715,39.062,35.645,66.895,0
1583341439.922,46.387,32.227,38.086,38.086,75.684,0
1583341439.926,50.781,32.227,35.156,39.062,65.918,0
1583341439.930,43.457,30.762,34.668,34.180,80.566,0
1583341439.947,41.504,28.809,33.203,34.668,98.145,0
1583341439.951,47.852,28.320,33.691,36.621,56.152,0
1583341439.955,48.340,29.297,35.645,32.227,22.949,0
1583341439.959,42.969,31.738,32.715,34.180,17.578,0
1583341439.963,35.156,34.668,30.273,34.668,44.434,0
1583341439.967,37.109,36.621,32.715,32.715,64.941,0
1583341439.971,39.551,36.621,32.715,30.273,25.879,0
1583341439.974,34.180,34.180,30.762,25.879,-1.953,0
1583341439.978,27.832,30.273,32.715,31.250,19.531,0
1583341439.982,27.832,28.809,36.621,33.203,27.344,0
1583341439.986,34.180,30.762,38.086,32.227,68.848,0
1583341439.990,30.762,32.227,37.109,31.250,39.551,0
1583341439.986,22.949,30.762,33.691,28.809,-50.293,0
1583341439.990,25.879,29.297,32.715,32.227,11.719,0
1583341439.994,31.250,28.809,30.762,35.645,40.527,0
1583341439.998,28.320,30.273,28.809,35.645,36.621,0
1583341440.002,23.926,31.738,32.715,31.250,23.926,0
1583341440.006,25.879,32.227,32.227,28.809,-10.742,0
1583341440.010,28.809,30.273,29.297,26.367,8.789,0
1583341440.013,32.715,32.227,31.250,26.367,-1.953,0
1583341440.017,33.691,36.133,34.668,30.762,-29.297,0
1583341440.021,30.762,36.621,32.227,28.809,6.836,0
1583341440.025,32.227,35.645,31.250,27.832,53.223,0
1583341440.029,36.133,34.180,31.250,29.297,56.641,0
1583341440.027,41.016,36.133,34.668,28.320,51.270,0
1583341440.031,41.016,37.109,36.621,30.273,34.668,0
1583341440.035,44.922,37.598,28.809,27.832,9.766,0
1583341440.039,49.316,36.133,29.785,28.320,9.277,0
1583341440.043,43.945,35.645,34.180,31.738,1.953,0
1583341440.047,35.645,35.645,34.180,32.227,-2.441,0
1583341440.051,34.668,35.156,36.133,35.645,21.484,0
1583341440.054,35.645,33.691,36.621,38.086,13.184,0
1583341440.058,31.738,32.227,34.180,33.203,24.414,0
1583341440.062,25.391,33.203,33.691,31.738,67.383,0
1583341440.066,23.438,31.738,33.203,40.039,63.477,0
1583341440.070,33.203,28.809,31.250,54.688,-1.953,0
1583341440.086,50.781,32.715,29.297,64.453,-1.953,0
1583341440.090,42.480,40.039,27.832,49.316,18.555,0
1583341440.094,16.113,40.527,26.855,21.484,18.066,0
1583341440.098,15.137,41.016,19.531,12.695,19.531,0
1583341440.102,28.320,43.945,16.113,23.438,19.043,0
1583341440.106,27.832,48.340,16.113,19.531,30.273,0
1583341440.110,21.973,48.340,13.184,7.324,60.547,0
1583341440.113,20.020,47.852,11.230,5.859,50.293,0
1583341440.117,25.879,46.387,8.301,10.742,26.367,0
1583341440.121,32.227,45.410,7.324,18.066,-22.949,0
1583341440.125,28.809,45.410,9.277,20.020,13.672,0
1583341440.129,26.855,42.969,9.277,18.555,44.922,0
1583341440.126,31.738,43.457,7.324,18.066,58.594,0
1583341440.130,35.645,45.898,9.766,21.484,85.449,0
1583341440.134,31.738,45.410,15.625,22.949,51.270,0
1583341440.138,30.273,41.992,18.555,20.508,49.316,0
1583341440.142,36.133,39.551,18.066,21.973,61.523,0
1583341440.146,40.527,40.039,19.531,26.367,83.008,0
1583341440.150,35.645,40.527,24.414,30.273,50.781,0
1583341440.153,31.250,39.551,23.926,28.809,-14.160,0
1583341440.157,34.668,41.992,19.531,28.320,12.207,0
1583341440.161,39.062,41.504,20.996,29.297,-4.395,0
1583341440.165,38.086,39.551,23.926,24.414,-16.602,0
1583341440.169,33.691,39.062,25.391,22.461,13.672,0
1583341440.168,34.668,38.574,22.949,25.879,25.391,0
1583341440.172,41.016,40.039,21.973,26.855,16.113,0
1583341440.176,43.945,39.551,25.879,27.344,37.109,0
1583341440.180,39.062,38.574,27.832,27.832,56.641,0
1583341440.184,34.180,40.039,26.367,28.809,-20.996,0
1583341440.188,38.086,40.527,26.367,30.762,-43.457,0
1583341440.192,44.922,41.016,25.879,32.227,7.812,0
1583341440.195,41.016,42.480,28.320,28.320,3.418,0
1583341440.199,36.621,42.969,32.715,28.809,14.160,0
1583341440.203,38.574,41.016,31.738,34.668,3.418,0
1583341440.207,40.527,38.574,28.320,35.645,27.832,0
1583341440.211,40.039,38.574,26.855,33.691,42.480,0
1583341440.226,36.133,39.062,29.297,33.691,18.555,0
1583341440.230,40.039,39.062,32.227,39.551,14.648,0
1583341440.234,43.945,37.109,33.203,40.039,27.832,0
1583341440.238,40.527,35.645,35.645,35.645,9.766,0
1583341440.242,41.016,37.109,36.621,38.086,35.645,0
1583341440.246,45.898,35.645,36.621,40.527,85.449,0
1583341440.250,49.805,35.156,32.715,39.062,54.199,0
1583341440.253,49.805,36.621,28.320,38.086,82.031,0
1583341440.257,46.875,37.109,29.297,41.016,74.219,0
1583341440.261,43.457,41.504,30.273,43.457,54.688,0
1583341440.265,48.340,41.504,31.738,46.875,48.340,0
1583341440.269,51.270,38.086,34.180,47.363,46.387,0
1583341440.267,42.969,38.574,32.227,43.945,61.523,0
1583341440.271,40.039,39.551,31.250,44.434,31.738,0
1583341440.275,41.992,36.621,35.645,41.992,6.836,0
1583341440.279,41.016,37.109,33.691,39.062,-23.926,0
1583341440.283,38.086,38.574,30.762,39.062,-1.953,0
1583341440.287,32.715,38.086,29.297,37.109,30.762,0
1583341440.291,32.715,38.574,22.949,32.227,23.438,0
1583341440.294,38.086,36.133,27.832,30.273,34.668,0
1583341440.298,39.551,37.109,31.250,31.250,39.551,0
1583341440.302,31.738,39.551,28.809,28.809,16.602,0
1583341440.306,27.832,39.062,28.809,26.855,91.309,0
1583341440.310,34.668,40.039,28.809,30.762,126.465,0
1583341440.306,35.645,41.504,27.344,34.180,41.016,0
1583341440.310,29.297,37.598,27.344,33.691,17.578,0
1583341440.314,28.809,33.691,25.879,34.180,78.613,0
1583341440.318,33.203,34.668,22.949,36.621,113.770,0
1583341440.322,33.691,35.156,23.926,33.203,64.941,0
1583341440.326,32.715,34.180,23.926,29.297,9.277,0
1583341440.330,30.762,33.691,26.855,32.715,12.207,0
1583341440.333,33.691,34.668,31.738,34.180,37.598,0
1583341440.337,39.551,34.668,29.785,29.785,9.277,0
1583341440.341,39.551,33.203,27.344,32.227,-28.809,0
1583341440.345,36.133,32.715,27.344,32.227,12.695,0
1583341440.349,37.598,32.715,27.832,30.762,48.340,0
1583341440.367,39.551,32.715,28.320,33.691,83.008,0
1583341440.371,35.156,32.715,28.320,32.715,101.562,0
1583341440.375,28.809,34.180,27.832,30.762,88.867,0
1583341440.379,29.785,33.203,24.414,32.715,28.809,0
1583341440.383,35.156,33.691,24.902,35.156,-12.695,0
1583341440.387,32.715,33.203,29.297,31.250,41.992,0
1583341440.391,28.809,32.227,29.785,24.414,21.484,0
1583341440.394,30.762,29.785,28.809,26.855,23.438,0
1583341440.398,41.992,30.762,28.320,39.062,47.363,0
1583341440.402,40.039,35.645,31.738,40.039,-3.906,0
1583341440.406,20.996,37.109,31.738,26.855,2.930,0
1583341440.410,9.277,36.133,26.367,19.043,23.926,0
1583341440.406,14.648,34.180,28.320,18.066,5.371,0
1583341440.410,23.926,32.715,31.738,21.484,46.875,0
1583341440.414,19.531,34.180,30.762,20.508,6.836,0
1583341440.418,17.578,36.133,29.297,22.461,-3.906,0
1583341440.422,21.484,35.156,27.344,21.973,84.473,0
1583341440.426,28.320,32.227,28.809,19.043,51.758,0
1583341440.430,30.762,34.180,29.785,21.973,33.203,0
1583341440.433,27.344,34.180,29.785,23.438,17.090,0
1583341440.437,26.367,30.273,29.785,26.367,-31.738,0
1583341440.441,30.273,31.250,33.691,27.832,-49.805,0
1583341440.445,32.227,34.180,32.715,26.855,-11.719,0
1583341440.449,27.344,31.738,32.227,30.273,25.391,0
1583341440.447,27.344,31.738,34.668,31.738,10.742,0
1583341440.451,33.203,36.133,32.227,30.762,42.480,0
1583341440.455,37.109,33.691,31.738,32.227,74.707,0
1583341440.459,35.156,30.273,32.715,32.715,124.023,0
1583341440.463,30.273,30.762,36.133,33.691,110.352,0
1583341440.467,28.809,28.320,36.621,28.809,67.871,0
1583341440.471,32.227,28.320,34.668,27.344,44.434,0
1583341440.474,34.668,33.691,35.156,33.203,10.254,0
1583341440.478,30.762,33.691,34.668,29.785,12.695,0
1583341440.482,29.785,33.691,34.668,30.273,54.688,0
1583341440.486,35.156,34.180,31.250,35.156,-6.348,0
1583341440.490,36.621,33.203,34.180,36.133,31.250,0
1583341440.507,30.273,33.691,34.668,36.133,64.941,0
1583341440.511,28.320,32.227,29.297,31.738,-45.410,0
1583341440.515,33.691,32.715,36.133,28.320,6.836,0
1583341440.519,36.621,33.203,40.039,31.250,93.262,0
1583341440.523,31.250,32.227,37.109,33.691,52.734,0
1583341440.527,23.926,33.691,35.645,27.344,35.156,0
1583341440.531,26.367,34.180,33.691,26.367,36.621,0
1583341440.534,36.621,34.180,33.203,34.668,-1.465,0
1583341440.538,38.086,37.109,32.715,37.109,44.922,0
1583341440.542,33.691,39.551,34.668,41.016,47.852,0
1583341440.546,37.598,35.645,34.668,41.992,27.832,0
1583341440.550,42.480,36.133,34.180,40.039,20.508,0
1583341440.547,44.434,39.551,36.133,43.457,59.570,0
1583341440.551,40.039,36.133,34.668,39.551,83.496,0
1583341440.555,37.598,37.109,32.227,38.086,-4.395,0
1583341440.559,40.527,39.062,29.297,38.574,-14.648,0
1583341440.563,39.062,37.598,28.809,36.133,34.180,0
1583341440.567,30.762,36.133,31.250,32.227,30.273,0
1583341440.571,26.367,35.645,33.203,27.832,-29.297,0
1583341440.574,27.832,36.133,32.227,26.367,-18.555,0
1583341440.578,28.809,37.109,32.227,26.855,54.688,0
1583341440.582,22.461,35.156,31.250,20.996,14.648,0
1583341440.586,20.508,33.691,27.832,20.020,0.488,0
1583341440.590,27.832,34.668,27.832,24.414,43.945,0
1583341440.587,32.227,36.621,29.785,24.414,33.203,0
1583341440.591,29.785,36.621,32.715,27.344,33.203,0
1583341440.595,28.320,35.156,31.738,27.344,47.852,0
1583341440.599,31.738,36.621,28.809,27.344,54.199,0
1583341440.603,37.109,37.598,31.250,31.738,39.551,0
1583341440.607,37.598,33.691,34.180,33.203,61.035,0
1583341440.611,34.180,32.227,32.715,33.691,73.730,0
1583341440.614,33.203,31.738,31.738,31.738,36.621,0
1583341440.618,37.598,31.250,30.273,30.762,100.586,0
1583341440.622,43.457,33.203,29.297,37.109,71.777,0
1583341440.626,40.039,36.133,32.715,42.969,-6.348,0
1583341440.630,35.645,36.621,28.809,36.621,18.066,0
1583341440.666,39.062,38.574,29.297,33.691,18.066,0
1583341440.670,39.551,36.133,33.203,37.109,41.504,0
1583341440.674,31.738,32.227,33.691,33.691,5.371,0
1583341440.678,28.809,32.227,33.203,32.715,-13.184,0
1583341440.682,32.227,29.785,31.738,37.598,13.672,0
1583341440.686,33.691,27.832,30.273,35.645,81.055,0
1583341440.690,32.715,30.273,27.344,29.785,63.965,0
1583341440.693,27.344,31.738,29.785,31.250,45.898,0
1583341440.697,27.832,31.250,32.227,32.227,107.910,0
1583341440.701,33.691,29.785,28.320,28.809,54.688,0
1583341440.705,35.156,31.250,26.855,26.855,-38.574,0
1583341440.709,31.738,34.180,25.391,26.855,-57.129,0
1583341440.686,33.203,33.691,27.344,32.715,3.418,0
1583341440.690,39.062,34.668,30.762,33.691,9.277,0
1583341440.694,39.551,31.738,31.250,32.227,31.250,0
1583341440.698,32.715,28.320,32.227,35.156,60.059,0
1583341440.702,28.809,29.785,32.227,35.156,52.246,0
1583341440.706,31.738,29.785,33.203,30.762,46.387,0
1583341440.710,33.691,26.855,34.668,28.320,38.086,0
1583341440.713,29.297,26.855,32.715,24.902,-6.836,0
1583341440.717,22.949,30.273,33.203,22.949,13.672,0
1583341440.721,25.391,30.762,33.203,24.414,60.059,0
1583341440.725,32.715,32.227,27.832,28.320,52.246,0
1583341440.729,32.227,34.668,24.902,28.809,70.801,0
1583341440.727,24.414,33.691,28.320,26.855,63.965,0
1583341440.731,24.414,32.715,28.320,28.320,86.426,0
1583341440.735,30.762,32.227,28.809,27.344,60.059,0
1583341440.739,31.250,31.738,29.297,25.391,9.766,0
1583341440.743,28.320,31.250,28.809,29.785,-8.301,0
1583341440.747,27.832,33.691,29.297,32.715,-0.488,0
1583341440.751,31.250,35.156,32.715,29.297,16.602,0
1583341440.754,38.086,33.691,32.715,26.855,23.926,0
1583341440.758,37.109,33.203,28.809,25.391,24.902,0
1583341440.762,31.738,35.156,26.367,24.902,18.066,0
1583341440.766,35.645,35.645,24.414,27.832,8.301,0
1583341440.770,46.387,32.715,25.391,32.227,10.742,0
1583341440.786,48.340,34.668,26.367,30.762,7.812,0
1583341440.790,40.527,37.109,26.855,26.367,-1.953,0
1583341440.794,41.016,32.715,25.879,27.344,60.547,0
1583341440.798,49.805,34.180,25.879,33.691,108.887,0
1583341440.802,48.828,39.551,31.738,34.180,86.914,0
1583341440.806,38.574,39.551,32.227,30.762,49.316,0
1583341440.810,36.133,38.086,31.250,31.738,53.223,0
1583341440.813,39.551,40.527,29.297,33.203,45.410,0
1583341440.817,40.039,40.527,31.250,33.203,4.883,0
1583341440.821,30.762,36.133,34.668,33.691,37.109,0
1583341440.825,28.320,35.156,33.203,26.855,74.707,0
1583341440.829,32.715,37.109,31.738,27.344,11.719,0
1583341440.827,34.180,37.598,29.785,34.180,-31.738,0
1583341440.831,30.762,37.109,25.391,33.691,38.574,0
1583341440.835,26.855,36.621,25.879,32.227,59.082,0
1583341440.839,27.344,34.180,33.203,34.180,41.504,0
1583341440.843,29.297,35.156,35.156,34.180,31.738,0
1583341440.847,28.809,35.156,33.203,30.762,-4.883,0
1583341440.851,28.809,33.691,33.691,30.762,21.484,0
1583341440.854,28.809,34.180,30.273,30.273,129.395,0
1583341440.858,32.715,36.133,29.297,31.738,91.797,0
1583341440.862,35.156,37.598,31.738,29.297,0.977,0
1583341440.866,30.762,36.621,30.762,28.809,-1.953,0
1583341440.870,27.832,34.668,30.273,32.227,13.672,0
1583341440.867,32.715,33.691,33.203,34.180,43.457,0
1583341440.871,35.156,34.180,35.156,35.156,82.520,0
1583341440.875,28.320,32.227,35.645,30.273,79.102,0
1583341440.879,24.902,30.762,34.668,28.320,26.367,0
1583341440.883,26.367,29.297,33.691,28.809,24.902,0
1583341440.887,29.785,29.785,31.250,28.320,24.902,0
1583341440.891,28.320,31.738,30.273,30.762,58.105,0
1583341440.894,22.949,31.738,30.762,26.367,16.602,0
1583341440.898,22.949,29.785,26.855,19.531,3.418,0
1583341440.902,26.855,33.203,26.367,26.367,58.105,0
1583341440.906,25.879,34.180,27.344,25.879,99.609,0
1583341440.910,23.438,32.227,30.762,21.484,60.059,0
1583341440.947,26.367,33.691,31.250,20.996,-12.695,0
1583341440.951,29.297,34.180,30.273,22.949,45.898,0
1583341440.955,31.250,34.668,35.156,26.855,42.969,0
1583341440.959,29.785,34.180,34.668,27.832,77.148,0
1583341440.963,27.832,33.691,32.715,30.762,52.246,0
1583341440.967,35.645,34.668,32.227,33.203,-29.785,0
1583341440.971,40.527,35.645,29.297,33.691,39.551,0
1583341440.974,33.691,36.621,30.762,35.156,32.227,0
1583341440.978,29.785,35.645,34.180,30.762,39.062,0
1583341440.982,33.691,32.227,32.715,32.227,58.594,0
1583341440.986,39.551,32.715,31.738,34.668,29.297,0
1583341440.990,39.551,34.668,29.785,30.273,20.020,0
1583341441.007,37.109,34.180,31.250,30.762,31.738,0
1583341441.011,38.574,33.203,32.715,38.086,46.875,0
1583341441.015,41.504,35.156,27.344,39.551,-7.324,0
1583341441.019,39.551,33.203,26.855,35.156,-6.836,0
1583341441.023,33.203,32.715,33.691,33.203,4.395,0
1583341441.027,33.203,31.738,38.574,37.109,-22.461,0
1583341441.031,38.086,30.762,40.039,43.945,17.090,0
1583341441.034,39.551,30.762,40.527,40.039,39.551,0
1583341441.038,34.180,29.785,40.039,39.551,-20.020,0
1583341441.042,31.250,28.320,36.621,34.180,-21.973,1
1583341441.046,33.691,28.809,32.715,28.809,49.316,0
1583341441.050,31.738,30.762,31.250,26.367,85.938,0
1583341441.029,27.344,32.227,31.738,24.414,67.383,0
1583341441.033,25.879,35.156,32.715,25.391,11.230,0
1583341441.037,29.785,38.574,32.715,26.367,-19.531,0
1583341441.041,34.668,40.039,30.273,25.879,11.230,0
1583341441.045,34.180,40.039,31.738,26.855,-4.395,0
