timestamps,TP9,AF7,AF8,TP10,Right AUX,Marker0
1583338903.964,31.738,35.156,19.531,21.484,37.598,0
1583338903.968,27.832,32.715,20.020,18.066,-8.789,0
1583338903.972,34.180,35.156,20.508,20.020,-27.832,0
1583338903.976,38.574,37.598,20.996,22.949,0.488,0
1583338903.980,32.715,34.180,16.602,20.508,-8.301,0
1583338903.984,31.250,33.203,14.648,22.461,-9.766,0
1583338903.988,26.855,31.250,14.648,20.020,6.348,0
1583338903.991,26.855,29.297,13.184,18.066,43.945,0
1583338903.995,28.320,28.320,16.602,21.484,127.441,0
1583338903.999,23.438,29.297,18.066,21.484,96.680,0
1583338904.003,23.438,33.203,20.996,18.555,35.156,0
1583338904.007,26.855,29.785,20.508,13.672,48.828,0
1583338904.024,22.949,27.344,15.137,9.766,92.773,0
1583338904.028,19.531,33.203,16.113,9.766,64.941,0
1583338904.032,14.160,33.203,16.113,7.812,37.109,0
1583338904.036,17.090,30.273,16.113,12.207,50.781,0
1583338904.040,25.879,30.762,16.113,18.066,20.508,0
1583338904.044,25.879,31.738,15.625,17.090,4.883,0
1583338904.048,23.926,33.203,18.555,16.602,14.160,0
1583338904.051,20.508,31.738,20.996,18.555,51.758,0
1583338904.055,24.414,31.250,23.926,24.414,31.738,0
1583338904.059,30.273,32.227,24.414,27.344,29.297,0
1583338904.063,26.855,31.250,23.926,19.531,6.836,0
1583338904.067,25.391,28.809,25.391,16.602,-27.344,0
1583338904.047,28.320,28.320,22.461,20.508,-41.504,0
1583338904.051,28.320,28.809,22.949,23.926,-44.922,0
1583338904.055,26.855,27.832,25.879,24.902,26.855,0
1583338904.059,22.461,28.320,25.391,19.531,76.172,0
1583338904.063,21.973,32.715,25.879,20.996,83.496,0
1583338904.067,25.879,33.691,25.391,26.367,28.809,0
1583338904.071,24.414,30.762,24.902,20.996,15.137,0
1583338904.074,20.508,29.297,24.414,17.578,12.695,0
1583338904.078,18.066,25.391,20.020,13.672,26.367,0
1583338904.082,20.996,25.391,20.020,16.113,35.156,0
1583338904.086,19.043,28.809,22.461,17.090,45.898,0
1583338904.090,15.137,32.227,23.926,14.160,17.578,0
1583338904.104,16.602,34.668,22.461,12.695,-25.879,0
1583338904.108,14.648,33.203,19.531,9.766,17.090,0
1583338904.112,14.160,32.227,23.438,12.695,20.996,0
1583338904.116,14.160,33.203,24.902,11.230,-13.184,0
1583338904.120,18.066,34.180,25.391,14.160,17.090,0
1583338904.124,28.320,34.180,26.855,23.438,85.449,0
1583338904.128,33.691,33.203,25.879,12.695,70.312,0
1583338904.131,33.203,30.762,20.020,9.766,47.363,0
1583338904.135,36.621,31.738,19.043,20.996,89.844,0
1583338904.139,44.922,33.691,23.926,25.879,17.578,0
1583338904.143,46.387,31.738,22.461,26.855,8.789,0
1583338904.147,35.156,27.832,21.973,19.531,83.984,0
1583338904.144,26.855,25.879,22.949,17.090,10.254,0
1583338904.148,20.996,22.949,20.508,17.578,-15.137,0
1583338904.152,22.461,26.367,19.043,19.043,16.113,0
1583338904.156,27.344,31.250,19.531,20.020,21.484,0
1583338904.160,19.531,25.391,19.043,12.207,49.316,0
1583338904.164,18.555,24.414,18.555,11.719,-19.043,0
1583338904.168,24.414,27.832,19.043,18.555,-19.043,0
1583338904.171,26.367,27.832,18.066,20.508,-1.953,0
1583338904.175,27.344,30.762,22.949,26.367,20.996,0
1583338904.179,26.367,31.738,25.391,20.508,73.242,0
1583338904.183,25.391,28.320,23.438,16.602,93.750,0
1583338904.187,28.320,28.320,24.902,23.926,83.008,0
1583338904.204,23.438,28.809,23.926,19.531,80.566,0
1583338904.208,23.438,31.250,24.902,18.066,48.828,0
1583338904.212,30.273,33.203,25.391,20.996,-37.598,0
1583338904.216,31.250,27.832,23.926,22.949,6.836,0
1583338904.220,26.367,28.320,23.438,20.508,23.438,0
1583338904.224,24.414,33.691,25.391,19.043,-24.414,0
1583338904.228,28.320,36.133,25.879,21.973,-7.324,0
1583338904.231,30.762,36.133,24.902,23.926,11.230,0
1583338904.235,38.086,33.691,24.414,35.156,14.648,0
1583338904.239,39.062,39.551,22.949,32.227,25.391,0
1583338904.243,15.137,40.039,19.531,7.324,30.762,0
1583338904.247,13.672,39.062,18.066,3.418,21.973,0
1583338904.244,20.996,43.457,16.602,-0.488,-15.137,0
1583338904.248,3.418,38.086,14.648,-10.742,7.324,0
1583338904.252,-7.812,36.621,14.648,-11.719,37.598,0
1583338904.256,-3.418,39.062,14.160,-15.625,-8.301,0
1583338904.260,1.465,38.086,15.137,-13.672,11.719,0
1583338904.264,0.000,37.109,15.625,-11.719,45.898,0
1583338904.268,-2.441,32.715,9.277,-10.742,35.645,0
1583338904.271,-1.465,28.320,24.902,-12.207,98.145,0
1583338904.275,10.254,33.203,27.344,-5.371,63.477,0
1583338904.279,19.043,35.156,5.859,8.301,-14.648,0
1583338904.283,18.555,31.738,11.230,4.883,0.000,0
1583338904.287,15.625,32.227,13.672,0.488,12.207,0
1583338904.284,16.113,31.738,11.230,6.348,23.926,0
1583338904.288,19.043,33.203,14.160,11.230,5.371,0
1583338904.292,17.090,35.645,18.555,12.207,27.832,0
1583338904.296,20.996,36.621,19.043,14.160,57.617,0
1583338904.300,27.344,37.598,15.137,16.602,17.090,0
1583338904.304,32.715,39.062,15.137,19.531,21.973,0
1583338904.308,32.715,38.574,17.090,21.484,19.531,0
1583338904.311,28.809,37.109,14.648,17.578,-6.836,0
1583338904.315,36.133,38.574,15.137,15.625,0.000,0
1583338904.319,36.133,36.621,19.531,16.602,2.441,0
1583338904.323,27.832,32.227,20.020,18.066,43.457,0
1583338904.327,26.367,33.203,18.555,19.531,72.754,0
1583338904.346,28.320,33.691,16.602,19.043,69.824,0
1583338904.350,35.645,35.156,18.066,22.461,90.820,0
1583338904.354,32.715,35.156,16.602,22.949,102.539,0
1583338904.358,28.320,33.691,14.648,19.043,90.820,0
1583338904.362,28.809,32.715,17.578,19.531,73.730,0
1583338904.366,35.645,33.691,18.555,24.902,55.664,0
1583338904.370,43.457,37.109,21.484,26.367,22.949,0
1583338904.373,37.109,36.621,22.461,20.996,9.277,0
1583338904.377,39.062,36.133,18.555,23.926,21.484,0
1583338904.381,47.363,38.574,22.461,33.691,38.086,0
1583338904.385,41.992,36.133,25.391,34.668,49.316,0
1583338904.389,39.062,34.668,22.949,31.738,81.543,0
1583338904.386,38.086,34.180,22.949,28.809,88.867,0
1583338904.390,36.133,31.738,21.484,26.367,41.016,0
1583338904.394,38.086,33.203,20.996,30.273,27.344,0
1583338904.398,35.645,31.250,19.043,27.344,70.801,0
1583338904.402,36.133,31.250,19.531,24.902,62.500,0
1583338904.406,38.574,32.227,24.414,29.785,9.277,0
1583338904.410,39.062,31.250,23.926,29.297,-51.758,0
1583338904.413,41.992,35.156,23.438,30.762,-11.719,0
1583338904.417,43.457,36.621,23.926,34.668,25.391,0
1583338904.421,41.504,33.203,20.996,34.180,0.488,0
1583338904.425,46.387,33.691,19.043,28.320,-6.348,0
1583338904.429,45.898,32.227,18.555,25.879,6.836,0
1583338904.444,33.691,31.738,20.020,26.367,14.648,0
1583338904.448,28.320,32.715,20.508,24.902,52.734,0
1583338904.452,31.738,32.227,17.090,26.367,55.664,0
1583338904.456,33.203,32.227,19.531,25.391,15.137,0
1583338904.460,30.762,32.227,20.508,20.508,-12.695,0
1583338904.464,29.297,35.156,19.043,20.996,-8.789,0
1583338904.468,30.762,35.156,21.484,21.484,8.301,0
1583338904.471,33.203,32.227,20.996,21.484,26.855,0
1583338904.475,34.180,33.203,21.973,23.438,4.883,0
1583338904.479,30.273,34.180,22.949,18.066,-45.410,0
1583338904.483,27.832,33.691,20.508,20.996,16.113,0
1583338904.487,29.297,32.715,22.949,26.855,56.641,0
1583338904.484,27.832,32.227,25.391,27.344,46.387,0
1583338904.488,28.320,35.645,25.391,32.227,81.055,0
1583338904.492,32.715,37.109,24.902,31.250,76.172,0
1583338904.496,36.621,31.738,21.484,30.762,50.293,0
1583338904.500,39.062,32.715,22.461,31.250,70.801,0
1583338904.504,38.086,35.156,24.414,30.273,64.941,0
1583338904.508,35.645,35.645,23.438,31.738,64.453,0
1583338904.511,40.039,33.203,21.973,31.738,43.945,0
1583338904.515,38.086,31.250,22.949,32.715,11.719,0
1583338904.519,32.227,36.621,24.902,25.391,11.230,0
1583338904.523,28.320,36.621,21.484,19.043,-3.418,0
1583338904.527,30.273,36.133,22.949,24.414,37.109,0
1583338904.524,31.738,35.645,20.508,22.949,40.039,0
1583338904.528,27.344,32.715,16.113,20.508,1.953,0
1583338904.532,22.949,32.715,16.602,18.555,62.012,0
1583338904.536,21.973,33.203,18.555,19.043,74.219,0
1583338904.540,29.297,32.227,20.508,28.809,3.906,0
1583338904.544,30.762,31.738,17.578,28.320,3.906,0
1583338904.548,24.414,32.715,19.531,21.973,22.461,0
1583338904.551,25.391,32.227,18.555,19.043,55.664,0
1583338904.555,29.297,32.715,17.090,21.973,46.875,0
1583338904.559,30.273,33.691,21.484,28.320,10.254,0
1583338904.563,30.273,32.715,21.484,25.879,28.320,0
1583338904.567,25.879,30.762,18.555,23.438,56.641,0
1583338904.567,27.344,28.809,20.508,25.879,42.480,0
1583338904.571,26.855,29.297,22.949,27.344,34.668,0
1583338904.575,22.949,28.320,21.973,25.391,17.090,0
1583338904.579,21.484,28.320,20.996,20.996,6.348,0
1583338904.583,20.508,29.297,18.555,21.973,38.086,0
1583338904.587,21.973,29.297,19.043,23.438,78.125,0
1583338904.591,23.926,30.762,18.555,20.996,66.406,0
1583338904.594,23.926,30.762,20.020,20.508,34.668,0
1583338904.598,22.949,28.809,20.508,18.066,42.969,0
1583338904.602,25.391,28.320,19.043,20.508,59.570,0
1583338904.606,24.414,29.785,23.926,22.949,53.223,0
1583338904.610,20.996,31.738,24.414,17.578,-22.949,0
1583338904.624,19.043,30.762,22.461,20.996,45.898,0
1583338904.628,20.020,27.832,23.926,23.438,50.781,0
1583338904.632,22.461,23.926,23.438,21.973,-22.949,0
1583338904.636,22.949,27.832,20.508,17.090,-12.695,0
1583338904.640,20.508,33.691,20.020,13.672,3.906,0
1583338904.644,24.414,30.762,21.484,20.508,28.809,0
1583338904.648,28.809,30.762,20.996,19.531,11.719,0
1583338904.651,25.391,31.738,20.996,13.184,31.738,0
1583338904.655,20.508,27.832,18.555,12.207,49.805,0
1583338904.659,20.508,29.297,15.625,13.184,52.734,0
1583338904.663,22.461,30.273,15.625,19.043,51.758,0
1583338904.667,21.973,29.785,20.996,18.555,-12.207,0
1583338904.664,21.973,29.785,21.484,11.719,44.922,0
1583338904.668,22.949,28.809,19.531,11.719,62.012,0
1583338904.672,27.832,29.297,22.461,20.508,3.418,0
1583338904.676,28.809,29.785,22.461,24.902,4.395,0
1583338904.680,28.320,32.227,22.949,24.902,-27.832,0
1583338904.684,25.879,32.227,21.973,25.391,-3.418,0
1583338904.688,28.320,32.715,18.066,24.414,73.730,0
1583338904.691,33.203,33.203,16.113,21.484,-0.488,0
1583338904.695,26.855,30.273,16.602,20.996,-69.824,0
1583338904.699,27.344,31.250,21.484,25.391,-12.695,0
1583338904.703,33.691,32.227,21.484,23.926,53.223,0
1583338904.707,30.273,32.227,17.090,17.578,72.266,0
1583338904.704,25.391,33.691,20.020,17.578,55.664,0
1583338904.708,20.508,29.297,20.020,15.625,65.918,0
1583338904.712,24.414,29.785,22.461,17.578,24.902,0
1583338904.716,29.785,34.668,22.949,23.926,-8.789,0
1583338904.720,29.785,36.133,20.508,21.484,17.090,0
1583338904.724,25.391,36.133,22.461,20.508,9.766,0
1583338904.728,22.949,34.668,22.461,23.438,7.324,0
1583338904.731,33.203,40.527,22.461,26.855,-17.578,0
1583338904.735,29.785,39.551,20.996,20.508,-2.930,0
1583338904.739,19.531,34.180,17.578,9.766,63.477,0
1583338904.743,19.531,32.715,17.578,9.766,28.809,0
1583338904.747,24.414,30.762,15.625,14.648,9.766,0
1583338904.764,26.367,30.273,16.113,17.578,24.414,0
1583338904.768,20.508,30.273,18.066,13.672,62.500,0
1583338904.772,16.602,28.320,15.625,6.836,73.730,0
1583338904.776,20.508,28.320,15.137,13.672,-37.598,0
1583338904.780,22.461,29.785,17.090,20.996,-25.879,0
1583338904.784,25.391,29.297,16.113,24.902,26.855,0
1583338904.788,29.785,33.203,17.090,23.438,84.473,0
1583338904.791,26.367,33.203,18.066,15.625,79.102,0
1583338904.795,25.391,28.320,16.113,19.531,3.418,0
1583338904.799,27.344,28.809,15.625,22.949,28.320,0
1583338904.803,26.855,29.297,17.578,21.484,34.180,0
1583338904.807,26.855,25.879,20.996,23.438,-4.883,0
1583338904.804,29.297,26.855,20.508,24.902,-4.395,0
1583338904.808,28.809,29.785,16.602,24.902,26.855,0
1583338904.812,26.367,31.738,18.066,22.461,13.184,0
1583338904.816,26.367,34.180,17.578,16.113,7.812,0
1583338904.820,25.879,34.180,17.578,16.113,34.668,0
1583338904.824,23.438,32.715,19.043,16.113,60.059,0
1583338904.828,17.578,32.227,15.137,11.719,66.406,0
1583338904.831,15.137,33.203,17.578,10.254,51.758,0
1583338904.835,16.602,32.227,17.578,7.812,5.859,0
1583338904.839,23.926,33.691,17.090,14.160,5.371,0
1583338904.843,26.855,34.180,17.090,13.184,26.855,0
1583338904.847,20.508,30.273,13.672,8.789,44.922,0
1583338904.844,20.508,31.738,13.184,12.207,75.684,0
1583338904.848,27.344,33.691,12.207,15.625,81.055,0
1583338904.852,31.738,35.156,16.602,20.508,44.922,0
1583338904.856,27.832,34.668,14.648,15.137,41.992,0
1583338904.860,26.367,33.691,11.719,14.648,23.438,0
1583338904.864,31.250,30.762,13.184,20.508,24.902,0
1583338904.868,30.273,25.391,14.160,20.508,32.227,0
1583338904.871,24.414,28.320,18.555,21.973,64.453,0
1583338904.875,22.461,33.691,16.602,15.137,61.523,0
1583338904.879,26.855,34.180,13.184,12.695,14.648,0
1583338904.883,27.832,34.668,14.648,18.555,-11.230,0
1583338904.887,19.531,32.227,13.184,16.602,4.883,0
1583338904.904,16.602,28.320,14.160,16.602,64.453,0
1583338904.908,19.531,28.809,18.555,15.625,31.738,0
1583338904.912,22.949,26.855,17.578,15.625,-1.465,0
1583338904.916,19.531,24.902,15.137,13.672,-2.441,0
1583338904.920,14.160,25.391,17.578,10.254,-24.902,0
1583338904.924,17.578,27.832,16.113,13.184,11.719,0
1583338904.928,20.020,26.367,11.230,10.254,46.387,0
1583338904.931,17.090,23.438,11.719,4.883,47.852,0
1583338904.935,14.648,28.320,13.672,7.324,38.086,0
1583338904.939,15.137,30.273,13.672,6.348,34.180,0
1583338904.943,18.066,29.785,14.648,7.324,62.500,0
1583338904.947,23.926,31.250,17.578,9.277,1.465,0
1583338904.944,20.508,34.180,14.648,6.836,20.508,0
1583338904.948,15.625,33.691,15.137,8.301,38.574,0
1583338904.952,23.926,33.691,17.578,16.113,17.090,0
1583338904.956,31.738,34.668,16.602,24.414,51.758,0
1583338904.960,33.203,35.645,19.531,27.344,38.574,0
1583338904.964,30.273,35.156,20.020,27.832,70.801,0
1583338904.968,29.785,35.156,19.043,26.367,105.957,0
1583338904.971,33.203,35.156,17.090,25.879,18.555,0
1583338904.975,27.344,34.668,13.184,24.414,40.039,0
1583338904.979,23.438,35.156,16.113,17.578,46.875,0
1583338904.983,20.020,34.668,18.066,15.625,17.090,0
1583338904.987,19.531,32.715,15.625,16.602,24.414,0
1583338904.984,25.391,32.227,17.090,20.508,-23.926,0
1583338904.988,20.508,30.273,20.508,19.531,0.488,0
1583338904.992,21.973,30.762,21.484,14.648,10.254,0
1583338904.996,25.391,27.344,20.020,15.625,-62.500,0
1583338905.000,23.926,24.902,18.066,21.484,-4.395,0
1583338905.004,24.414,30.273,17.090,21.484,30.273,0
1583338905.008,20.020,28.809,15.625,12.207,73.242,0
1583338905.011,25.391,29.297,16.113,11.230,83.984,0
1583338905.015,27.832,31.250,17.090,12.695,23.926,0
1583338905.019,19.043,27.832,14.160,4.395,93.750,0
1583338905.023,17.090,30.273,11.230,2.441,88.867,0
1583338905.027,19.531,30.762,11.230,3.418,53.223,0
1583338905.044,27.344,33.203,15.137,10.254,89.844,0
1583338905.048,27.344,32.715,19.043,16.113,46.875,0
1583338905.052,24.414,28.320,19.043,14.648,-5.859,0
1583338905.056,29.785,31.250,19.043,18.555,-1.953,0
1583338905.060,33.691,33.203,19.043,26.367,12.695,0
1583338905.064,35.645,34.668,20.996,33.691,-2.930,0
1583338905.068,32.227,34.668,23.438,26.855,3.418,0
1583338905.071,24.414,30.762,21.484,19.043,56.152,0
1583338905.075,26.367,33.203,18.555,27.344,67.871,0
1583338905.079,33.203,36.621,19.531,29.785,38.574,0
1583338905.083,32.715,38.086,23.926,32.715,15.137,0
1583338905.087,33.691,40.527,22.461,34.180,22.949,0
1583338905.105,31.250,38.574,20.020,29.785,62.012,0
1583338905.109,28.320,35.645,20.508,33.203,102.539,0
1583338905.113,26.855,35.645,19.043,32.227,43.945,0
1583338905.117,20.996,32.715,17.578,25.879,1.465,0
1583338905.121,20.508,32.227,19.043,24.902,21.973,0
1583338905.125,28.320,35.156,20.508,29.785,23.926,0
1583338905.129,25.391,33.203,21.484,31.250,26.855,0
1583338905.132,18.555,30.762,23.926,24.414,16.602,0
1583338905.136,16.113,29.297,24.414,21.484,11.230,0
1583338905.140,19.531,31.250,22.949,26.367,14.648,0
1583338905.144,21.484,32.227,22.949,25.879,7.324,0
1583338905.148,18.066,32.227,24.902,24.902,32.227,0
1583338905.144,20.508,32.715,22.949,19.043,0.977,0
1583338905.148,28.809,31.738,20.508,19.043,-17.090,0
1583338905.152,35.645,34.180,22.461,25.879,-34.180,0
1583338905.156,31.250,35.156,21.484,16.602,-23.438,0
1583338905.160,30.762,34.180,20.996,14.160,4.883,0
1583338905.164,39.062,34.668,21.484,18.555,10.742,0
1583338905.168,45.898,35.645,20.508,23.438,38.086,0
1583338905.171,43.457,36.621,22.461,24.902,11.719,0
1583338905.175,37.598,32.227,21.484,21.484,-41.992,0
1583338905.179,35.156,32.715,19.531,22.461,-9.277,0
1583338905.183,34.668,36.133,20.020,24.902,34.180,0
1583338905.187,33.203,34.180,19.531,24.902,25.879,0
1583338905.186,33.203,32.227,17.090,21.973,40.039,0
1583338905.190,34.668,33.691,20.508,18.066,26.855,0
1583338905.194,30.762,32.227,18.555,20.996,20.996,0
1583338905.198,26.855,31.250,18.066,23.438,55.664,0
1583338905.202,22.461,31.738,23.926,23.438,85.938,0
1583338905.206,21.484,32.227,22.949,24.902,56.641,0
1583338905.210,26.367,30.762,18.555,20.020,18.066,0
1583338905.213,23.926,29.297,17.578,21.973,42.969,0
1583338905.217,18.066,29.785,17.578,21.973,111.328,0
1583338905.221,14.648,28.320,15.625,15.137,104.492,0
1583338905.225,19.043,30.273,17.578,20.996,28.320,0
1583338905.229,27.832,33.203,18.555,26.855,-6.348,0
1583338905.225,28.809,33.203,16.602,25.879,12.695,0
1583338905.229,25.879,34.180,17.578,21.484,53.711,0
1583338905.233,26.367,30.273,18.066,17.090,51.270,0
1583338905.237,28.320,28.320,19.043,22.461,3.906,0
1583338905.241,28.809,32.715,19.043,24.902,-0.977,0
1583338905.245,24.902,32.227,17.578,22.949,20.020,0
1583338905.249,22.949,32.227,17.578,18.555,57.129,0
1583338905.252,25.879,33.203,18.066,18.066,69.824,0
1583338905.256,31.250,34.668,18.066,24.902,37.598,0
1583338905.260,36.133,38.574,10.742,23.438,-16.602,0
1583338905.264,27.832,35.156,9.766,14.648,-12.207,0
1583338905.268,29.785,33.203,17.578,17.090,36.133,0
1583338905.264,36.621,36.133,20.508,22.461,23.438,0
1583338905.268,29.785,33.203,18.555,20.508,21.484,0
1583338905.272,25.879,30.273,15.625,17.090,5.371,0
1583338905.276,28.320,29.297,16.113,17.578,-26.855,0
1583338905.280,25.391,28.809,16.113,19.531,23.438,0
1583338905.284,22.949,28.320,16.602,20.508,-27.832,0
1583338905.288,18.066,26.855,16.602,15.625,-15.625,0
1583338905.291,16.113,32.715,18.066,11.230,17.090,0
1583338905.295,20.020,34.180,17.578,8.301,6.348,0
1583338905.299,20.508,32.715,13.184,12.207,9.277,0
1583338905.303,17.090,35.156,13.672,17.578,22.949,0
1583338905.307,13.184,30.273,13.672,14.648,16.602,0
1583338905.324,21.973,28.320,18.066,16.113,-42.969,0
1583338905.328,20.020,26.855,19.531,16.113,17.578,0
1583338905.332,16.113,26.367,17.090,15.625,49.805,0
1583338905.336,23.438,27.344,14.648,15.625,-20.996,0
1583338905.340,29.297,25.879,14.160,19.531,-4.395,0
1583338905.344,33.691,28.809,19.531,24.902,31.738,0
1583338905.348,29.785,30.762,18.555,19.043,44.434,0
1583338905.351,23.926,27.344,17.090,13.184,33.203,0
1583338905.355,26.855,28.320,15.625,17.578,16.113,0
1583338905.359,28.809,31.738,14.160,21.484,49.805,0
1583338905.363,35.156,35.645,20.020,22.461,9.766,0
1583338905.367,31.250,33.691,20.508,15.625,-8.301,0
1583338905.405,28.809,29.785,17.578,15.137,27.344,0
1583338905.409,39.062,32.227,19.531,25.879,-4.395,0
1583338905.413,36.133,30.762,20.020,25.391,26.855,0
1583338905.417,31.250,29.785,19.043,20.508,26.367,0
1583338905.421,27.832,31.250,17.090,15.625,19.531,0
1583338905.425,31.738,31.738,17.090,16.602,56.641,0
1583338905.429,35.645,31.738,15.137,19.531,33.203,0
1583338905.432,29.785,31.738,14.648,16.602,-26.367,0
1583338905.436,28.320,34.668,18.066,17.090,-62.012,0
1583338905.440,31.250,34.180,16.113,15.625,51.270,0
1583338905.444,31.250,32.227,13.672,13.184,83.984,0
1583338905.448,28.809,33.203,16.113,18.066,4.883,0
1583338905.409,26.855,32.715,18.555,15.137,12.207,0
1583338905.413,27.344,31.250,18.555,12.207,16.602,0
1583338905.417,30.762,32.227,18.555,19.043,58.594,0
1583338905.421,29.785,33.691,17.578,20.508,20.996,0
1583338905.425,21.484,30.273,17.578,16.602,-7.812,0
1583338905.429,17.578,29.297,19.043,13.184,67.383,0
1583338905.433,21.484,32.227,18.555,14.160,7.324,0
1583338905.436,21.484,33.691,19.043,16.113,25.391,0
1583338905.440,19.043,32.227,19.531,14.160,106.445,0
1583338905.444,21.973,34.668,17.578,14.648,43.945,0
1583338905.448,28.320,36.621,19.531,16.113,-16.113,0
1583338905.452,32.227,33.691,21.973,15.625,49.316,0
1583338905.464,32.227,36.133,22.461,18.066,59.082,0
1583338905.468,27.832,36.621,23.926,17.090,35.156,0
1583338905.472,33.691,36.621,22.949,18.555,41.504,0
1583338905.476,43.457,39.062,20.996,21.973,-9.277,0
1583338905.480,45.898,38.086,20.996,24.902,-13.672,0
1583338905.484,45.898,41.016,23.438,26.855,34.668,0
1583338905.488,40.527,41.016,23.438,15.137,9.766,0
1583338905.491,39.062,37.109,19.043,11.230,-20.020,0
1583338905.495,33.691,33.691,18.555,20.508,-9.277,0
1583338905.499,26.855,30.273,18.555,21.484,32.715,0
1583338905.503,31.250,35.645,18.555,21.973,64.941,0
1583338905.507,35.156,37.598,21.484,24.902,53.711,0
1583338905.504,29.785,33.203,20.996,27.344,56.641,0
1583338905.508,24.414,32.715,21.484,26.367,79.590,0
1583338905.512,22.461,30.273,20.996,23.926,32.227,0
1583338905.516,26.367,31.250,20.996,22.949,9.277,0
1583338905.520,27.832,34.180,21.484,20.020,11.230,0
1583338905.524,29.785,31.738,20.996,20.508,-4.883,0
1583338905.528,26.367,30.273,20.996,19.043,-17.090,0
1583338905.531,17.090,30.273,20.996,17.090,-10.742,0
1583338905.535,15.625,31.738,19.531,18.066,30.762,0
1583338905.539,14.160,30.762,19.531,14.648,5.859,0
1583338905.543,7.812,26.855,19.043,10.742,10.742,0
1583338905.547,5.371,27.344,22.461,13.184,80.078,0
1583338905.544,8.789,28.320,23.438,16.113,67.871,0
1583338905.548,17.578,27.832,20.508,16.113,28.320,0
1583338905.552,20.020,29.785,19.531,17.578,72.266,0
1583338905.556,15.625,28.320,17.090,17.578,96.680,0
1583338905.560,20.508,28.809,18.066,17.578,28.320,0
1583338905.564,28.320,28.320,19.043,20.996,71.289,0
1583338905.568,28.320,27.832,18.555,16.602,42.969,0
1583338905.571,34.180,33.203,20.508,12.207,-30.762,0
1583338905.575,39.062,34.668,21.484,15.625,-20.996,0
1583338905.579,35.645,27.832,19.531,20.508,64.453,0
1583338905.583,32.227,28.320,18.555,20.508,131.348,0
1583338905.587,30.273,34.668,19.043,16.113,54.688,0
1583338905.604,29.785,34.668,20.996,17.090,-11.719,0
1583338905.608,27.344,33.203,20.020,23.926,30.273,0
1583338905.612,26.367,35.645,19.043,27.344,88.867,0
1583338905.616,25.391,36.621,20.020,24.902,42.480,0
1583338905.620,23.438,36.133,20.996,20.020,4.395,0
1583338905.624,26.855,35.156,21.973,19.043,46.387,0
1583338905.628,26.855,34.668,19.043,21.484,75.195,0
1583338905.631,23.438,35.156,17.578,20.020,32.227,0
1583338905.635,24.414,36.133,19.043,20.020,41.016,0
1583338905.639,24.414,32.715,19.043,21.484,84.961,0
1583338905.643,26.855,31.250,21.484,22.461,6.348,0
1583338905.647,23.438,28.809,22.461,19.043,-29.297,0
1583338905.664,19.043,26.855,18.066,19.043,-38.574,0
1583338905.668,20.996,28.320,16.602,24.902,-16.602,0
1583338905.672,21.484,28.809,17.090,24.414,79.102,0
1583338905.676,18.066,29.785,19.043,24.414,76.660,0
1583338905.680,17.090,29.297,20.508,24.414,19.531,0
1583338905.684,20.020,31.738,21.484,23.438,5.859,0
1583338905.688,17.578,32.227,20.508,23.926,41.016,0
1583338905.691,12.695,31.250,18.555,17.578,96.191,0
1583338905.695,10.254,30.762,19.043,11.719,83.496,0
1583338905.699,12.207,32.227,18.555,15.137,67.383,0
1583338905.703,17.090,32.715,17.578,21.484,67.871,0
1583338905.707,21.484,29.785,16.602,22.461,43.457,0
1583338905.724,22.949,27.344,16.113,17.090,27.344,0
1583338905.728,25.879,31.250,20.508,18.066,14.160,0
1583338905.732,31.250,33.691,24.902,20.508,-24.902,0
1583338905.736,34.668,30.762,22.949,18.555,-27.832,0
1583338905.740,32.227,33.203,21.973,21.484,21.484,0
1583338905.744,28.809,37.109,23.438,19.531,-6.348,0
1583338905.748,32.227,33.691,23.438,20.020,-28.320,0
1583338905.751,38.574,32.715,19.043,23.926,8.301,0
1583338905.755,39.062,31.738,16.602,23.438,17.090,0
1583338905.759,35.645,30.762,18.066,23.926,39.551,0
1583338905.763,34.668,33.691,18.066,20.508,77.637,0
1583338905.767,35.645,31.738,17.578,24.414,50.293,0
1583338905.747,39.551,32.227,20.508,27.344,33.203,0
1583338905.751,42.480,37.598,21.973,24.902,45.410,0
1583338905.755,36.621,36.133,20.508,27.832,27.832,0
1583338905.759,31.738,33.203,22.461,24.902,87.891,0
1583338905.763,36.133,31.250,20.508,25.879,67.871,0
1583338905.767,37.109,32.227,16.602,29.297,54.199,0
1583338905.771,28.809,27.344,16.602,21.484,90.332,0
1583338905.774,23.438,22.949,16.113,18.066,32.227,0
1583338905.778,25.879,26.855,17.578,20.508,61.523,0
1583338905.782,20.996,30.273,20.508,18.555,79.102,0
1583338905.786,18.066,32.227,18.066,13.672,0.488,0
1583338905.790,19.043,31.250,16.113,14.160,-6.836,0
1583338905.784,14.648,24.414,18.066,18.066,73.730,0
1583338905.788,17.578,22.461,19.043,16.602,60.059,0
1583338905.792,20.020,27.344,17.090,15.137,2.441,0
1583338905.796,17.578,26.855,17.090,19.043,20.996,0
1583338905.800,20.020,24.414,17.090,20.020,34.668,0
1583338905.804,21.484,26.367,17.090,22.461,55.664,0
1583338905.808,18.555,28.809,18.066,18.555,39.551,0
1583338905.811,18.555,29.785,14.648,18.066,7.324,0
1583338905.815,23.926,33.203,14.648,26.367,3.906,0
1583338905.819,28.809,35.156,18.555,23.438,50.293,0
1583338905.823,25.391,32.715,15.625,17.578,53.711,0
1583338905.827,20.020,34.180,15.625,18.066,36.621,0
1583338905.844,21.484,32.715,15.625,19.531,48.340,0
1583338905.848,28.809,33.203,14.648,19.531,34.180,0
1583338905.852,30.273,33.691,17.090,18.066,-4.883,0
1583338905.856,25.391,32.715,16.113,15.625,32.227,0
1583338905.860,28.320,35.645,19.043,15.625,4.395,0
1583338905.864,29.785,33.691,20.020,19.531,-14.160,0
1583338905.868,31.250,34.180,18.066,22.461,108.887,0
1583338905.871,31.738,38.086,19.531,17.090,71.289,0
1583338905.875,23.926,33.691,16.113,10.742,51.758,0
1583338905.879,25.879,30.762,12.695,14.160,84.473,0
1583338905.883,34.180,32.227,13.184,18.555,10.254,0
1583338905.887,30.273,32.715,16.602,21.484,-32.715,0
1583338905.884,25.879,31.250,15.625,19.531,9.766,0
1583338905.888,25.879,32.227,15.137,17.578,33.691,0
1583338905.892,28.320,35.156,19.531,18.555,-14.648,0
1583338905.896,28.809,32.715,18.066,17.578,-34.180,0
1583338905.900,25.391,30.762,16.602,14.648,34.668,0
1583338905.904,25.391,30.762,17.090,17.090,14.160,0
1583338905.908,28.809,28.809,15.625,23.438,0.488,0
1583338905.911,28.809,28.809,16.113,20.996,31.250,0
1583338905.915,23.438,27.344,16.113,15.625,55.664,0
1583338905.919,21.973,26.367,19.043,17.090,86.426,0
1583338905.923,24.414,26.855,21.973,19.043,53.711,0
1583338905.927,25.391,23.926,15.625,17.578,-37.109,0
1583338905.924,20.508,24.414,12.207,17.578,23.926,0
1583338905.928,21.973,24.414,15.137,17.090,34.668,0
1583338905.932,26.367,23.438,15.625,21.484,-4.883,0
1583338905.936,27.832,29.297,15.625,25.391,38.574,0
1583338905.940,23.926,30.762,17.090,20.996,110.840,0
1583338905.944,22.949,29.297,17.090,19.531,92.285,0
1583338905.948,25.879,28.809,18.066,20.996,6.836,0
1583338905.951,24.414,24.414,18.066,19.531,-0.977,0
1583338905.955,24.902,28.809,21.973,20.508,13.184,0
1583338905.959,21.484,29.785,25.391,19.043,29.785,0
1583338905.963,15.625,26.855,21.973,11.719,67.383,0
1583338905.967,23.438,29.297,19.531,14.160,80.078,0
1583338905.984,26.855,30.273,19.531,18.555,28.320,0
1583338905.988,17.090,30.762,18.555,14.648,26.855,0
1583338905.992,14.648,28.320,16.113,10.742,67.383,0
1583338905.996,22.949,26.367,15.625,14.160,83.008,0
1583338906.000,27.832,29.785,18.066,15.625,46.387,0
1583338906.004,25.391,29.297,20.020,12.207,-0.488,0
1583338906.008,27.344,29.785,24.414,13.184,17.578,0
1583338906.011,29.785,29.297,21.973,9.766,41.504,0
1583338906.015,30.273,27.344,17.090,9.766,27.344,0
1583338906.019,27.832,28.809,17.090,11.719,5.859,0
1583338906.023,16.602,26.855,16.113,4.883,43.945,0
1583338906.027,21.484,27.832,16.602,6.348,20.020,0
1583338906.024,28.320,29.297,15.625,11.230,-3.418,0
1583338906.028,25.391,31.250,17.090,12.695,29.785,0
1583338906.032,24.902,32.715,17.578,10.254,-6.836,0
1583338906.036,26.855,32.227,17.090,12.695,-31.250,0
1583338906.040,32.227,32.227,17.578,20.508,-19.531,0
1583338906.044,30.762,31.738,16.113,19.043,73.242,0
1583338906.048,27.344,27.832,16.602,15.137,73.730,0
1583338906.051,32.227,27.832,16.113,16.602,1.953,0
1583338906.055,33.203,33.203,16.113,13.184,0.977,0
1583338906.059,34.668,36.133,20.996,16.602,20.508,0
1583338906.063,29.785,37.109,22.461,14.160,65.430,0
1583338906.067,18.555,33.691,17.578,4.395,43.945,0
1583338906.064,20.508,30.273,16.113,9.766,29.297,0
1583338906.068,23.438,30.273,16.113,14.648,48.828,0
1583338906.072,21.484,30.762,19.531,16.602,50.781,0
1583338906.076,18.066,29.297,19.531,11.230,76.660,0
1583338906.080,19.043,26.855,18.066,8.301,98.145,0
1583338906.084,28.809,27.832,19.043,21.973,49.316,0
1583338906.088,29.297,27.344,19.043,21.484,-33.691,0
1583338906.091,20.996,25.879,13.184,13.672,-35.645,0
1583338906.095,24.902,28.809,17.090,12.695,60.059,0
1583338906.099,27.344,26.855,20.508,7.812,84.961,0
1583338906.103,24.414,26.855,17.090,15.625,56.641,0
1583338906.107,21.484,28.809,18.066,18.066,20.508,0
1583338906.144,23.438,29.297,16.113,15.137,-5.859,0
1583338906.148,29.297,28.320,16.602,17.578,-20.996,0
1583338906.152,30.273,27.344,16.113,19.531,59.082,0
1583338906.156,33.203,32.227,12.207,22.461,55.176,0
1583338906.160,32.715,34.668,14.160,18.555,-32.227,0
1583338906.164,31.738,35.645,17.090,19.531,-41.504,0
1583338906.168,37.109,35.645,17.578,17.578,-39.062,0
1583338906.171,32.715,31.738,17.578,9.766,-13.184,0
1583338906.175,21.973,27.344,14.160,11.230,50.781,0
1583338906.179,21.973,28.320,13.672,12.695,68.359,0
1583338906.183,24.414,29.785,17.578,19.531,28.320,0
1583338906.187,24.414,32.715,19.531,21.973,50.293,0
1583338906.204,19.043,35.645,20.508,15.625,29.785,0
1583338906.208,18.066,31.250,19.043,15.625,7.324,0
1583338906.212,24.902,28.809,15.625,18.066,16.113,0
1583338906.216,25.879,31.738,17.090,19.043,21.973,0
1583338906.220,22.949,33.691,18.066,17.090,55.176,0
1583338906.224,23.438,32.715,18.066,16.113,5.859,0
1583338906.228,25.391,30.273,16.113,19.531,0.977,0
1583338906.231,28.320,29.785,17.578,23.438,27.344,0
1583338906.235,20.996,29.785,17.090,19.531,-64.941,0
1583338906.239,16.602,29.785,13.672,14.160,-40.039,0
1583338906.243,20.020,28.320,11.719,14.648,22.949,0
1583338906.247,25.391,27.344,9.766,16.602,-15.625,0
1583338906.264,23.926,27.344,13.672,14.648,-16.602,0
1583338906.268,19.531,26.367,14.160,11.719,-33.691,0
1583338906.272,26.367,30.273,14.648,15.137,22.461,0
1583338906.276,29.785,31.250,18.555,17.578,26.855,0
1583338906.280,22.949,25.879,16.113,19.043,-22.461,0
1583338906.284,16.113,24.902,18.066,19.043,15.137,0
1583338906.288,15.625,30.273,18.555,18.066,38.574,0
1583338906.291,20.996,33.691,17.578,19.043,72.754,0
1583338906.295,26.367,33.203,19.043,19.531,35.156,0
1583338906.299,24.414,29.785,18.066,20.020,22.461,0
1583338906.303,20.996,26.855,18.066,18.066,35.645,0
1583338906.307,22.949,26.367,17.578,18.066,10.742,0
1583338906.268,25.391,26.367,16.113,18.555,35.156,0
1583338906.272,23.926,26.367,17.578,15.137,67.383,0
1583338906.276,17.578,28.320,20.508,15.137,39.551,0
1583338906.280,18.555,28.320,20.020,16.113,9.277,0
1583338906.284,22.949,29.297,19.043,20.508,54.199,0
1583338906.288,25.879,31.250,21.484,20.020,94.727,0
1583338906.292,25.391,31.738,22.461,15.625,63.477,0
1583338906.295,21.973,29.785,20.020,13.672,4.883,0
1583338906.299,21.973,26.855,16.113,10.254,44.922,0
1583338906.303,20.508,25.391,16.113,9.277,1.953,0
1583338906.307,13.672,23.926,14.160,2.930,-34.668,0
1583338906.311,13.672,25.391,14.648,3.418,-53.711,0
1583338906.304,17.578,26.367,18.066,11.719,-6.836,0
1583338906.308,19.531,24.902,17.578,12.695,68.848,0
1583338906.312,20.020,25.391,17.090,14.160,35.156,0
1583338906.316,19.043,25.391,16.602,13.672,13.184,0
1583338906.320,26.855,27.344,18.066,17.578,46.875,0
1583338906.324,32.715,28.320,20.508,23.926,11.230,0
1583338906.328,29.297,27.344,19.043,19.531,9.766,0
1583338906.331,24.902,26.367,18.555,16.602,-0.977,0
1583338906.335,25.879,25.391,21.484,20.020,46.875,0
1583338906.339,34.180,27.344,24.414,25.879,59.570,0
1583338906.343,38.086,29.297,25.391,23.438,-7.324,0
1583338906.347,31.250,23.438,20.996,14.160,-1.953,0
1583338906.344,27.832,19.531,17.578,16.113,63.477,0
1583338906.348,30.762,21.973,20.996,22.461,66.406,0
1583338906.352,32.227,23.926,23.926,24.902,28.809,0
1583338906.356,27.344,23.926,22.461,21.973,-2.441,0
1583338906.360,23.438,22.949,21.484,17.578,11.230,0
1583338906.364,30.273,27.344,20.508,20.020,25.879,0
1583338906.368,28.809,29.297,19.531,20.508,28.809,0
1583338906.371,23.438,29.297,20.508,18.555,45.410,0
1583338906.375,26.367,29.297,20.508,16.602,34.668,0
1583338906.379,27.344,25.391,20.020,18.066,30.762,0
1583338906.383,26.855,24.902,18.066,21.484,66.406,0
1583338906.387,26.855,24.902,17.578,21.973,70.312,0
1583338906.404,27.832,24.902,22.461,22.949,54.688,0
1583338906.408,26.367,25.879,21.484,18.555,33.691,0
1583338906.412,25.391,22.461,18.066,17.578,49.805,0
1583338906.416,29.297,21.973,14.160,21.973,49.805,0
1583338906.420,27.344,23.438,12.207,20.020,14.648,0
1583338906.424,28.809,26.367,18.555,24.902,-17.578,0
1583338906.428,35.645,27.832,20.508,31.250,-16.602,0
1583338906.431,31.738,24.414,19.043,27.832,16.602,0
1583338906.435,23.438,24.414,20.508,21.484,38.574,0
1583338906.439,24.902,28.320,20.020,18.066,26.855,0
1583338906.443,26.855,28.809,19.531,21.484,6.348,0
1583338906.447,26.367,29.785,21.973,21.484,29.785,0
1583338906.464,20.996,30.273,20.020,11.719,17.090,0
1583338906.468,18.555,30.273,17.578,13.184,35.645,0
1583338906.472,22.461,31.738,19.531,19.043,84.473,0
1583338906.476,24.902,31.250,22.461,22.949,92.285,0
1583338906.480,28.809,32.227,23.926,26.855,73.730,0
1583338906.484,27.344,33.691,22.461,26.367,47.363,0
1583338906.488,20.996,30.273,21.484,21.973,36.621,0
1583338906.491,22.949,29.785,21.973,20.996,3.418,0
1583338906.495,20.508,29.785,21.484,22.461,-20.020,0
1583338906.499,18.555,29.785,20.996,19.043,37.109,0
1583338906.503,23.926,31.250,20.020,16.602,48.828,0
1583338906.507,27.344,30.762,19.531,22.949,1.953,0
1583338906.484,32.715,32.227,22.461,30.762,60.547,0
1583338906.488,32.227,31.250,22.461,29.785,60.547,0
1583338906.492,32.227,29.297,20.508,26.367,-15.625,0
1583338906.496,33.203,28.809,20.508,25.879,11.230,0
1583338906.500,32.227,27.344,22.949,25.879,49.805,0
1583338906.504,28.809,27.344,22.949,22.949,32.715,0
1583338906.508,25.391,30.273,22.461,20.508,19.531,0
1583338906.511,29.297,29.785,22.949,21.973,-37.109,0
1583338906.515,29.785,26.855,21.484,22.949,-20.996,0
1583338906.519,26.367,28.320,20.020,25.391,62.012,0
1583338906.523,26.855,30.273,21.484,23.926,69.824,0
1583338906.527,27.832,29.785,21.973,20.996,60.547,0
1583338906.564,31.738,29.785,21.973,28.320,40.039,0
1583338906.568,30.762,29.785,24.902,28.320,34.668,0
1583338906.572,23.438,28.320,22.461,20.996,73.242,0
1583338906.576,23.438,28.320,20.996,22.461,43.457,0
1583338906.580,24.902,29.297,18.555,22.949,6.348,0
1583338906.584,24.902,30.762,18.066,26.367,79.102,0
1583338906.588,25.391,29.297,21.484,21.973,103.027,0
1583338906.591,19.531,24.902,18.555,9.766,75.684,0
1583338906.595,16.113,25.391,17.090,10.742,89.355,0
1583338906.599,26.367,29.297,18.555,21.484,44.922,0
1583338906.603,25.879,29.785,19.531,24.414,75.684,0
1583338906.607,23.438,27.832,19.531,21.484,71.289,0
1583338906.604,28.320,30.273,18.066,20.508,17.090,0
1583338906.608,28.809,29.785,14.648,18.555,36.621,0
1583338906.612,22.949,26.855,13.672,14.648,33.691,0
1583338906.616,20.996,27.832,17.090,13.184,20.020,0
1583338906.620,23.438,29.297,17.578,16.113,26.855,0
1583338906.624,27.344,29.785,14.160,16.602,43.457,0
1583338906.628,22.949,28.320,10.254,13.672,51.270,0
1583338906.631,16.113,27.832,10.254,14.648,33.691,0
1583338906.635,18.066,29.297,13.672,15.625,48.340,0
1583338906.639,24.902,30.762,17.578,18.555,45.410,0
1583338906.643,27.832,27.832,18.066,19.043,7.324,0
1583338906.647,26.855,28.320,19.531,15.625,7.324,0
1583338906.623,27.832,29.785,20.996,19.531,37.598,0
1583338906.627,29.297,28.809,19.531,21.973,48.340,0
1583338906.631,30.762,28.809,20.508,21.484,26.855,0
1583338906.635,30.762,28.320,19.531,17.090,16.113,0
1583338906.639,28.320,28.809,15.625,14.160,12.695,0
1583338906.643,27.832,27.832,15.137,13.672,-0.977,0
1583338906.647,31.250,28.809,16.113,14.648,34.180,0
1583338906.650,31.738,31.738,17.578,14.648,65.918,0
1583338906.654,22.461,30.762,17.090,7.324,58.594,0
1583338906.658,15.625,28.809,14.648,4.883,25.879,0
1583338906.662,16.602,27.832,16.113,8.789,34.180,0
1583338906.666,18.066,27.832,15.625,10.742,34.668,0
1583338906.684,21.973,33.203,15.137,13.672,14.160,0
1583338906.688,19.531,33.691,16.602,0.977,68.359,0
1583338906.692,18.555,29.297,15.625,0.000,85.449,0
1583338906.696,29.297,32.227,17.090,20.020,43.945,0
1583338906.700,40.039,35.645,17.090,31.738,21.973,0
1583338906.704,37.109,33.691,20.996,33.691,31.250,0
1583338906.708,24.902,26.367,26.855,20.996,40.039,0
1583338906.711,20.508,20.996,28.809,16.113,-0.488,0
1583338906.715,16.602,20.508,30.762,18.555,-16.113,0
1583338906.719,14.648,20.508,31.738,17.578,3.418,0
1583338906.723,16.602,21.973,34.180,19.531,-23.926,0
1583338906.727,17.578,21.973,32.227,17.578,-14.160,0
1583338906.744,12.695,19.531,27.344,10.254,0.977,0
1583338906.748,15.625,21.484,22.949,12.695,8.301,0
1583338906.752,20.996,25.391,20.508,17.090,-9.277,0
1583338906.756,28.320,28.320,22.949,23.438,-7.324,0
1583338906.760,30.762,28.809,24.902,24.902,47.363,0
1583338906.764,31.738,26.855,26.855,25.879,56.152,0
1583338906.768,31.250,27.344,27.344,30.273,6.836,0
1583338906.771,29.297,29.297,27.344,30.273,0.488,0
1583338906.775,31.738,31.250,30.762,33.691,-20.508,0
1583338906.779,29.297,34.180,29.297,29.297,-8.301,0
1583338906.783,24.902,33.203,25.391,23.438,34.668,0
1583338906.787,23.438,31.250,24.902,27.344,4.883,0
1583338906.764,24.902,30.273,24.414,27.832,-5.859,0
1583338906.768,26.855,32.227,23.926,29.785,-14.648,0
1583338906.772,26.367,32.715,25.879,24.902,47.363,0
1583338906.776,22.949,32.715,25.879,19.531,82.520,0
1583338906.780,28.320,34.668,25.391,28.809,46.387,0
1583338906.784,32.227,33.691,25.879,31.738,56.152,0
1583338906.788,26.855,31.738,23.438,26.855,49.316,0
1583338906.791,30.273,30.762,22.461,21.973,34.180,0
1583338906.795,37.598,29.785,22.949,28.320,4.883,0
1583338906.799,35.645,28.809,22.461,37.598,16.113,0
1583338906.803,35.156,31.738,21.973,36.621,15.137,0
1583338906.807,35.645,31.250,19.531,35.156,-24.414,0
1583338906.824,36.133,31.738,23.438,34.180,17.578,0
1583338906.828,32.227,31.250,22.949,25.391,38.086,0
1583338906.832,28.320,28.809,18.555,22.461,31.738,0
1583338906.836,24.902,29.297,20.508,20.508,31.738,0
1583338906.840,21.973,30.762,20.508,17.090,48.828,0
1583338906.844,30.762,37.109,21.484,20.020,58.594,0
1583338906.848,30.762,37.109,22.461,18.555,2.930,0
1583338906.851,19.043,34.180,21.484,12.695,-7.812,0
1583338906.855,14.160,33.691,20.020,7.812,29.785,0
1583338906.859,20.020,32.715,17.578,7.812,57.129,0
1583338906.863,22.949,33.203,17.578,7.812,72.266,0
1583338906.867,20.020,33.203,17.578,7.324,51.270,0
1583338906.884,23.926,31.250,17.090,16.113,46.387,0
1583338906.888,25.391,28.320,20.996,20.508,70.312,0
1583338906.892,16.602,23.926,25.391,13.184,47.852,0
1583338906.896,10.254,21.973,30.273,8.789,7.812,0
1583338906.900,7.812,23.438,33.203,8.789,18.555,0
1583338906.904,9.277,25.391,31.250,14.648,30.762,0
1583338906.908,13.184,23.438,29.297,16.113,71.289,0
1583338906.911,9.766,20.996,26.367,9.277,31.250,0
1583338906.915,5.371,22.949,24.902,6.836,66.895,0
1583338906.919,10.742,25.391,27.344,13.672,89.844,0
1583338906.923,16.602,20.996,24.414,16.113,42.969,0
1583338906.927,14.648,21.973,21.973,13.184,54.688,0
1583338906.925,7.324,24.902,23.438,6.348,-0.488,0
1583338906.929,4.395,23.438,22.461,5.371,-1.465,0
1583338906.933,15.137,24.902,21.484,11.230,25.391,0
1583338906.937,19.531,25.879,20.508,11.719,53.711,0
1583338906.941,19.531,27.832,21.973,13.672,47.852,0
1583338906.945,27.344,30.273,25.879,21.484,-1.465,0
1583338906.949,31.738,28.809,27.344,23.926,28.320,0
1583338906.952,33.691,25.879,22.949,23.926,15.625,0
1583338906.956,28.809,26.367,19.531,23.926,42.480,0
1583338906.960,28.320,31.738,23.438,26.855,34.668,0
1583338906.964,31.250,31.250,22.949,28.809,-8.301,0
1583338906.968,33.203,31.738,20.996,26.367,-11.719,0
1583338907.024,34.180,34.180,23.926,26.855,-11.230,0
1583338907.028,24.902,32.715,24.902,23.926,57.617,0
1583338907.032,23.438,32.715,23.438,21.484,21.484,0
1583338907.036,26.855,30.762,19.531,24.414,-30.762,0
1583338907.040,25.879,29.785,19.531,26.367,22.949,0
1583338907.044,29.297,34.668,24.902,29.297,10.254,0
1583338907.048,25.391,33.691,23.926,23.926,32.227,0
1583338907.051,26.367,30.762,19.043,20.508,63.477,0
1583338907.055,29.297,31.738,19.531,21.484,57.129,0
1583338907.059,26.367,32.227,22.461,23.438,4.883,0
1583338907.063,27.344,32.227,28.320,26.855,-10.254,0
1583338907.067,27.344,28.320,24.902,18.066,85.449,0
1583338907.047,25.391,25.879,20.508,16.602,53.711,0
1583338907.051,21.973,26.855,20.508,18.555,17.090,0
1583338907.055,18.555,27.344,19.531,13.672,70.312,0
1583338907.059,19.531,27.344,24.414,18.555,22.949,0
1583338907.063,19.531,29.297,26.367,19.043,31.250,0
1583338907.067,17.578,29.297,23.926,14.648,35.156,0
1583338907.071,11.719,25.879,22.461,10.742,32.715,0
1583338907.074,10.742,23.926,21.973,5.859,62.012,0
1583338907.078,15.137,24.902,24.902,9.766,19.531,0
1583338907.082,17.578,27.832,25.391,12.207,-9.766,0
1583338907.086,20.020,31.250,24.414,14.160,4.395,0
1583338907.090,27.832,31.738,24.902,20.996,-5.371,0
1583338907.050,30.273,30.273,28.320,19.531,-20.508,0
1583338907.054,17.090,27.344,32.715,13.672,-2.441,0
1583338907.058,10.254,25.879,36.621,3.906,-23.438,0
1583338907.062,11.230,23.926,34.668,3.418,8.789,0
1583338907.066,15.137,23.926,34.668,14.648,46.875,0
1583338907.070,18.066,24.902,35.645,14.160,29.297,0
1583338907.074,13.672,22.461,31.250,10.742,13.184,0
1583338907.077,6.836,22.461,32.227,11.230,4.395,0
1583338907.081,11.719,24.414,32.227,14.648,-6.836,0
1583338907.085,20.020,20.020,31.738,20.508,17.578,0
1583338907.089,20.508,21.484,33.691,19.531,32.227,0
1583338907.093,18.066,29.297,35.156,20.508,72.754,0
1583338907.105,17.578,29.297,35.645,21.484,126.953,0
1583338907.109,21.973,28.809,34.180,23.438,84.961,0
1583338907.113,25.391,28.809,35.645,26.367,51.758,0
1583338907.117,24.902,27.832,35.645,20.996,23.438,0
1583338907.121,28.809,29.785,35.156,23.438,-12.207,0
1583338907.125,36.133,32.227,38.574,30.273,23.926,0
1583338907.129,41.504,34.180,38.574,24.414,15.625,0
1583338907.132,33.203,32.715,32.715,13.672,-25.391,0
1583338907.136,28.320,29.297,27.832,13.184,8.301,0
1583338907.140,33.203,27.344,23.926,18.555,56.152,0
1583338907.144,41.504,30.762,25.879,25.391,42.969,0
1583338907.148,41.016,31.738,27.344,25.879,23.438,0
1583338907.145,27.344,27.832,25.879,19.043,28.320,0
1583338907.149,22.949,27.344,25.879,16.602,61.523,0
1583338907.153,26.367,27.832,26.855,23.926,50.781,0
1583338907.157,25.391,29.785,27.344,25.879,26.367,0
1583338907.161,23.438,33.203,26.855,22.461,21.484,0
1583338907.165,26.367,33.203,24.414,24.414,62.012,0
1583338907.169,26.367,31.250,26.855,25.879,101.074,0
1583338907.172,25.391,29.297,28.320,25.391,29.297,0
1583338907.176,30.273,31.250,27.832,25.391,49.316,0
1583338907.180,27.832,32.227,26.367,20.996,78.125,0
1583338907.184,24.414,30.762,23.438,18.555,28.809,0
1583338907.188,28.320,30.273,21.973,23.926,62.012,0
1583338907.184,28.320,30.273,20.508,24.414,53.223,0
1583338907.188,26.855,31.250,23.926,25.391,19.043,0
1583338907.192,24.414,29.785,27.344,25.879,53.223,0
1583338907.196,24.902,27.344,23.438,20.020,55.664,0
1583338907.200,25.391,28.320,23.926,20.020,9.766,0
1583338907.204,19.043,30.762,25.391,21.484,-5.859,0
1583338907.208,19.043,30.762,24.902,20.020,0.000,0
1583338907.211,23.438,29.297,23.926,19.531,56.152,0
1583338907.215,22.949,28.809,24.414,18.066,46.387,0
1583338907.219,17.578,27.344,22.949,13.672,25.391,0
1583338907.223,18.066,26.855,18.555,11.230,-8.301,0
1583338907.227,25.391,26.855,21.973,17.578,-7.324,0
1583338907.244,30.762,30.273,26.855,20.508,-13.184,0
1583338907.248,23.926,30.273,27.344,9.766,5.859,0
1583338907.252,20.996,27.344,24.414,9.277,-4.395,0
1583338907.256,23.926,28.320,21.973,16.602,4.395,0
1583338907.260,23.926,30.273,25.391,18.066,48.340,0
1583338907.264,26.367,33.203,26.367,19.531,-13.184,0
1583338907.268,22.949,33.203,23.926,15.137,40.039,0
1583338907.271,31.250,32.227,20.996,20.020,47.852,0
1583338907.275,43.945,32.227,20.996,35.645,1.465,0
1583338907.279,31.738,29.297,29.297,33.691,5.371,0
1583338907.283,14.648,27.344,35.156,19.043,7.324,0
1583338907.287,4.395,24.414,36.133,4.395,11.230,0
1583338907.304,7.324,19.531,36.621,8.789,8.789,0
1583338907.308,21.973,19.531,36.621,23.926,1.953,0
1583338907.312,16.113,19.043,37.598,15.625,-33.203,0
1583338907.316,5.371,18.066,39.062,7.324,-41.992,0
1583338907.320,9.277,19.043,38.574,14.160,0.977,0
1583338907.324,15.625,20.508,35.645,18.066,44.434,0
1583338907.328,17.090,18.555,35.156,20.020,37.109,0
1583338907.331,16.602,18.555,32.227,19.043,56.641,0
1583338907.335,25.879,21.484,34.180,25.391,74.707,0
1583338907.339,30.762,22.461,34.668,21.973,50.293,0
1583338907.343,23.926,21.484,29.785,18.555,41.016,0
1583338907.347,20.020,22.949,31.250,22.949,41.992,0
1583338907.327,22.461,23.438,29.785,22.949,52.246,0
1583338907.331,27.832,24.902,30.762,25.879,37.109,0
1583338907.335,26.367,24.902,33.203,22.949,22.949,0
1583338907.339,21.973,23.926,30.273,20.020,49.805,0
1583338907.343,19.043,23.438,27.832,19.043,50.781,0
1583338907.347,22.949,24.414,25.879,22.461,68.359,0
1583338907.351,24.902,24.902,25.391,25.879,73.730,0
1583338907.354,19.531,22.461,22.461,15.137,18.555,0
1583338907.358,17.090,24.902,22.949,11.230,-2.441,0
1583338907.362,18.555,24.902,24.414,16.113,23.926,0
1583338907.366,21.973,25.391,20.508,18.066,40.527,0
1583338907.370,22.461,28.320,22.461,18.066,75.195,0
1583338907.404,21.973,27.832,23.926,15.625,82.520,0
1583338907.408,23.926,28.809,22.949,22.461,60.059,0
1583338907.412,27.832,27.832,20.996,27.344,41.016,0
1583338907.416,30.762,29.785,20.020,24.414,32.227,0
1583338907.420,30.762,31.738,20.020,21.973,-3.906,0
1583338907.424,34.668,31.738,21.484,18.555,42.480,0
1583338907.428,34.668,31.250,21.484,17.090,55.664,0
1583338907.431,33.691,28.320,17.090,21.484,7.812,0
1583338907.435,33.691,28.809,17.090,20.508,35.156,0
1583338907.439,28.809,30.273,19.043,16.602,65.430,0
1583338907.443,32.715,29.297,19.043,18.066,49.805,0
1583338907.447,38.086,31.738,19.043,20.020,52.246,0
1583338907.424,29.785,33.691,19.531,17.578,54.199,0
1583338907.428,24.414,31.738,21.973,15.137,65.918,0
1583338907.432,26.367,32.227,23.438,15.625,58.594,0
1583338907.436,27.832,33.691,18.066,14.648,35.156,0
1583338907.440,22.461,32.227,17.578,14.648,84.473,0
1583338907.444,22.949,34.180,21.484,16.113,42.480,0
1583338907.448,26.367,34.668,20.508,14.648,-9.277,0
1583338907.451,23.438,29.785,17.578,12.695,-3.418,0
1583338907.455,24.902,28.809,19.043,16.113,-5.859,0
1583338907.459,20.020,27.832,20.020,10.742,48.828,0
1583338907.463,18.555,28.320,20.020,6.836,14.648,0
1583338907.467,23.926,27.832,23.438,12.207,-57.617,0
1583338907.504,24.414,27.832,24.414,15.625,25.391,0
1583338907.508,25.391,31.250,24.902,15.625,87.402,0
1583338907.512,22.949,29.297,26.367,9.766,-14.160,0
1583338907.516,19.043,25.391,26.367,10.742,-48.828,0
1583338907.520,20.996,27.832,25.879,17.578,10.742,0
1583338907.524,22.461,29.297,25.879,19.531,38.574,0
1583338907.528,22.949,30.762,26.855,17.578,38.574,0
1583338907.531,21.973,29.297,29.297,12.207,17.090,0
1583338907.535,27.344,27.832,25.391,16.113,37.109,0
1583338907.539,30.273,34.668,23.926,22.949,45.410,0
1583338907.543,26.855,40.039,23.926,20.020,40.527,0
1583338907.547,30.762,40.527,22.949,22.949,75.684,0
1583338907.545,32.715,37.109,25.879,25.391,39.551,0
1583338907.549,31.250,35.156,24.414,22.461,-38.086,0
1583338907.553,29.297,37.109,23.926,20.996,6.836,0
1583338907.557,23.926,34.668,22.461,18.066,53.711,0
1583338907.561,24.414,32.715,20.020,17.090,38.574,0
1583338907.565,23.438,33.691,19.531,14.648,30.273,0
1583338907.569,15.137,31.250,20.996,8.301,41.016,0
1583338907.572,16.113,30.273,22.461,8.789,27.832,0
1583338907.576,20.020,30.273,22.949,13.184,62.500,0
1583338907.580,19.531,29.785,22.461,15.137,71.289,0
1583338907.584,19.043,29.297,23.926,13.672,-12.695,0
1583338907.588,20.020,29.297,21.484,13.672,7.812,0
1583338907.564,22.949,28.320,20.508,18.066,48.340,0
1583338907.568,29.785,29.785,20.996,21.973,-11.230,0
1583338907.572,36.133,33.691,20.508,24.902,8.789,0
1583338907.576,32.715,32.227,21.973,22.461,44.434,0
1583338907.580,28.809,30.273,20.020,18.555,2.930,0
1583338907.584,32.715,31.738,20.020,22.461,22.949,0
1583338907.588,31.738,30.762,20.508,18.555,71.777,0
1583338907.591,23.438,28.320,20.996,13.184,58.594,0
1583338907.595,17.578,26.367,23.438,13.184,38.086,0
1583338907.599,26.367,25.391,23.926,16.602,6.836,0
1583338907.603,29.297,26.855,22.949,19.531,-19.043,0
1583338907.607,21.973,26.855,22.949,17.090,35.156,0
1583338907.624,20.996,26.367,22.949,15.137,11.719,0
1583338907.628,21.484,25.879,26.367,15.625,-40.527,0
1583338907.632,22.461,25.391,25.879,12.207,11.230,0
1583338907.636,22.949,29.785,20.996,16.602,38.086,0
1583338907.640,29.785,30.762,23.926,28.320,5.859,0
1583338907.644,41.504,30.273,26.367,37.598,-11.719,0
1583338907.648,41.504,37.109,24.902,30.273,51.270,0
1583338907.651,29.297,34.180,21.484,10.742,59.570,0
1583338907.655,17.578,31.250,20.020,7.324,19.043,0
1583338907.659,11.719,32.227,20.996,7.812,48.340,0
1583338907.663,18.066,31.738,22.461,10.254,36.621,0
1583338907.667,21.973,32.715,20.996,14.648,72.266,0
1583338907.665,18.066,33.691,18.066,9.766,81.055,0
1583338907.669,18.066,35.156,18.066,12.207,38.086,0
1583338907.673,23.438,34.180,20.020,15.137,42.480,0
1583338907.677,22.949,32.227,19.531,9.766,47.363,0
1583338907.681,23.926,33.691,20.020,16.113,49.316,0
1583338907.685,24.414,33.203,20.996,18.555,24.414,0
1583338907.689,23.438,31.738,17.090,19.043,9.277,0
1583338907.692,28.320,31.738,15.137,22.949,46.875,0
1583338907.696,26.855,30.273,16.602,20.020,42.480,0
1583338907.700,27.344,31.738,21.973,22.461,47.363,0
1583338907.704,31.250,32.715,21.973,24.414,75.684,0
1583338907.708,30.762,31.738,17.090,25.391,26.367,0
1583338907.724,30.273,30.762,19.531,25.391,-30.273,0
1583338907.728,26.855,28.320,20.996,20.020,-39.062,0
1583338907.732,26.367,30.273,18.555,22.461,-16.602,0
1583338907.736,30.273,33.691,17.090,23.438,-22.461,0
1583338907.740,25.391,30.273,16.113,18.555,-18.066,0
1583338907.744,22.949,29.297,19.043,16.602,14.160,0
1583338907.748,22.949,28.809,18.555,16.602,51.270,0
1583338907.751,22.949,29.785,17.578,23.926,37.598,0
1583338907.755,26.855,31.738,20.508,20.508,32.227,0
1583338907.759,21.484,27.832,19.043,13.672,76.660,0
1583338907.763,17.578,27.344,20.020,14.160,96.680,0
1583338907.767,21.484,30.762,19.531,17.090,38.574,0
1583338907.765,25.391,31.738,18.555,26.855,53.711,0
1583338907.769,24.902,31.738,19.531,27.344,61.523,0
1583338907.773,23.438,31.738,20.996,24.902,-27.832,0
1583338907.777,25.879,30.273,24.902,25.391,8.301,0
1583338907.781,30.273,32.715,25.879,26.367,54.199,0
1583338907.785,36.133,32.715,23.926,31.738,53.711,0
1583338907.789,35.645,28.320,22.949,28.809,20.508,0
1583338907.792,31.250,30.273,20.996,23.438,-5.859,0
1583338907.796,30.273,31.250,19.531,20.996,56.641,0
1583338907.800,32.227,30.273,18.555,20.508,20.996,0
1583338907.804,29.297,27.832,17.578,22.461,7.324,0
1583338907.808,28.320,30.273,21.973,19.531,33.691,0
1583338907.804,28.320,30.762,18.555,16.602,53.223,0
1583338907.808,25.391,28.809,14.160,17.090,71.777,0
1583338907.812,20.020,30.762,18.066,14.648,20.996,0
1583338907.816,16.602,29.297,15.137,14.648,4.395,0
1583338907.820,20.020,26.855,14.648,13.672,28.809,0
1583338907.824,22.461,27.344,16.602,14.648,37.109,0
1583338907.828,21.484,28.320,14.648,16.113,67.383,0
1583338907.831,18.066,26.855,16.602,12.207,59.570,0
1583338907.835,20.020,27.344,18.066,15.137,7.324,0
1583338907.839,27.344,29.297,20.020,21.973,-0.488,0
1583338907.843,28.320,28.809,20.996,18.555,15.137,0
1583338907.847,26.855,26.367,17.578,17.090,30.273,0
1583338907.845,36.621,29.297,18.555,35.156,34.180,0
1583338907.849,46.387,36.133,15.625,40.039,43.457,0
1583338907.853,37.598,38.574,10.254,19.531,11.719,0
1583338907.857,26.855,40.527,5.859,8.789,-17.090,0
1583338907.861,27.344,43.945,-0.977,5.371,31.738,0
1583338907.865,33.691,46.387,-6.836,3.418,56.641,0
1583338907.869,30.273,45.898,-8.789,1.465,36.621,0
1583338907.872,24.902,48.340,-11.719,0.488,15.137,0
1583338907.876,23.926,51.758,-15.137,-6.836,27.832,0
1583338907.880,27.344,52.734,-15.625,-10.742,26.855,0
1583338907.884,34.668,52.246,-12.207,-1.465,63.965,0
1583338907.888,29.785,48.828,-11.719,-0.977,61.523,0
1583338907.904,25.391,45.410,-11.230,-1.953,7.812,0
1583338907.908,27.832,43.945,-8.789,-4.395,1.465,0
1583338907.912,27.344,43.457,-6.836,-5.859,42.969,0
1583338907.916,31.250,42.480,-5.859,3.418,17.090,0
1583338907.920,30.273,44.434,-4.395,7.812,-16.602,0
1583338907.924,29.297,45.410,2.930,10.742,16.602,0
1583338907.928,25.879,39.062,3.418,5.859,58.594,0
1583338907.931,25.879,35.645,2.930,4.883,26.855,0
1583338907.935,29.785,38.086,4.395,17.090,20.996,0
1583338907.939,25.879,37.598,8.301,16.602,36.621,0
1583338907.943,30.762,37.598,11.230,16.602,20.996,0
1583338907.947,34.668,39.062,8.789,17.578,77.637,0
1583338907.964,30.762,36.133,7.324,9.277,80.566,0
1583338907.968,27.832,34.180,7.324,10.742,29.785,0
1583338907.972,35.156,35.156,9.277,20.020,10.742,0
1583338907.976,41.016,36.133,10.742,26.367,-6.836,0
1583338907.980,36.621,37.598,11.230,28.809,17.090,0
1583338907.984,32.227,37.598,13.184,23.926,17.578,0
1583338907.988,31.738,35.645,13.184,21.973,24.414,0
1583338907.991,32.715,33.691,9.277,21.973,26.855,0
1583338907.995,30.273,34.668,8.301,19.531,-17.090,0
1583338907.999,26.855,35.645,12.695,20.020,-2.930,0
1583338908.003,30.762,37.109,16.113,18.555,14.160,0
1583338908.007,34.180,39.551,16.602,20.996,37.109,0
1583338908.005,28.320,37.598,15.137,20.996,51.758,0
1583338908.009,23.438,35.156,16.113,16.602,37.598,0
1583338908.013,26.855,38.086,18.555,18.555,49.316,0
1583338908.017,32.227,39.062,18.066,17.578,-26.855,0
1583338908.021,32.715,37.109,18.066,18.066,-39.551,0
1583338908.025,32.227,39.062,19.043,23.438,22.949,0
1583338908.029,26.855,36.621,19.043,19.043,23.926,0
1583338908.032,27.832,36.133,20.508,17.578,-8.789,0
1583338908.036,30.273,34.180,21.973,16.602,-19.043,0
1583338908.040,19.043,28.809,19.043,10.254,36.621,0
1583338908.044,14.648,27.832,17.090,11.230,60.059,0
1583338908.048,20.996,31.738,19.043,14.648,-22.461,0
1583338908.044,25.879,33.203,20.996,17.090,-10.254,0
1583338908.048,26.855,34.668,21.973,16.113,75.684,0
1583338908.052,27.344,36.133,20.020,14.160,50.781,0
1583338908.056,31.250,37.598,21.484,16.113,92.285,0
1583338908.060,32.227,38.574,22.949,19.531,77.637,0
1583338908.064,37.598,40.039,25.879,22.949,-22.949,0
1583338908.068,38.574,37.598,25.391,20.996,0.488,0
1583338908.071,30.273,32.227,21.973,18.555,36.621,0
1583338908.075,30.762,36.621,24.902,25.391,50.293,0
1583338908.079,42.969,42.969,25.391,32.715,72.266,0
1583338908.083,52.734,43.945,23.926,41.504,44.922,0
1583338908.087,47.363,39.551,30.273,38.086,35.156,0
1583338908.085,28.320,31.250,32.715,20.996,42.969,0
1583338908.089,15.137,24.902,28.809,16.602,30.762,0
1583338908.093,15.625,20.020,28.809,18.066,66.406,0
1583338908.097,18.555,19.043,27.344,18.066,45.898,0
1583338908.101,15.625,20.996,27.344,15.625,10.254,0
1583338908.105,19.043,22.949,31.250,18.066,39.551,0
1583338908.109,21.484,23.926,33.691,20.996,22.461,0
1583338908.112,13.184,22.949,33.203,17.090,-8.789,0
1583338908.116,15.137,23.438,30.273,17.578,4.395,0
1583338908.120,27.344,26.855,26.855,20.996,1.953,0
1583338908.124,28.809,28.320,25.879,21.484,6.836,0
1583338908.128,21.973,26.367,23.926,20.508,19.531,0
1583338908.144,26.367,28.320,26.855,23.438,46.387,0
1583338908.148,34.180,29.297,29.785,29.785,64.453,0
1583338908.152,42.480,29.785,29.297,33.691,20.020,0
1583338908.156,40.039,27.832,25.391,30.762,-17.090,0
1583338908.160,37.109,27.832,24.414,28.809,19.043,0
1583338908.164,44.434,29.785,26.367,34.180,13.672,0
1583338908.168,42.969,27.832,22.949,35.645,12.207,0
1583338908.171,36.133,29.297,23.438,32.715,43.945,0
1583338908.175,30.273,30.762,25.391,27.832,6.348,0
1583338908.179,27.344,28.320,27.344,28.809,6.348,0
1583338908.183,29.785,27.832,28.809,32.227,41.016,0
1583338908.187,31.250,28.320,28.320,26.855,71.777,0
1583338908.184,29.785,31.250,31.738,25.879,69.336,0
1583338908.188,27.832,32.227,30.762,28.320,47.363,0
1583338908.192,24.902,29.785,24.902,23.438,95.703,0
1583338908.196,27.344,30.273,23.926,23.438,108.887,0
1583338908.200,27.344,32.227,23.926,23.926,86.426,0
1583338908.204,24.414,33.691,26.367,24.414,76.660,0
1583338908.208,24.902,30.273,26.855,27.344,49.316,0
1583338908.211,29.297,29.297,20.508,27.344,16.113,0
1583338908.215,29.785,31.738,21.484,28.320,25.391,0
1583338908.219,27.832,32.715,24.902,25.391,45.410,0
1583338908.223,27.344,32.715,24.414,24.414,40.527,0
1583338908.227,27.344,29.785,22.949,25.391,18.066,0
1583338908.225,21.484,26.367,22.461,21.484,55.176,0
1583338908.229,15.137,25.391,24.414,20.508,34.180,0
1583338908.233,15.137,24.414,23.926,19.043,30.273,0
1583338908.237,21.484,25.391,22.461,20.996,64.453,0
1583338908.241,23.438,27.832,22.461,21.484,40.039,0
1583338908.245,22.949,29.297,19.043,16.113,51.270,0
1583338908.249,25.879,35.156,17.578,19.531,5.371,0
1583338908.252,29.297,36.621,22.461,20.020,15.137,0
1583338908.256,28.809,36.133,22.949,18.066,87.891,0
1583338908.260,26.367,41.504,19.531,15.137,63.965,0
1583338908.264,21.973,41.992,24.414,6.348,2.930,0
1583338908.268,12.695,42.969,26.855,2.441,-2.441,0
1583338908.264,8.789,48.828,26.367,-2.441,-18.555,0
1583338908.268,-0.977,51.270,31.738,-11.230,5.371,0
1583338908.272,-14.160,55.176,36.621,-21.973,37.109,0
1583338908.276,-32.715,55.664,36.621,-43.457,56.152,0
1583338908.280,-40.039,53.711,37.109,-54.688,33.691,0
1583338908.284,-48.340,57.129,40.039,-61.035,36.133,0
1583338908.288,-76.172,59.570,44.434,-84.473,-3.906,0
1583338908.291,-99.121,60.059,53.223,-107.422,-36.621,0
1583338908.295,-123.535,59.570,53.711,-129.883,17.090,0
1583338908.299,-136.230,58.105,51.270,-141.602,-18.066,0
1583338908.303,-145.020,56.641,53.711,-151.855,14.160,0
1583338908.307,-154.297,55.176,51.270,-161.621,57.617,0
1583338908.324,-143.555,61.035,47.363,-160.645,4.883,0
1583338908.328,-139.648,65.430,44.922,-164.062,-38.574,0
1583338908.332,-149.414,61.035,43.945,-163.086,-3.418,0
1583338908.336,-153.320,59.570,49.316,-166.016,13.184,0
1583338908.340,-148.926,60.059,51.270,-160.645,34.180,0
1583338908.344,-141.113,60.059,50.781,-147.949,76.172,0
1583338908.348,-134.766,55.664,47.852,-147.461,-20.020,0
1583338908.351,-127.441,51.758,41.992,-136.230,-54.199,0
1583338908.355,-115.723,53.223,35.645,-126.953,6.348,0
1583338908.359,-92.773,54.688,28.320,-116.211,-5.371,0
1583338908.363,-70.801,52.246,28.809,-87.891,-16.113,0
1583338908.367,-67.383,45.410,26.855,-79.102,30.273,0
1583338908.386,-56.641,40.039,21.484,-64.941,53.711,0
1583338908.390,-34.180,33.691,20.020,-37.598,52.734,0
1583338908.394,-16.113,30.762,14.648,-23.438,74.219,0
1583338908.398,2.930,30.273,8.301,-8.301,7.324,0
1583338908.402,20.508,25.391,12.207,10.742,-16.113,0
1583338908.406,38.574,20.996,13.672,32.227,54.199,0
1583338908.410,59.570,20.996,12.207,47.363,49.316,0
1583338908.413,77.148,20.020,11.719,58.105,46.387,0
1583338908.417,86.426,18.066,7.812,67.871,67.383,0
1583338908.421,97.168,17.090,4.883,76.172,45.410,0
1583338908.425,111.816,18.066,5.371,86.914,16.113,0
1583338908.429,121.094,19.043,6.836,95.703,37.109,0
1583338908.404,118.652,17.090,8.301,103.516,-32.227,0
1583338908.408,121.094,17.578,9.277,114.258,-35.156,0
1583338908.412,126.953,16.602,7.324,116.699,53.223,0
1583338908.416,127.441,13.672,2.930,116.699,44.434,0
1583338908.420,126.953,17.578,3.906,119.629,35.645,0
1583338908.424,124.512,19.531,5.859,117.676,50.781,0
1583338908.428,125.000,19.043,2.930,120.605,30.762,0
1583338908.431,127.441,22.461,3.418,122.070,57.129,0
1583338908.435,118.164,20.508,2.930,111.816,109.863,0
1583338908.439,111.328,19.531,0.977,108.887,94.238,0
1583338908.443,112.305,20.508,2.441,104.980,60.547,0
1583338908.447,110.840,18.555,1.953,102.539,55.664,0
1583338908.471,118.164,24.414,5.859,107.422,27.344,0
1583338908.475,112.793,24.902,11.230,95.703,0.000,0
1583338908.479,101.074,20.996,5.859,88.379,36.621,0
1583338908.483,102.051,20.020,3.418,95.215,58.594,0
1583338908.487,104.492,20.020,5.371,98.145,51.270,0
1583338908.491,104.492,24.414,9.277,100.586,45.410,0
1583338908.495,100.586,24.414,9.277,95.703,9.766,0
1583338908.498,99.121,20.020,6.836,97.168,28.320,0
1583338908.502,100.098,19.531,9.277,98.633,56.152,0
1583338908.506,94.727,19.531,8.301,90.820,64.941,0
1583338908.510,92.285,20.020,7.324,88.379,43.457,0
1583338908.514,90.332,19.043,8.789,86.914,34.180,0
1583338908.504,90.820,21.484,10.742,81.055,0.488,0
1583338908.508,85.938,22.949,11.230,80.078,-10.742,0
1583338908.512,79.102,19.531,12.207,77.148,7.324,0
1583338908.516,82.520,21.484,15.625,74.707,-9.277,0
1583338908.520,82.520,23.926,18.555,73.242,-15.137,0
1583338908.524,77.148,25.391,16.113,71.777,-3.906,0
1583338908.528,73.242,25.879,14.648,71.289,54.688,0
1583338908.531,72.754,25.391,15.137,66.406,84.961,0
1583338908.535,73.242,26.855,17.090,66.895,34.180,0
1583338908.539,72.754,28.320,18.066,66.895,-18.066,0
1583338908.543,64.453,28.320,17.090,60.059,-22.461,0
1583338908.547,56.641,31.250,21.484,58.594,16.113,0
1583338908.564,58.594,33.203,22.461,59.570,63.965,0
1583338908.568,65.430,34.668,18.555,58.594,37.109,0
1583338908.572,57.129,37.109,18.555,46.387,37.598,0
1583338908.576,47.852,33.691,16.113,38.086,40.039,0
1583338908.580,48.828,32.715,18.066,42.969,19.043,0
1583338908.584,51.270,35.645,18.066,41.504,33.203,0
1583338908.588,46.875,32.227,18.555,39.551,59.082,0
1583338908.591,41.992,31.250,20.996,31.738,70.312,0
1583338908.595,41.016,33.203,19.531,25.391,3.418,0
1583338908.599,35.645,28.320,17.090,31.738,-18.066,0
1583338908.603,32.227,26.855,18.555,31.738,-28.320,0
1583338908.607,24.414,26.855,20.020,28.320,-31.738,0
1583338908.605,19.531,27.344,20.508,25.879,32.715,0
1583338908.609,25.391,29.297,20.996,22.461,36.621,0
1583338908.613,28.809,28.320,19.531,22.949,5.859,0
1583338908.617,24.902,26.855,18.555,17.578,8.789,0
1583338908.621,26.367,28.809,18.555,12.695,48.340,0
1583338908.625,32.715,29.297,18.066,18.555,38.086,0
1583338908.629,33.203,28.809,19.043,23.926,11.719,0
1583338908.632,31.250,31.250,19.531,24.414,19.043,0
1583338908.636,34.180,33.203,21.484,24.902,60.547,0
1583338908.640,37.109,33.691,21.973,25.879,18.555,0
1583338908.644,36.621,30.762,20.020,21.973,7.812,0
1583338908.648,33.691,29.297,19.043,16.602,35.645,0
1583338908.645,29.297,29.785,15.137,16.113,-6.836,0
1583338908.649,28.809,30.273,17.578,16.113,5.371,0
1583338908.653,30.273,28.809,19.531,12.695,38.574,0
1583338908.657,26.855,29.785,18.555,8.301,80.078,0
1583338908.661,20.508,28.809,21.484,4.395,77.148,0
1583338908.665,18.555,26.367,23.438,8.301,2.441,0
1583338908.669,23.926,28.320,25.879,13.672,-29.785,0
1583338908.672,22.949,25.391,24.414,10.742,-40.527,0
1583338908.676,18.555,26.855,23.438,10.254,-14.160,0
1583338908.680,15.625,27.832,24.902,4.883,-10.742,0
1583338908.684,10.254,24.902,19.531,0.977,42.480,0
1583338908.688,13.184,27.344,18.555,6.836,92.773,0
1583338908.685,15.137,32.227,22.949,7.324,49.316,0
1583338908.689,17.578,36.133,25.391,4.395,20.020,0
1583338908.693,16.602,33.203,24.902,3.906,10.254,0
1583338908.697,16.113,33.203,23.438,6.836,15.137,0
1583338908.701,19.043,36.133,21.973,8.789,-12.207,0
1583338908.705,17.578,34.180,21.484,7.812,-11.719,0
1583338908.709,20.020,31.738,21.973,6.348,62.012,0
1583338908.712,25.391,30.762,23.926,3.906,74.219,0
1583338908.716,24.414,29.785,24.902,2.441,6.836,0
1583338908.720,18.066,27.832,22.461,3.418,32.227,0
1583338908.724,19.043,29.297,22.461,7.324,38.574,0
1583338908.728,22.949,30.762,25.879,10.254,29.297,0
1583338908.744,25.879,30.762,25.391,8.301,1.953,0
1583338908.748,24.414,28.809,23.438,9.766,15.625,0
1583338908.752,20.996,28.320,22.949,9.766,83.496,0
1583338908.756,22.949,24.414,19.043,8.301,49.805,0
1583338908.760,25.879,21.973,16.602,9.766,36.133,0
1583338908.764,24.414,29.785,16.602,12.207,42.480,0
1583338908.768,19.043,33.203,13.672,11.230,-2.930,0
1583338908.771,21.973,33.691,10.742,8.789,27.344,0
1583338908.775,25.879,34.180,13.184,11.719,57.129,0
1583338908.779,24.414,35.156,18.555,12.207,66.895,0
1583338908.783,21.973,36.133,22.949,5.859,47.363,0
1583338908.787,19.043,33.203,22.461,3.906,51.270,0
1583338908.788,19.043,31.738,18.066,10.742,20.996,0
1583338908.792,22.461,32.227,15.625,15.137,8.301,0
1583338908.796,17.578,30.273,14.648,10.254,95.215,0
1583338908.800,18.066,31.738,16.602,10.742,66.895,0
1583338908.804,22.949,32.715,16.602,16.113,20.508,0
1583338908.808,20.508,30.762,16.113,14.648,41.992,0
1583338908.812,14.648,28.809,15.625,10.254,27.832,0
1583338908.815,10.742,30.273,14.160,3.906,-17.578,0
1583338908.819,16.113,32.715,16.113,5.371,-18.066,0
1583338908.823,18.066,31.250,14.160,7.812,43.457,0
1583338908.827,17.090,33.691,10.742,7.812,45.898,0
1583338908.831,16.602,35.645,12.207,8.301,11.230,0
1583338908.845,10.742,31.738,11.719,4.395,38.086,0
1583338908.849,19.043,33.203,9.766,10.254,40.039,0
1583338908.853,25.879,33.203,9.277,12.207,63.965,0
1583338908.857,20.020,29.297,11.230,6.348,92.773,0
1583338908.861,19.531,29.785,12.207,7.812,33.203,0
1583338908.865,23.438,30.762,12.207,6.836,6.348,0
1583338908.869,21.484,32.715,13.672,5.859,10.254,0
1583338908.872,11.230,32.227,10.254,1.953,-31.250,0
1583338908.876,2.930,24.902,5.859,-4.883,33.691,0
1583338908.880,6.348,24.902,6.348,0.977,57.617,0
1583338908.884,7.812,26.367,4.883,0.488,37.598,0
1583338908.888,4.395,25.879,6.348,-0.488,81.543,0
1583338908.885,1.953,28.320,10.254,6.348,53.711,0
1583338908.889,3.906,25.879,10.742,6.836,22.949,0
1583338908.893,13.672,26.855,11.719,14.160,32.227,0
1583338908.897,18.555,28.809,13.672,16.113,22.949,0
1583338908.901,13.184,27.832,17.090,11.230,-45.898,0
1583338908.905,13.672,27.344,16.113,12.207,-35.156,0
1583338908.909,18.066,28.809,14.648,16.602,18.555,0
1583338908.912,19.043,29.785,19.043,21.973,-51.758,0
1583338908.916,18.066,29.785,18.066,17.578,-10.742,0
1583338908.920,17.578,29.297,16.602,14.160,30.273,0
1583338908.924,25.391,30.762,19.043,23.926,4.395,0
1583338908.928,22.949,30.273,17.578,21.973,58.594,0
1583338908.924,14.648,29.297,16.602,15.137,83.984,0
1583338908.928,22.461,33.691,19.043,15.137,43.945,0
1583338908.932,27.832,35.156,20.508,17.578,-20.020,0
1583338908.936,28.809,35.645,22.461,22.461,-26.855,0
1583338908.940,23.926,35.156,24.414,17.578,28.809,0
1583338908.944,15.625,35.645,23.926,11.230,72.266,0
1583338908.948,12.695,33.691,21.484,5.859,56.152,0
1583338908.951,14.648,29.785,19.043,10.254,6.348,0
1583338908.955,21.484,33.691,22.461,20.508,52.734,0
1583338908.959,21.484,34.180,21.484,14.160,41.504,0
1583338908.963,20.020,31.738,17.090,13.184,-23.438,0
1583338908.967,29.297,31.250,18.066,22.949,-11.230,0
1583338908.984,35.156,32.227,21.484,30.762,16.113,0
1583338908.988,37.598,34.668,21.973,32.715,15.625,0
1583338908.992,36.621,36.621,19.531,27.344,-2.930,0
1583338908.996,36.621,36.133,20.508,26.367,22.461,0
1583338909.000,34.668,33.691,20.508,22.949,20.508,0
1583338909.004,29.785,30.273,22.949,21.484,-27.344,0
1583338909.008,32.227,31.250,24.902,23.926,-28.809,0
1583338909.011,40.039,31.250,18.555,20.996,10.254,0
1583338909.015,40.527,28.809,18.066,21.973,57.129,0
1583338909.019,35.156,30.273,20.996,25.391,58.594,0
1583338909.023,29.785,27.832,18.066,20.996,31.738,0
1583338909.027,32.715,28.320,17.578,20.508,62.500,0
1583338909.025,36.133,31.738,18.066,22.461,47.363,0
1583338909.029,28.809,28.809,14.160,20.996,5.371,0
1583338909.033,27.344,28.809,14.160,23.926,20.508,0
1583338909.037,27.344,31.738,17.578,28.809,7.812,0
1583338909.041,29.785,31.250,16.602,31.738,59.082,0
1583338909.045,33.691,31.738,17.090,31.738,68.848,0
1583338909.049,28.809,31.250,17.090,29.297,41.016,0
1583338909.052,23.438,31.250,15.625,26.855,54.199,0
1583338909.056,22.949,29.297,16.602,26.855,46.387,0
1583338909.060,24.414,28.320,16.602,31.250,-18.555,0
1583338909.064,23.438,28.809,17.090,26.855,-58.105,0
1583338909.068,15.137,26.367,15.625,18.066,10.254,0
1583338909.065,17.090,26.855,15.625,21.973,31.738,0
1583338909.069,23.926,29.785,16.602,28.320,9.766,0
1583338909.073,26.367,31.738,13.672,29.785,-7.812,0
1583338909.077,25.879,34.180,13.672,27.832,-20.508,0
1583338909.081,27.344,35.156,14.648,29.297,14.160,0
1583338909.085,33.691,37.109,14.648,34.180,47.363,0
1583338909.089,39.062,38.574,16.602,37.109,-21.484,0
1583338909.092,37.109,36.621,17.578,36.621,-22.461,0
1583338909.096,35.645,36.133,18.555,33.203,66.895,0
1583338909.100,42.480,36.621,16.602,32.227,66.406,0
1583338909.104,46.387,37.109,15.137,30.762,51.270,0
1583338909.108,47.363,37.598,14.648,30.273,62.988,0
1583338909.145,47.852,37.598,17.578,34.180,40.039,0
1583338909.149,44.434,38.086,20.020,33.691,20.996,0
1583338909.153,40.039,35.156,16.113,32.715,60.547,0
1583338909.157,33.691,35.645,14.160,28.320,95.215,0
1583338909.161,26.367,35.645,18.555,23.926,73.242,0
1583338909.165,28.320,31.738,19.531,28.809,8.301,0
1583338909.169,36.621,34.668,22.949,35.645,-16.602,0
1583338909.172,31.250,32.227,24.902,28.320,10.254,0
1583338909.176,24.414,28.320,21.484,22.461,40.039,0
1583338909.180,27.832,30.273,21.973,29.297,41.992,0
1583338909.184,28.320,29.297,24.414,29.297,6.348,0
1583338909.188,28.320,30.273,25.879,30.273,36.133,0
1583338909.185,20.996,30.273,25.879,26.855,61.035,0
1583338909.189,17.578,27.832,24.902,22.949,79.102,0
1583338909.193,23.438,26.855,24.414,28.320,64.453,0
1583338909.197,22.461,25.391,24.414,25.879,41.016,0
1583338909.201,22.461,24.414,22.949,21.484,6.836,0
1583338909.205,24.902,28.320,21.484,22.949,-9.277,0
1583338909.209,22.461,29.297,17.090,20.508,8.301,0
1583338909.212,22.461,28.320,11.719,18.555,12.207,0
1583338909.216,19.043,30.273,13.672,17.578,19.531,0
1583338909.220,16.602,31.250,18.555,17.090,-10.742,0
1583338909.224,17.578,27.344,18.066,20.996,12.695,0
1583338909.228,19.531,27.344,17.090,20.020,90.332,0
1583338909.205,21.484,28.809,21.484,20.020,53.711,0
1583338909.209,19.531,28.809,21.973,17.090,16.602,0
1583338909.213,23.438,31.250,22.461,19.531,79.102,0
1583338909.217,31.250,31.738,23.438,21.484,72.754,0
1583338909.221,27.832,30.273,20.996,18.555,23.438,0
1583338909.225,24.414,30.273,19.531,22.461,35.156,0
1583338909.229,25.391,28.809,17.090,20.508,-0.977,0
1583338909.232,25.879,28.809,16.602,24.414,27.832,0
1583338909.236,25.879,30.762,19.531,27.344,70.801,0
1583338909.240,22.461,31.738,18.066,20.996,8.301,0
1583338909.244,20.508,35.645,20.996,22.461,-37.598,0
1583338909.248,20.996,37.109,24.902,24.902,-0.488,0
1583338909.264,25.391,35.156,22.461,27.344,46.387,0
1583338909.268,27.344,37.598,22.949,22.949,18.066,0
1583338909.272,18.066,36.133,23.438,11.719,-6.348,0
1583338909.276,16.113,33.691,23.438,16.113,-3.418,0
1583338909.280,23.438,34.180,20.508,19.531,-1.465,0
1583338909.284,26.855,35.156,15.137,21.973,-9.766,0
1583338909.288,26.855,38.574,19.043,20.020,6.836,0
1583338909.291,25.879,35.645,19.043,9.277,28.809,0
1583338909.295,24.902,34.180,16.113,16.113,26.367,0
1583338909.299,28.809,36.133,16.602,22.949,41.016,0
1583338909.303,27.344,38.086,18.066,20.508,76.172,0
1583338909.307,25.879,39.062,20.020,19.043,69.824,0
1583338909.324,33.691,37.598,20.020,21.973,62.012,0
1583338909.328,35.156,35.645,19.531,27.344,30.762,0
1583338909.332,28.809,32.227,18.066,21.973,40.039,0
1583338909.336,26.367,32.715,17.090,17.578,49.316,0
1583338909.340,29.785,34.180,19.043,18.066,25.391,0
1583338909.344,32.715,34.180,19.531,19.043,24.902,0
1583338909.348,31.738,33.691,18.555,22.461,8.789,0
1583338909.351,28.320,30.762,19.043,18.066,-11.230,0
1583338909.355,27.832,29.785,17.578,15.625,-11.719,0
1583338909.359,34.668,36.133,15.625,16.602,19.043,0
1583338909.363,35.645,39.062,17.090,16.602,20.508,0
1583338909.367,28.320,36.621,17.578,17.578,26.367,0
1583338909.425,26.855,35.156,17.090,16.602,59.570,0
1583338909.429,27.832,34.180,19.531,19.531,54.688,0
1583338909.433,33.203,37.109,22.949,21.973,28.809,0
1583338909.437,32.227,39.062,23.438,17.090,0.488,0
1583338909.441,25.879,34.668,20.996,16.602,-27.832,0
1583338909.445,30.762,36.133,20.508,24.414,-3.418,0
1583338909.449,29.785,36.133,17.578,22.949,4.395,0
1583338909.452,25.879,32.227,15.625,17.090,14.648,0
1583338909.456,27.344,35.645,19.043,19.043,38.086,0
1583338909.460,28.809,37.109,21.484,21.973,87.891,0
1583338909.464,34.180,34.668,22.461,25.391,131.836,0
1583338909.468,38.574,36.133,20.508,22.949,92.773,0
1583338909.446,34.668,37.598,20.996,17.090,62.988,0
1583338909.450,31.250,36.133,21.484,18.555,47.363,0
1583338909.454,31.738,34.668,18.555,21.484,85.938,0
1583338909.458,29.785,34.668,16.602,19.531,100.098,0
1583338909.462,21.973,31.250,18.066,16.113,24.902,0
1583338909.466,19.531,29.297,18.555,17.090,16.113,0
1583338909.470,25.391,32.715,17.090,17.578,-7.812,0
1583338909.473,26.367,34.180,17.578,19.043,-47.363,0
1583338909.477,19.531,32.715,20.020,18.555,13.184,0
1583338909.481,24.902,32.715,18.066,18.555,17.578,0
1583338909.485,29.297,33.691,15.137,18.066,-30.273,0
1583338909.489,22.949,33.691,16.602,15.137,21.973,0
1583338909.486,19.531,32.715,18.555,15.137,38.086,0
1583338909.490,19.043,33.203,20.020,14.160,4.883,0
1583338909.494,19.531,31.738,20.020,15.625,87.402,0
1583338909.498,23.438,31.250,20.020,18.555,82.031,0
1583338909.502,30.762,34.668,21.484,23.926,-5.859,0
1583338909.506,26.855,34.668,21.484,23.438,-40.527,0
1583338909.510,26.367,33.203,20.996,20.508,6.836,0
1583338909.513,36.621,35.156,22.461,26.367,33.691,0
1583338909.517,35.645,34.668,22.461,20.996,18.066,0
1583338909.521,29.297,33.691,25.391,15.625,8.789,0
1583338909.525,25.879,32.227,24.902,20.508,9.277,0
1583338909.529,25.879,31.738,21.973,21.484,38.086,0
1583338909.525,27.832,30.762,21.484,19.043,27.344,0
1583338909.529,25.879,30.273,20.020,19.531,50.781,0
1583338909.533,18.066,31.250,19.531,18.066,72.266,0
1583338909.537,20.020,32.227,20.996,17.578,-4.883,0
1583338909.541,23.438,30.762,19.043,23.926,-7.324,0
1583338909.545,20.508,30.273,19.531,26.855,20.020,0
1583338909.549,19.043,29.785,21.484,22.949,44.434,0
1583338909.552,21.484,30.273,21.484,21.973,45.410,0
1583338909.556,22.949,26.855,19.043,22.949,41.016,0
1583338909.560,23.438,27.344,18.555,24.414,68.359,0
1583338909.564,24.414,36.133,21.484,23.926,74.219,0
1583338909.568,25.879,39.551,23.926,23.926,56.641,0
1583338909.565,34.180,41.016,22.949,27.344,5.859,0
1583338909.569,34.180,40.527,19.043,23.926,-22.949,0
1583338909.573,26.367,38.086,18.066,19.531,27.832,0
1583338909.577,29.297,37.109,20.996,21.484,31.738,0
1583338909.581,29.785,36.621,19.531,20.508,33.691,0
1583338909.585,27.344,37.109,16.602,23.926,62.988,0
1583338909.589,29.297,37.109,17.090,26.367,10.254,0
1583338909.592,25.879,37.109,19.043,24.414,57.129,0
1583338909.596,24.902,36.133,22.461,28.320,133.301,0
1583338909.600,30.762,34.668,24.902,29.297,67.871,0
1583338909.604,28.320,34.180,20.996,25.391,47.363,0
1583338909.608,20.996,31.738,18.555,20.996,49.805,0
1583338909.584,21.484,29.785,17.578,15.625,-12.207,0
1583338909.588,27.344,30.273,16.602,19.531,-3.906,0
1583338909.592,23.438,27.832,20.996,22.949,43.945,0
1583338909.596,16.602,26.367,21.973,18.555,12.207,0
1583338909.600,18.066,28.809,21.484,18.555,18.066,0
1583338909.604,19.043,27.344,17.578,20.020,43.457,0
1583338909.608,20.020,25.879,17.090,21.484,57.129,0
1583338909.611,21.484,28.809,23.438,20.996,99.609,0
1583338909.615,23.438,33.691,22.461,19.531,57.617,0
1583338909.619,27.832,35.156,20.996,19.043,-29.297,0
1583338909.623,29.785,31.738,17.090,18.555,-38.086,0
1583338909.627,22.461,29.297,15.625,15.137,-3.906,0
1583338909.624,16.602,28.320,18.066,8.789,58.105,0
1583338909.628,18.555,27.832,16.113,13.184,41.992,0
1583338909.632,26.855,27.832,20.508,22.461,2.930,0
1583338909.636,30.762,30.273,22.949,19.531,4.395,0
1583338909.640,24.902,30.762,16.113,17.090,26.367,0
1583338909.644,29.785,32.715,16.113,20.996,27.344,0
1583338909.648,33.203,31.738,19.531,22.461,36.133,0
1583338909.651,33.203,30.273,20.020,24.414,66.406,0
1583338909.655,26.367,30.762,20.996,21.484,82.520,0
1583338909.659,24.414,31.250,21.484,20.020,45.898,0
1583338909.663,35.645,35.156,21.484,27.344,12.207,0
1583338909.667,30.273,31.738,20.996,25.879,44.434,0
1583338909.684,25.879,27.832,20.020,20.996,49.316,0
1583338909.688,27.344,29.297,20.996,15.137,73.242,0
1583338909.692,25.879,28.809,18.066,11.719,74.707,0
1583338909.696,28.809,30.762,15.625,16.602,55.664,0
1583338909.700,29.785,31.738,13.672,18.066,40.039,0
1583338909.704,29.297,34.668,16.113,22.949,2.441,0
1583338909.708,23.438,31.738,17.578,21.484,-37.598,0
1583338909.711,23.438,28.809,14.648,20.508,9.277,0
1583338909.715,31.738,33.691,16.602,24.902,7.812,0
1583338909.719,26.367,32.715,19.531,20.996,4.883,0
1583338909.723,22.461,33.203,19.531,18.555,44.434,0
1583338909.727,28.809,33.203,18.555,19.043,52.246,0
1583338909.764,27.344,29.785,18.555,19.531,75.195,0
1583338909.768,26.855,31.250,20.020,23.438,31.738,0
1583338909.772,23.438,29.297,18.555,19.043,26.367,0
1583338909.776,24.902,28.320,16.113,20.508,43.945,0
1583338909.780,31.250,33.691,17.578,24.902,44.434,0
1583338909.784,29.297,34.180,19.043,20.020,84.961,0
1583338909.788,28.320,34.180,20.020,14.648,30.762,0
1583338909.791,27.344,34.180,18.066,14.160,21.973,0
1583338909.795,31.738,34.180,15.625,15.625,53.711,0
1583338909.799,29.785,32.715,16.113,14.160,46.387,0
1583338909.803,24.414,29.297,14.160,11.719,29.297,0
1583338909.807,26.855,30.273,15.137,12.207,17.090,0
1583338909.767,20.508,27.344,18.555,16.113,62.012,0
1583338909.771,18.555,25.879,21.973,13.184,33.691,0
1583338909.775,20.508,29.785,25.879,12.695,-35.645,0
1583338909.779,18.555,29.297,23.926,16.113,19.531,0
1583338909.783,22.461,30.273,20.996,17.578,22.949,0
1583338909.787,26.367,33.691,22.949,21.484,-11.719,0
1583338909.791,21.484,36.621,25.879,19.043,-0.488,0
1583338909.794,16.602,33.203,23.926,17.090,20.020,0
1583338909.798,20.020,30.273,17.090,14.648,65.918,0
1583338909.802,21.484,35.645,15.625,13.672,80.566,0
1583338909.806,17.578,38.574,18.066,16.602,32.715,0
1583338909.810,12.695,39.062,19.043,11.719,36.133,0
1583338909.844,18.066,36.621,25.879,13.672,30.762,0
1583338909.848,25.879,33.691,27.832,14.648,11.719,0
1583338909.852,25.879,38.574,24.414,15.137,-1.465,0
1583338909.856,22.949,39.551,23.438,19.043,30.273,0
1583338909.860,21.484,35.156,23.438,20.020,72.266,0
1583338909.864,28.320,33.691,21.484,24.902,53.223,0
1583338909.868,36.133,34.180,22.949,20.020,45.410,0
1583338909.871,31.250,33.203,20.996,7.324,-33.203,0
1583338909.875,23.926,31.738,17.090,10.254,-67.871,0
1583338909.879,26.855,27.832,18.555,17.090,-32.715,0
1583338909.883,32.227,32.227,19.531,22.461,3.418,0
1583338909.887,25.391,36.133,20.508,20.996,22.461,0
1583338909.864,20.020,31.738,17.578,15.137,-3.418,0
1583338909.868,26.855,34.180,19.043,18.555,-41.504,0
1583338909.872,28.320,35.645,21.973,20.020,0.488,0
1583338909.876,23.438,35.645,22.461,18.066,13.672,0
1583338909.880,22.949,38.086,18.555,13.184,46.875,0
1583338909.884,24.414,38.086,17.090,12.695,94.727,0
1583338909.888,25.391,36.621,18.555,18.555,69.336,0
1583338909.891,24.902,36.133,18.066,15.625,73.242,0
1583338909.895,26.367,35.645,20.996,16.113,49.316,0
1583338909.899,28.320,38.086,23.438,16.602,18.555,0
1583338909.903,31.738,38.574,20.508,17.090,68.848,0
1583338909.907,30.762,35.645,17.578,19.531,77.637,0
1583338909.905,25.879,32.715,19.043,18.066,56.641,0
1583338909.909,21.973,33.691,20.020,16.602,-25.391,0
1583338909.913,26.367,36.133,19.531,12.207,1.953,0
1583338909.917,25.391,34.668,20.508,8.301,63.477,0
1583338909.921,18.555,34.180,18.555,14.648,8.301,0
1583338909.925,25.879,37.109,17.578,17.090,8.789,0
1583338909.929,25.879,35.645,19.043,16.113,38.086,0
1583338909.932,28.809,33.203,18.066,15.137,43.945,0
1583338909.936,30.273,33.203,17.090,15.625,66.895,0
1583338909.940,27.832,32.227,19.531,19.531,75.684,0
1583338909.944,34.668,33.691,20.020,20.996,34.180,0
1583338909.948,43.457,31.738,19.043,25.391,-66.895,0
1583338909.964,49.805,34.180,20.020,26.855,-22.949,0
1583338909.968,45.898,39.062,22.461,21.484,49.316,0
1583338909.972,37.109,35.156,23.926,21.973,43.457,0
1583338909.976,30.273,33.203,22.461,24.414,63.965,0
1583338909.980,27.344,31.738,20.996,18.555,-7.324,0
1583338909.984,27.832,30.762,21.484,17.578,-18.555,0
1583338909.988,23.926,30.762,19.043,16.602,71.777,0
1583338909.991,19.043,26.855,15.625,13.672,37.598,0
1583338909.995,25.391,30.762,17.090,20.020,29.785,0
1583338909.999,27.344,35.645,18.066,20.996,14.160,0
1583338910.003,22.949,34.180,17.578,20.020,-24.902,0
1583338910.007,24.414,33.203,16.113,22.461,20.996,0
1583338910.004,24.902,31.738,13.184,23.438,-6.836,0
1583338910.008,20.508,31.250,14.648,22.949,6.836,0
1583338910.012,19.531,29.785,18.555,24.414,27.832,0
1583338910.016,21.973,29.297,20.508,20.996,-0.977,0
1583338910.020,22.949,29.297,20.020,22.461,-12.695,0
1583338910.024,18.066,25.879,17.578,20.996,32.715,0
1583338910.028,18.555,27.344,18.555,18.066,56.641,0
1583338910.031,25.879,30.273,19.043,21.484,30.762,0
1583338910.035,28.809,28.809,18.066,26.367,39.551,0
1583338910.039,28.809,26.855,19.043,21.484,8.301,0
1583338910.043,23.926,26.855,18.555,15.625,24.414,0
1583338910.047,22.949,29.297,17.090,17.090,34.180,0
1583338910.064,22.461,27.832,17.090,18.555,41.504,0
1583338910.068,24.902,27.344,19.043,23.926,18.555,0
1583338910.072,25.879,30.273,16.113,20.508,-12.207,0
1583338910.076,19.531,30.273,12.695,13.672,41.504,0
1583338910.080,20.996,28.809,13.672,19.531,69.336,0
1583338910.084,28.320,29.297,15.137,24.414,32.227,0
1583338910.088,29.785,32.227,16.113,21.484,3.906,0
1583338910.091,26.367,33.691,16.602,17.090,67.383,0
1583338910.095,25.391,31.738,16.113,13.184,62.988,0
1583338910.099,25.391,29.785,16.113,15.137,-13.184,0
1583338910.103,24.414,32.227,17.578,19.043,-13.672,0
1583338910.107,21.484,35.645,14.160,17.090,43.457,0
1583338910.124,18.555,35.645,14.648,12.695,88.867,0
1583338910.128,18.066,32.227,16.602,12.695,60.059,0
1583338910.132,23.438,33.691,14.648,12.207,0.977,0
1583338910.136,20.996,33.691,12.695,9.277,27.344,0
1583338910.140,17.578,34.180,11.719,8.789,75.684,0
1583338910.144,27.344,38.574,12.695,16.113,29.785,0
1583338910.148,35.156,38.574,15.137,18.555,-4.883,0
1583338910.151,27.344,36.621,17.090,15.137,-7.812,0
1583338910.155,21.973,34.180,15.625,14.160,9.766,0
1583338910.159,29.297,36.133,15.137,20.996,56.152,0
1583338910.163,29.785,35.156,17.090,23.438,82.520,0
1583338910.167,27.832,33.203,15.625,17.578,45.898,0
1583338910.165,32.227,38.086,14.648,17.578,22.461,0
1583338910.169,31.738,36.133,17.090,18.066,44.922,0
1583338910.173,29.297,31.738,17.578,18.555,65.918,0
1583338910.177,33.691,34.668,18.555,23.926,78.125,0
1583338910.181,29.297,35.645,20.020,21.973,76.172,0
1583338910.185,27.344,35.156,20.996,20.508,37.109,0
1583338910.189,28.809,36.133,20.020,18.066,21.973,0
1583338910.192,25.391,35.156,17.578,11.719,26.855,0
1583338910.196,27.832,37.598,19.531,13.672,-9.766,0
1583338910.200,23.438,38.574,18.555,8.789,-20.020,0
1583338910.204,20.508,38.086,17.578,6.836,8.789,0
1583338910.208,28.809,39.551,21.484,15.137,-4.395,0
1583338910.184,28.809,39.062,20.996,16.602,31.250,0
1583338910.188,27.832,37.598,20.508,18.066,57.617,0
1583338910.192,27.344,38.086,20.508,17.578,28.320,0
1583338910.196,27.344,38.086,19.043,17.090,17.578,0
1583338910.200,28.809,38.574,21.484,20.996,41.504,0
1583338910.204,27.832,40.039,21.973,20.020,60.547,0
1583338910.208,27.832,37.598,20.508,15.625,20.020,0
1583338910.211,31.738,35.645,20.996,15.137,-32.227,0
1583338910.215,26.367,34.180,18.066,14.648,27.344,0
1583338910.219,20.996,32.227,17.090,12.695,46.875,0
1583338910.223,21.973,34.668,18.555,11.719,-13.672,0
1583338910.227,24.414,34.668,15.625,14.648,-2.930,0
1583338910.244,29.297,31.738,15.137,15.137,18.066,0
1583338910.248,28.320,31.250,18.066,10.254,36.621,0
1583338910.252,22.461,32.715,18.066,8.301,32.227,0
1583338910.256,23.438,35.156,16.602,13.672,44.922,0
1583338910.260,30.273,33.691,15.137,20.020,-5.859,0
1583338910.264,23.438,31.738,17.578,16.602,28.320,0
1583338910.268,14.648,29.297,18.066,10.742,91.797,0
1583338910.271,18.555,27.832,18.555,12.695,80.078,0
1583338910.275,22.461,28.320,19.043,13.672,64.941,0
1583338910.279,19.531,28.809,17.578,12.695,77.637,0
1583338910.283,16.602,31.250,19.043,10.254,66.406,0
1583338910.287,15.137,31.250,20.508,9.277,23.926,0
1583338910.284,20.020,29.297,19.043,11.719,45.898,0
1583338910.288,25.879,28.320,20.020,14.160,-6.348,0
1583338910.292,20.996,27.832,22.949,18.066,-22.949,0
1583338910.296,19.531,29.785,24.902,20.996,0.000,0
1583338910.300,21.484,28.809,24.414,20.996,10.742,0
1583338910.304,26.855,27.832,21.484,24.902,13.184,0
1583338910.308,28.320,30.273,22.949,26.855,-15.625,0
1583338910.311,19.043,27.832,23.438,24.902,5.859,0
1583338910.315,22.949,29.297,26.367,27.344,52.734,0
1583338910.319,32.227,30.762,27.832,26.855,43.457,0
1583338910.323,27.832,30.273,23.926,22.461,6.348,0
1583338910.327,25.879,31.738,20.508,21.484,15.137,0
1583338910.344,32.227,33.691,19.043,29.297,34.180,0
1583338910.348,37.109,37.598,21.973,33.691,39.062,0
1583338910.352,38.086,35.156,21.973,30.273,48.340,0
1583338910.356,30.762,35.156,21.484,26.367,30.762,0
1583338910.360,28.320,36.621,23.926,21.973,48.340,0
1583338910.364,35.645,39.062,22.949,24.414,11.230,0
1583338910.368,38.574,40.527,20.996,26.855,-25.879,0
1583338910.371,27.832,34.668,19.043,19.531,14.648,0
1583338910.375,27.344,32.715,15.625,10.742,15.625,0
1583338910.379,35.156,35.156,17.578,17.578,33.203,0
1583338910.383,32.227,32.227,19.043,21.484,28.320,0
1583338910.387,28.320,29.785,17.578,15.137,33.691,0
1583338910.404,26.855,29.297,20.508,11.719,56.641,0
1583338910.408,26.367,31.250,19.531,12.207,33.691,0
1583338910.412,27.832,30.762,18.555,14.648,13.184,0
1583338910.416,28.809,29.785,15.625,14.160,80.078,0
1583338910.420,26.367,30.273,13.184,13.672,30.762,0
1583338910.424,21.484,28.809,17.090,16.602,-16.113,0
1583338910.428,22.949,27.344,20.996,16.602,112.793,0
1583338910.431,26.855,31.250,21.484,19.043,76.660,0
1583338910.435,20.996,31.250,21.973,19.043,62.988,0
1583338910.439,16.602,28.809,20.508,14.160,82.520,0
1583338910.443,23.438,28.809,20.996,17.578,22.949,0
1583338910.447,29.297,28.320,20.508,20.508,79.590,0
1583338910.424,29.297,29.785,19.531,20.508,65.430,0
1583338910.428,24.414,30.762,21.484,23.438,21.484,0
1583338910.432,27.832,29.785,22.461,26.855,14.160,0
1583338910.436,28.320,30.273,19.531,28.320,32.715,0
1583338910.440,24.902,29.785,16.602,22.949,68.359,0
1583338910.444,30.273,33.203,16.113,19.531,52.246,0
1583338910.448,31.738,35.156,16.113,20.508,3.906,0
1583338910.451,32.715,35.156,15.137,21.973,-15.625,0
1583338910.455,35.645,36.621,17.090,22.461,27.344,0
1583338910.459,31.250,36.133,14.648,13.672,48.828,0
1583338910.463,24.414,37.598,14.648,10.742,26.855,0
1583338910.467,25.879,38.574,17.578,16.113,25.391,0
1583338910.484,28.320,36.133,16.113,17.090,40.039,0
1583338910.488,28.809,35.645,18.066,18.066,50.781,0
1583338910.492,29.785,35.645,19.043,13.672,69.336,0
1583338910.496,32.227,33.691,17.090,16.602,45.898,0
1583338910.500,37.598,34.180,18.555,28.320,46.875,0
1583338910.504,38.574,38.086,23.926,31.738,66.895,0
1583338910.508,30.762,39.062,26.855,33.691,36.621,0
1583338910.511,31.250,35.645,25.391,31.250,6.348,0
1583338910.515,31.738,34.180,21.973,28.809,11.230,0
1583338910.519,27.832,35.156,20.996,29.785,11.719,0
1583338910.523,25.391,34.180,20.020,22.949,-17.090,0
1583338910.527,26.367,32.715,20.996,22.949,-37.109,0
1583338910.525,24.414,35.645,20.508,20.996,-26.367,0
1583338910.529,20.508,37.598,19.531,16.602,-32.227,0
1583338910.533,15.137,36.133,19.043,16.602,-28.320,0
1583338910.537,14.648,32.715,19.531,13.672,-5.859,0
1583338910.541,16.113,29.785,19.043,15.625,35.645,0
1583338910.545,16.113,29.785,18.066,15.137,61.523,0
1583338910.549,19.531,27.832,18.066,17.578,38.574,0
1583338910.552,20.508,26.367,19.043,20.020,47.363,0
1583338910.556,20.508,26.855,17.090,16.113,15.625,0
1583338910.560,23.926,28.320,14.648,16.602,64.453,0
1583338910.564,26.855,31.250,17.578,14.648,34.668,0
1583338910.568,22.949,32.227,20.020,12.207,-16.602,0
1583338910.564,22.949,31.738,20.020,14.648,25.391,0
1583338910.568,26.855,30.762,19.531,14.648,48.340,0
1583338910.572,24.902,31.738,20.996,14.160,52.734,0
1583338910.576,21.973,29.785,21.973,14.648,30.273,0
1583338910.580,26.855,29.785,22.461,20.020,15.625,0
1583338910.584,28.809,32.227,23.926,24.902,-20.996,0
1583338910.588,25.879,31.250,20.996,24.414,3.418,0
1583338910.591,21.973,28.809,19.531,20.996,66.895,0
1583338910.595,18.066,26.367,22.949,12.695,76.172,0
1583338910.599,22.461,28.320,24.414,9.277,37.598,0
1583338910.603,22.949,27.344,20.508,11.719,19.043,0
1583338910.607,17.578,25.391,22.461,12.207,38.574,0
1583338910.625,8.789,23.926,24.902,12.207,50.293,0
1583338910.629,7.812,22.461,21.973,15.137,100.586,0
1583338910.633,14.648,22.949,20.020,17.090,58.594,0
1583338910.637,12.695,24.902,18.555,15.137,4.883,0
1583338910.641,8.301,26.367,20.508,12.695,15.137,0
1583338910.645,8.789,29.297,21.484,12.207,61.035,0
1583338910.649,19.043,33.203,22.461,15.137,69.336,0
1583338910.652,23.438,36.621,24.902,20.020,34.180,0
1583338910.656,18.555,36.621,23.926,20.020,19.043,0
1583338910.660,19.043,32.715,21.484,19.531,66.895,0
1583338910.664,22.461,30.273,19.531,20.508,74.219,0
1583338910.668,24.902,34.180,21.484,19.531,39.551,0
1583338910.664,21.973,36.133,19.043,14.160,34.668,0
1583338910.668,20.020,34.180,15.625,13.184,41.992,0
1583338910.672,26.367,36.133,13.672,15.625,29.297,0
1583338910.676,27.344,37.598,13.184,13.184,50.293,0
1583338910.680,27.832,37.598,15.625,13.184,3.418,0
1583338910.684,30.273,37.598,18.555,16.113,-23.438,0
1583338910.688,28.809,37.598,19.043,18.066,17.090,0
1583338910.691,30.273,37.109,17.090,20.020,-2.930,0
1583338910.695,30.762,34.180,16.602,19.043,31.250,0
1583338910.699,27.832,34.668,20.996,18.066,49.316,0
1583338910.703,26.367,35.645,22.461,14.648,4.883,0
1583338910.707,21.484,33.203,20.020,11.719,9.277,0
1583338910.724,17.578,31.738,17.090,18.066,44.922,0
1583338910.728,18.555,32.227,18.066,18.066,11.230,0
1583338910.732,20.996,33.691,20.996,19.531,-14.160,0
1583338910.736,21.973,29.785,19.531,22.949,20.508,0
1583338910.740,20.508,26.367,18.066,21.484,-26.855,0
1583338910.744,17.090,29.785,17.578,18.555,-11.230,0
1583338910.748,9.766,27.832,14.160,8.301,47.852,0
1583338910.751,8.789,25.391,13.184,5.371,39.062,0
1583338910.755,16.113,27.832,14.648,10.742,-4.395,0
1583338910.759,16.113,27.832,18.555,8.789,-38.574,0
1583338910.763,15.137,30.273,18.066,6.348,9.277,0
1583338910.767,23.926,34.180,13.184,12.695,42.969,0
1583338910.764,26.367,32.715,12.695,18.555,24.414,0
1583338910.768,23.926,32.227,15.137,17.090,6.836,0
1583338910.772,22.949,33.203,13.672,13.184,42.480,0
1583338910.776,22.949,33.203,13.184,15.137,52.246,0
1583338910.780,25.879,33.203,13.672,15.137,28.809,0
1583338910.784,28.320,33.691,15.625,17.090,32.227,0
1583338910.788,25.879,34.668,18.555,15.625,98.633,0
1583338910.791,22.949,31.738,15.625,8.301,90.332,0
1583338910.795,22.461,32.227,15.625,10.742,44.434,0
1583338910.799,20.996,36.133,18.555,14.648,72.754,0
1583338910.803,18.555,36.621,16.113,11.719,76.660,0
1583338910.807,22.461,36.621,18.066,15.137,44.434,0
1583338910.824,26.855,34.668,17.578,14.160,2.441,0
1583338910.828,29.297,32.715,13.672,14.648,-25.391,0
1583338910.832,28.809,32.715,14.160,19.043,35.156,0
1583338910.836,27.344,32.715,16.602,16.602,7.324,0
1583338910.840,39.551,30.762,14.160,20.020,-18.066,0
1583338910.844,50.293,28.809,13.672,25.391,32.227,0
1583338910.848,41.992,29.785,14.160,21.973,24.902,0
1583338910.851,28.320,30.273,9.766,13.184,30.273,0
1583338910.855,30.762,31.250,10.742,18.066,10.254,0
1583338910.859,34.668,33.691,17.578,26.855,-44.922,0
1583338910.863,24.902,33.691,20.020,17.578,-1.465,0
1583338910.867,16.602,32.227,20.020,11.719,28.320,0
1583338910.865,18.555,31.250,20.508,16.113,-15.137,0
1583338910.869,18.555,30.273,20.508,18.066,-19.531,0
1583338910.873,21.973,30.762,22.461,24.902,-14.648,0
1583338910.877,23.438,30.762,21.484,23.438,28.809,0
1583338910.881,20.020,27.832,16.113,17.090,40.039,0
1583338910.885,27.344,29.785,17.578,21.484,36.621,0
1583338910.889,30.762,28.809,20.508,21.973,76.660,0
1583338910.892,31.250,30.273,20.508,22.949,42.969,0
1583338910.896,22.949,34.668,20.996,20.020,-4.395,0
1583338910.900,15.625,33.203,21.484,15.625,13.184,0
1583338910.904,22.949,34.180,20.996,17.090,16.602,0
1583338910.908,24.414,34.180,19.043,15.625,68.848,0
1583338910.906,20.508,32.715,20.508,18.066,55.664,0
1583338910.910,20.508,32.715,20.020,16.602,-10.742,0
1583338910.914,21.973,30.273,14.648,12.695,24.414,0
1583338910.918,19.531,29.785,14.160,11.719,73.730,0
1583338910.922,20.996,31.738,16.602,13.184,101.562,0
1583338910.926,28.809,34.180,22.461,21.484,67.383,0
1583338910.930,31.738,35.156,21.973,21.973,23.438,0
1583338910.933,29.297,32.715,16.113,19.043,47.363,0
1583338910.937,28.809,34.180,18.066,15.137,59.570,0
1583338910.941,24.902,36.133,17.578,11.230,35.645,0
1583338910.945,24.414,31.250,17.090,18.066,78.125,0
1583338910.949,32.715,33.203,22.949,22.461,75.684,0
1583338910.944,31.250,35.156,21.484,17.090,36.621,0
1583338910.948,23.926,34.180,18.066,16.113,18.066,0
1583338910.952,25.391,33.691,20.020,22.949,41.992,0
1583338910.956,31.738,33.203,18.555,24.902,73.730,0
1583338910.960,32.227,32.227,17.090,22.461,10.742,0
1583338910.964,27.832,32.715,18.555,21.973,3.906,0
1583338910.968,24.902,27.832,18.066,16.113,53.223,0
1583338910.971,27.344,27.344,18.066,15.137,57.617,0
1583338910.975,30.762,34.180,18.555,21.484,17.090,0
1583338910.979,30.273,34.180,20.508,20.508,4.883,0
1583338910.983,28.809,33.203,22.461,17.578,2.441,0
1583338910.987,27.344,31.250,20.020,15.137,-18.555,0
1583338910.984,28.320,30.273,19.043,14.648,40.527,0
1583338910.988,30.273,32.227,18.066,14.160,37.598,0
1583338910.992,28.320,35.156,19.531,16.602,18.066,0
1583338910.996,25.391,32.227,20.020,18.066,68.848,0
1583338911.000,32.715,31.738,17.578,18.066,37.109,0
1583338911.004,35.645,36.621,19.531,20.996,11.230,0
1583338911.008,28.809,33.691,18.555,19.531,10.742,0
1583338911.011,32.227,32.227,18.066,21.973,11.230,0
1583338911.015,33.203,32.715,20.996,17.090,15.625,0
1583338911.019,25.879,29.297,19.531,3.906,-9.766,0
1583338911.023,21.484,27.832,19.043,3.906,2.930,0
1583338911.027,20.996,29.297,18.066,8.301,39.551,0
1583338911.044,27.344,30.273,17.578,12.695,24.414,0
1583338911.048,32.715,32.715,19.531,19.043,45.898,0
1583338911.052,30.273,32.227,18.555,15.137,81.055,0
1583338911.056,30.273,31.250,18.066,12.207,22.949,0
1583338911.060,34.668,34.180,20.996,21.973,54.199,0
1583338911.064,35.645,35.645,21.973,29.785,96.680,0
1583338911.068,33.203,36.133,24.414,24.414,25.391,0
1583338911.071,30.273,37.109,20.996,13.184,-28.320,0
1583338911.075,26.367,34.180,18.066,13.184,10.254,0
1583338911.079,26.855,31.250,18.066,14.160,24.414,0
1583338911.083,26.855,34.180,15.625,18.066,39.551,0
1583338911.087,20.020,35.156,16.602,14.648,101.074,0
1583338911.090,20.020,33.203,18.555,8.301,78.613,0
1583338911.094,24.414,34.668,18.066,15.137,36.621,0
1583338911.098,20.020,33.691,15.137,17.578,6.836,0
1583338911.102,17.578,31.250,15.625,13.672,-15.625,0
1583338911.106,21.484,33.203,17.090,11.719,24.414,0
1583338911.110,23.926,33.203,17.090,12.207,106.934,0
1583338911.114,25.391,30.762,19.043,17.090,64.453,0
1583338911.117,22.461,32.227,20.020,19.531,27.344,0
1583338911.121,20.508,34.180,17.578,19.043,54.688,0
1583338911.125,30.273,39.062,21.484,20.996,-5.371,0
1583338911.129,32.715,40.039,20.508,22.949,-4.883,0
1583338911.133,30.273,37.598,18.555,26.855,6.348,0
1583338911.124,33.203,39.062,22.949,26.855,-5.859,0
1583338911.128,31.250,40.527,22.949,27.832,29.785,0
1583338911.132,35.156,41.504,24.414,36.621,38.086,0
1583338911.136,35.645,43.457,24.414,31.250,33.691,0
1583338911.140,28.809,41.016,23.438,20.996,12.207,0
1583338911.144,28.809,36.133,26.367,22.949,1.465,0
1583338911.148,33.691,36.621,24.414,23.438,31.250,0
1583338911.151,36.133,40.039,21.484,24.902,62.500,0
1583338911.155,29.785,41.504,22.949,18.555,41.504,0
1583338911.159,27.344,39.551,21.484,17.090,24.414,0
1583338911.163,36.621,39.062,20.020,26.855,47.363,0
1583338911.167,37.598,38.574,20.996,27.832,70.801,0
1583338911.185,34.180,39.062,22.461,25.391,52.246,0
1583338911.189,34.668,41.016,23.926,24.414,-33.691,0
1583338911.193,32.715,38.086,19.531,25.879,6.348,0
1583338911.197,35.156,36.621,16.602,27.344,48.340,0
1583338911.201,28.320,35.645,18.066,22.949,29.785,0
1583338911.205,21.973,32.715,18.555,21.973,0.977,0
1583338911.209,29.297,32.715,20.020,19.043,15.625,0
1583338911.212,29.297,33.203,18.555,18.066,62.988,0
1583338911.216,27.344,34.668,19.531,23.926,43.945,0
1583338911.220,31.250,35.156,20.996,22.949,53.223,0
1583338911.224,33.203,34.180,22.461,25.391,22.461,0
1583338911.228,37.109,35.645,25.391,29.785,-24.414,0
1583338911.224,35.645,34.180,25.391,26.367,2.930,0
1583338911.228,32.715,32.715,25.879,26.855,29.785,0
1583338911.232,32.227,32.227,27.344,27.344,46.875,0
1583338911.236,31.738,32.715,27.344,28.809,52.246,0
1583338911.240,35.645,34.668,26.367,27.832,33.203,0
1583338911.244,33.203,35.645,23.926,24.902,65.430,0
1583338911.248,25.879,33.691,21.484,22.949,78.613,0
1583338911.251,26.367,33.691,21.484,20.508,63.477,0
1583338911.255,30.762,34.180,22.949,23.438,17.578,0
1583338911.259,30.273,34.180,21.484,22.949,-25.391,0
1583338911.263,22.461,33.203,19.043,15.625,0.488,0
1583338911.267,23.438,33.203,20.020,17.578,-0.488,0
1583338911.264,31.738,35.645,21.973,23.926,20.508,0
1583338911.268,29.785,36.133,21.973,23.926,56.152,0
1583338911.272,28.809,37.598,22.461,20.996,60.547,0
1583338911.276,36.133,38.574,23.438,27.832,58.105,0
1583338911.280,35.156,34.668,28.809,34.180,30.273,0
1583338911.284,23.926,27.344,37.109,30.273,24.902,0
1583338911.288,22.949,28.320,37.109,24.414,62.988,0
1583338911.291,25.879,33.691,33.691,20.996,62.988,0
1583338911.295,27.344,34.668,32.227,21.484,4.395,0
1583338911.299,23.926,29.785,27.832,21.973,5.371,0
1583338911.303,20.020,31.738,27.344,20.996,35.645,0
1583338911.307,22.461,34.668,26.855,18.555,43.945,0
1583338911.325,26.855,34.668,26.855,19.531,12.207,0
1583338911.329,31.738,36.621,28.809,22.461,39.551,0
1583338911.333,35.156,37.598,25.879,22.949,23.926,0
1583338911.337,31.738,36.621,25.391,20.020,1.953,0
1583338911.341,29.785,33.691,24.414,18.555,-15.625,0
1583338911.345,37.598,34.180,22.949,22.949,-45.410,0
1583338911.349,32.715,33.691,21.484,20.020,-26.367,0
1583338911.352,22.461,31.738,18.066,17.090,32.715,0
1583338911.356,23.438,34.180,19.043,20.508,28.809,0
1583338911.360,26.367,33.203,18.555,19.531,-6.348,0
1583338911.364,31.738,32.715,20.996,19.531,16.602,0
1583338911.368,28.320,35.156,23.438,18.555,72.266,0
1583338911.364,18.555,34.180,21.484,14.648,89.355,0
1583338911.368,21.973,35.645,20.508,16.602,19.043,0
1583338911.372,23.926,37.109,22.949,20.508,37.598,0
1583338911.376,19.531,35.156,25.391,20.508,85.449,0
1583338911.380,21.973,36.621,27.344,20.996,51.270,0
1583338911.384,26.855,37.598,28.809,27.344,46.387,0
1583338911.388,25.879,34.180,27.344,29.785,32.227,0
1583338911.391,27.344,34.180,26.367,22.949,31.250,0
1583338911.395,28.809,35.645,26.367,22.461,4.883,0
1583338911.399,32.227,35.156,26.367,24.414,-14.160,0
1583338911.403,33.203,33.203,24.414,24.414,22.949,0
1583338911.407,28.320,31.250,23.926,28.320,15.625,0
1583338911.403,26.855,33.203,25.391,22.949,37.109,0
1583338911.407,28.320,35.156,25.879,21.973,19.531,0
1583338911.411,27.832,35.156,27.832,22.949,37.109,0
1583338911.415,27.832,34.668,25.391,19.043,12.695,0
1583338911.419,29.785,37.598,24.414,22.949,-26.855,0
1583338911.423,25.879,40.527,28.320,21.484,50.781,0
1583338911.427,23.926,38.086,24.414,16.602,-17.090,0
1583338911.430,30.762,38.086,20.996,16.113,-65.918,0
1583338911.434,32.715,38.574,19.531,9.766,30.762,0
1583338911.438,27.344,36.133,18.066,8.301,27.832,1
1583338911.442,23.438,36.621,19.043,13.184,58.594,0
1583338911.446,24.902,36.621,19.531,13.672,56.152,0
1583338911.464,27.344,37.109,20.996,16.113,-2.441,0
1583338911.468,23.438,37.598,20.020,16.113,-7.324,0
1583338911.472,17.090,35.645,20.508,17.090,32.715,0
1583338911.476,21.973,34.668,18.555,19.043,83.008,0
1583338911.480,28.320,36.133,19.043,19.043,20.020,0
1583338911.484,27.344,38.086,19.043,21.973,-23.926,0
1583338911.488,24.902,36.621,19.043,16.602,-27.344,0
1583338911.491,23.926,32.715,20.020,16.602,48.340,0
1583338911.495,26.855,33.203,21.484,20.020,61.523,0
1583338911.499,22.949,33.691,21.973,20.020,3.418,0
1583338911.503,20.020,33.691,24.414,22.949,41.016,0
1583338911.507,21.973,32.227,25.391,21.484,76.172,0
1583338911.503,24.414,27.832,20.996,23.926,67.383,0
1583338911.507,27.344,28.809,19.531,25.879,71.289,0
1583338911.511,22.461,29.785,19.043,20.996,85.938,0
1583338911.515,27.344,29.297,18.066,24.902,66.895,0
1583338911.519,32.715,27.832,17.578,26.367,101.074,0
1583338911.523,28.320,26.367,16.113,24.414,89.355,0
1583338911.527,19.531,25.879,17.090,17.090,38.574,0
1583338911.530,12.207,24.414,17.578,17.090,87.402,0
1583338911.534,19.531,22.949,16.602,25.879,57.129,0
1583338911.538,24.902,21.484,17.578,23.926,6.836,0
1583338911.542,15.137,22.949,16.602,17.090,57.129,0
1583338911.546,12.695,26.367,15.137,14.648,73.242,0
1583338911.545,17.578,26.367,12.695,16.113,79.590,0
1583338911.549,22.949,26.855,13.184,20.996,58.105,0
1583338911.553,24.902,30.762,16.113,16.602,25.391,0
1583338911.557,23.438,31.250,14.648,9.766,19.531,0
1583338911.561,25.391,32.715,13.672,12.207,20.508,0
1583338911.565,30.273,32.715,17.578,17.090,13.672,0
1583338911.569,27.832,32.227,19.043,20.996,21.484,0
1583338911.572,23.438,35.156,19.531,19.043,34.668,0
1583338911.576,24.414,34.180,20.020,19.043,70.801,0
1583338911.580,27.832,32.227,19.043,18.555,52.734,0
1583338911.584,27.344,31.738,18.066,18.066,-32.227,0
1583338911.588,22.461,28.320,16.113,19.043,-0.977,0
1583338911.624,21.484,27.832,15.137,17.090,21.484,0
1583338911.628,24.414,30.273,12.695,15.625,55.176,0
1583338911.632,26.367,29.297,13.184,12.207,36.621,0
1583338911.636,22.949,27.832,14.160,7.812,-23.926,0
1583338911.640,21.484,29.785,14.160,6.836,-17.090,0
1583338911.644,29.297,32.227,18.555,12.695,-35.645,0
1583338911.648,29.297,30.762,19.531,10.742,-5.371,0
1583338911.651,25.391,29.297,16.113,8.301,39.551,0
1583338911.655,27.832,29.297,12.695,15.625,-2.930,0
1583338911.659,30.762,27.344,16.113,21.484,20.020,0
1583338911.663,38.086,29.297,18.555,24.902,51.270,0
1583338911.667,39.551,31.738,17.578,22.949,19.043,0
1583338911.665,34.180,33.203,22.461,20.996,27.344,0
1583338911.669,31.250,32.227,25.391,22.461,62.012,0
1583338911.673,29.785,27.832,23.438,22.461,41.504,0
1583338911.677,29.785,25.391,25.391,23.438,13.672,0
1583338911.681,27.832,27.344,23.438,19.043,15.137,0
1583338911.685,23.438,30.762,21.973,10.742,49.805,0
1583338911.689,21.484,29.785,21.973,13.672,61.523,0
1583338911.692,19.531,29.297,22.461,18.066,2.930,0
1583338911.696,15.625,32.715,24.902,15.137,-12.695,0
1583338911.700,16.602,36.133,26.855,13.184,6.836,0
1583338911.704,18.555,33.203,24.414,11.719,51.758,0
1583338911.708,21.973,31.738,20.996,13.184,39.551,0
1583338911.686,24.902,34.180,21.484,15.137,23.438,0
1583338911.690,20.508,32.227,23.438,13.672,16.602,0
1583338911.694,20.996,29.785,21.484,12.207,-37.109,0
1583338911.698,26.855,32.227,19.043,16.113,-7.324,0
1583338911.702,25.879,29.785,21.973,18.555,45.898,0
1583338911.706,21.973,27.344,22.461,15.625,41.016,0
1583338911.710,23.926,28.809,20.996,20.508,62.988,0
1583338911.713,31.250,27.832,21.484,21.484,48.340,0
1583338911.717,30.273,28.809,20.996,18.066,7.324,0
1583338911.721,30.273,32.227,22.949,25.879,27.832,0
1583338911.725,32.227,33.203,21.484,27.344,-51.758,0
1583338911.729,33.203,31.738,18.555,27.344,-39.062,0
1583338911.744,39.551,33.203,18.555,27.344,28.320,0
1583338911.748,34.180,33.203,18.066,22.461,18.066,0
1583338911.752,29.297,34.180,20.508,27.344,-0.977,0
1583338911.756,34.180,34.180,21.973,33.203,17.578,0
1583338911.760,34.668,32.227,19.043,33.691,76.660,0
1583338911.764,32.715,34.668,19.043,28.809,34.180,0
1583338911.768,28.809,33.203,16.602,18.066,28.809,0
1583338911.771,24.902,30.273,15.625,21.484,97.656,0
1583338911.775,28.809,29.297,18.555,27.344,36.621,0
1583338911.779,31.250,27.832,17.090,23.926,-1.953,0
1583338911.783,29.785,32.227,16.602,21.973,28.320,0
1583338911.787,26.855,34.668,17.090,18.555,4.395,0
1583338911.785,28.809,32.715,15.625,20.508,21.484,0
1583338911.789,33.203,32.227,15.625,23.926,51.270,0
1583338911.793,30.273,30.762,19.043,20.996,15.137,0
1583338911.797,32.715,31.738,20.020,19.531,-0.488,0
1583338911.801,35.645,33.691,17.090,18.555,9.766,0
1583338911.805,37.109,32.715,18.066,21.973,27.832,0
1583338911.809,38.574,31.250,19.531,20.020,40.039,0
1583338911.812,35.645,31.250,16.602,14.160,70.312,0
1583338911.816,39.062,34.180,15.137,16.113,86.914,0
1583338911.820,44.434,36.133,16.113,18.555,45.898,0
1583338911.824,35.645,34.668,17.090,17.578,-1.465,0
1583338911.828,23.438,32.715,16.113,12.207,53.223,0
1583338911.824,22.949,30.762,15.625,11.230,26.367,0
1583338911.828,27.832,33.203,16.602,14.160,5.859,0
1583338911.832,26.367,33.691,15.625,10.254,17.090,0
1583338911.836,15.625,28.320,13.672,7.324,46.875,0
1583338911.840,13.672,27.344,13.184,12.695,99.121,0
1583338911.844,19.531,30.762,14.160,15.625,9.277,0
1583338911.848,22.461,30.762,14.648,17.578,1.953,0
1583338911.851,17.090,28.320,17.578,12.695,41.504,0
1583338911.855,10.742,27.344,18.066,8.301,44.922,0
1583338911.859,17.578,27.344,17.578,12.207,21.973,0
1583338911.863,20.020,26.855,16.602,14.160,-20.020,0
1583338911.867,18.066,25.391,14.160,14.648,-17.578,0
1583338911.885,21.484,26.855,12.695,14.648,17.090,0
1583338911.889,26.367,28.320,10.254,25.391,35.156,0
1583338911.893,25.879,24.414,16.602,27.832,14.648,0
1583338911.897,13.672,19.043,20.020,13.672,-28.320,0
1583338911.901,4.395,17.090,19.043,6.348,12.207,0
1583338911.905,2.441,17.578,21.484,1.953,19.043,0
1583338911.909,9.766,23.438,16.602,3.418,-47.852,0
1583338911.912,8.301,23.438,13.672,-1.465,-29.785,0
1583338911.916,0.488,19.531,16.113,-8.301,24.902,0
1583338911.920,-0.977,20.996,18.066,-9.277,47.852,0
1583338911.924,9.766,25.391,17.578,-3.418,7.324,0
1583338911.928,17.090,25.879,14.160,5.371,12.695,0
1583338911.924,11.719,23.926,9.766,5.859,59.570,0
1583338911.928,13.184,24.902,11.230,6.348,29.297,0
1583338911.932,17.578,26.855,11.719,9.766,9.277,0
1583338911.936,20.996,26.855,13.672,11.719,46.387,0
1583338911.940,19.531,25.391,15.625,12.695,40.039,0
1583338911.944,13.672,25.391,13.184,12.695,11.230,0
1583338911.948,14.160,24.902,12.695,15.137,45.410,0
1583338911.951,19.531,25.879,11.230,15.625,40.039,0
1583338911.955,20.996,30.273,14.648,17.090,7.324,0
1583338911.959,17.578,31.250,17.578,15.137,-8.789,0
1583338911.963,16.602,25.879,16.113,11.719,17.090,0
1583338911.967,18.066,27.344,15.625,13.184,40.039,0
1583338911.984,18.066,31.738,15.137,12.695,58.105,0
1583338911.988,15.625,32.227,16.113,9.277,61.523,0
1583338911.992,11.719,30.762,14.648,2.930,51.270,0
1583338911.996,16.113,31.250,11.230,4.883,62.500,0
1583338912.000,24.902,32.715,13.184,14.648,44.434,0
1583338912.004,22.949,32.227,16.602,17.090,31.250,0
1583338912.008,20.996,31.738,19.043,10.742,59.570,0
1583338912.011,25.391,32.227,18.555,8.301,64.941,0
1583338912.015,23.926,31.738,14.160,11.719,52.734,0
1583338912.019,23.438,32.227,11.719,17.578,47.363,0
1583338912.023,21.484,31.250,14.160,14.160,-23.438,0
1583338912.027,26.855,31.250,20.020,16.113,-69.824,0
1583338912.065,33.691,31.250,22.461,24.414,2.930,0
1583338912.069,29.785,27.344,20.508,20.508,37.109,0
1583338912.073,25.879,26.855,20.020,18.066,12.207,0
1583338912.077,27.832,29.297,19.043,14.648,44.434,0
1583338912.081,30.273,27.832,17.090,15.625,27.344,0
1583338912.085,32.715,30.273,17.578,21.484,57.617,0
1583338912.089,27.832,32.227,20.020,16.113,64.941,0
1583338912.092,24.414,31.738,21.484,12.207,-44.922,0
1583338912.096,30.273,33.691,22.461,10.742,-14.648,0
1583338912.100,31.738,37.109,23.926,11.230,5.371,0
1583338912.104,31.250,36.621,24.902,11.719,-21.484,0
1583338912.108,25.391,36.621,25.879,9.766,-2.441,0
1583338912.105,23.438,34.668,25.879,13.672,-28.809,0
1583338912.109,27.832,31.250,23.926,14.648,23.926,0
1583338912.113,23.926,34.668,21.973,16.113,24.414,0
1583338912.117,15.137,35.645,21.484,20.508,36.133,0
1583338912.121,20.508,33.203,19.531,19.531,87.891,0
1583338912.125,29.297,35.156,18.555,23.438,57.129,0
1583338912.129,28.320,36.621,19.531,26.367,38.086,0
1583338912.132,20.508,35.156,21.484,23.926,36.621,0
1583338912.136,20.020,32.715,21.484,24.414,25.879,0
1583338912.140,20.996,31.738,17.578,22.461,22.949,0
1583338912.144,18.555,31.738,16.113,19.531,42.969,0
1583338912.148,19.531,31.738,17.090,19.043,43.945,0
1583338912.205,22.461,33.691,17.090,20.508,31.738,0
1583338912.209,27.832,33.691,18.066,19.531,57.617,0
1583338912.213,27.832,30.273,15.137,15.625,-7.324,0
1583338912.217,21.484,28.809,13.672,13.184,-12.207,0
1583338912.221,20.020,28.320,15.625,13.184,62.500,0
1583338912.225,23.438,30.273,15.625,18.066,35.156,0
1583338912.229,28.809,33.691,20.020,22.949,52.246,0
1583338912.232,32.227,29.785,24.902,22.461,56.641,0
1583338912.236,30.273,28.320,23.926,22.461,3.906,0
1583338912.240,24.902,29.297,19.043,19.043,14.648,0
1583338912.244,25.879,26.367,17.578,20.996,56.641,0
1583338912.248,30.762,27.832,22.949,26.367,10.254,0
1583338912.284,26.367,27.344,22.461,20.996,-8.301,0
1583338912.288,18.066,23.926,20.508,15.137,65.430,0
1583338912.292,23.926,24.902,22.461,16.113,54.199,0
1583338912.296,25.879,25.879,22.461,19.531,8.789,0
1583338912.300,20.508,25.391,21.973,18.555,10.742,0
1583338912.304,20.020,24.902,22.949,13.672,-34.180,0
1583338912.308,21.484,26.367,22.949,16.602,90.820,0
1583338912.311,29.297,28.809,22.949,22.461,135.254,0
1583338912.315,28.320,30.762,24.902,20.508,19.531,0
1583338912.319,25.391,32.227,25.879,21.484,31.738,0
1583338912.323,32.227,33.203,21.973,23.926,-41.992,0
1583338912.327,31.250,29.297,17.090,20.020,8.301,0
1583338912.325,30.762,27.344,19.043,20.508,95.703,0
1583338912.329,30.762,26.855,20.996,20.996,20.020,0
1583338912.333,30.762,23.926,19.531,24.414,32.715,0
1583338912.337,38.574,22.461,18.066,29.297,55.664,0
1583338912.341,35.645,29.785,11.230,14.648,37.598,0
1583338912.345,29.785,36.621,8.301,8.301,-5.859,0
1583338912.349,29.785,36.133,9.277,13.184,-21.484,0
1583338912.352,27.344,34.668,10.742,14.160,62.012,0
1583338912.356,26.367,33.691,13.184,15.137,76.172,0
1583338912.360,19.043,32.715,11.230,5.859,85.938,0
1583338912.364,16.113,33.203,8.301,2.441,52.734,0
1583338912.368,20.020,32.715,9.277,7.812,42.480,0
1583338912.330,23.438,32.715,15.625,14.648,37.598,0
1583338912.334,28.320,34.668,18.066,16.113,-35.645,0
1583338912.338,26.855,37.598,19.043,14.160,-7.812,0
1583338912.342,28.320,36.621,19.531,16.602,25.391,0
1583338912.346,32.715,34.668,17.578,17.090,-17.090,0
1583338912.350,32.227,32.715,17.090,19.043,-29.297,0
1583338912.354,30.273,34.668,16.602,16.602,-34.668,0
1583338912.357,26.855,36.133,15.625,9.766,28.320,0
1583338912.361,27.344,33.691,14.160,10.742,68.848,0
1583338912.365,29.297,33.691,15.137,15.625,12.207,0
1583338912.369,23.926,33.203,15.137,13.672,15.625,0
1583338912.373,21.484,35.645,16.602,9.766,71.777,0
1583338912.344,21.973,35.645,15.625,8.789,62.500,0
1583338912.348,21.973,31.250,12.695,11.230,-1.465,0
1583338912.352,20.508,31.738,15.625,14.160,5.859,0
1583338912.356,20.508,34.180,17.090,14.648,52.734,0
1583338912.360,24.902,34.180,16.602,14.648,37.109,0
1583338912.364,31.250,33.203,14.648,16.113,-31.250,0
1583338912.368,25.879,33.691,13.184,17.090,-4.883,0
1583338912.371,21.484,33.691,14.160,16.602,9.766,0
1583338912.375,20.996,31.250,16.113,14.160,13.672,0
1583338912.379,26.367,32.227,16.113,12.695,48.828,0
1583338912.383,28.809,34.668,13.672,12.207,42.969,0
1583338912.387,23.926,35.156,13.672,11.230,62.500,0
1583338912.425,20.508,33.691,15.625,10.742,31.250,0
1583338912.429,22.461,32.227,16.113,12.207,14.160,0
1583338912.433,28.809,34.180,18.555,18.066,25.879,0
1583338912.437,24.414,36.621,19.043,13.672,52.734,0
1583338912.441,20.508,39.551,21.484,8.789,101.562,0
1583338912.445,25.391,39.551,24.414,14.160,82.520,0
1583338912.449,30.762,36.621,20.996,16.113,48.828,0
1583338912.452,29.297,38.086,21.484,17.578,23.926,0
1583338912.456,23.926,40.039,24.902,13.672,57.617,0
1583338912.460,23.926,36.621,20.996,12.207,54.688,0
1583338912.464,21.973,33.203,17.578,18.555,21.484,0
1583338912.468,18.555,31.250,20.508,16.602,-20.020,0
1583338912.429,21.484,31.738,24.902,20.020,-10.254,0
1583338912.433,22.461,31.250,21.484,18.066,59.570,0
1583338912.437,24.902,31.250,18.555,10.742,48.828,0
1583338912.441,26.367,30.762,20.508,18.066,20.996,0
1583338912.445,23.926,29.785,20.508,19.043,-31.738,0
1583338912.449,22.461,29.785,19.531,15.137,-40.039,0
1583338912.453,26.367,29.297,21.484,18.555,70.312,0
1583338912.456,25.391,28.320,21.484,20.508,35.645,0
1583338912.460,19.043,27.344,18.066,20.508,-8.301,0
1583338912.464,18.066,28.320,19.043,19.531,23.438,0
1583338912.468,20.508,26.855,19.531,17.578,-10.742,0
1583338912.472,25.879,25.879,18.066,20.508,17.090,0
1583338912.484,25.391,28.809,18.066,21.484,54.199,0
1583338912.488,21.973,26.855,19.531,19.043,39.551,0
1583338912.492,25.391,27.344,20.996,20.996,55.664,0
1583338912.496,29.785,32.227,21.484,24.902,20.020,0
1583338912.500,31.250,35.645,21.973,23.438,22.461,0
1583338912.504,24.414,35.156,22.461,21.484,52.246,0
1583338912.508,19.531,30.273,18.555,22.461,42.969,0
1583338912.511,24.902,32.227,16.113,23.438,51.758,0
1583338912.515,25.391,33.203,20.020,23.438,78.613,0
1583338912.519,21.484,31.738,21.973,18.555,74.219,0
1583338912.523,19.531,32.227,20.508,11.719,16.113,1
1583338912.527,26.855,32.715,17.090,17.090,-58.594,0
1583338912.544,31.738,35.645,16.113,22.949,-12.207,0
1583338912.548,26.367,33.691,19.043,20.020,67.383,0
1583338912.552,25.391,35.156,22.461,17.578,91.309,0
1583338912.556,25.879,38.086,21.973,11.230,32.715,0
1583338912.560,25.391,35.156,18.555,7.812,-43.457,0
1583338912.564,30.762,33.691,15.137,17.578,-8.789,0
1583338912.568,36.133,34.180,14.648,27.344,41.504,0
1583338912.571,30.762,29.297,21.484,24.902,56.641,0
1583338912.575,24.414,25.391,25.391,20.508,45.898,0
1583338912.579,26.367,24.414,24.902,26.367,70.801,0
1583338912.583,22.949,24.902,27.344,24.902,14.648,0
1583338912.587,17.578,26.367,25.879,19.043,3.418,0
1583338912.548,21.973,28.320,23.438,15.625,54.199,0
1583338912.552,23.438,30.273,24.902,14.648,40.527,0
1583338912.556,18.555,28.809,22.949,20.508,80.566,0
1583338912.560,17.090,27.832,22.949,20.996,112.793,0
1583338912.564,20.996,28.320,22.949,20.020,78.613,0
1583338912.568,27.832,29.297,20.508,20.996,44.922,0
1583338912.572,25.879,31.738,20.996,18.066,-29.297,0
1583338912.575,19.043,32.227,20.020,15.137,-22.461,0
1583338912.579,22.461,29.785,19.043,14.648,48.828,0
1583338912.583,29.785,30.762,20.508,22.949,48.828,0
1583338912.587,32.715,31.738,20.996,25.879,53.223,0
1583338912.591,32.715,33.203,20.996,19.531,32.715,0
1583338912.603,30.273,32.227,22.461,18.066,10.742,0
1583338912.607,32.715,29.785,20.508,22.461,31.738,0
1583338912.611,32.227,27.832,19.043,23.926,39.551,0
1583338912.615,28.809,25.879,18.066,20.020,34.180,0
1583338912.619,29.785,31.250,17.578,18.066,24.902,0
1583338912.623,30.762,31.738,17.578,23.926,-1.953,0
1583338912.627,28.809,28.809,17.578,27.832,12.207,0
1583338912.630,25.879,31.738,21.484,23.438,48.340,0
1583338912.634,23.926,33.203,21.484,18.555,46.875,0
1583338912.638,25.879,35.156,23.438,20.996,34.668,0
1583338912.642,27.832,37.598,24.902,24.902,43.457,0
1583338912.646,23.438,35.156,19.531,15.625,31.250,0
1583338912.624,19.043,33.691,17.578,12.695,-6.836,0
1583338912.628,20.020,36.133,21.484,14.648,-34.180,0
1583338912.632,24.902,35.645,24.414,20.020,1.465,0
1583338912.636,22.461,32.227,25.391,20.996,63.965,0
1583338912.640,20.996,32.715,22.949,15.625,28.809,0
1583338912.644,24.902,35.645,22.461,20.020,13.184,0
1583338912.648,28.809,34.180,21.973,21.484,34.180,0
1583338912.651,30.273,36.133,21.484,21.973,-5.859,0
1583338912.655,32.715,37.598,16.113,19.043,-2.441,0
1583338912.659,31.738,34.668,16.602,15.625,20.996,0
1583338912.663,32.227,35.645,20.508,19.043,26.367,0
1583338912.667,30.762,33.691,18.066,16.113,65.430,0
1583338912.704,31.250,29.785,15.625,18.066,90.332,0
1583338912.708,29.785,29.297,17.090,18.555,101.562,0
1583338912.712,25.391,25.879,18.066,16.113,54.688,0
1583338912.716,30.273,25.391,19.531,20.996,53.711,0
1583338912.720,33.691,30.273,21.973,18.066,104.980,0
1583338912.724,33.691,34.180,22.949,18.066,50.293,0
1583338912.728,38.086,37.598,22.949,23.438,49.316,0
1583338912.731,41.016,37.109,21.973,20.996,16.113,0
1583338912.735,37.109,34.668,18.066,21.484,-35.645,0
1583338912.739,32.715,37.109,18.066,23.926,4.883,0
1583338912.743,29.297,39.062,22.949,23.926,8.301,0
1583338912.747,28.809,38.574,21.973,22.461,29.297,0
1583338912.744,27.344,38.574,18.066,19.531,44.922,0
1583338912.748,20.508,33.203,16.602,16.113,6.348,0
1583338912.752,13.672,30.762,14.648,11.719,-5.371,0
1583338912.756,11.230,35.156,15.625,9.277,23.438,0
1583338912.760,12.207,33.203,16.113,10.254,51.758,0
1583338912.764,19.043,31.250,14.160,10.742,46.875,0
1583338912.768,18.066,33.203,14.160,9.766,50.781,0
1583338912.771,20.020,36.621,14.160,12.695,42.480,0
1583338912.775,22.461,35.645,14.648,16.602,32.715,0
1583338912.779,14.648,32.227,15.625,12.207,25.879,0
1583338912.783,10.742,30.273,11.719,5.859,78.613,0
1583338912.787,13.672,27.832,9.277,6.836,96.680,0
1583338912.764,23.926,30.273,7.324,8.789,48.340,0
1583338912.768,26.367,30.762,7.812,13.184,23.926,0
1583338912.772,25.879,29.785,13.184,15.625,61.035,0
1583338912.776,28.320,29.785,13.184,16.602,67.383,0
1583338912.780,31.738,30.273,14.648,20.508,27.344,0
1583338912.784,33.691,30.273,14.648,20.508,33.691,0
1583338912.788,31.250,28.320,10.742,19.531,41.016,0
1583338912.791,30.273,28.320,10.254,19.043,28.320,0
