timestamps,TP9,AF7,AF8,TP10,Right AUX,Marker0
1583425028.179,10.742,28.809,31.250,13.184,64.941,0
1583425028.183,12.695,30.273,32.227,19.043,20.020,0
1583425028.187,10.254,31.738,30.762,18.066,50.781,0
1583425028.191,7.812,28.809,35.645,15.625,89.355,0
1583425028.195,12.695,30.273,36.133,19.531,69.824,0
1583425028.199,18.066,34.180,32.227,21.484,63.477,0
1583425028.203,15.625,34.180,32.715,22.461,26.855,0
1583425028.206,13.672,30.762,33.203,25.391,21.973,0
1583425028.210,14.160,32.227,29.297,26.367,60.547,0
1583425028.214,19.531,38.086,24.902,18.066,35.645,0
1583425028.218,27.344,38.086,27.832,19.043,-12.695,0
1583425028.222,27.344,38.574,27.344,26.855,-8.789,0
1583425028.220,27.344,39.062,23.926,29.785,-26.367,0
1583425028.224,30.273,38.086,27.344,32.715,-26.367,0
1583425028.228,26.855,40.039,26.367,27.344,43.945,0
1583425028.232,27.344,40.527,26.367,25.879,28.809,0
1583425028.236,22.949,40.039,28.809,29.297,0.488,0
1583425028.240,13.184,41.504,26.855,21.484,41.504,0
1583425028.244,14.648,38.574,29.297,11.230,22.949,0
1583425028.247,16.602,37.598,32.227,4.883,-8.301,0
1583425028.251,15.625,39.062,31.738,13.672,-22.461,0
1583425028.255,9.766,41.016,30.762,16.602,-17.578,0
1583425028.259,12.207,44.922,32.227,15.625,-32.227,0
1583425028.263,15.137,44.434,32.715,17.090,-35.645,0
1583425028.280,17.090,44.922,32.715,16.602,4.883,0
1583425028.284,25.391,49.805,38.574,24.414,45.898,0
1583425028.288,18.555,48.828,46.875,20.020,45.898,0
1583425028.292,13.184,48.340,43.945,10.742,54.688,0
1583425028.296,13.184,48.828,41.992,6.348,56.152,0
1583425028.300,6.836,48.828,44.922,0.977,44.434,0
1583425028.304,-7.324,49.316,41.504,-8.301,61.035,0
1583425028.307,-13.184,52.734,42.969,-19.043,55.176,0
1583425028.311,-15.137,56.641,45.898,-32.227,24.414,0
1583425028.315,-39.062,54.199,45.898,-48.340,-17.090,0
1583425028.319,-43.457,56.641,49.316,-52.246,64.941,0
1583425028.323,-42.480,59.570,57.129,-58.594,145.020,0
1583425028.319,-62.012,55.664,59.082,-76.172,65.430,0
1583425028.323,-78.125,51.758,56.641,-83.496,39.062,0
1583425028.327,-70.312,52.734,59.082,-79.590,69.336,0
1583425028.331,-67.871,55.176,60.547,-80.566,30.273,0
1583425028.335,-78.125,57.129,60.059,-90.820,10.254,0
1583425028.339,-77.637,56.152,63.965,-91.797,38.086,0
1583425028.343,-76.172,55.664,66.895,-89.355,24.902,0
1583425028.346,-81.055,62.012,64.453,-88.379,14.160,0
1583425028.350,-81.055,66.895,65.918,-84.473,-6.836,0
1583425028.354,-78.613,63.477,67.383,-81.543,-16.602,0
1583425028.358,-77.148,56.152,66.406,-76.660,8.301,0
1583425028.362,-74.219,54.688,64.453,-73.730,-12.207,0
1583425028.359,-70.312,57.129,59.570,-70.801,8.301,0
1583425028.363,-64.453,51.758,56.152,-64.941,2.930,0
1583425028.367,-52.246,49.316,56.152,-52.734,-3.906,0
1583425028.371,-45.898,48.828,55.664,-44.434,-16.113,0
1583425028.375,-32.715,46.387,50.781,-36.621,-41.016,0
1583425028.379,-18.066,41.504,47.363,-26.855,54.199,0
1583425028.383,-3.906,40.039,44.434,-16.113,83.008,0
1583425028.386,13.672,43.457,39.551,-0.977,76.660,0
1583425028.390,19.043,43.457,39.062,3.418,72.754,0
1583425028.394,26.367,41.016,39.062,11.719,8.789,0
1583425028.398,32.715,40.527,33.691,20.020,-10.254,0
1583425028.402,39.062,41.992,29.297,26.855,-4.395,0
1583425028.419,40.039,38.086,27.344,32.715,26.855,0
1583425028.423,42.480,36.133,24.902,34.668,17.578,0
1583425028.427,54.688,39.551,22.949,52.734,11.230,0
1583425028.431,60.059,40.527,21.973,66.895,54.688,0
1583425028.435,59.570,36.133,23.438,70.801,46.875,0
1583425028.439,62.500,33.691,25.391,73.242,-4.395,0
1583425028.443,67.383,31.250,23.438,77.637,0.000,0
1583425028.446,70.801,29.785,21.484,79.590,36.621,0
1583425028.450,75.195,27.832,20.996,79.102,6.836,0
1583425028.454,70.801,25.391,20.996,73.730,18.555,0
1583425028.458,61.035,23.438,21.973,62.012,33.203,0
1583425028.462,59.082,20.996,24.902,65.430,33.203,0
1583425028.460,60.547,20.996,28.320,70.312,27.344,0
1583425028.464,62.988,19.531,26.367,64.941,41.504,0
1583425028.468,59.082,20.996,24.414,60.547,61.523,0
1583425028.472,45.898,20.508,27.832,56.641,54.688,0
1583425028.476,37.109,20.996,24.414,59.570,70.312,0
1583425028.480,30.762,20.996,23.438,55.664,62.012,0
1583425028.484,32.715,18.066,25.879,47.852,49.316,0
1583425028.487,39.551,19.043,26.367,50.781,15.137,0
1583425028.491,45.410,22.461,27.832,52.734,18.555,0
1583425028.495,55.176,21.484,28.809,56.641,29.297,0
1583425028.499,62.500,19.043,26.855,62.988,43.945,0
1583425028.503,66.895,20.508,27.344,65.918,43.945,0
1583425028.500,75.195,22.949,26.855,76.172,30.273,0
1583425028.504,77.637,24.414,25.879,81.055,37.109,0
1583425028.508,76.172,28.320,25.879,76.172,41.016,0
1583425028.512,79.102,30.273,23.438,79.590,47.852,0
1583425028.516,68.848,31.250,23.926,77.148,14.160,0
1583425028.520,62.988,34.668,22.461,77.637,3.906,0
1583425028.524,61.035,36.621,20.996,65.918,55.664,0
1583425028.527,50.781,32.227,25.879,48.828,65.918,0
1583425028.531,48.340,29.297,25.879,48.340,26.367,0
1583425028.535,35.156,26.855,28.320,42.480,10.254,0
1583425028.539,31.250,24.414,32.715,40.527,0.000,0
1583425028.543,34.668,23.438,31.738,44.922,23.438,0
1583425028.559,21.484,21.973,31.250,36.133,42.969,0
1583425028.563,28.809,26.367,23.926,33.691,66.895,0
1583425028.567,40.039,26.855,23.926,38.574,86.426,0
1583425028.571,30.273,24.414,30.273,34.668,31.250,0
1583425028.575,41.504,26.855,30.762,37.598,-16.113,0
1583425028.579,63.477,29.785,30.273,57.617,-12.695,0
1583425028.583,60.059,31.738,28.809,58.105,99.609,0
1583425028.586,65.430,31.738,23.926,51.270,116.211,0
1583425028.590,71.777,35.156,19.043,49.805,16.602,0
1583425028.594,67.383,35.645,20.020,57.617,32.227,0
1583425028.598,62.012,37.598,24.902,58.105,55.664,0
1583425028.602,64.941,36.621,21.484,50.293,37.109,0
1583425028.600,61.523,39.551,17.090,49.316,46.875,0
1583425028.604,61.523,44.434,20.020,52.734,52.246,0
1583425028.608,57.129,43.945,21.973,54.199,29.785,0
1583425028.612,40.527,41.504,23.926,46.387,17.578,0
1583425028.616,37.109,38.086,20.996,35.645,-12.695,0
1583425028.620,30.762,39.551,19.043,26.367,-39.062,0
1583425028.624,29.785,32.715,31.738,33.203,27.344,0
1583425028.627,28.320,28.320,39.062,32.227,44.434,0
1583425028.631,21.484,30.762,25.391,18.555,4.395,0
1583425028.635,17.090,27.344,28.320,27.344,12.207,0
1583425028.639,15.625,29.785,42.480,35.645,-8.789,0
1583425028.643,22.461,36.621,35.645,31.250,-39.551,0
1583425028.639,29.297,34.180,38.574,32.715,-7.812,0
1583425028.643,24.414,35.645,38.574,37.109,7.324,0
1583425028.647,29.297,39.062,30.762,44.434,34.180,0
1583425028.651,36.133,36.133,34.668,47.852,77.148,0
1583425028.655,39.062,39.551,36.621,44.434,61.523,0
1583425028.659,43.457,43.457,38.574,43.945,54.688,0
1583425028.663,51.270,43.457,37.598,55.176,21.484,0
1583425028.666,41.992,39.062,41.016,43.945,17.578,0
1583425028.670,33.203,37.598,38.574,34.668,40.527,0
1583425028.674,48.340,41.504,31.738,51.270,9.277,0
1583425028.678,49.316,38.574,37.598,43.945,-33.691,0
1583425028.682,36.621,38.086,41.992,35.645,-25.879,0
1583425028.699,35.156,37.109,37.598,38.574,3.906,0
1583425028.703,37.109,35.156,35.645,34.668,77.637,0
1583425028.707,30.273,32.227,42.969,26.367,61.523,0
1583425028.711,24.414,30.762,39.062,15.625,44.922,0
1583425028.715,20.508,31.738,34.668,10.742,79.590,0
1583425028.719,11.719,34.668,32.227,13.184,-6.348,0
1583425028.723,10.742,34.668,33.203,20.996,19.531,0
1583425028.726,9.766,33.691,32.227,16.113,58.594,0
1583425028.730,12.207,33.691,30.762,15.137,41.016,0
1583425028.734,9.277,34.180,35.156,19.043,64.453,0
1583425028.738,8.789,37.109,33.691,20.020,36.621,0
1583425028.742,17.578,36.133,29.297,21.973,20.996,0
1583425028.739,11.230,32.715,29.785,8.301,31.250,0
1583425028.743,11.719,33.203,27.344,3.906,69.336,0
1583425028.747,19.531,31.738,23.926,18.066,80.078,0
1583425028.751,19.043,30.762,26.855,11.230,60.547,0
1583425028.755,14.648,35.645,22.949,4.883,58.594,0
1583425028.759,17.578,33.203,22.949,17.090,-7.812,0
1583425028.763,21.973,27.832,30.762,21.484,-26.367,0
1583425028.766,17.090,29.297,30.273,15.137,53.711,0
1583425028.770,23.438,27.832,31.250,22.949,77.637,0
1583425028.774,27.832,26.855,38.574,31.250,51.758,0
1583425028.778,20.508,28.809,37.109,20.020,43.457,0
1583425028.782,22.949,29.297,32.715,20.020,7.812,0
1583425028.780,19.043,29.297,34.180,32.715,-7.324,0
1583425028.784,21.973,30.273,30.273,28.809,14.648,0
1583425028.788,27.344,35.645,25.879,18.555,-7.812,0
1583425028.792,9.766,33.203,36.133,15.137,71.289,0
1583425028.796,4.883,23.926,40.527,18.555,79.102,0
1583425028.800,25.391,28.809,33.203,34.668,23.438,0
1583425028.804,28.809,33.203,33.203,41.992,-15.137,0
1583425028.807,20.996,34.180,40.039,32.715,16.602,0
1583425028.811,22.949,35.645,41.504,21.484,91.797,0
1583425028.815,24.902,35.645,38.574,20.508,72.266,0
1583425028.819,23.438,33.691,37.598,22.461,64.941,0
1583425028.823,25.391,39.551,34.180,16.602,44.922,0
1583425028.839,25.879,41.992,29.297,17.090,20.996,0
1583425028.843,20.020,33.691,29.785,17.578,39.062,0
1583425028.847,20.020,34.180,27.344,17.090,45.898,0
1583425028.851,29.785,34.180,28.809,27.832,50.293,0
1583425028.855,23.926,31.738,35.156,29.785,32.227,0
1583425028.859,18.555,36.133,31.738,22.461,-4.395,0
1583425028.863,18.066,34.180,40.039,13.672,89.355,0
1583425028.866,14.160,29.785,36.133,7.324,98.633,0
1583425028.870,19.531,36.133,30.273,19.531,16.602,0
1583425028.874,20.508,42.480,39.551,20.020,25.391,0
1583425028.878,17.578,42.969,40.039,20.996,16.602,0
1583425028.882,22.461,40.039,41.016,27.832,8.301,0
1583425028.880,29.785,40.527,37.598,28.320,71.777,0
1583425028.884,25.879,34.668,38.574,29.785,45.898,0
1583425028.888,25.879,34.180,40.039,33.691,48.340,0
1583425028.892,33.691,40.527,39.551,37.598,105.957,0
1583425028.896,40.039,42.480,41.016,37.598,24.902,0
1583425028.900,38.086,45.410,36.621,29.297,4.395,0
1583425028.904,30.762,40.039,34.668,28.809,6.348,0
1583425028.907,30.762,35.645,38.574,35.645,4.883,0
1583425028.911,32.227,39.062,38.574,22.461,12.695,0
1583425028.915,29.297,39.551,39.062,20.508,18.555,0
1583425028.919,30.273,41.992,36.621,26.855,37.109,0
1583425028.923,27.344,38.574,35.645,23.926,49.805,0
1583425028.919,26.367,32.227,36.133,20.508,10.254,0
1583425028.923,29.785,35.156,33.203,20.996,4.395,0
1583425028.927,31.250,33.691,32.227,26.367,62.988,0
1583425028.931,30.762,34.180,31.738,31.250,62.500,0
1583425028.935,30.273,36.621,30.762,34.668,8.789,0
1583425028.939,36.621,38.574,31.738,37.598,24.414,0
1583425028.943,30.273,37.598,39.551,32.715,65.430,0
1583425028.946,21.484,36.133,41.016,33.203,69.824,0
1583425028.950,32.715,40.527,34.180,34.668,55.176,0
1583425028.954,30.273,41.016,32.715,28.320,47.363,0
1583425028.958,32.227,38.086,33.691,21.484,33.691,0
1583425028.962,39.062,38.574,32.715,27.344,-30.762,0
1583425028.979,38.574,40.039,32.227,37.109,-83.984,0
1583425028.983,34.668,39.551,34.668,40.527,-24.414,0
1583425028.987,25.879,47.363,35.156,34.180,58.594,0
1583425028.991,34.180,43.945,38.086,34.180,48.340,0
1583425028.995,33.691,35.645,39.551,44.434,65.918,0
1583425028.999,26.367,36.621,40.527,44.434,46.875,0
1583425029.003,29.785,38.086,39.551,38.574,-0.977,0
1583425029.006,23.438,37.598,34.180,29.297,-5.371,0
1583425029.010,22.461,38.086,27.344,24.902,17.578,0
1583425029.014,25.391,40.039,28.320,30.273,31.250,0
1583425029.018,20.508,37.598,32.715,29.785,52.734,0
1583425029.022,20.508,37.109,34.668,26.855,42.480,0
1583425029.019,20.020,39.551,33.691,28.320,20.508,0
1583425029.023,19.531,39.062,34.180,25.391,21.484,0
1583425029.027,20.996,35.645,34.180,22.461,40.039,0
1583425029.031,20.508,37.109,32.715,20.020,56.641,0
1583425029.035,15.625,35.156,35.156,19.531,36.621,0
1583425029.039,18.066,34.668,33.203,25.391,8.789,0
1583425029.043,23.926,36.621,30.273,32.715,70.312,0
1583425029.046,26.367,33.691,34.180,38.574,76.660,0
1583425029.050,30.273,31.738,35.645,41.992,46.387,0
1583425029.054,30.273,30.762,31.738,46.875,55.664,0
1583425029.058,30.273,32.227,33.691,42.480,51.758,0
1583425029.062,32.715,33.691,32.715,30.762,27.832,0
1583425029.060,29.785,33.203,29.297,27.832,1.953,0
1583425029.064,25.391,30.273,35.645,30.762,6.836,0
1583425029.068,20.508,30.273,38.574,25.391,64.453,0
1583425029.072,19.043,33.203,36.133,18.555,59.082,0
1583425029.076,17.578,31.250,34.180,12.695,-2.930,0
1583425029.080,18.066,32.227,31.738,9.277,20.020,0
1583425029.084,19.531,35.645,33.691,14.648,13.184,0
1583425029.087,13.672,35.645,34.668,11.230,12.207,0
1583425029.091,7.324,37.109,33.691,7.324,30.762,0
1583425029.095,7.324,39.062,33.203,10.742,14.160,0
1583425029.099,9.277,38.574,30.762,17.578,59.082,0
1583425029.103,9.277,37.598,32.715,21.973,83.984,0
1583425029.120,14.160,37.598,29.785,19.531,53.223,0
1583425029.124,17.578,36.621,25.879,23.438,53.711,0
1583425029.128,18.066,35.645,28.320,28.320,56.152,0
1583425029.132,14.648,33.691,27.832,29.297,69.336,0
1583425029.136,12.695,32.227,26.855,30.273,35.645,0
1583425029.140,20.020,36.621,31.250,33.203,-0.977,0
1583425029.144,15.137,33.691,39.551,27.344,63.965,0
1583425029.147,14.648,32.227,43.457,20.020,83.984,0
1583425029.151,23.438,32.227,43.945,24.902,33.203,0
1583425029.155,22.949,30.273,41.504,23.438,4.883,0
1583425029.159,20.020,28.320,40.527,22.461,37.598,0
1583425029.163,22.461,31.738,43.457,28.320,38.574,0
1583425029.160,21.484,36.133,42.480,25.391,19.531,0
1583425029.164,21.973,36.621,37.598,15.625,16.602,0
1583425029.168,20.996,35.645,34.668,10.742,30.762,0
1583425029.172,20.508,37.109,32.227,6.836,101.562,0
1583425029.176,20.508,36.621,30.273,5.371,74.219,0
1583425029.180,16.602,33.203,31.738,2.441,53.711,0
1583425029.184,17.090,32.227,33.691,0.000,31.738,0
1583425029.187,10.254,28.320,34.180,4.883,76.660,0
1583425029.191,12.207,26.367,35.645,12.695,50.293,0
1583425029.195,19.043,30.273,36.133,12.207,34.668,0
1583425029.199,15.137,31.738,35.156,10.742,74.707,0
1583425029.203,18.555,32.227,36.133,16.602,22.461,0
1583425029.199,23.926,31.250,41.016,25.391,24.414,0
1583425029.203,27.344,28.320,43.457,34.668,4.395,0
1583425029.207,33.203,30.762,42.480,36.133,-25.391,0
1583425029.211,31.250,31.250,42.969,32.227,58.594,0
1583425029.215,29.297,29.785,39.551,36.133,40.039,0
1583425029.219,31.250,34.180,35.645,40.527,4.395,0
1583425029.223,34.668,35.645,33.203,33.203,0.000,0
1583425029.226,31.738,30.762,32.715,31.738,7.324,0
1583425029.230,33.691,29.785,34.180,40.039,57.129,0
1583425029.234,33.203,31.738,38.086,39.062,-9.766,0
1583425029.238,32.715,33.691,40.039,35.645,-42.480,0
1583425029.242,33.203,36.133,41.992,35.156,41.992,0
1583425029.259,22.949,41.992,36.621,22.949,45.898,0
1583425029.263,14.160,48.828,34.668,13.184,48.340,0
1583425029.267,18.555,49.805,40.039,19.043,25.879,0
1583425029.271,12.695,45.410,43.457,18.555,11.719,0
1583425029.275,-3.418,48.828,42.480,4.883,-3.418,0
1583425029.279,-11.719,53.711,38.574,-8.301,-4.883,0
1583425029.283,-19.531,54.199,42.969,-17.578,94.727,0
1583425029.286,-32.715,56.641,46.387,-31.250,72.754,0
1583425029.290,-50.781,57.617,50.293,-54.688,-5.371,0
1583425029.294,-65.430,58.594,52.734,-75.195,34.668,0
1583425029.298,-76.660,57.129,54.199,-77.148,74.219,0
1583425029.302,-91.797,52.734,61.035,-89.844,70.801,0
1583425029.299,-108.398,48.828,68.848,-107.422,43.457,0
1583425029.303,-124.512,50.293,76.172,-110.840,41.016,0
1583425029.307,-130.859,48.828,78.125,-121.094,31.250,0
1583425029.311,-126.953,49.316,76.660,-122.559,26.855,0
1583425029.315,-124.023,52.246,77.148,-115.723,61.523,0
1583425029.319,-119.141,56.152,75.195,-108.398,42.969,0
1583425029.323,-111.816,59.570,76.172,-104.492,-3.418,0
1583425029.326,-106.934,54.199,78.125,-104.492,-16.113,0
1583425029.330,-103.027,51.758,74.707,-102.051,3.906,0
1583425029.334,-96.680,52.246,72.754,-101.562,15.137,0
1583425029.338,-90.820,48.828,71.289,-99.609,6.348,0
1583425029.342,-83.984,49.316,72.266,-91.797,49.316,0
1583425029.339,-72.266,52.734,72.266,-81.543,83.008,0
1583425029.343,-66.406,53.223,68.848,-74.219,67.871,0
1583425029.347,-56.641,54.199,63.477,-64.453,86.914,0
1583425029.351,-45.410,56.641,57.617,-60.059,46.387,0
1583425029.355,-38.574,55.664,55.664,-49.805,23.438,0
1583425029.359,-37.598,56.152,54.199,-45.898,57.617,0
1583425029.363,-25.879,54.688,52.246,-37.598,57.129,0
1583425029.366,-8.789,51.270,51.758,-27.344,62.500,0
1583425029.370,-3.906,50.293,49.805,-20.996,27.344,0
1583425029.374,-0.488,46.387,45.898,-16.602,37.109,0
1583425029.378,10.742,40.527,44.922,-5.371,54.688,0
1583425029.382,21.973,36.133,43.945,12.207,35.156,0
1583425029.400,38.574,35.156,40.039,22.949,20.020,0
1583425029.404,49.316,33.691,37.598,35.156,20.508,0
1583425029.408,49.316,29.785,34.668,42.969,22.461,0
1583425029.412,56.641,26.855,32.715,51.758,20.996,0
1583425029.416,65.430,26.855,27.832,56.641,0.977,0
1583425029.420,66.406,25.879,24.902,58.594,53.223,0
1583425029.424,58.594,18.555,26.367,62.012,149.414,0
1583425029.427,52.734,14.160,24.414,57.617,105.957,0
1583425029.431,62.988,17.578,16.113,60.059,84.473,0
1583425029.435,71.777,19.043,10.254,67.383,31.250,0
1583425029.439,81.055,20.020,5.859,68.848,3.906,0
1583425029.443,84.961,23.438,3.906,76.660,-0.977,0
1583425029.440,78.613,20.508,5.859,81.543,-21.973,0
1583425029.444,90.332,19.531,4.395,90.820,19.043,0
1583425029.448,106.934,25.391,-0.488,100.586,16.602,0
1583425029.452,111.328,32.227,-0.977,103.516,17.578,0
1583425029.456,106.934,36.133,3.418,103.027,37.109,0
1583425029.460,106.445,37.598,5.371,95.703,62.988,0
1583425029.464,109.863,37.598,6.836,90.332,37.109,0
1583425029.467,115.723,33.203,9.277,92.773,-27.344,0
1583425029.471,114.258,29.785,11.719,92.285,55.664,0
1583425029.475,104.980,26.855,14.160,88.379,57.617,0
1583425029.479,99.609,23.438,15.625,88.867,0.488,0
1583425029.483,96.191,23.926,15.137,90.332,21.484,0
1583425029.480,94.727,23.438,15.137,94.727,6.348,0
1583425029.484,91.309,23.926,17.090,99.609,61.035,0
1583425029.488,83.008,23.438,19.531,93.262,65.430,0
1583425029.492,74.219,22.949,20.996,83.984,-10.254,0
1583425029.496,73.242,21.973,20.996,86.426,9.766,0
1583425029.500,71.777,21.973,21.973,87.891,63.965,0
1583425029.504,72.266,25.391,21.484,80.078,70.312,0
1583425029.507,80.566,27.832,19.043,81.543,63.477,0
1583425029.511,81.055,33.691,17.578,82.520,78.613,0
1583425029.515,81.055,34.180,19.043,83.008,59.082,0
1583425029.519,79.102,31.738,20.020,77.148,59.570,0
1583425029.523,75.195,33.203,20.508,71.289,102.539,0
1583425029.540,76.172,32.227,24.414,75.195,64.453,0
1583425029.544,60.547,28.809,25.391,57.129,17.578,0
1583425029.548,56.641,28.320,25.391,59.570,57.129,0
1583425029.552,70.801,29.297,26.367,73.242,76.172,0
1583425029.556,68.359,27.832,26.855,72.754,12.695,0
1583425029.560,66.895,29.297,27.344,74.707,-39.062,0
1583425029.564,73.242,30.273,29.785,67.383,-46.875,0
1583425029.567,70.312,28.320,34.180,73.730,-52.734,0
1583425029.571,55.176,30.273,37.598,74.219,6.348,0
1583425029.575,49.805,29.785,37.598,66.895,77.637,0
1583425029.579,55.176,25.391,37.598,60.547,49.805,0
1583425029.583,60.547,29.297,32.715,56.641,44.434,0
1583425029.580,64.941,33.691,29.297,66.406,58.105,0
1583425029.584,57.617,34.668,30.762,65.918,44.434,0
1583425029.588,62.988,34.668,30.273,56.641,49.316,0
1583425029.592,70.312,39.062,25.391,59.082,52.246,0
1583425029.596,58.105,43.945,23.926,60.059,51.758,0
1583425029.600,57.617,40.527,27.344,59.570,0.977,0
1583425029.604,67.871,41.992,29.785,65.918,4.883,0
1583425029.607,74.219,40.527,31.250,72.754,49.316,0
1583425029.611,74.707,40.039,27.344,66.895,21.973,0
1583425029.615,73.242,43.457,25.391,60.059,6.348,0
1583425029.619,65.430,40.527,27.832,64.941,59.082,0
1583425029.623,56.152,42.969,23.438,70.312,97.656,0
1583425029.639,56.641,44.922,22.949,54.199,28.320,0
1583425029.643,56.641,46.387,22.949,44.434,1.953,0
1583425029.647,48.340,42.969,24.902,49.805,25.879,0
1583425029.651,33.203,38.086,30.273,37.598,12.207,0
1583425029.655,25.879,33.691,32.227,36.133,5.859,0
1583425029.659,20.508,28.320,32.715,31.738,12.207,0
1583425029.663,11.230,25.391,30.273,17.578,-12.207,0
1583425029.666,13.184,21.973,33.691,35.645,-0.977,0
1583425029.670,18.066,21.484,37.598,44.434,-30.273,0
1583425029.674,23.438,22.949,35.156,39.062,12.207,0
1583425029.678,33.691,24.902,37.109,40.039,107.422,0
1583425029.682,37.109,32.227,36.133,44.434,110.840,0
1583425029.680,45.898,30.762,40.527,44.922,111.328,0
1583425029.684,66.895,33.203,40.039,52.734,72.754,0
1583425029.688,88.379,40.527,32.227,68.359,47.363,0
1583425029.692,102.051,36.621,35.645,66.406,3.906,0
1583425029.696,92.285,37.598,38.086,62.500,-32.227,0
1583425029.700,69.336,39.062,36.621,49.805,13.672,0
1583425029.704,80.566,37.109,34.180,42.969,21.973,0
1583425029.707,76.172,36.621,31.250,41.504,37.598,0
1583425029.711,62.012,33.203,32.715,41.992,37.598,0
1583425029.715,70.801,33.691,33.203,32.227,40.527,0
1583425029.719,62.500,37.109,22.461,34.180,58.105,0
1583425029.723,64.453,38.086,20.020,50.781,37.598,0
1583425029.719,64.941,34.668,35.645,48.828,66.406,0
1583425029.723,58.105,28.320,44.922,42.969,61.035,0
1583425029.727,68.359,34.180,31.738,60.547,33.203,0
1583425029.731,57.129,34.668,35.156,52.734,63.477,0
1583425029.735,40.527,28.320,38.086,43.457,23.926,0
1583425029.739,34.180,33.203,26.367,41.016,6.836,0
1583425029.743,27.344,29.297,36.133,28.809,33.691,0
1583425029.746,14.160,20.996,50.293,25.879,-57.129,0
1583425029.750,24.902,28.809,34.180,40.527,-81.055,0
1583425029.754,26.367,39.062,20.020,28.320,7.812,0
1583425029.758,2.930,35.156,27.344,11.230,37.598,0
1583425029.762,6.836,28.809,28.320,34.668,-8.301,0
1583425029.780,10.254,27.832,32.715,49.316,-9.277,0
1583425029.784,14.648,26.855,41.992,20.508,67.383,0
1583425029.788,4.395,33.203,35.156,21.484,75.684,0
1583425029.792,-3.906,32.227,36.133,27.344,52.246,0
1583425029.796,16.113,28.809,38.086,36.133,36.133,0
1583425029.800,16.602,30.762,30.273,38.086,-19.531,0
1583425029.804,9.766,26.855,32.227,16.602,-8.301,0
1583425029.807,8.301,26.855,32.227,18.066,14.160,0
1583425029.811,7.812,26.855,30.273,26.367,18.066,0
1583425029.815,13.184,26.855,30.762,28.320,-6.348,0
1583425029.819,8.789,19.043,53.711,20.996,-73.730,0
1583425029.823,2.930,20.020,53.711,22.461,39.551,0
1583425029.819,4.883,30.762,38.086,41.992,135.254,0
1583425029.823,-4.883,26.855,39.062,19.531,18.555,0
1583425029.827,-14.648,29.297,36.621,12.695,-0.977,0
1583425029.831,-5.371,37.598,25.391,40.527,48.340,0
1583425029.835,2.930,37.109,24.414,33.691,1.465,0
1583425029.839,2.441,36.133,28.320,1.953,15.137,0
1583425029.843,-14.160,40.527,22.949,9.766,27.832,0
1583425029.846,-13.672,37.109,32.715,37.109,9.277,0
1583425029.850,2.930,38.086,27.832,41.992,16.113,0
1583425029.854,-26.367,39.062,34.180,20.508,27.344,0
1583425029.858,-21.484,32.227,48.828,7.812,57.617,0
1583425029.862,0.000,34.668,32.227,21.973,42.480,0
1583425029.859,-16.113,37.109,37.109,24.902,27.344,0
1583425029.863,-25.879,40.039,30.762,-3.418,37.598,0
1583425029.867,-4.883,46.387,3.418,11.719,13.184,0
1583425029.871,-1.465,48.340,20.020,28.809,-11.230,0
1583425029.875,-9.277,49.805,36.133,16.113,68.359,0
1583425029.879,-5.859,46.875,36.621,24.414,43.457,0
1583425029.883,-7.324,45.898,36.133,27.344,-13.184,0
1583425029.886,16.113,40.527,27.832,42.969,-15.625,0
1583425029.890,10.254,34.180,29.297,22.461,20.508,0
1583425029.894,-7.812,39.551,33.203,10.742,73.730,0
1583425029.898,4.883,39.062,44.434,36.133,76.660,0
1583425029.902,8.301,37.109,51.758,41.992,41.504,0
1583425029.919,4.395,39.062,39.062,36.133,34.180,0
1583425029.923,9.277,36.621,28.809,26.855,87.891,0
1583425029.927,11.230,39.551,27.832,24.414,91.309,0
1583425029.931,3.906,38.574,35.156,18.066,73.242,0
1583425029.935,6.348,35.645,32.227,22.461,82.520,0
1583425029.939,13.184,41.992,37.598,36.621,62.012,0
1583425029.943,20.996,32.715,37.598,37.109,62.988,0
1583425029.946,14.648,28.809,31.738,31.250,46.387,0
1583425029.950,12.695,36.133,31.250,20.508,-18.066,0
1583425029.954,16.602,36.133,38.574,28.320,19.043,0
1583425029.958,18.555,37.109,41.992,24.902,42.969,0
1583425029.962,29.297,42.480,31.738,18.555,-21.973,0
1583425029.960,35.156,45.898,20.996,27.344,-10.254,0
1583425029.964,29.297,38.574,26.855,30.762,46.387,0
1583425029.968,16.602,33.203,37.109,25.391,-8.301,0
1583425029.972,19.531,39.551,30.762,25.391,-32.227,0
1583425029.976,22.949,45.898,26.367,20.508,-8.789,0
1583425029.980,24.902,42.480,30.273,13.184,13.672,0
1583425029.984,33.203,40.039,38.574,29.785,38.086,0
1583425029.987,38.086,43.945,29.297,30.273,-3.906,0
1583425029.991,22.461,37.109,38.086,5.859,5.371,0
1583425029.995,13.672,35.156,55.664,14.160,21.484,0
1583425029.999,44.922,42.480,25.391,39.551,-7.324,0
1583425030.003,38.574,41.992,24.902,27.832,4.395,0
1583425030.000,19.043,41.992,33.203,24.902,41.992,0
1583425030.004,32.227,38.086,31.250,35.156,90.332,0
1583425030.008,27.832,40.527,40.039,41.504,88.867,0
1583425030.012,21.484,43.945,38.086,28.809,62.012,0
1583425030.016,7.812,46.387,35.645,9.277,34.180,0
1583425030.020,-11.230,43.945,38.086,1.465,4.395,0
1583425030.024,15.137,39.551,36.621,15.625,17.578,0
1583425030.027,30.762,41.504,42.969,24.902,37.109,0
1583425030.031,29.785,42.969,33.203,21.484,-0.488,0
1583425030.035,24.414,39.551,28.320,17.578,13.672,0
1583425030.039,14.648,38.086,38.574,24.902,51.270,0
1583425030.043,17.090,41.016,32.715,16.113,45.410,0
1583425030.059,14.160,32.227,48.340,8.301,-20.020,0
1583425030.063,12.695,34.180,40.527,20.996,-9.277,0
1583425030.067,20.508,37.109,24.414,25.879,43.457,0
1583425030.071,25.391,32.715,32.227,30.762,37.598,0
1583425030.075,21.484,36.621,33.203,20.996,33.203,0
1583425030.079,18.066,41.016,20.020,14.648,33.203,0
1583425030.083,37.109,34.180,21.484,28.320,27.344,0
1583425030.086,36.621,36.621,36.133,16.113,35.645,0
1583425030.090,26.367,35.645,41.016,10.742,47.852,0
1583425030.094,20.996,31.250,35.156,26.855,29.297,0
1583425030.098,31.738,31.250,39.551,25.391,47.363,0
1583425030.102,39.551,33.203,32.715,17.578,21.973,0
1583425030.099,34.668,39.062,19.531,25.879,61.523,0
1583425030.103,25.391,29.785,34.668,25.391,102.051,0
1583425030.107,28.809,37.109,30.273,30.762,76.172,0
1583425030.111,20.996,38.574,39.062,12.207,103.516,0
1583425030.115,36.133,31.250,38.574,13.672,75.684,0
1583425030.119,56.152,41.504,21.484,37.109,15.137,0
1583425030.123,40.039,32.715,35.645,37.109,-6.348,0
1583425030.126,26.367,34.668,51.270,37.598,23.438,0
1583425030.130,11.230,41.992,40.527,10.254,53.223,0
1583425030.134,19.043,26.367,29.785,22.949,74.707,0
1583425030.138,41.504,31.738,35.156,45.410,104.980,0
1583425030.142,34.180,38.086,34.180,17.578,85.449,0
1583425030.139,26.855,29.785,24.902,18.555,48.828,0
1583425030.143,12.695,34.180,37.598,23.926,45.410,0
1583425030.147,31.250,36.621,40.039,30.273,39.551,0
1583425030.151,33.691,25.879,54.199,6.836,26.367,0
1583425030.155,16.113,27.344,51.270,4.883,33.203,0
1583425030.159,29.297,35.645,14.648,32.227,43.457,0
1583425030.163,12.695,23.926,44.434,21.484,30.273,0
1583425030.166,16.602,24.414,49.805,19.531,-7.812,0
1583425030.170,44.922,33.203,21.973,22.461,-17.090,0
1583425030.174,50.781,43.945,20.020,48.340,46.387,0
1583425030.178,5.371,40.039,49.316,26.367,56.152,0
1583425030.182,12.695,35.645,41.016,13.184,71.289,0
1583425030.200,46.875,46.387,25.391,41.992,81.543,0
1583425030.204,47.852,38.574,26.855,45.898,62.012,0
1583425030.208,36.133,36.621,25.391,19.043,49.316,0
1583425030.212,33.691,53.223,8.789,23.438,45.410,0
1583425030.216,47.852,45.898,28.320,37.109,0.000,0
1583425030.220,57.617,34.180,40.527,38.574,28.809,0
1583425030.224,29.785,32.715,48.340,22.461,72.754,0
1583425030.227,28.320,35.645,45.410,6.836,61.035,0
1583425030.231,48.340,35.645,39.551,19.531,50.781,0
1583425030.235,40.527,34.180,32.227,36.621,98.633,0
1583425030.239,17.578,31.738,37.598,17.090,73.242,0
1583425030.243,9.277,41.504,25.391,9.277,27.344,0
1583425030.240,25.879,39.551,26.367,42.480,53.223,0
1583425030.244,22.461,28.320,47.852,20.508,-29.785,0
1583425030.248,37.598,43.945,6.836,24.902,-55.664,0
1583425030.252,42.969,45.898,8.789,43.945,2.441,0
1583425030.256,32.715,41.992,25.391,36.133,1.953,0
1583425030.260,25.391,38.086,24.414,0.000,47.363,0
1583425030.264,8.301,41.016,13.672,-0.488,114.746,0
1583425030.267,-2.441,49.805,10.742,12.207,67.871,0
1583425030.271,10.254,40.527,30.273,-14.160,22.461,0
1583425030.275,27.344,40.039,41.504,-2.441,15.625,0
1583425030.279,11.230,45.410,32.227,0.488,19.531,0
1583425030.283,10.254,44.434,25.879,22.949,23.438,0
1583425030.279,22.461,36.133,32.227,39.062,59.082,0
1583425030.283,16.113,38.086,17.578,30.273,0.977,0
1583425030.287,-10.742,30.762,35.645,-14.160,-38.086,0
1583425030.291,5.859,27.344,48.828,-32.227,33.203,0
1583425030.295,41.992,43.457,13.672,21.973,47.852,0
1583425030.299,15.137,42.969,23.438,40.527,44.434,0
1583425030.303,0.488,36.133,36.621,13.184,21.484,0
1583425030.306,36.133,41.504,29.297,22.949,-22.461,0
1583425030.310,52.734,52.246,20.020,42.480,-33.691,0
1583425030.314,20.996,48.828,28.320,12.207,-19.043,0
1583425030.318,19.043,50.293,22.461,2.441,-2.441,0
1583425030.322,57.129,56.152,13.672,25.879,37.109,0
1583425030.340,61.035,51.758,22.949,30.273,49.805,0
1583425030.344,28.320,46.875,23.926,33.203,46.387,0
1583425030.348,16.113,46.875,19.531,31.250,46.387,0
1583425030.352,7.812,38.086,45.898,-6.836,24.902,0
1583425030.356,9.277,38.086,42.480,-8.301,55.664,0
1583425030.360,22.461,48.828,9.766,48.340,55.664,0
1583425030.364,7.324,41.016,30.762,28.320,33.691,0
1583425030.367,2.441,41.016,35.645,20.508,45.898,0
1583425030.371,1.953,36.133,35.156,29.785,34.180,0
1583425030.375,0.488,28.320,42.480,10.254,46.875,0
1583425030.379,-12.207,30.273,53.223,11.230,47.852,0
1583425030.383,-35.645,29.297,51.270,-6.348,17.578,0
1583425030.380,-9.766,35.156,21.484,-12.207,19.043,0
1583425030.384,18.555,40.039,24.414,-7.324,51.758,0
1583425030.388,7.324,32.715,44.922,-37.598,58.594,0
1583425030.392,10.254,33.691,27.832,-21.973,21.973,0
1583425030.396,-7.324,36.133,39.551,-6.836,72.754,0
1583425030.400,-25.391,39.062,38.086,-0.488,131.836,0
1583425030.404,-22.461,35.156,37.598,-6.348,79.590,0
1583425030.407,-7.812,32.227,42.480,-55.664,16.602,0
1583425030.411,9.277,41.016,23.438,-37.598,-20.996,0
1583425030.415,19.043,45.410,14.648,-3.418,52.734,0
1583425030.419,-22.461,32.715,36.621,-13.184,82.031,0
1583425030.423,5.859,35.645,20.508,-23.438,31.250,0
1583425030.420,47.852,50.293,11.719,-35.156,41.504,0
1583425030.424,23.438,44.434,27.832,3.418,4.395,0
1583425030.428,44.922,38.086,18.066,38.574,-8.301,0
1583425030.432,42.480,29.297,29.785,48.340,9.766,0
1583425030.436,37.598,30.273,31.250,47.852,0.977,0
1583425030.440,41.992,33.203,30.762,16.602,-6.836,0
1583425030.444,65.918,32.715,27.344,23.438,31.738,0
1583425030.447,85.938,37.109,16.602,63.965,24.902,0
1583425030.451,37.598,41.992,27.832,9.766,2.441,0
1583425030.455,53.711,44.922,26.367,-6.836,35.645,0
1583425030.459,84.473,34.668,27.344,56.152,46.875,0
1583425030.463,23.926,35.645,31.250,49.316,35.156,0
1583425030.479,7.324,36.621,33.203,30.762,47.852,0
1583425030.483,36.621,31.250,37.598,9.277,41.992,0
1583425030.487,2.441,38.086,30.273,7.324,8.789,0
1583425030.491,2.441,41.016,24.414,8.789,27.344,0
1583425030.495,54.688,27.832,37.109,4.883,5.371,0
1583425030.499,21.484,39.551,32.715,9.766,-36.133,0
1583425030.503,-41.992,52.246,25.879,28.809,19.531,0
1583425030.506,-42.969,32.227,41.016,7.324,41.504,0
1583425030.510,-2.441,32.715,44.434,-13.672,41.992,0
1583425030.514,13.672,41.504,30.273,13.672,79.102,0
1583425030.518,-15.625,37.598,28.809,12.207,52.246,0
1583425030.522,-11.230,35.645,31.738,15.625,50.781,0
1583425030.519,12.695,34.180,26.855,39.551,68.359,0
1583425030.523,20.508,38.574,25.879,35.645,36.621,0
1583425030.527,14.648,36.621,36.133,16.602,15.137,0
1583425030.531,10.742,28.320,44.434,30.273,-9.766,0
1583425030.535,40.527,37.598,40.039,42.969,62.012,0
1583425030.539,26.855,40.527,38.086,23.926,93.262,0
1583425030.543,27.832,32.715,37.598,26.367,76.660,0
1583425030.546,42.969,33.203,34.180,39.551,40.527,0
1583425030.550,13.672,30.762,33.203,30.762,17.578,0
1583425030.554,-1.953,31.250,32.715,40.039,50.781,0
1583425030.558,8.301,27.832,37.598,27.344,61.523,0
1583425030.562,10.254,32.227,37.598,11.719,77.148,0
1583425030.559,34.668,38.086,33.691,36.133,16.113,0
1583425030.563,49.805,39.551,28.809,58.105,-30.762,0
1583425030.567,41.992,41.992,30.273,47.852,19.531,0
1583425030.571,30.762,37.109,35.645,43.457,58.594,0
1583425030.575,35.156,38.086,29.785,58.594,50.781,0
1583425030.579,33.203,41.992,29.297,33.203,59.570,0
1583425030.583,23.438,36.133,40.039,15.137,40.039,0
1583425030.586,44.922,35.645,32.227,43.945,22.949,0
1583425030.590,51.758,41.504,26.855,49.316,-0.488,0
1583425030.594,45.898,42.480,34.180,39.551,10.742,0
1583425030.598,45.410,44.434,29.785,39.062,62.988,0
1583425030.602,26.367,43.457,25.391,27.832,32.715,0
1583425030.619,20.996,43.457,23.438,7.324,20.508,0
1583425030.623,13.184,39.551,31.250,13.184,-17.578,0
1583425030.627,29.785,39.551,41.504,41.016,-13.184,0
1583425030.631,46.875,44.434,37.598,46.387,13.672,0
1583425030.635,23.438,41.992,37.109,24.414,-17.578,0
1583425030.639,-1.465,34.180,49.316,12.695,11.230,0
1583425030.643,-0.488,30.273,54.199,23.438,2.441,0
1583425030.646,4.883,35.156,48.340,7.812,-25.879,0
1583425030.650,21.484,38.086,43.945,22.949,43.457,0
1583425030.654,18.066,34.668,49.805,42.969,83.008,0
1583425030.658,-10.254,38.086,45.410,26.367,45.898,0
1583425030.662,-8.789,37.109,41.504,28.320,17.578,0
1583425030.660,-6.836,31.738,50.293,55.664,-2.441,0
1583425030.664,0.488,34.180,47.852,54.688,2.930,0
1583425030.668,-4.883,35.645,39.062,48.828,14.648,0
1583425030.672,-20.020,34.668,38.574,48.340,33.691,0
1583425030.676,17.578,35.645,35.645,53.223,31.738,0
1583425030.680,21.484,40.527,34.180,61.035,-1.465,0
1583425030.684,3.418,39.551,42.969,44.434,36.621,0
1583425030.687,3.906,32.227,45.410,35.645,112.305,0
1583425030.691,12.695,33.203,41.016,45.898,94.238,0
1583425030.695,4.883,35.645,39.551,34.668,62.012,0
1583425030.699,-5.859,32.227,42.480,22.461,32.715,0
1583425030.703,-0.488,31.250,43.457,21.484,30.273,0
1583425030.700,-20.020,31.738,40.039,24.902,73.242,0
1583425030.704,-37.598,29.785,44.922,17.090,24.414,0
1583425030.708,-14.160,30.273,47.363,15.625,16.602,0
1583425030.712,-5.859,27.832,45.410,30.273,90.820,0
1583425030.716,-12.207,25.879,50.781,24.414,58.105,0
1583425030.720,-2.441,32.715,43.945,11.719,-11.719,0
1583425030.724,-3.418,35.645,38.574,6.836,42.480,0
1583425030.727,-25.391,30.273,41.504,10.254,48.340,0
1583425030.731,-7.324,29.785,39.551,4.395,40.039,0
1583425030.735,19.043,33.691,41.992,6.836,63.477,0
1583425030.739,6.836,38.086,40.039,6.348,7.812,0
1583425030.743,11.230,40.039,33.691,10.254,4.395,0
1583425030.759,7.324,31.738,43.457,35.645,59.570,0
1583425030.763,17.090,34.668,41.504,14.648,37.109,0
1583425030.767,9.766,32.227,42.969,-4.395,-3.906,0
1583425030.771,16.113,34.668,36.133,4.883,2.930,0
1583425030.775,22.461,37.109,32.227,11.719,18.555,0
1583425030.779,17.578,33.203,34.668,29.297,42.969,0
1583425030.783,36.133,42.969,25.879,17.578,17.578,0
1583425030.786,25.391,42.969,26.855,3.418,38.574,0
1583425030.790,13.184,33.203,31.250,9.766,62.012,0
1583425030.794,18.555,28.809,30.762,18.066,83.008,0
1583425030.798,23.438,33.203,29.785,26.367,50.781,0
1583425030.802,25.879,33.691,33.203,32.227,45.410,0
1583425030.799,22.949,35.645,33.691,31.738,87.891,0
1583425030.803,37.598,35.156,36.621,29.297,36.133,0
1583425030.807,53.711,39.062,37.109,27.832,55.176,0
1583425030.811,37.109,40.527,37.598,39.062,63.477,0
1583425030.815,31.738,34.668,40.527,37.598,-15.625,0
1583425030.819,37.109,39.551,34.180,25.879,6.836,0
1583425030.823,20.996,39.551,34.668,24.902,78.613,0
1583425030.826,11.230,30.762,40.039,31.250,72.754,0
1583425030.830,36.621,34.180,36.621,25.391,50.781,0
1583425030.834,57.617,39.551,31.738,9.277,50.293,0
1583425030.838,18.066,32.715,40.527,13.672,72.266,0
1583425030.842,-7.324,29.297,38.086,33.691,25.879,0
1583425030.839,38.086,30.762,28.809,17.578,20.020,0
1583425030.843,45.898,37.109,28.809,-6.348,23.926,0
1583425030.847,5.371,39.062,27.832,17.090,4.883,0
1583425030.851,24.414,30.762,36.133,24.902,33.203,0
1583425030.855,66.895,33.203,30.273,-8.789,50.781,0
1583425030.859,48.828,32.715,28.320,0.000,79.590,0
1583425030.863,36.133,28.809,33.203,34.180,80.566,0
1583425030.866,56.641,41.504,23.438,19.531,13.672,0
1583425030.870,47.363,37.109,26.367,15.625,-20.020,0
1583425030.874,46.875,30.273,28.320,24.414,5.859,0
1583425030.878,61.523,43.457,18.066,4.395,31.738,0
1583425030.882,34.180,41.504,20.996,11.230,43.945,0
1583425030.900,34.668,34.180,25.879,42.969,6.836,0
1583425030.904,54.199,32.715,27.832,30.273,31.250,0
1583425030.908,40.527,42.480,24.902,2.930,16.602,0
1583425030.912,4.883,47.363,25.879,20.996,9.766,0
1583425030.916,35.645,34.668,30.273,22.461,3.418,0
1583425030.920,70.801,34.180,29.785,15.137,-38.574,0
1583425030.924,47.852,36.621,34.180,39.551,67.871,0
1583425030.927,41.504,31.250,42.969,48.340,89.844,0
1583425030.931,43.457,36.621,37.598,24.902,-7.812,0
1583425030.935,40.527,38.086,34.180,28.809,-18.555,0
1583425030.939,26.367,36.133,37.598,53.223,10.742,0
1583425030.943,29.297,31.250,37.109,52.734,62.988,0
1583425030.940,27.832,39.062,30.762,27.832,79.102,0
1583425030.944,32.715,47.852,32.227,22.461,36.133,0
1583425030.948,35.645,34.180,39.062,27.832,23.926,0
1583425030.952,12.207,37.109,29.785,18.555,86.914,0
1583425030.956,36.621,42.480,26.855,15.625,108.887,0
1583425030.960,39.062,41.992,31.738,24.414,4.883,0
1583425030.964,18.555,44.922,26.367,16.113,-23.926,0
1583425030.967,20.508,41.016,26.855,20.996,-7.324,0
1583425030.971,9.766,41.992,30.762,23.438,32.715,0
1583425030.975,16.602,43.457,28.320,24.902,74.707,0
1583425030.979,35.156,40.527,25.879,35.156,57.617,0
1583425030.983,33.691,42.969,23.438,20.508,41.992,0
1583425030.980,20.996,43.457,21.484,7.324,25.879,0
1583425030.984,27.832,42.969,20.996,17.578,46.875,0
1583425030.988,29.297,41.992,24.902,27.832,23.438,0
1583425030.992,41.504,44.922,21.484,18.555,-8.301,0
1583425030.996,40.039,40.039,24.414,20.996,38.574,0
1583425031.000,26.367,37.598,26.855,7.812,72.266,0
1583425031.004,32.227,40.527,25.391,5.859,70.312,0
1583425031.007,14.160,41.016,33.203,19.531,33.203,0
1583425031.011,19.531,40.527,31.250,17.578,28.809,0
1583425031.015,32.715,33.203,29.785,21.484,45.410,0
1583425031.019,20.996,35.156,30.762,40.527,20.020,0
1583425031.023,41.504,38.574,25.391,50.293,7.324,0
1583425031.039,39.551,38.086,23.438,35.156,74.219,0
1583425031.043,19.043,38.086,27.832,36.621,59.570,0
1583425031.047,34.668,39.062,26.367,31.738,59.570,0
1583425031.051,36.133,41.016,28.320,16.602,75.195,0
1583425031.055,31.250,41.504,29.785,30.273,53.223,0
1583425031.059,36.133,43.457,27.832,48.340,54.199,0
1583425031.063,30.273,43.457,33.691,50.293,42.480,0
1583425031.066,21.484,39.551,33.691,39.551,41.992,0
1583425031.070,27.832,41.992,27.344,21.484,58.105,0
1583425031.074,32.715,42.480,30.273,23.926,26.367,0
1583425031.078,35.156,41.992,30.762,42.480,25.879,0
1583425031.082,33.691,42.969,29.785,39.551,36.133,0
1583425031.079,25.879,37.109,36.133,32.715,34.180,0
1583425031.083,27.832,37.109,39.551,26.367,73.730,0
1583425031.087,25.879,38.574,36.133,29.297,75.684,0
1583425031.091,24.902,37.109,34.668,33.203,49.805,0
1583425031.095,23.926,38.086,34.180,28.320,70.801,0
1583425031.099,32.227,38.574,27.344,27.832,40.527,0
1583425031.103,27.832,34.668,26.855,34.668,27.832,0
1583425031.106,26.855,37.109,27.344,30.762,77.148,0
1583425031.110,21.484,41.016,23.926,20.996,46.875,0
1583425031.114,15.137,42.480,21.973,23.438,27.344,0
1583425031.118,23.926,41.992,23.926,26.367,20.508,0
1583425031.122,19.531,36.621,27.344,30.762,-4.395,0
1583425031.139,20.020,34.180,28.809,30.273,13.672,0
1583425031.143,25.391,34.668,30.273,37.109,26.855,0
1583425031.147,28.809,35.645,32.715,47.852,-3.418,0
1583425031.151,27.344,36.621,33.203,40.039,37.109,0
1583425031.155,24.902,40.039,30.762,31.738,40.039,0
1583425031.159,21.973,41.504,32.715,30.273,15.625,0
1583425031.163,17.578,40.527,35.156,32.227,29.785,0
1583425031.166,20.996,38.086,33.203,29.785,-5.371,0
1583425031.170,23.926,37.598,35.645,30.273,-5.371,0
1583425031.174,20.996,39.551,35.645,37.109,33.203,0
1583425031.178,20.020,41.016,33.203,31.250,52.734,0
1583425031.182,22.461,38.574,36.133,23.926,79.590,0
1583425031.180,22.461,36.621,34.668,33.203,102.051,0
1583425031.184,21.973,38.086,36.133,42.969,65.918,0
1583425031.188,23.926,40.527,38.086,39.062,1.953,0
1583425031.192,28.320,39.551,34.668,29.785,42.480,0
1583425031.196,25.391,35.156,34.668,32.715,90.820,0
1583425031.200,19.531,36.133,33.203,30.273,22.949,0
1583425031.204,20.508,38.086,26.855,13.672,-17.090,0
1583425031.207,22.949,35.645,27.832,22.461,-33.691,0
1583425031.211,18.555,32.715,39.551,31.738,-25.879,0
1583425031.215,8.789,30.762,45.410,28.809,15.137,0
1583425031.219,6.836,29.785,45.410,20.508,1.953,0
1583425031.223,5.859,29.297,47.852,20.508,27.344,0
1583425031.219,2.930,29.297,52.734,32.715,71.777,0
1583425031.223,2.930,27.832,56.641,22.949,36.133,0
1583425031.227,-0.488,23.926,51.758,14.160,30.762,0
1583425031.231,-5.859,22.949,48.340,22.949,61.035,0
1583425031.235,-7.812,21.484,55.176,25.879,52.246,0
1583425031.239,-12.207,20.020,57.617,16.113,20.020,0
1583425031.243,-12.695,22.461,53.711,12.207,53.223,0
1583425031.246,-5.371,21.484,53.223,16.602,67.383,0
1583425031.250,0.488,21.973,49.316,9.277,97.168,0
1583425031.254,1.953,24.414,49.316,7.812,74.219,0
1583425031.258,5.859,24.902,52.734,13.184,20.508,0
1583425031.262,18.066,24.902,45.410,12.207,52.246,0
1583425031.279,22.949,25.391,45.410,16.113,-14.160,0
1583425031.283,24.414,28.320,50.293,27.344,-23.438,0
1583425031.287,22.949,29.785,51.758,25.879,20.996,0
1583425031.291,22.461,29.785,48.340,23.926,3.906,0
1583425031.295,21.484,25.391,45.898,27.832,-5.859,0
1583425031.299,11.719,23.926,47.852,23.438,25.879,0
1583425031.303,9.766,25.391,47.363,23.438,94.727,0
1583425031.306,18.066,30.273,46.387,24.414,121.094,0
1583425031.310,15.137,33.203,50.781,20.508,65.430,0
1583425031.314,7.812,30.762,49.316,23.438,34.668,0
1583425031.318,6.836,29.297,46.875,23.926,58.594,0
1583425031.322,10.254,31.250,47.852,19.531,101.074,0
1583425031.319,16.602,32.715,46.875,22.461,80.078,0
1583425031.323,15.625,29.785,45.898,25.879,-7.324,0
1583425031.327,10.254,27.344,44.922,26.855,-15.625,0
1583425031.331,19.531,26.855,41.992,27.344,36.133,0
1583425031.335,24.414,29.297,42.969,24.414,63.965,0
1583425031.339,22.949,31.250,38.574,22.949,42.480,0
1583425031.343,23.438,32.227,41.016,20.020,-18.066,0
1583425031.346,25.391,36.621,44.922,20.020,-13.184,0
1583425031.350,40.039,40.527,37.598,29.297,15.625,0
1583425031.354,49.805,41.992,35.645,33.203,30.273,0
1583425031.358,38.574,43.945,37.598,23.438,58.105,0
1583425031.362,31.250,41.992,39.062,23.926,47.852,0
1583425031.359,37.598,42.480,35.645,27.832,12.695,0
1583425031.363,31.250,40.527,36.133,23.926,-2.930,0
1583425031.367,28.809,35.156,37.109,25.879,-11.230,0
1583425031.371,21.973,37.598,36.133,21.484,-18.555,0
1583425031.375,18.066,38.086,39.062,20.996,2.441,0
1583425031.379,20.508,36.133,38.086,26.855,-17.578,0
1583425031.383,15.137,34.668,37.598,29.297,-38.086,0
1583425031.386,10.254,34.180,36.621,25.879,-6.348,0
1583425031.390,16.602,34.668,36.621,21.973,14.160,0
1583425031.394,16.113,34.668,36.621,23.438,36.133,0
1583425031.398,12.207,35.156,35.645,22.461,69.336,0
1583425031.402,19.531,33.691,33.691,25.879,64.941,0
1583425031.419,27.832,36.133,32.227,31.738,37.109,0
1583425031.423,29.297,41.016,28.809,30.273,9.277,0
1583425031.427,30.762,38.574,28.809,27.832,44.434,0
1583425031.431,29.785,39.062,32.227,27.344,63.477,0
1583425031.435,26.367,37.598,31.738,29.785,20.508,0
1583425031.439,30.273,34.668,30.273,23.926,54.688,0
1583425031.443,32.715,38.086,30.762,16.113,54.688,0
1583425031.446,31.250,40.527,30.762,18.555,25.391,0
1583425031.450,32.227,38.574,33.203,23.438,47.852,0
1583425031.454,27.832,36.621,34.180,17.090,89.844,0
1583425031.458,30.762,35.156,29.785,17.090,41.504,0
1583425031.462,39.551,33.691,28.320,22.949,-3.418,0
1583425031.459,33.691,32.715,28.809,22.949,-9.766,0
1583425031.463,28.809,32.715,32.227,16.602,4.395,0
1583425031.467,31.250,33.203,35.156,16.113,23.438,0
1583425031.471,25.391,32.227,33.691,17.090,-13.672,0
1583425031.475,15.625,31.250,38.086,23.438,24.414,0
1583425031.479,18.066,32.227,36.621,35.156,16.113,0
1583425031.483,14.160,33.691,29.297,29.785,-9.766,0
1583425031.486,6.836,35.156,28.320,24.902,-14.648,0
1583425031.490,9.277,34.180,32.227,39.551,-18.066,0
1583425031.494,6.836,34.668,29.785,36.133,46.387,0
1583425031.498,9.766,38.574,29.785,20.508,52.734,0
1583425031.502,17.090,37.109,32.227,21.973,60.547,0
1583425031.499,11.719,32.227,28.809,26.367,56.152,0
1583425031.503,13.184,32.715,29.785,23.926,63.477,0
1583425031.507,27.344,36.621,30.273,22.949,46.387,0
1583425031.511,27.344,37.109,33.203,25.391,15.137,0
1583425031.515,24.414,35.645,37.109,34.180,62.500,0
1583425031.519,22.949,36.621,37.598,31.738,100.586,0
1583425031.523,20.020,38.574,36.133,17.090,79.590,0
1583425031.526,21.484,38.574,27.344,22.461,21.484,0
1583425031.530,30.273,38.086,18.555,35.156,75.684,0
1583425031.534,32.227,40.527,17.578,31.738,76.172,0
1583425031.538,25.879,41.016,21.973,26.367,-54.688,0
1583425031.542,27.344,43.457,20.508,20.020,-37.598,0
1583425031.559,25.879,44.434,16.602,19.043,47.852,0
1583425031.563,25.879,45.898,16.113,20.996,15.137,0
1583425031.567,25.879,44.922,20.020,17.090,7.324,0
1583425031.571,25.391,41.992,24.414,21.484,67.383,0
1583425031.575,25.391,40.039,27.344,30.762,49.805,0
1583425031.579,23.926,37.109,26.855,31.250,59.570,0
1583425031.583,20.020,35.156,23.438,22.461,26.367,0
1583425031.586,24.414,39.551,21.973,30.273,-13.184,0
1583425031.590,23.438,36.621,25.391,27.344,28.809,0
1583425031.594,15.625,34.180,28.320,21.484,86.914,0
1583425031.598,16.602,39.551,23.438,21.973,69.824,0
1583425031.602,17.090,40.527,22.949,20.020,65.918,0
1583425031.599,17.578,37.598,26.367,20.996,73.242,0
1583425031.603,20.508,36.621,24.414,21.484,-14.160,0
1583425031.607,20.508,37.598,25.391,20.508,-1.465,0
1583425031.611,23.926,35.645,27.344,21.973,22.461,0
1583425031.615,32.227,35.156,26.855,32.715,35.645,0
1583425031.619,31.250,34.668,29.785,36.133,38.086,0
1583425031.623,26.855,34.668,28.320,35.645,-8.789,0
1583425031.626,25.879,37.598,25.879,28.320,8.789,0
1583425031.630,36.133,38.574,25.879,27.832,5.371,0
1583425031.634,41.992,40.039,25.879,31.250,32.227,0
1583425031.638,31.250,37.598,25.391,20.508,37.598,0
1583425031.642,23.926,35.156,26.855,17.578,18.555,0
1583425031.659,30.762,34.668,28.809,27.344,16.113,0
1583425031.663,37.109,34.180,31.738,31.738,-0.977,0
1583425031.667,38.574,35.156,35.645,33.203,27.344,0
1583425031.671,29.297,34.668,33.203,29.297,58.105,0
1583425031.675,23.926,34.180,30.273,24.902,31.738,0
1583425031.679,30.762,35.156,30.273,22.461,39.062,0
1583425031.683,29.297,34.180,28.809,21.973,59.082,0
1583425031.686,23.438,35.645,29.297,25.391,93.262,0
1583425031.690,24.414,35.156,29.297,24.902,70.312,0
1583425031.694,27.344,33.203,27.344,26.367,-15.625,0
1583425031.698,22.949,34.180,24.902,23.438,-0.488,0
1583425031.702,20.020,34.668,24.902,17.578,60.547,0
1583425031.699,20.996,35.645,25.879,17.090,32.227,0
1583425031.703,16.113,37.109,24.414,21.484,18.555,0
1583425031.707,13.184,39.062,26.367,16.602,45.898,0
1583425031.711,13.672,38.574,27.344,11.719,53.223,0
1583425031.715,19.531,38.086,28.320,14.648,42.969,0
1583425031.719,25.391,36.621,27.832,20.996,96.680,0
1583425031.723,31.250,36.133,29.785,28.809,125.977,0
1583425031.726,34.668,38.574,34.668,29.785,57.617,0
1583425031.730,31.250,39.551,33.691,28.320,27.832,0
1583425031.734,33.691,41.016,32.715,29.785,35.645,0
1583425031.738,32.227,40.039,33.691,28.809,53.223,0
1583425031.742,23.926,36.621,32.227,28.809,56.641,0
1583425031.739,23.438,36.621,29.785,29.785,59.082,0
1583425031.743,26.367,34.180,33.203,20.508,96.680,0
1583425031.747,30.273,35.645,31.250,28.320,96.680,0
1583425031.751,26.367,36.621,30.273,35.645,55.176,0
1583425031.755,24.414,38.086,31.738,30.762,60.547,0
1583425031.759,29.785,40.039,31.738,32.715,118.164,0
1583425031.763,26.367,39.062,35.156,27.832,101.074,0
1583425031.766,21.484,37.109,35.156,25.391,-7.324,0
1583425031.770,19.531,34.668,36.133,28.809,6.836,0
1583425031.774,18.555,34.668,37.598,32.715,65.918,0
1583425031.778,15.137,36.133,38.086,22.949,57.617,0
1583425031.782,12.695,35.156,40.039,10.742,38.086,0
1583425031.779,18.066,35.645,39.062,20.996,9.277,0
1583425031.783,17.578,39.062,34.180,30.273,23.438,0
1583425031.787,14.160,41.992,32.227,28.320,27.832,0
1583425031.791,13.672,43.457,36.621,24.414,28.809,0
1583425031.795,10.742,43.945,32.715,22.949,40.039,0
1583425031.799,15.137,44.434,25.391,30.762,15.625,0
1583425031.803,19.531,45.410,27.344,31.250,33.691,0
1583425031.806,21.973,48.340,24.414,24.902,61.523,0
1583425031.810,24.414,46.875,20.996,21.973,22.949,0
1583425031.814,30.762,41.992,20.020,23.926,27.344,0
1583425031.818,37.598,43.457,17.090,26.855,102.051,0
1583425031.822,32.227,41.992,18.555,20.508,63.477,0
1583425031.839,28.809,40.527,18.066,21.973,57.617,0
1583425031.843,25.391,44.922,15.625,22.461,91.797,0
1583425031.847,22.461,47.852,18.555,15.625,66.895,0
1583425031.851,27.832,47.852,17.090,8.301,-7.324,0
1583425031.855,30.273,50.293,15.625,4.883,-40.527,0
1583425031.859,34.180,51.758,18.066,18.066,-16.602,0
1583425031.863,40.039,50.781,19.531,20.020,2.930,0
1583425031.866,38.086,51.270,18.066,13.672,69.824,0
1583425031.870,38.086,49.316,19.043,13.672,79.102,0
1583425031.874,42.969,52.246,19.043,13.184,31.250,0
1583425031.878,36.621,49.316,24.902,16.113,3.906,0
1583425031.882,32.715,45.898,28.320,12.207,20.508,0
1583425031.880,35.645,50.293,24.902,18.555,22.461,0
1583425031.884,35.645,49.805,21.484,22.949,3.906,0
1583425031.888,34.180,46.875,23.926,24.902,-7.812,0
1583425031.892,31.738,46.387,25.391,32.227,20.508,0
1583425031.896,25.879,44.434,22.949,25.879,68.359,0
1583425031.900,25.391,41.016,23.438,20.996,13.184,0
1583425031.904,32.227,41.016,26.855,30.762,34.668,0
1583425031.907,30.273,42.969,28.320,32.227,48.828,0
1583425031.911,32.715,43.457,30.273,27.832,3.906,0
1583425031.915,39.551,43.945,32.715,28.320,19.531,0
1583425031.919,39.062,44.434,34.668,31.738,-40.039,0
1583425031.923,38.086,45.898,33.203,33.691,6.348,0
1583425031.919,37.109,44.434,28.320,32.227,71.289,0
1583425031.923,36.133,40.527,28.320,31.738,43.945,0
1583425031.927,34.180,43.945,25.879,30.273,-4.395,0
1583425031.931,37.598,43.945,24.414,32.715,6.836,0
1583425031.935,35.156,41.016,25.391,25.879,52.246,0
1583425031.939,35.156,40.039,24.902,25.879,-9.277,0
1583425031.943,41.016,39.551,26.855,34.668,-18.066,0
1583425031.946,35.156,37.598,34.180,34.668,55.664,0
1583425031.950,22.461,37.109,36.133,24.902,77.148,0
1583425031.954,24.414,43.945,36.621,22.461,62.988,0
1583425031.958,25.879,42.480,35.645,24.902,62.988,0
1583425031.962,15.137,41.016,35.645,18.066,73.242,0
1583425031.979,15.625,45.410,40.039,20.508,-7.324,0
1583425031.983,5.859,46.875,46.875,11.230,-25.391,0
1583425031.987,-17.090,42.480,49.805,-12.207,21.484,0
1583425031.991,-22.461,45.410,55.176,-14.648,12.695,0
1583425031.995,-40.039,52.734,59.082,-23.438,23.926,0
1583425031.999,-57.617,54.688,54.688,-43.457,36.133,0
1583425032.003,-64.453,52.734,66.406,-56.641,30.762,0
1583425032.006,-79.590,53.223,67.871,-71.777,38.086,0
1583425032.010,-95.215,55.176,62.988,-91.797,46.387,0
1583425032.014,-102.051,55.664,64.453,-103.027,76.660,0
1583425032.018,-111.816,57.617,67.383,-121.582,39.062,0
1583425032.022,-130.859,52.734,75.684,-139.160,-26.855,0
1583425032.019,-136.230,52.246,69.336,-143.555,24.902,0
1583425032.023,-131.836,53.223,62.988,-144.531,20.508,0
1583425032.027,-134.766,53.223,70.312,-139.160,8.301,0
1583425032.031,-124.512,54.199,70.312,-130.859,18.066,0
1583425032.035,-111.816,53.711,66.895,-125.488,54.199,0
1583425032.039,-107.422,53.711,66.895,-122.559,83.496,0
1583425032.043,-92.285,54.688,64.453,-109.375,-10.742,0
1583425032.046,-80.566,55.176,63.965,-99.609,56.641,0
1583425032.050,-72.266,53.711,62.988,-89.355,120.117,0
1583425032.054,-59.082,52.246,60.059,-73.242,38.574,0
1583425032.058,-42.969,49.316,59.570,-60.547,-10.254,0
1583425032.062,-33.691,45.410,58.105,-49.805,39.062,0
1583425032.059,-22.461,42.480,50.781,-39.062,73.730,0
1583425032.063,-5.859,43.457,44.922,-23.926,59.082,0
1583425032.067,5.859,41.504,44.434,-8.789,76.660,0
1583425032.071,12.207,35.156,43.945,-0.488,73.730,0
1583425032.075,22.461,34.668,41.016,10.742,31.738,0
1583425032.079,33.203,36.133,38.086,23.438,1.465,0
1583425032.083,37.109,35.645,39.551,28.320,3.418,0
1583425032.086,55.176,38.086,36.133,40.039,40.039,0
1583425032.090,74.707,37.109,31.250,56.152,47.363,0
1583425032.094,79.590,30.762,30.273,64.453,81.543,0
1583425032.098,80.566,26.855,28.320,69.336,64.941,0
1583425032.102,83.496,26.367,25.391,75.684,21.973,0
1583425032.119,84.961,25.879,25.879,80.566,74.219,0
1583425032.123,84.473,24.902,27.832,82.031,3.906,0
1583425032.127,88.867,24.902,24.902,91.309,-41.992,0
1583425032.131,86.914,24.414,22.461,97.168,39.062,0
1583425032.135,81.543,23.438,21.484,92.285,52.246,0
1583425032.139,85.938,25.391,18.066,93.262,16.113,0
1583425032.143,87.891,25.391,16.113,93.262,45.898,0
1583425032.146,84.961,25.391,14.648,87.891,76.660,0
1583425032.150,88.379,27.344,15.137,90.332,19.043,0
1583425032.154,90.820,25.879,19.043,83.008,10.254,0
1583425032.158,91.797,24.902,19.043,82.031,14.160,0
1583425032.162,90.332,27.344,15.137,89.355,30.273,0
1583425032.159,83.496,25.879,14.648,82.031,26.367,0
1583425032.163,77.148,24.902,12.695,74.219,-13.672,0
1583425032.167,77.637,26.855,12.695,73.730,14.648,0
1583425032.171,77.148,25.391,16.602,75.195,52.734,0
1583425032.175,77.148,25.879,16.113,74.219,30.762,0
1583425032.179,83.008,27.344,11.230,68.848,-23.438,0
1583425032.183,76.172,25.391,13.184,65.430,-4.883,0
1583425032.186,72.266,25.879,15.625,75.195,20.020,0
1583425032.190,74.707,25.879,12.695,77.148,0.488,0
1583425032.194,74.707,21.973,16.113,74.219,17.578,0
1583425032.198,78.613,26.367,18.066,78.125,54.199,0
1583425032.202,74.219,26.367,20.996,73.730,37.598,0
1583425032.199,69.824,20.508,25.879,69.336,62.500,0
1583425032.203,66.406,20.996,24.414,70.312,19.043,0
1583425032.207,63.965,24.414,21.484,66.406,5.371,0
1583425032.211,69.336,26.855,20.996,66.406,87.402,0
1583425032.215,63.477,27.344,20.508,63.965,66.406,0
1583425032.219,61.523,26.855,20.996,60.059,-22.461,0
1583425032.223,63.477,26.855,22.461,62.500,-29.297,0
1583425032.226,59.082,26.367,22.949,64.453,-24.902,0
1583425032.230,58.105,24.902,25.879,66.406,9.277,0
1583425032.234,60.547,25.391,27.344,62.988,45.410,0
1583425032.238,59.082,26.367,25.879,59.082,70.801,0
1583425032.242,59.082,26.855,26.855,65.430,90.820,0
1583425032.260,64.941,27.832,23.438,68.359,0.977,0
1583425032.264,65.918,28.320,24.902,65.430,-11.719,0
1583425032.268,61.035,27.832,26.367,62.500,37.109,0
1583425032.272,60.059,25.391,24.902,62.012,32.227,0
1583425032.276,61.523,22.461,25.879,62.500,46.875,0
1583425032.280,55.176,23.926,23.438,57.129,50.781,0
1583425032.284,49.805,26.367,22.949,49.316,3.906,0
1583425032.287,49.316,23.926,26.367,46.875,22.949,0
1583425032.291,52.734,25.879,31.250,53.711,26.367,0
1583425032.295,51.270,26.855,34.180,55.664,58.105,0
1583425032.299,46.875,26.855,36.133,51.758,65.918,0
1583425032.303,50.781,27.344,36.621,55.664,-12.207,0
1583425032.299,51.270,27.832,37.598,56.641,-15.137,0
1583425032.303,47.363,26.855,33.691,52.734,42.480,0
1583425032.307,44.434,28.320,23.438,47.852,42.969,0
1583425032.311,45.410,32.715,21.973,43.457,6.348,0
1583425032.315,41.016,31.250,25.879,38.574,12.695,0
1583425032.319,42.480,31.738,24.902,42.969,48.340,0
1583425032.323,43.945,35.645,26.367,49.805,76.660,0
1583425032.326,42.480,37.109,27.344,46.875,67.871,0
1583425032.330,44.434,34.180,26.855,47.852,84.961,0
1583425032.334,38.574,32.227,32.227,52.734,86.914,0
1583425032.338,40.039,33.691,35.645,56.152,49.805,0
1583425032.342,43.457,36.621,36.621,52.734,-20.020,0
1583425032.339,41.992,34.668,38.086,47.852,-2.441,0
1583425032.343,41.504,32.715,37.109,45.898,29.785,0
1583425032.347,41.016,33.691,30.762,40.527,20.020,0
1583425032.351,36.621,32.715,32.715,40.527,59.082,0
1583425032.355,33.691,28.809,36.621,41.504,34.180,0
1583425032.359,37.109,24.902,32.227,38.086,39.062,0
1583425032.363,36.621,24.414,31.738,39.551,29.297,0
1583425032.366,34.668,28.809,31.250,40.527,-25.879,0
1583425032.370,34.668,31.250,28.809,33.203,-7.324,0
1583425032.374,28.809,27.832,31.738,29.785,18.555,0
1583425032.378,30.273,28.809,31.250,38.086,54.199,0
1583425032.382,36.133,31.250,29.785,39.062,45.410,0
1583425032.399,32.715,32.715,27.344,31.738,-33.691,0
1583425032.403,37.598,36.621,24.902,29.785,18.555,0
1583425032.407,38.086,36.133,23.926,28.320,66.406,0
1583425032.411,31.738,31.738,23.926,27.832,30.762,0
1583425032.415,30.762,32.715,24.414,25.879,39.551,0
1583425032.419,33.203,36.621,22.949,24.414,29.297,0
1583425032.423,31.738,36.621,25.879,25.879,80.078,0
1583425032.426,25.879,33.691,29.785,32.227,74.707,0
1583425032.430,26.367,32.227,31.738,41.016,55.664,0
1583425032.434,25.391,32.227,29.785,42.480,45.410,0
1583425032.438,21.973,31.250,28.809,40.039,9.277,0
1583425032.442,22.461,30.273,31.738,42.969,51.758,0
1583425032.439,23.926,33.691,30.762,41.992,44.922,0
1583425032.443,25.879,33.203,31.250,38.086,37.109,0
1583425032.447,30.273,33.691,32.715,38.574,55.176,0
1583425032.451,30.762,37.598,34.180,39.551,93.262,0
1583425032.455,25.879,36.133,35.156,38.086,133.789,0
1583425032.459,26.855,33.203,34.180,38.086,76.172,0
1583425032.463,28.809,33.203,33.691,34.668,52.734,0
1583425032.466,29.297,33.203,37.598,34.668,75.195,0
1583425032.470,33.203,29.785,39.062,37.109,44.922,0
1583425032.474,28.809,28.809,37.109,31.738,37.109,0
1583425032.478,24.414,31.250,39.062,26.367,5.371,0
1583425032.482,23.438,29.785,39.551,25.879,-37.109,0
1583425032.480,22.949,29.785,36.621,28.320,-3.418,0
1583425032.484,23.926,31.250,34.180,27.832,30.762,0
1583425032.488,24.902,33.203,34.180,22.461,65.918,0
1583425032.492,29.297,36.133,31.250,28.320,35.156,0
1583425032.496,26.855,38.086,32.227,32.715,39.551,0
1583425032.500,26.367,38.574,36.133,32.227,66.895,0
1583425032.504,22.461,36.621,37.598,32.715,52.734,0
1583425032.507,17.578,38.086,35.156,28.809,52.246,0
1583425032.511,21.484,41.016,32.227,29.785,70.312,0
1583425032.515,23.438,40.527,30.273,32.715,54.199,0
1583425032.519,25.879,41.992,28.809,31.250,34.180,0
1583425032.523,30.273,41.992,27.344,30.762,62.500,0
1583425032.539,27.832,41.016,28.809,28.320,7.324,0
1583425032.543,23.438,40.039,32.227,28.320,15.625,0
1583425032.547,28.320,39.551,30.273,32.715,52.246,0
1583425032.551,30.273,41.504,29.785,33.691,42.969,0
1583425032.555,27.344,41.016,31.250,32.715,20.508,0
1583425032.559,29.785,40.527,26.855,29.297,0.000,0
1583425032.563,30.762,41.504,26.855,28.320,4.883,0
1583425032.566,30.273,41.016,32.227,30.762,33.203,0
1583425032.570,30.762,38.086,34.180,32.227,41.504,0
1583425032.574,30.762,37.598,35.645,33.691,28.320,0
1583425032.578,34.668,38.574,35.156,31.738,60.547,0
1583425032.582,35.156,37.109,36.133,34.668,60.059,0
1583425032.579,32.227,36.621,41.504,34.668,29.297,0
1583425032.583,28.320,35.645,42.969,27.832,20.020,0
1583425032.587,25.879,36.621,42.480,29.785,82.031,0
1583425032.591,25.391,36.621,41.992,34.180,95.703,0
1583425032.595,27.832,37.109,37.109,29.785,49.316,0
1583425032.599,29.785,40.527,37.109,25.879,27.344,0
1583425032.603,24.414,39.062,40.039,20.996,40.039,0
1583425032.606,16.602,40.527,39.551,14.648,2.930,0
1583425032.610,20.996,44.922,41.504,16.602,-6.348,0
1583425032.614,30.273,43.945,39.062,19.043,13.672,0
1583425032.618,26.855,40.527,39.551,17.578,8.789,0
1583425032.622,23.926,41.504,42.480,14.160,38.086,0
1583425032.620,18.066,41.992,40.039,13.184,76.172,0
1583425032.624,22.461,41.992,34.668,18.066,55.664,0
1583425032.628,24.414,39.551,38.086,19.531,16.602,0
1583425032.632,20.508,35.645,39.551,23.438,24.414,0
1583425032.636,21.484,37.109,35.645,24.414,26.855,0
1583425032.640,17.578,36.621,38.086,22.949,20.996,0
1583425032.644,19.043,34.668,36.621,20.508,21.484,0
1583425032.647,25.391,36.621,36.133,20.508,77.148,0
1583425032.651,28.320,36.621,36.621,26.855,91.309,0
1583425032.655,26.855,37.109,37.598,22.949,21.973,0
1583425032.659,23.438,36.621,37.109,17.578,13.672,0
1583425032.663,24.414,34.668,36.621,20.508,29.785,0
1583425032.679,23.438,35.156,37.598,20.996,19.043,0
1583425032.683,20.508,34.180,38.086,17.090,-8.301,0
1583425032.687,17.090,35.645,38.574,14.648,2.441,0
1583425032.691,14.648,35.156,40.039,13.184,56.641,0
1583425032.695,16.113,36.133,37.598,14.160,77.637,0
1583425032.699,20.508,37.109,36.133,16.113,44.922,0
1583425032.703,22.949,34.668,38.574,20.020,7.324,0
1583425032.706,18.555,34.180,37.598,19.043,23.438,0
1583425032.710,22.461,36.133,37.598,19.531,82.520,0
1583425032.714,25.879,36.133,38.574,24.902,39.062,0
1583425032.718,22.949,35.645,35.645,19.043,-3.418,0
1583425032.722,21.484,37.109,35.645,16.113,25.879,0
1583425032.719,22.949,37.109,33.691,19.531,36.621,0
1583425032.723,23.438,36.621,28.320,20.508,41.992,0
1583425032.727,16.113,35.156,28.809,14.160,29.785,0
1583425032.731,16.602,35.156,27.344,20.508,-13.184,0
1583425032.735,21.973,36.133,30.762,28.320,-48.340,0
1583425032.739,16.113,36.133,35.156,28.320,-44.434,0
1583425032.743,19.531,35.645,33.203,29.785,-19.043,0
1583425032.746,20.020,33.691,34.180,26.855,33.691,0
1583425032.750,17.090,36.621,32.715,30.762,66.895,0
1583425032.754,23.926,40.039,29.785,35.645,34.668,0
1583425032.758,22.949,37.598,29.785,31.250,57.617,0
1583425032.762,22.461,37.109,28.809,25.391,46.875,0
1583425032.779,21.973,40.039,29.785,23.926,11.719,0
1583425032.783,23.926,41.016,31.738,28.809,16.113,0
1583425032.787,20.020,36.621,32.227,25.391,39.551,0
1583425032.791,19.043,36.133,34.180,20.996,52.246,0
1583425032.795,18.555,38.574,36.621,22.949,62.012,0
1583425032.799,20.996,40.039,36.621,24.414,39.551,0
1583425032.803,20.996,37.598,36.621,20.020,54.688,0
1583425032.806,23.926,39.062,36.621,14.648,96.680,0
1583425032.810,30.762,39.062,35.645,22.461,32.715,0
1583425032.814,26.855,36.133,35.645,24.902,4.883,0
1583425032.818,26.367,33.203,37.598,22.461,17.578,0
1583425032.822,30.273,33.691,39.062,27.344,3.906,0
1583425032.819,26.855,33.203,39.551,25.879,11.719,0
1583425032.823,20.996,34.180,39.062,25.391,78.125,0
1583425032.827,20.508,36.621,37.598,26.855,33.203,0
1583425032.831,16.113,31.250,38.574,23.926,-4.395,0
1583425032.835,15.137,30.762,35.156,29.297,94.727,0
1583425032.839,17.578,35.156,32.715,27.832,59.570,0
1583425032.843,20.020,38.086,30.273,26.855,5.371,0
1583425032.846,18.066,37.109,27.344,31.250,19.531,0
1583425032.850,9.277,34.180,26.855,21.484,34.668,0
1583425032.854,11.230,35.645,26.855,18.555,15.625,0
1583425032.858,17.578,36.133,31.250,24.902,-44.434,0
1583425032.862,15.137,35.156,34.180,20.996,41.016,0
1583425032.859,17.090,34.180,33.691,20.996,86.426,0
1583425032.863,16.602,32.715,35.156,22.949,-9.766,0
1583425032.867,16.602,33.203,34.668,22.461,-4.395,0
1583425032.871,23.438,33.691,31.250,23.926,54.688,0
1583425032.875,21.484,33.691,30.273,25.879,28.320,0
1583425032.879,21.484,37.109,30.273,29.785,36.133,0
1583425032.883,19.043,35.156,30.273,24.414,32.227,0
1583425032.886,20.996,35.156,34.668,20.996,21.973,0
1583425032.890,23.926,38.574,38.574,20.996,56.641,0
1583425032.894,25.879,37.598,38.574,18.066,33.203,0
1583425032.898,21.484,37.598,36.621,14.648,30.762,0
1583425032.902,18.555,40.039,35.156,13.184,12.695,0
1583425032.919,20.508,40.039,35.645,16.113,6.836,0
1583425032.923,16.113,41.016,35.645,13.672,59.082,0
1583425032.927,17.578,36.621,36.621,16.113,66.406,0
1583425032.931,20.996,33.203,36.133,25.879,39.551,0
1583425032.935,19.043,38.574,36.621,23.926,10.254,0
1583425032.939,24.902,38.574,34.180,21.973,16.113,0
1583425032.943,26.367,38.086,27.344,21.484,26.367,0
1583425032.946,24.414,39.062,25.879,19.531,24.902,0
1583425032.950,27.832,36.621,31.250,24.902,83.496,0
1583425032.954,31.250,39.551,29.297,29.297,86.426,0
1583425032.958,26.367,38.574,31.250,29.785,24.902,0
1583425032.962,25.391,33.691,30.762,33.691,2.441,0
1583425032.959,33.203,31.250,29.785,39.551,15.625,0
1583425032.963,30.762,31.250,33.203,34.180,58.594,0
1583425032.967,32.227,32.715,30.273,33.691,56.641,0
1583425032.971,32.715,31.738,28.320,32.227,40.039,0
1583425032.975,26.367,34.668,26.855,29.785,57.617,0
1583425032.979,26.367,34.180,29.297,28.320,53.223,0
1583425032.983,21.973,35.156,33.203,18.555,33.691,0
1583425032.986,12.207,35.645,33.691,16.602,25.879,0
1583425032.990,18.066,31.738,37.109,23.438,37.109,0
1583425032.994,13.184,35.156,38.574,22.949,68.359,0
1583425032.998,13.672,38.086,35.156,20.996,34.180,0
1583425033.002,23.438,36.133,33.691,20.996,2.930,0
1583425032.999,21.484,36.621,35.156,20.508,15.137,0
1583425033.003,23.438,39.551,36.621,21.484,50.781,0
1583425033.007,21.484,39.062,39.062,17.578,61.035,0
1583425033.011,19.531,39.062,39.551,15.625,45.410,0
1583425033.015,19.043,39.551,36.133,18.066,73.242,0
1583425033.019,19.531,39.062,35.156,23.438,50.781,0
1583425033.023,27.344,40.039,35.156,22.949,20.996,0
1583425033.026,31.738,39.551,33.691,24.414,0.000,0
1583425033.030,37.598,38.086,32.715,36.133,-13.184,0
1583425033.034,39.062,36.133,30.273,41.504,68.359,0
1583425033.038,33.203,34.668,29.785,41.016,75.195,0
1583425033.042,34.668,34.668,30.273,39.551,59.082,0
1583425033.059,38.086,36.621,25.879,36.621,53.711,0
1583425033.063,42.480,37.109,23.438,36.621,46.387,0
1583425033.067,40.039,34.180,25.391,36.621,46.387,0
1583425033.071,33.691,32.715,25.879,34.180,19.043,0
1583425033.075,31.738,30.273,25.879,30.273,8.789,0
1583425033.079,32.227,30.273,27.832,33.691,5.859,0
1583425033.083,28.320,32.715,30.273,35.156,60.059,0
1583425033.086,25.391,31.738,29.297,30.273,61.035,0
1583425033.090,26.367,32.227,30.762,34.668,17.578,0
1583425033.094,28.809,35.156,30.273,37.109,15.625,0
1583425033.098,28.320,35.156,30.273,35.645,8.301,0
1583425033.102,20.996,35.156,31.250,26.855,23.926,0
1583425033.100,20.508,38.086,27.344,16.602,33.691,0
1583425033.104,13.672,36.621,25.879,5.859,22.461,0
1583425033.108,10.254,35.645,25.879,6.348,-22.949,0
1583425033.112,12.207,36.621,29.785,10.742,-5.371,0
1583425033.116,10.742,38.086,34.668,5.371,23.438,0
1583425033.120,13.672,38.574,34.180,10.254,41.016,0
1583425033.124,17.578,37.109,36.133,17.090,48.828,0
1583425033.127,23.438,38.086,40.527,19.531,16.113,0
1583425033.131,28.320,38.086,38.574,23.926,9.277,0
1583425033.135,29.297,37.598,34.668,30.762,20.020,0
1583425033.139,30.273,40.527,34.180,33.691,56.641,0
1583425033.143,33.691,40.527,36.133,35.645,132.324,0
1583425033.139,36.133,37.109,34.668,36.133,154.785,0
1583425033.143,32.715,38.574,35.156,33.691,88.379,0
1583425033.147,36.133,38.574,39.062,40.527,37.109,0
1583425033.151,35.156,34.180,40.039,43.457,112.305,0
1583425033.155,28.809,35.156,41.016,39.062,103.516,0
1583425033.159,24.414,36.133,40.039,35.156,7.812,0
1583425033.163,16.602,34.180,38.574,22.461,32.715,0
1583425033.166,14.648,34.180,37.109,19.531,45.898,0
1583425033.170,17.578,36.133,33.691,18.066,63.965,0
1583425033.174,14.648,38.086,28.809,9.277,40.527,0
1583425033.178,9.766,38.574,28.320,11.230,14.648,0
1583425033.182,11.230,37.109,23.926,11.230,37.598,0
1583425033.200,10.254,33.691,22.461,10.742,51.758,0
1583425033.204,6.836,33.203,26.855,15.137,35.156,0
1583425033.208,5.859,32.715,28.809,13.184,15.137,0
1583425033.212,9.277,31.738,27.832,12.207,17.090,0
1583425033.216,9.277,32.227,27.344,18.555,-5.859,0
1583425033.220,6.836,31.738,28.809,20.508,-29.785,0
1583425033.224,8.301,29.297,31.738,15.137,11.230,0
1583425033.227,14.648,29.297,35.645,13.672,62.012,0
1583425033.231,19.531,29.297,33.203,16.602,12.207,0
1583425033.235,21.484,31.738,30.273,20.020,-54.199,0
1583425033.239,26.367,35.156,31.738,23.438,-15.137,0
1583425033.243,33.691,36.133,26.855,21.484,38.086,0
1583425033.239,31.738,36.133,23.438,20.996,66.406,0
1583425033.243,35.645,39.062,25.391,26.855,45.410,0
1583425033.247,36.621,41.016,25.391,23.438,21.973,0
1583425033.251,32.227,41.016,29.785,18.555,70.312,0
1583425033.255,34.180,39.062,32.715,23.438,25.879,0
1583425033.259,30.762,37.598,33.691,25.391,59.082,0
1583425033.263,21.484,37.109,33.691,21.973,119.141,0
1583425033.266,15.625,36.621,33.203,17.578,78.613,0
1583425033.270,17.578,37.598,34.668,14.160,25.391,0
1583425033.274,18.555,39.551,33.203,12.695,10.742,0
1583425033.278,16.113,39.551,32.715,12.695,69.824,0
1583425033.282,15.137,39.551,34.668,18.066,61.523,0
1583425033.279,17.578,40.039,37.598,28.320,22.461,0
1583425033.283,12.695,38.086,43.457,27.832,5.371,0
1583425033.287,8.301,38.086,43.457,24.414,26.855,0
1583425033.291,15.625,40.039,40.527,28.320,38.086,0
1583425033.295,20.508,37.598,39.551,30.273,8.301,0
1583425033.299,16.602,37.109,37.109,27.344,18.555,0
1583425033.303,18.555,38.086,34.180,27.344,-3.418,0
1583425033.306,22.949,36.133,34.180,28.809,-11.719,0
1583425033.310,20.508,37.598,32.227,29.297,40.527,0
1583425033.314,12.695,38.574,32.715,30.273,-0.977,0
1583425033.318,13.672,34.180,36.133,26.855,-14.160,0
1583425033.322,14.160,32.227,39.062,22.461,50.293,0
1583425033.339,17.578,33.691,40.039,22.949,32.715,0
1583425033.343,29.785,36.133,38.086,30.273,50.293,0
1583425033.347,32.715,38.086,41.504,34.668,33.691,0
1583425033.351,31.250,38.574,41.992,29.297,9.766,0
1583425033.355,30.273,38.574,37.598,21.484,39.551,0
1583425033.359,29.297,39.551,37.109,23.438,54.199,0
1583425033.363,29.785,42.969,36.133,22.461,64.941,0
1583425033.366,30.762,44.922,35.156,19.531,48.340,0
1583425033.370,26.855,42.969,34.180,18.066,56.152,0
1583425033.374,15.137,39.062,32.715,7.812,30.762,0
1583425033.378,15.625,41.992,31.738,8.301,0.488,0
1583425033.382,26.367,41.504,32.227,16.113,7.812,0
1583425033.379,27.344,36.133,35.156,17.578,54.199,0
1583425033.383,30.273,34.668,36.621,22.949,49.316,0
1583425033.387,38.086,34.180,39.062,29.785,26.367,0
1583425033.391,41.016,33.691,39.551,32.227,70.312,0
1583425033.395,40.527,32.227,38.086,34.668,4.883,0
1583425033.399,41.504,33.203,38.086,36.133,11.719,0
1583425033.403,35.645,34.180,42.480,39.062,41.504,0
1583425033.406,30.762,37.109,42.969,38.574,22.949,0
1583425033.410,28.809,38.574,38.574,32.715,42.969,0
1583425033.414,27.832,39.551,37.109,29.785,26.367,0
1583425033.418,27.832,41.016,39.062,28.809,73.242,0
1583425033.422,19.531,39.551,39.062,24.902,72.754,0
1583425033.419,16.602,39.062,39.062,23.438,41.016,0
1583425033.423,20.508,38.574,39.062,24.902,0.488,0
1583425033.427,20.020,39.551,36.621,25.391,-22.949,0
1583425033.431,13.184,37.598,35.156,21.484,10.254,0
1583425033.435,10.254,36.133,32.715,17.578,0.977,0
1583425033.439,14.648,35.645,31.250,19.043,58.594,0
1583425033.443,11.719,34.180,32.227,13.184,48.340,0
1583425033.446,7.812,37.598,28.809,12.207,20.020,0
1583425033.450,8.789,39.551,28.809,11.719,34.180,0
1583425033.454,11.719,38.086,33.691,11.719,14.648,0
1583425033.458,14.160,38.086,34.180,17.090,44.922,0
1583425033.462,21.973,36.621,35.156,20.020,94.238,0
1583425033.479,34.180,39.062,33.203,26.367,64.453,0
1583425033.483,37.598,39.551,35.156,25.391,41.992,0
1583425033.487,36.133,38.086,38.574,21.484,49.316,0
1583425033.491,36.621,40.039,35.645,24.902,-1.953,0
1583425033.495,38.574,38.574,37.109,26.367,29.297,0
1583425033.499,39.062,39.551,35.645,25.879,52.246,0
1583425033.503,38.574,42.480,29.785,23.926,30.273,0
1583425033.506,32.715,42.480,30.762,20.996,1.465,0
1583425033.510,27.344,40.527,35.645,25.879,33.203,0
1583425033.514,20.508,37.109,36.621,26.855,55.664,0
1583425033.518,21.973,39.062,30.762,27.344,0.488,0
1583425033.522,28.809,38.574,31.250,26.855,-10.742,0
1583425033.519,27.832,35.645,37.598,26.855,22.949,0
1583425033.523,30.273,37.598,36.133,25.879,20.508,0
1583425033.527,34.180,41.992,33.691,25.879,45.898,0
1583425033.531,30.762,41.504,36.621,26.367,66.406,0
1583425033.535,21.973,38.086,38.574,27.832,54.688,0
1583425033.539,17.090,39.551,38.086,31.738,15.137,0
1583425033.543,18.066,41.016,37.109,33.691,-46.387,0
1583425033.546,21.973,39.062,38.574,33.691,-6.836,0
1583425033.550,23.438,37.109,39.551,34.668,60.059,0
1583425033.554,21.484,35.645,38.574,34.668,14.648,0
1583425033.558,19.043,34.180,38.086,33.203,20.996,0
1583425033.562,20.020,33.203,37.109,32.715,23.438,0
1583425033.559,24.414,35.645,38.086,35.156,37.598,0
1583425033.563,29.297,36.133,41.504,36.133,66.406,0
1583425033.567,39.062,39.062,39.062,41.992,34.668,0
1583425033.571,41.992,40.527,35.156,42.969,31.250,0
1583425033.575,40.527,38.574,33.691,35.645,11.230,0
1583425033.579,41.016,40.527,36.621,27.832,63.477,0
1583425033.583,37.109,43.945,41.016,23.438,96.191,0
1583425033.586,40.527,43.457,38.086,27.344,37.598,0
1583425033.590,42.480,41.504,33.691,22.461,50.781,0
1583425033.594,39.551,38.574,34.668,21.973,63.477,0
1583425033.598,34.180,34.668,31.250,20.996,70.801,0
1583425033.602,32.715,34.180,29.297,20.020,21.973,0
1583425033.619,36.621,36.621,29.297,26.855,-29.785,0
1583425033.623,34.180,37.598,27.832,30.273,6.836,0
1583425033.627,30.762,37.598,28.320,28.320,46.875,0
1583425033.631,34.180,38.574,29.297,33.691,105.469,0
1583425033.635,32.715,38.086,34.180,31.738,66.895,0
1583425033.639,32.227,38.086,37.109,30.273,32.715,0
1583425033.643,24.902,36.133,38.086,30.762,50.293,0
1583425033.646,13.184,33.691,40.039,19.531,66.895,0
1583425033.650,5.859,32.715,42.969,14.648,78.613,0
1583425033.654,-4.395,30.762,44.434,12.207,22.461,0
1583425033.658,-1.953,32.715,43.457,11.719,-11.719,0
1583425033.662,0.000,32.227,44.922,14.648,13.184,0
1583425033.659,4.883,31.250,45.410,18.066,41.504,0
1583425033.663,11.719,34.180,41.992,22.949,51.270,0
1583425033.667,13.672,34.668,42.969,29.785,3.418,0
1583425033.671,22.949,35.645,46.387,35.645,8.301,0
1583425033.675,30.273,36.621,46.387,37.109,20.508,0
1583425033.679,30.762,34.668,43.945,31.738,47.852,0
1583425033.683,25.879,34.668,39.551,29.785,28.809,0
1583425033.686,21.973,36.621,37.598,35.645,32.715,0
1583425033.690,28.320,35.156,37.598,35.645,72.754,0
1583425033.694,37.109,35.645,39.062,31.738,33.203,0
1583425033.698,35.156,38.086,40.527,33.691,34.180,0
1583425033.702,32.715,36.133,37.109,31.738,40.039,0
1583425033.699,32.227,33.691,34.180,23.438,25.391,0
1583425033.703,27.344,33.203,36.621,20.020,41.992,0
1583425033.707,23.926,35.156,36.133,20.508,24.902,0
1583425033.711,20.020,34.180,37.598,16.113,13.184,0
1583425033.715,13.672,32.715,37.598,19.043,50.293,0
1583425033.719,15.137,34.668,36.621,22.461,18.066,0
1583425033.723,22.461,31.250,35.156,26.367,32.227,0
1583425033.726,22.461,31.250,32.227,27.832,12.695,0
1583425033.730,14.160,32.227,37.598,23.926,28.809,0
1583425033.734,12.207,31.250,41.504,25.879,-2.930,0
1583425033.738,13.184,33.691,33.691,22.461,9.766,0
1583425033.742,9.766,35.645,31.250,23.438,47.363,0
1583425033.760,7.324,34.668,33.203,27.832,10.742,0
1583425033.764,10.742,35.156,34.668,30.762,34.668,0
1583425033.768,12.695,36.133,34.668,31.250,28.320,0
1583425033.772,6.836,33.203,33.203,28.809,-0.977,0
1583425033.776,1.953,32.715,37.109,30.273,-4.395,0
1583425033.780,7.324,34.180,38.086,32.715,-12.207,0
1583425033.784,14.648,34.668,37.109,36.133,32.715,0
1583425033.787,16.113,35.645,36.621,31.250,82.031,0
1583425033.791,20.020,37.109,33.691,25.879,66.895,0
1583425033.795,22.949,35.156,30.762,26.855,8.789,0
1583425033.799,25.391,37.109,28.320,24.414,31.738,0
1583425033.803,25.391,39.551,33.203,20.996,44.434,0
1583425033.799,23.438,38.086,34.180,17.090,56.152,0
1583425033.803,25.879,40.527,31.250,14.160,70.801,0
1583425033.807,25.879,41.016,28.809,19.043,58.594,0
1583425033.811,23.926,39.062,27.344,19.043,55.176,0
1583425033.815,26.367,39.551,26.855,21.484,49.316,0
1583425033.819,28.320,39.551,29.785,23.926,29.297,0
1583425033.823,33.691,40.039,27.832,25.391,2.441,0
1583425033.826,38.574,41.016,25.879,31.738,21.973,0
1583425033.830,37.109,42.480,30.273,31.250,30.273,0
1583425033.834,39.551,42.969,30.273,30.762,60.547,0
1583425033.838,33.691,40.527,28.809,29.785,60.547,0
1583425033.842,26.855,41.016,30.273,29.297,10.742,0
1583425033.839,30.762,39.062,33.203,29.297,45.898,0
1583425033.843,25.391,36.621,35.645,30.762,103.027,0
1583425033.847,20.020,39.551,34.668,34.180,83.984,0
1583425033.851,15.137,41.016,32.715,33.691,63.477,0
1583425033.855,9.766,37.598,34.668,29.785,28.320,0
1583425033.859,3.906,34.668,39.062,21.973,26.367,0
1583425033.863,2.441,34.668,40.039,20.020,70.801,0
1583425033.866,10.742,37.598,37.598,25.391,90.332,0
1583425033.870,9.277,38.574,35.156,19.043,103.027,0
1583425033.874,8.789,37.598,33.203,16.602,46.875,0
1583425033.878,18.066,39.062,30.762,21.973,7.812,0
1583425033.882,25.391,41.016,29.785,17.578,18.555,0
1583425033.899,30.273,40.527,29.785,14.648,23.438,0
1583425033.903,28.809,37.598,28.809,15.625,29.785,0
1583425033.907,24.414,38.086,24.414,18.555,47.852,0
1583425033.911,26.855,39.062,27.344,20.508,81.055,0
1583425033.915,33.203,41.016,31.738,20.996,47.852,0
1583425033.919,36.133,42.480,30.273,20.996,17.090,0
1583425033.923,31.250,41.504,29.785,23.926,4.883,0
1583425033.926,29.785,39.551,31.250,25.879,5.859,0
1583425033.930,33.691,39.062,29.785,28.320,42.969,0
1583425033.934,30.762,36.133,30.273,30.273,22.461,0
1583425033.938,26.855,33.691,26.855,29.785,-6.348,0
1583425033.942,27.344,34.180,25.391,28.320,61.035,0
1583425033.939,24.414,34.668,30.273,24.902,60.547,0
1583425033.943,23.926,33.691,35.156,24.902,41.992,0
1583425033.947,20.508,34.180,36.133,22.461,44.434,0
1583425033.951,19.043,36.621,36.133,24.902,7.812,0
1583425033.955,22.461,37.598,39.062,26.367,57.617,0
1583425033.959,16.602,37.598,38.574,18.066,64.941,0
1583425033.963,10.254,37.109,39.551,13.184,-27.344,0
1583425033.966,11.230,35.156,42.480,19.043,24.902,0
1583425033.970,10.742,35.645,41.504,22.949,11.230,0
1583425033.974,8.301,40.039,41.504,14.648,-24.902,0
1583425033.978,6.836,40.527,45.898,13.184,16.113,0
1583425033.982,4.883,38.574,46.875,13.672,67.383,0
1583425033.979,6.836,37.109,42.480,7.324,71.777,0
1583425033.983,13.184,35.645,38.086,10.254,96.191,0
1583425033.987,18.555,37.109,34.180,17.090,109.375,0
1583425033.991,18.555,36.133,31.250,16.113,-16.113,0
1583425033.995,22.949,36.133,34.180,22.949,-10.742,0
1583425033.999,33.203,36.621,32.715,33.203,40.527,0
1583425034.003,38.574,37.598,29.785,31.738,-21.484,0
1583425034.006,41.504,38.086,31.738,30.273,-24.902,0
1583425034.010,38.086,37.598,36.621,30.273,-3.906,0
1583425034.014,36.133,36.621,38.086,30.273,33.203,0
1583425034.018,38.086,36.621,33.203,30.273,67.383,0
1583425034.022,36.621,33.203,33.203,26.367,20.996,0
1583425034.040,33.691,32.715,35.156,22.461,1.465,0
1583425034.044,34.180,35.645,31.250,16.602,11.719,0
1583425034.048,23.438,34.180,28.320,12.695,28.809,0
1583425034.052,15.137,33.691,26.855,6.348,16.113,0
1583425034.056,20.508,37.109,27.832,10.254,3.906,0
1583425034.060,23.926,39.062,30.273,20.508,14.160,0
1583425034.064,19.043,36.621,32.227,21.973,42.480,0
1583425034.067,17.578,36.621,35.645,24.902,75.684,0
1583425034.071,16.113,35.645,34.668,20.020,7.324,0
1583425034.075,10.254,33.203,31.738,18.066,-19.531,0
1583425034.079,8.789,33.203,31.738,26.855,49.805,0
1583425034.083,4.883,32.227,29.785,24.902,58.105,0
1583425034.079,4.883,32.715,30.762,22.461,-18.555,0
1583425034.083,10.254,34.180,32.227,25.879,-33.691,0
1583425034.087,11.719,33.691,29.785,27.832,54.688,0
1583425034.091,11.230,32.715,31.738,24.414,94.238,0
1583425034.095,5.859,31.250,33.691,18.555,26.367,0
1583425034.099,5.859,30.273,32.227,19.043,-24.902,0
1583425034.103,9.766,27.344,29.785,20.996,-41.016,0
1583425034.106,10.254,27.832,29.297,18.066,11.230,0
1583425034.110,16.602,33.203,28.320,15.625,35.645,0
1583425034.114,24.902,34.668,28.809,18.555,32.715,0
1583425034.118,24.902,34.668,29.785,19.531,100.098,0
1583425034.122,29.785,37.598,30.273,23.926,98.145,0
1583425034.119,39.551,40.527,31.250,28.809,47.852,0
1583425034.123,41.016,40.527,32.715,29.297,20.508,0
1583425034.127,38.086,41.016,31.250,24.902,7.812,0
1583425034.131,29.785,40.527,28.320,24.414,36.621,0
1583425034.135,27.832,38.574,29.785,26.855,62.500,0
1583425034.139,29.297,37.598,31.250,27.344,7.812,0
1583425034.143,26.367,36.621,30.273,28.809,-6.836,0
1583425034.146,23.438,39.551,32.227,24.414,55.176,0
1583425034.150,20.508,39.551,36.621,20.020,47.363,0
1583425034.154,18.555,37.598,36.621,17.090,41.016,0
1583425034.158,15.137,35.645,37.109,14.160,86.426,0
1583425034.162,12.207,31.738,35.645,15.625,64.453,0
1583425034.179,11.719,31.738,33.203,16.113,15.137,0
1583425034.183,14.648,34.180,33.203,17.578,38.574,0
1583425034.187,15.625,34.180,31.738,20.020,106.445,0
1583425034.191,22.461,33.203,32.227,20.508,71.777,0
1583425034.195,29.297,35.645,32.227,24.902,-11.230,0
1583425034.199,25.391,35.645,31.738,24.414,-11.230,0
1583425034.203,22.461,35.156,30.273,18.555,28.320,0
1583425034.206,22.949,38.086,27.344,15.137,51.758,0
1583425034.210,24.414,38.086,25.879,14.648,11.719,0
1583425034.214,17.090,30.762,34.668,16.113,21.484,0
1583425034.218,8.789,29.785,41.992,10.254,47.852,0
1583425034.222,13.672,35.156,41.016,13.184,38.574,0
1583425034.219,21.484,35.156,40.527,22.461,45.898,0
1583425034.223,25.391,37.109,44.922,25.879,63.477,0
1583425034.227,27.832,39.551,45.410,26.367,65.918,0
1583425034.231,25.391,39.551,40.527,28.809,53.223,0
1583425034.235,23.438,38.086,41.992,29.785,9.766,0
1583425034.239,29.297,37.598,45.898,28.809,33.203,0
1583425034.243,31.738,38.574,45.898,31.738,83.496,0
1583425034.246,36.133,40.527,46.387,39.062,73.730,0
1583425034.250,42.969,39.062,50.781,44.922,18.555,0
1583425034.254,33.691,37.109,54.199,38.574,33.691,0
1583425034.258,31.738,43.945,51.270,34.668,36.621,0
1583425034.262,33.203,42.480,51.758,33.691,-33.203,0
1583425034.279,11.230,39.551,56.641,16.602,12.695,0
1583425034.283,8.301,48.828,51.270,10.742,45.410,0
1583425034.287,-1.465,46.875,52.246,0.488,56.641,0
1583425034.291,-29.297,45.410,54.199,-23.926,17.090,0
1583425034.295,-32.715,52.734,51.270,-23.438,-33.691,0
1583425034.299,-38.086,51.758,52.734,-28.809,14.160,0
1583425034.303,-55.176,47.363,58.594,-51.758,7.324,0
1583425034.306,-72.266,51.758,59.570,-72.266,28.320,0
1583425034.310,-89.355,50.781,71.289,-83.008,23.926,0
1583425034.314,-104.004,49.316,80.078,-91.797,-1.465,0
1583425034.318,-109.863,57.129,70.312,-108.887,53.223,0
1583425034.322,-112.305,57.617,73.242,-114.746,43.457,0
1583425034.319,-119.141,55.664,81.543,-121.582,54.688,0
1583425034.323,-116.211,56.641,76.660,-121.582,74.707,0
1583425034.327,-108.887,55.664,69.336,-112.793,42.480,0
1583425034.331,-107.422,52.734,70.312,-107.910,22.461,0
1583425034.335,-96.680,55.176,69.336,-101.074,96.191,0
1583425034.339,-83.496,53.223,66.895,-93.750,107.422,0
1583425034.343,-76.660,46.387,66.406,-79.590,-19.043,0
1583425034.346,-60.059,45.410,62.500,-65.430,-16.113,0
1583425034.350,-43.945,42.969,58.105,-53.223,10.254,0
1583425034.354,-35.645,36.621,55.176,-38.574,25.391,0
1583425034.358,-20.996,36.621,50.781,-22.949,3.906,0
1583425034.362,-2.930,36.621,47.363,-9.766,-35.645,0
1583425034.360,16.602,34.180,41.016,3.906,10.254,0
1583425034.364,22.461,34.668,31.738,15.625,22.461,0
1583425034.368,27.344,33.203,26.367,21.484,44.922,0
1583425034.372,36.133,32.227,25.391,28.320,71.289,0
1583425034.376,41.992,29.297,26.367,34.668,36.621,0
1583425034.380,50.293,24.414,24.414,44.434,13.672,0
1583425034.384,52.734,24.414,21.484,55.176,53.711,0
1583425034.387,52.246,24.414,18.555,58.594,80.078,0
1583425034.391,53.711,24.902,14.160,58.105,36.133,0
1583425034.395,49.805,24.414,17.578,65.430,25.879,0
1583425034.399,57.129,25.391,18.555,80.566,29.297,0
1583425034.403,66.895,22.949,18.066,84.961,33.203,0
1583425034.439,66.406,20.996,17.578,83.496,45.410,0
1583425034.443,65.918,21.973,13.184,79.590,1.953,0
1583425034.447,66.406,21.973,10.254,75.684,20.996,0
1583425034.451,68.359,20.996,13.672,81.543,39.551,0
1583425034.455,68.848,23.438,14.160,82.031,40.527,0
1583425034.459,71.777,26.855,9.277,77.148,31.738,0
1583425034.463,74.219,26.367,7.812,78.125,26.367,0
1583425034.466,76.172,24.902,6.836,80.078,62.012,0
1583425034.470,77.148,27.344,6.836,83.984,41.016,0
1583425034.474,75.195,28.809,11.719,83.008,77.637,0
1583425034.478,81.055,28.809,14.160,83.984,63.965,0
1583425034.482,84.961,28.320,13.672,88.867,-16.602,0
1583425034.480,80.566,26.855,16.113,87.891,11.230,0
1583425034.484,73.242,26.855,19.043,81.055,38.086,0
1583425034.488,64.453,24.902,20.020,71.289,22.949,0
1583425034.492,61.035,24.414,21.484,68.359,45.410,0
1583425034.496,58.594,25.879,22.461,63.477,79.590,0
1583425034.500,58.594,23.438,20.508,62.012,-1.953,0
1583425034.504,57.129,22.949,19.531,63.477,-25.879,0
1583425034.507,52.246,24.902,19.531,65.918,29.785,0
1583425034.511,55.664,27.344,20.508,69.336,42.969,0
1583425034.515,54.199,27.344,20.020,63.965,67.383,0
1583425034.519,53.223,27.344,17.090,62.988,62.988,0
1583425034.523,52.734,28.320,18.066,60.547,5.859,0
1583425034.502,51.270,28.320,20.996,61.523,9.277,0
1583425034.506,53.223,30.273,21.484,63.965,56.152,0
1583425034.510,51.270,30.762,23.438,57.617,92.285,0
1583425034.514,51.270,31.250,26.855,55.176,99.609,0
1583425034.518,51.270,31.250,29.785,51.270,49.316,0
1583425034.522,51.270,35.156,30.762,49.316,2.441,0
1583425034.526,49.316,35.645,32.227,50.293,12.207,0
1583425034.529,56.641,36.133,30.273,50.781,52.246,0
1583425034.533,62.500,38.086,26.855,51.270,60.547,0
1583425034.537,56.641,35.156,32.227,54.688,18.066,0
1583425034.541,59.570,33.691,35.156,57.617,-9.766,0
1583425034.545,60.059,34.180,33.203,58.105,13.184,0
1583425034.559,54.199,34.180,34.668,57.129,46.387,0
1583425034.563,47.852,34.180,31.250,52.246,17.090,0
1583425034.567,46.387,33.203,31.738,48.340,9.766,0
1583425034.571,46.387,34.180,36.133,44.434,83.008,0
1583425034.575,44.434,34.668,34.180,40.039,77.148,0
1583425034.579,45.898,35.156,33.691,43.457,57.129,0
1583425034.583,46.875,35.156,38.086,44.434,41.992,0
1583425034.586,44.922,33.691,39.062,41.016,10.742,0
1583425034.590,39.062,31.738,40.039,37.109,43.945,0
1583425034.594,33.691,28.320,41.992,38.574,-15.137,0
1583425034.598,30.762,26.367,44.922,39.551,-6.836,0
1583425034.602,29.785,27.832,43.457,34.180,60.547,0
1583425034.600,22.949,28.809,42.480,31.250,-2.930,0
1583425034.604,18.066,29.297,43.945,30.273,-25.391,0
1583425034.608,26.367,32.227,40.039,36.133,-11.230,0
1583425034.612,23.926,32.227,35.156,36.133,16.113,0
1583425034.616,22.461,33.691,34.668,31.250,13.184,0
1583425034.620,34.668,36.621,36.133,38.086,56.152,0
1583425034.624,37.598,37.109,35.645,39.062,103.516,0
1583425034.627,39.062,39.062,32.227,34.668,55.664,0
1583425034.631,40.039,39.062,30.273,31.738,17.578,0
1583425034.635,35.156,36.621,27.344,30.273,18.066,0
1583425034.639,28.809,37.109,27.344,32.715,-9.277,0
1583425034.643,31.250,35.156,33.203,31.250,-12.695,0
1583425034.640,33.203,29.785,31.738,27.832,16.602,0
1583425034.644,30.762,26.855,30.273,25.879,78.613,0
1583425034.648,31.250,27.832,34.180,25.391,96.191,0
1583425034.652,34.180,31.738,34.668,24.902,34.180,0
1583425034.656,35.645,34.668,35.645,22.949,56.152,0
1583425034.660,35.156,34.668,37.598,23.926,32.715,0
1583425034.664,34.668,35.645,38.086,22.949,-47.363,0
1583425034.667,34.668,35.156,39.551,23.926,4.395,0
1583425034.671,35.156,35.645,34.180,28.320,35.645,0
1583425034.675,30.273,36.133,32.715,23.926,-4.395,0
1583425034.679,25.879,34.180,36.621,25.879,31.250,0
1583425034.683,32.715,34.668,32.227,32.715,47.852,0
1583425034.699,33.203,33.691,32.227,28.320,-13.184,0
1583425034.703,30.762,36.621,31.250,26.855,52.246,0
1583425034.707,28.320,35.156,28.809,23.926,61.035,0
1583425034.711,22.949,29.785,29.785,23.926,54.688,0
1583425034.715,21.484,30.273,25.879,31.250,55.176,0
1583425034.719,25.879,29.785,24.414,33.691,41.992,0
1583425034.723,27.344,31.250,27.344,32.715,19.043,0
1583425034.726,24.414,35.645,26.855,29.785,20.508,0
1583425034.730,22.461,34.180,26.367,26.367,71.777,0
1583425034.734,21.484,31.250,24.414,25.391,68.359,0
1583425034.738,25.391,35.156,20.020,32.715,70.801,0
1583425034.742,24.902,35.645,20.996,30.762,43.945,0
1583425034.739,22.461,31.250,25.391,24.414,74.219,0
1583425034.743,23.438,26.855,28.320,25.391,80.078,0
1583425034.747,28.809,28.320,29.785,29.785,22.949,0
1583425034.751,32.227,33.203,29.297,35.645,-15.625,0
1583425034.755,34.180,33.691,30.273,40.527,5.371,0
1583425034.759,34.180,33.691,31.250,41.992,50.293,0
1583425034.763,34.180,37.109,30.762,33.691,88.379,0
1583425034.766,36.133,38.086,28.809,33.203,51.270,0
1583425034.770,36.621,37.109,31.250,36.133,34.668,0
1583425034.774,38.086,38.574,35.645,32.227,44.434,0
1583425034.778,37.109,38.086,33.203,30.273,14.648,0
1583425034.782,33.691,36.133,30.273,32.227,-32.715,0
1583425034.779,29.297,35.156,33.691,36.133,-5.371,0
1583425034.783,25.879,36.621,35.645,33.691,20.996,0
1583425034.787,24.902,39.062,32.715,27.832,5.859,0
1583425034.791,24.902,41.016,31.250,28.320,40.527,0
1583425034.795,20.020,41.992,30.762,28.320,41.504,0
1583425034.799,20.020,39.551,29.297,24.902,39.551,0
1583425034.803,19.043,36.133,30.273,25.879,56.641,0
1583425034.806,20.020,39.062,32.227,27.832,63.965,0
1583425034.810,17.090,39.062,32.715,18.555,-14.160,0
1583425034.814,12.695,37.109,32.715,17.090,20.996,0
1583425034.818,21.973,39.551,34.668,31.738,111.328,0
1583425034.822,27.344,42.480,34.668,33.691,0.000,0
1583425034.839,27.832,42.969,30.762,30.273,18.555,0
1583425034.843,22.461,41.016,27.832,26.367,26.855,0
1583425034.847,19.043,40.527,29.297,20.508,-49.316,0
1583425034.851,21.484,37.598,32.715,16.602,67.871,0
1583425034.855,21.973,34.180,30.273,14.648,103.516,0
1583425034.859,19.531,34.180,29.785,15.625,13.672,0
1583425034.863,18.555,34.180,33.203,16.602,-23.438,0
1583425034.866,25.391,35.156,34.668,20.508,49.316,0
1583425034.870,29.297,34.180,37.109,24.902,57.129,0
1583425034.874,26.367,34.180,37.598,24.414,31.738,0
1583425034.878,27.832,36.621,35.645,26.855,46.875,0
1583425034.882,31.738,36.621,36.133,31.250,34.180,0
1583425034.879,34.668,37.598,38.574,32.227,62.988,0
1583425034.883,30.273,38.574,36.621,29.297,59.570,0
1583425034.887,26.367,36.621,32.715,24.414,28.320,0
1583425034.891,29.297,35.156,34.180,24.902,41.504,0
1583425034.895,25.879,37.598,39.551,27.344,30.273,0
1583425034.899,23.438,38.574,38.086,26.855,18.555,0
1583425034.903,27.344,37.598,33.203,26.855,8.301,0
1583425034.906,23.926,34.668,35.156,27.832,-51.758,0
1583425034.910,19.531,33.691,40.527,24.414,-25.391,0
1583425034.914,24.902,39.062,42.969,23.438,20.508,0
1583425034.918,28.809,41.504,45.898,21.973,1.953,0
1583425034.922,26.367,40.039,46.387,21.973,-17.090,0
1583425034.919,25.879,41.016,43.945,25.879,34.180,0
1583425034.923,25.391,39.062,44.922,25.879,26.855,0
1583425034.927,22.461,38.086,44.922,25.879,39.551,0
1583425034.931,21.973,40.527,46.875,29.785,22.949,0
1583425034.935,26.367,37.598,50.781,33.203,-41.992,0
1583425034.939,33.203,36.621,50.293,38.574,-26.367,0
1583425034.943,35.156,39.551,45.898,40.039,27.832,0
1583425034.946,31.250,38.574,40.527,37.109,48.340,0
1583425034.950,27.832,40.039,34.180,35.156,78.125,0
1583425034.954,26.367,41.992,36.621,29.297,74.707,0
1583425034.958,23.438,40.039,35.645,24.414,3.418,0
1583425034.962,18.066,38.574,32.715,27.832,15.625,0
1583425034.979,20.020,40.039,34.668,32.715,65.430,0
1583425034.983,18.066,39.551,36.621,20.020,37.109,0
1583425034.987,13.184,35.645,38.086,12.695,-8.301,0
1583425034.991,16.113,35.645,35.645,15.625,43.945,0
1583425034.995,15.137,36.133,31.738,10.254,148.926,0
1583425034.999,14.648,34.668,29.785,7.324,59.082,0
1583425035.003,14.648,34.668,29.785,10.254,32.227,0
1583425035.006,14.160,36.133,31.250,11.230,122.559,0
1583425035.010,15.137,36.621,29.785,8.301,78.613,0
1583425035.014,16.113,36.133,26.367,9.766,37.109,0
1583425035.018,15.137,34.668,28.809,15.625,35.156,0
1583425035.022,16.113,35.645,31.250,20.508,18.555,0
1583425035.019,21.973,35.645,31.250,23.438,-4.395,0
1583425035.023,21.484,34.180,30.762,27.832,31.250,0
1583425035.027,21.484,34.668,35.645,31.250,16.602,0
1583425035.031,22.461,33.203,41.992,33.203,-59.570,0
1583425035.035,20.996,33.691,41.992,31.738,-23.438,0
1583425035.039,21.484,35.645,37.598,25.391,-33.691,0
1583425035.043,27.344,35.156,36.133,27.344,0.488,0
1583425035.046,33.203,36.621,34.668,34.668,63.965,0
1583425035.050,31.250,37.598,31.738,38.574,50.293,0
1583425035.054,32.715,40.527,28.809,37.598,42.480,0
1583425035.058,31.738,42.480,26.367,34.668,18.066,0
1583425035.062,27.344,40.527,27.344,33.203,-22.461,0
1583425035.059,22.949,38.574,30.273,32.715,-13.672,0
1583425035.063,15.625,36.621,33.691,25.391,11.230,0
1583425035.067,14.648,36.133,35.645,19.531,78.125,0
1583425035.071,19.531,35.645,36.133,18.066,72.754,0
1583425035.075,12.207,34.668,39.551,10.742,-8.789,0
1583425035.079,7.324,36.133,37.109,4.883,8.301,0
1583425035.083,16.602,38.086,34.180,14.648,40.039,0
1583425035.086,20.020,40.527,34.180,21.484,6.836,0
1583425035.090,22.461,45.898,36.621,21.973,13.184,0
1583425035.094,26.855,44.922,41.016,26.367,81.055,0
1583425035.098,25.879,41.016,36.133,29.297,80.566,0
1583425035.102,27.344,39.062,32.715,28.809,31.250,0
1583425035.119,26.855,36.621,34.668,28.320,35.645,0
1583425035.123,24.414,37.598,34.668,29.785,64.941,0
1583425035.127,21.973,37.598,32.227,27.832,81.055,0
1583425035.131,20.508,36.621,29.297,25.391,78.613,0
1583425035.135,20.508,36.621,32.227,26.367,41.504,0
1583425035.139,18.555,36.621,33.203,28.320,20.508,0
1583425035.143,19.531,37.598,32.715,25.391,62.012,0
1583425035.146,26.855,36.621,34.180,29.297,40.039,0
1583425035.150,30.273,35.645,37.598,35.156,25.879,0
1583425035.154,25.391,34.668,38.086,30.273,-3.906,0
1583425035.158,22.461,34.668,38.574,30.273,21.484,0
1583425035.162,20.020,36.621,36.133,27.344,71.777,0
1583425035.159,17.578,35.645,33.691,22.461,34.180,0
1583425035.163,17.578,34.668,34.180,23.438,-6.348,0
1583425035.167,17.090,36.133,36.133,23.438,17.090,0
1583425035.171,13.184,37.598,35.156,19.531,41.504,0
1583425035.175,11.230,39.062,32.715,13.672,16.113,0
1583425035.179,9.766,36.621,32.715,9.277,47.852,0
1583425035.183,7.812,36.133,32.227,10.742,26.367,0
1583425035.186,4.883,37.598,31.738,13.184,-24.414,0
1583425035.190,10.254,36.133,31.250,11.719,-11.230,0
1583425035.194,19.531,37.598,31.738,13.672,23.926,0
1583425035.198,22.949,38.086,31.738,11.719,64.941,0
1583425035.202,24.414,36.621,30.762,11.719,32.715,0
1583425035.200,28.809,38.086,30.762,20.996,26.855,0
1583425035.204,35.645,39.551,32.227,24.902,63.965,0
1583425035.208,36.133,40.039,32.715,27.832,71.289,0
1583425035.212,36.133,38.086,34.668,35.156,45.898,0
1583425035.216,41.016,36.621,37.109,43.945,13.184,0
1583425035.220,39.062,37.109,39.551,44.922,13.672,0
1583425035.224,37.109,36.133,43.457,41.992,66.406,0
1583425035.227,34.668,36.621,43.945,40.039,54.199,0
1583425035.231,29.785,36.621,41.016,35.156,3.906,0
1583425035.235,28.320,34.180,42.480,34.668,-1.953,0
1583425035.239,32.227,37.598,41.992,34.180,36.621,0
1583425035.243,29.785,39.062,38.574,27.832,60.059,0
1583425035.259,26.855,39.062,33.691,25.391,47.363,0
1583425035.263,33.203,40.527,30.762,25.879,32.715,0
1583425035.267,29.785,41.504,32.227,24.902,47.363,0
1583425035.271,26.855,43.457,34.180,24.414,47.852,0
1583425035.275,25.391,43.945,35.645,21.484,60.547,0
1583425035.279,25.879,43.945,35.156,22.461,32.227,0
1583425035.283,26.367,42.969,35.156,22.949,-4.395,0
1583425035.286,28.809,41.016,34.668,20.508,67.871,0
1583425035.290,31.250,39.551,35.156,23.438,83.008,0
1583425035.294,26.855,38.574,42.480,26.367,39.551,0
1583425035.298,27.344,36.621,45.410,26.855,70.801,0
1583425035.302,28.809,34.668,39.551,25.391,55.664,0
1583425035.299,24.414,34.180,41.504,22.461,-6.348,0
1583425035.303,26.367,36.133,43.945,25.391,50.781,0
1583425035.307,26.855,37.109,39.551,25.879,28.809,0
1583425035.311,18.066,35.645,37.109,23.438,5.371,0
1583425035.315,17.578,35.645,37.109,22.461,41.992,0
1583425035.319,19.043,34.180,37.598,21.484,32.715,0
1583425035.323,18.555,36.133,38.574,24.902,16.602,0
1583425035.326,20.020,40.527,39.551,26.367,37.109,0
1583425035.330,20.508,36.621,39.062,26.367,-15.137,0
1583425035.334,25.879,36.133,37.598,27.832,27.344,0
1583425035.338,26.855,36.133,35.645,29.297,75.195,0
1583425035.342,30.273,35.156,35.645,32.715,-12.207,0
1583425035.339,34.668,36.133,38.086,31.250,41.992,0
1583425035.343,34.180,38.086,39.062,31.738,72.754,0
1583425035.347,30.762,37.598,35.156,31.250,-46.387,0
1583425035.351,24.902,35.156,35.156,28.320,-43.945,0
1583425035.355,24.902,37.109,38.574,23.926,-6.348,0
1583425035.359,25.879,39.062,38.574,20.508,38.086,0
1583425035.363,21.973,37.109,35.645,20.508,59.570,0
1583425035.366,27.344,38.574,30.762,20.020,77.637,0
1583425035.370,34.668,41.016,31.250,16.602,56.152,0
1583425035.374,33.203,40.039,35.156,14.160,-3.906,0
1583425035.378,31.738,40.527,37.109,17.578,9.766,0
1583425035.382,26.855,38.574,38.574,18.555,38.086,0
1583425035.399,29.785,39.551,34.668,22.461,26.855,0
1583425035.403,24.902,38.086,36.133,23.438,6.348,0
1583425035.407,19.043,36.133,37.598,26.855,41.016,0
1583425035.411,15.625,37.598,35.156,31.738,39.062,0
1583425035.415,10.742,36.133,30.273,27.344,38.086,1
1583425035.419,10.742,36.621,28.809,25.879,31.738,0
1583425035.423,5.859,34.180,35.156,24.902,34.668,0
1583425035.426,5.371,32.227,37.598,20.508,37.109,0
1583425035.430,9.766,34.180,36.621,22.949,20.020,0
1583425035.434,10.742,33.203,36.133,21.973,75.195,0
1583425035.438,16.113,32.715,36.133,26.367,25.391,0
1583425035.442,23.926,35.645,37.109,34.668,-9.277,0
1583425035.440,27.344,40.527,35.156,31.250,83.984,0
1583425035.444,34.180,42.480,34.180,30.762,88.379,0
1583425035.448,40.527,40.039,34.180,37.109,18.555,0
1583425035.452,36.621,36.621,33.691,34.668,-0.977,0
1583425035.456,28.809,36.621,37.109,25.879,33.203,0
1583425035.460,28.320,37.109,39.551,20.996,44.434,0
1583425035.464,29.785,37.598,37.109,20.996,39.062,0
1583425035.467,28.809,38.086,32.227,20.996,22.461,0
1583425035.471,28.809,39.551,31.738,20.508,29.785,0
1583425035.475,25.391,40.039,29.785,17.578,65.430,0
1583425035.479,20.020,37.598,22.949,11.719,29.785,0
1583425035.483,18.555,37.598,23.438,12.695,32.715,0
1583425035.479,18.066,34.668,25.391,15.137,89.355,0
1583425035.483,19.531,34.180,25.879,15.137,78.125,0
1583425035.487,20.508,36.133,29.785,16.602,44.922,0
1583425035.491,20.508,34.668,32.715,15.137,76.660,0
1583425035.495,15.625,34.180,33.691,15.137,101.562,0
1583425035.499,13.184,32.715,33.203,16.113,35.156,0
1583425035.503,16.113,31.738,33.691,17.090,49.805,0
1583425035.506,20.020,34.180,33.203,22.461,111.328,0
1583425035.510,22.461,35.156,32.715,24.414,47.852,0
1583425035.514,18.555,34.668,35.156,23.438,17.578,0
1583425035.518,13.184,35.156,32.227,22.461,95.215,0
1583425035.522,9.277,36.621,27.344,20.508,82.031,0
1583425035.539,13.672,33.691,26.855,23.926,67.871,0
1583425035.543,18.066,31.250,30.273,23.926,8.789,0
1583425035.547,17.578,28.809,32.715,17.578,-32.715,0
1583425035.551,18.066,27.832,32.227,17.578,10.742,0
1583425035.555,22.461,30.273,28.320,17.578,49.316,0
1583425035.559,30.273,29.785,28.809,15.137,34.180,0
1583425035.563,30.273,30.762,30.273,17.090,36.621,0
1583425035.566,32.715,34.668,30.273,21.973,3.418,0
1583425035.570,34.180,35.156,32.227,25.391,-45.410,0
1583425035.574,31.738,34.668,32.715,26.367,18.066,0
1583425035.578,36.621,38.574,30.762,29.785,48.340,0
1583425035.582,36.133,40.039,30.762,22.461,17.578,0
1583425035.580,31.738,40.039,34.180,17.090,14.160,0
1583425035.584,23.926,38.574,36.133,18.066,-0.977,0
1583425035.588,19.531,36.621,34.180,13.672,-9.277,0
1583425035.592,21.484,39.551,31.738,13.672,14.648,0
1583425035.596,17.578,38.574,32.227,13.672,-2.441,0
1583425035.600,15.625,36.133,33.691,17.090,50.293,0
1583425035.604,24.414,33.691,36.133,26.855,114.746,0
1583425035.607,20.020,30.762,42.969,26.855,90.820,0
1583425035.611,16.113,32.715,45.898,25.391,18.066,0
1583425035.615,18.555,35.156,46.875,25.391,22.949,0
1583425035.619,17.090,35.645,46.875,25.879,90.332,0
1583425035.623,12.695,35.156,45.898,29.297,75.195,0
1583425035.620,9.277,37.598,43.457,24.902,54.688,0
1583425035.624,12.207,38.086,40.039,22.949,23.926,0
1583425035.628,13.184,34.668,41.504,21.484,56.641,0
1583425035.632,14.160,35.156,41.504,19.043,26.855,0
1583425035.636,12.695,36.133,42.480,15.625,-5.859,0
1583425035.640,14.648,38.086,43.945,18.555,12.695,0
1583425035.644,20.020,38.574,45.410,25.391,-21.484,0
1583425035.647,20.020,39.062,44.922,19.531,-10.742,0
1583425035.651,23.438,38.574,44.434,20.020,-7.812,0
1583425035.655,26.367,35.645,44.434,23.926,2.930,0
1583425035.659,27.344,38.086,42.480,24.414,36.133,0
1583425035.663,26.855,41.016,39.551,24.414,65.918,0
1583425035.679,33.203,41.504,35.645,23.926,46.387,0
1583425035.683,35.156,37.598,34.180,23.438,39.062,0
1583425035.687,30.762,34.668,30.762,21.973,52.246,0
1583425035.691,28.320,34.180,25.879,21.973,60.547,0
1583425035.695,24.902,32.715,30.273,21.973,41.016,0
1583425035.699,18.555,30.762,37.109,20.996,19.531,0
1583425035.703,14.160,33.203,35.645,21.484,62.988,0
1583425035.706,18.066,36.621,32.715,26.855,46.875,0
1583425035.710,16.602,35.645,33.203,29.785,17.578,0
1583425035.714,15.137,35.156,33.203,22.949,41.016,0
1583425035.718,16.113,38.574,31.250,20.996,2.441,0
1583425035.722,11.230,40.527,35.156,22.949,-9.766,0
1583425035.719,12.695,37.109,38.086,25.391,51.270,0
1583425035.723,17.578,36.621,36.621,30.273,59.082,0
1583425035.727,24.902,38.574,40.039,34.668,40.527,0
1583425035.731,26.855,37.109,40.527,34.668,67.383,0
1583425035.735,19.531,32.715,40.527,34.668,26.367,0
1583425035.739,23.926,33.691,39.062,41.992,16.113,0
1583425035.743,26.855,34.668,37.109,39.551,74.219,0
1583425035.746,22.949,32.227,36.621,30.762,83.008,0
1583425035.750,26.367,32.715,30.273,33.691,45.410,0
1583425035.754,25.879,35.156,24.902,34.180,61.035,0
1583425035.758,25.391,34.180,28.320,31.250,59.082,0
1583425035.762,25.879,31.250,32.227,30.762,65.918,0
1583425035.760,27.832,30.762,31.738,27.344,56.152,0
1583425035.764,32.715,32.715,33.691,26.367,-12.207,0
1583425035.768,29.785,32.715,36.621,24.414,-60.059,0
1583425035.772,23.926,29.785,34.668,22.461,18.066,0
1583425035.776,20.996,29.785,36.621,25.391,82.031,0
1583425035.780,19.531,32.715,36.621,28.320,34.668,0
1583425035.784,20.508,33.691,34.668,26.855,-21.973,0
1583425035.787,20.508,36.621,33.203,22.461,17.090,0
1583425035.791,18.555,36.621,31.738,20.508,40.527,0
1583425035.795,18.555,35.645,31.250,22.949,29.785,0
1583425035.799,16.113,38.086,27.832,18.066,47.363,0
1583425035.803,14.160,38.574,26.367,15.137,91.797,0
1583425035.819,17.090,39.551,25.879,25.391,63.477,0
1583425035.823,16.602,38.574,28.320,27.832,-8.789,0
1583425035.827,16.113,37.109,33.203,27.344,6.836,0
1583425035.831,13.184,36.621,34.668,26.855,46.387,0
1583425035.835,8.789,33.203,34.668,20.996,59.570,0
1583425035.839,9.277,29.785,35.156,22.949,49.316,0
1583425035.843,10.742,30.273,35.156,27.344,40.039,0
1583425035.846,9.766,30.273,36.133,26.855,46.387,0
1583425035.850,14.648,30.762,33.691,26.855,33.691,0
1583425035.854,15.137,31.738,30.273,31.250,7.324,0
1583425035.858,14.648,34.668,27.344,29.297,24.414,0
1583425035.862,23.438,36.133,26.367,24.414,47.363,0
1583425035.859,24.414,33.203,29.297,24.902,56.641,0
1583425035.863,22.949,31.738,32.715,22.949,27.344,0
1583425035.867,30.762,35.156,34.668,28.809,24.414,0
1583425035.871,28.809,35.156,34.180,30.762,41.504,0
1583425035.875,25.391,37.109,34.180,25.879,26.367,0
1583425035.879,30.762,39.062,31.738,28.809,38.574,0
1583425035.883,27.832,36.621,30.273,26.367,28.809,0
1583425035.886,23.438,38.086,31.738,21.973,52.734,0
1583425035.890,24.414,38.574,30.273,20.508,20.020,0
1583425035.894,25.391,38.086,29.785,21.973,-25.879,0
1583425035.898,25.391,37.109,29.785,27.832,43.945,0
1583425035.902,25.391,37.109,28.809,29.785,31.738,0
1583425035.919,26.855,37.109,31.738,25.879,40.527,0
1583425035.923,25.879,37.598,32.227,26.367,100.098,0
1583425035.927,20.996,36.621,32.715,24.414,84.961,0
1583425035.931,11.230,35.645,32.715,22.461,41.504,0
1583425035.935,10.742,37.109,29.297,24.902,-10.742,0
1583425035.939,15.137,37.598,26.367,19.043,4.395,0
1583425035.943,14.648,36.621,25.879,20.020,42.969,0
1583425035.946,16.113,34.180,30.273,22.461,16.113,0
1583425035.950,17.578,34.668,34.180,23.438,12.207,0
1583425035.954,22.461,36.133,36.133,26.855,52.246,0
1583425035.958,25.879,34.668,36.621,31.738,-7.812,0
1583425035.962,27.344,34.668,36.621,38.086,-40.527,0
1583425035.959,28.320,33.691,39.062,38.086,-48.828,0
1583425035.963,31.250,33.691,38.574,35.645,-15.625,0
1583425035.967,34.668,34.668,37.598,34.668,46.387,0
1583425035.971,31.738,36.621,42.480,35.645,69.824,0
1583425035.975,26.855,37.598,43.945,34.180,86.426,0
1583425035.979,22.461,34.668,41.016,27.344,58.594,0
1583425035.983,25.391,35.156,40.039,22.949,50.293,0
1583425035.986,28.320,35.645,36.621,20.508,48.828,0
1583425035.990,25.391,33.691,36.133,20.996,41.992,0
1583425035.994,26.367,34.180,37.598,24.414,49.805,0
1583425035.998,26.855,35.645,34.668,21.973,51.270,0
1583425036.002,21.973,34.180,35.156,22.949,1.465,0
1583425035.999,21.973,33.203,38.086,24.902,1.953,0
1583425036.003,22.949,34.180,39.551,23.926,64.453,0
1583425036.007,19.531,33.203,34.180,22.461,50.781,0
1583425036.011,17.090,32.227,30.273,16.113,-3.418,0
1583425036.015,18.555,32.227,31.250,12.207,36.133,0
1583425036.019,20.020,32.715,27.832,16.113,81.055,0
1583425036.023,17.578,34.668,26.367,14.648,60.547,0
1583425036.026,19.043,36.621,26.855,13.672,27.344,0
1583425036.030,23.438,41.016,28.320,20.508,15.625,0
1583425036.034,20.020,40.527,30.273,19.531,49.805,0
1583425036.038,17.578,37.598,32.715,13.184,64.941,0
1583425036.042,15.137,40.039,35.645,15.625,39.551,0
1583425036.059,11.719,39.062,41.504,17.090,44.434,0
1583425036.063,14.160,38.574,40.039,17.578,26.367,0
1583425036.067,16.602,37.598,38.086,19.043,6.348,0
1583425036.071,21.973,35.645,39.551,25.879,45.410,0
1583425036.075,26.855,35.645,40.039,35.156,65.430,0
1583425036.079,28.809,34.180,41.504,44.434,53.711,0
1583425036.083,29.785,33.691,40.039,48.828,69.824,0
1583425036.086,24.902,31.250,41.504,42.969,46.387,0
1583425036.090,22.949,28.320,42.480,40.039,73.242,0
1583425036.094,25.391,29.297,39.551,42.480,60.059,0
1583425036.098,22.949,31.738,41.992,40.039,-1.465,0
1583425036.102,22.461,31.738,41.016,34.180,12.207,0
1583425036.099,15.625,28.809,35.156,26.855,35.156,0
1583425036.103,14.648,29.297,31.250,22.461,62.012,0
1583425036.107,20.996,31.250,33.203,20.996,52.734,0
1583425036.111,23.438,33.691,35.156,21.973,5.859,0
1583425036.115,27.344,34.180,33.691,21.973,19.531,0
1583425036.119,28.320,35.645,37.598,22.949,56.641,0
1583425036.123,25.879,38.574,39.062,19.531,59.570,0
1583425036.126,27.832,38.574,36.133,19.531,-22.949,0
1583425036.130,30.273,37.598,36.621,20.996,-25.391,0
1583425036.134,27.344,38.574,32.715,18.066,29.297,0
1583425036.138,27.832,38.574,29.297,18.555,1.953,0
1583425036.142,25.391,36.621,29.297,17.090,-2.441,0
1583425036.140,20.508,37.598,30.273,16.113,20.020,0
1583425036.144,19.043,38.574,34.180,18.066,46.875,0
1583425036.148,19.043,37.109,35.645,15.137,70.312,0
1583425036.152,17.578,38.574,37.109,10.742,82.031,0
1583425036.156,18.066,41.016,38.574,10.742,86.426,0
1583425036.160,19.043,41.016,36.621,17.090,41.504,0
1583425036.164,18.066,37.109,36.621,21.484,26.855,0
1583425036.167,18.066,36.133,34.668,23.926,13.672,0
1583425036.171,18.555,35.156,31.738,27.344,42.480,0
1583425036.175,17.090,33.203,34.180,27.832,27.832,0
1583425036.179,16.602,33.691,36.133,31.250,-52.246,0
1583425036.183,18.555,33.691,35.645,37.109,-10.742,0
1583425036.199,26.367,32.715,34.180,44.434,6.348,0
1583425036.203,33.691,35.645,34.180,46.387,-12.207,0
1583425036.207,32.715,35.156,35.156,39.551,51.270,0
1583425036.211,29.297,32.715,35.645,35.156,54.199,0
1583425036.215,25.391,35.156,34.180,32.715,21.973,0
1583425036.219,23.926,35.156,31.250,26.367,38.574,0
1583425036.223,18.066,34.180,29.785,18.555,16.113,0
1583425036.226,19.043,37.598,32.227,14.648,39.551,0
1583425036.230,23.438,37.598,30.762,15.625,56.152,0
1583425036.234,18.555,33.691,31.250,14.160,-17.090,0
1583425036.238,18.555,31.250,34.668,14.648,5.371,0
1583425036.242,24.902,34.668,35.156,18.555,52.734,0
1583425036.239,31.250,39.551,33.203,22.461,42.969,0
1583425036.243,29.297,36.621,29.785,20.020,57.617,0
1583425036.247,30.273,36.133,29.297,19.531,56.641,0
1583425036.251,33.691,40.039,29.785,28.320,6.836,0
1583425036.255,31.250,41.016,26.855,28.809,-9.277,0
1583425036.259,23.926,39.551,26.855,18.555,16.602,0
1583425036.263,25.879,40.039,29.785,18.555,34.180,0
1583425036.266,29.785,40.039,29.297,19.043,33.691,0
1583425036.270,24.902,38.574,29.297,17.090,23.926,0
1583425036.274,26.855,38.574,29.297,23.438,57.617,0
1583425036.278,28.809,37.598,29.297,24.902,63.477,0
1583425036.282,27.344,32.227,34.668,28.320,13.672,0
1583425036.279,25.391,30.762,37.109,39.062,37.598,0
1583425036.283,26.367,34.668,36.133,43.457,84.961,0
1583425036.287,29.297,35.156,35.645,44.434,77.148,0
1583425036.291,30.762,33.203,36.621,45.410,26.367,0
1583425036.295,23.926,35.645,36.621,36.621,-8.301,0
1583425036.299,20.508,37.109,33.203,32.227,-30.273,0
1583425036.303,18.066,31.738,29.785,27.832,-9.277,0
1583425036.306,15.625,31.250,29.785,19.531,31.738,0
1583425036.310,13.184,35.156,32.227,14.160,16.113,0
1583425036.314,7.812,35.156,35.645,7.812,16.602,0
1583425036.318,5.859,31.738,37.598,7.812,26.367,0
1583425036.322,7.324,31.738,34.668,5.859,24.414,0
1583425036.339,12.695,33.691,32.227,4.883,38.086,0
1583425036.343,19.043,34.668,34.180,7.324,32.715,0
1583425036.347,19.043,34.180,34.180,7.324,0.488,0
1583425036.351,19.531,34.180,33.691,8.301,-17.090,0
1583425036.355,21.484,37.598,34.668,10.254,10.254,0
1583425036.359,22.949,39.551,33.203,16.113,71.777,0
1583425036.363,25.879,38.086,31.738,20.508,87.402,0
1583425036.366,23.926,37.109,35.645,19.043,61.523,0
1583425036.370,22.949,36.621,36.133,22.949,30.762,0
1583425036.374,21.973,36.621,32.227,29.785,58.105,0
1583425036.378,20.996,38.574,31.250,32.715,67.383,0
1583425036.382,21.973,39.551,30.273,34.180,-14.648,0
1583425036.379,21.484,37.109,30.762,26.367,-14.648,0
1583425036.383,19.043,34.668,30.762,15.137,36.621,0
1583425036.387,18.066,37.598,29.785,14.648,29.785,0
1583425036.391,23.926,41.504,28.809,18.066,2.441,0
1583425036.395,28.809,38.574,30.762,20.508,16.113,0
1583425036.399,26.855,35.645,34.668,19.043,22.949,0
1583425036.403,22.461,35.645,36.133,17.090,17.578,0
1583425036.406,24.902,38.574,38.086,20.996,16.602,0
1583425036.410,25.879,36.133,38.086,27.344,61.035,0
1583425036.414,21.973,35.156,34.180,34.668,47.852,0
1583425036.418,24.902,36.621,35.645,34.668,-0.977,0
1583425036.422,24.902,37.598,40.039,30.762,61.523,0
1583425036.419,22.461,35.645,36.621,29.297,84.473,0
1583425036.423,22.461,33.203,35.156,25.391,35.645,0
1583425036.427,26.855,35.156,35.645,27.832,58.594,0
1583425036.431,29.785,34.180,37.109,33.203,62.012,0
1583425036.435,31.738,34.668,41.504,34.180,58.594,0
1583425036.439,33.691,35.156,39.551,34.180,81.055,0
1583425036.443,30.762,36.133,37.598,36.133,108.398,0
1583425036.446,28.320,37.598,39.062,37.109,166.016,0
1583425036.450,27.344,38.086,37.109,36.621,82.520,0
1583425036.454,25.879,36.133,41.504,37.109,-14.160,0
1583425036.458,27.832,36.133,41.504,39.551,-0.488,0
1583425036.462,24.902,39.062,36.133,37.109,14.648,0
1583425036.479,19.531,36.621,34.668,38.086,14.648,0
1583425036.483,17.578,35.645,33.203,40.527,35.156,0
1583425036.487,13.672,36.621,31.250,33.691,24.414,0
1583425036.491,16.113,38.574,33.203,32.227,-17.090,0
1583425036.495,18.066,38.574,32.227,26.367,-0.488,0
1583425036.499,19.043,39.551,28.320,22.461,60.547,0
1583425036.503,16.113,41.016,27.344,20.020,32.715,0
1583425036.506,4.883,39.551,26.855,8.789,-4.395,0
1583425036.510,3.418,39.062,27.344,5.859,-10.254,0
1583425036.514,14.648,39.062,27.832,11.719,41.504,0
1583425036.518,26.367,41.016,26.855,14.648,121.582,0
1583425036.522,33.203,42.969,27.344,16.113,82.031,0
1583425036.519,34.668,41.992,27.344,16.602,17.578,0
1583425036.523,40.039,42.969,26.855,21.973,87.891,0
1583425036.527,45.410,42.480,28.320,24.902,104.004,0
1583425036.531,50.781,40.527,31.738,26.855,1.953,0
1583425036.535,51.270,41.992,33.691,31.738,18.555,0
1583425036.539,45.410,42.969,34.668,31.250,42.480,0
1583425036.543,44.922,41.992,34.668,33.203,-7.812,1
1583425036.546,42.480,37.598,34.668,33.691,33.691,0
1583425036.550,37.598,34.180,37.109,35.156,66.895,0
1583425036.554,30.762,36.621,36.621,37.598,25.391,0
1583425036.558,28.320,37.598,37.109,35.645,16.113,0
1583425036.562,28.320,35.645,41.992,34.668,26.367,0
1583425036.559,29.297,38.086,37.598,35.645,50.781,0
1583425036.563,31.250,39.551,33.691,36.133,51.270,0
1583425036.567,29.297,35.645,36.133,32.227,43.945,0
1583425036.571,30.273,36.133,38.574,28.809,55.664,0
1583425036.575,27.832,36.133,41.504,26.367,69.824,0
1583425036.579,19.043,35.156,40.039,21.484,16.602,0
1583425036.583,13.184,35.156,42.480,21.973,10.742,0
1583425036.586,16.602,33.691,39.551,26.855,50.781,0
1583425036.590,11.719,34.180,35.645,23.926,12.207,0
1583425036.594,10.742,36.133,38.574,20.020,-19.043,0
1583425036.598,18.555,39.062,36.133,20.996,62.500,0
1583425036.602,20.996,41.504,33.691,17.090,94.727,0
1583425036.619,20.508,39.062,33.691,14.648,41.504,0
1583425036.623,20.020,37.109,35.645,16.113,4.395,0
1583425036.627,23.438,37.598,36.133,16.113,17.578,0
1583425036.631,26.855,36.133,35.156,17.090,66.895,0
1583425036.635,27.344,37.109,33.691,15.625,34.180,0
1583425036.639,27.832,39.551,35.156,20.020,20.508,0
1583425036.643,32.715,39.551,36.621,27.832,11.719,0
1583425036.646,33.691,37.109,32.715,27.832,-2.441,0
1583425036.650,28.809,35.645,30.762,24.414,-13.672,0
1583425036.654,22.461,33.691,32.227,19.043,0.977,0
1583425036.658,20.996,32.715,30.762,22.949,34.180,0
1583425036.662,26.367,36.133,28.320,33.691,2.441,0
1583425036.659,28.809,35.645,30.762,33.691,10.254,0
1583425036.663,25.391,32.227,35.645,31.250,48.340,0
1583425036.667,22.949,29.785,36.621,34.668,75.684,0
1583425036.671,23.926,28.809,35.156,35.645,83.984,0
1583425036.675,27.832,31.738,37.598,36.133,30.762,0
1583425036.679,25.879,31.250,34.668,32.227,10.742,0
1583425036.683,24.902,31.738,32.227,28.809,60.547,0
1583425036.686,22.949,35.156,34.180,31.250,87.891,0
1583425036.690,22.461,33.691,31.738,30.273,67.383,0
1583425036.694,22.949,31.250,28.809,26.367,38.086,0
1583425036.698,26.367,31.738,27.832,24.414,41.992,0
1583425036.702,25.879,31.738,30.273,26.367,-14.160,0
1583425036.699,23.438,35.156,33.203,29.297,-35.156,0
1583425036.703,26.367,36.133,33.691,29.785,25.391,0
1583425036.707,24.414,33.691,33.203,26.367,50.293,0
1583425036.711,24.414,34.180,31.250,22.949,61.523,0
1583425036.715,21.484,33.691,29.785,20.020,79.102,0
1583425036.719,20.508,35.156,29.297,19.043,69.336,0
1583425036.723,22.461,35.156,26.367,20.020,43.457,0
1583425036.726,19.043,33.203,25.879,20.996,24.414,0
1583425036.730,14.160,32.715,28.320,18.555,-11.230,0
1583425036.734,13.672,32.227,30.273,17.090,22.949,0
1583425036.738,14.160,33.203,29.297,17.090,17.090,0
1583425036.742,10.254,33.203,30.762,16.602,4.395,0
1583425036.759,10.254,33.203,29.785,17.090,55.176,0
1583425036.763,9.277,34.180,26.855,15.137,59.082,0
1583425036.767,6.348,33.203,26.367,10.742,13.672,0
1583425036.771,9.277,33.691,24.414,12.207,-43.457,0
1583425036.775,11.230,34.668,25.879,18.555,12.207,0
1583425036.779,15.137,31.738,26.855,20.996,101.562,0
1583425036.783,25.879,31.738,29.785,23.438,118.652,0
1583425036.786,31.250,32.715,32.227,29.785,34.668,0
1583425036.790,29.297,31.738,32.715,37.109,15.625,0
1583425036.794,28.809,33.203,33.691,37.598,38.574,0
1583425036.798,30.762,36.621,34.668,37.598,18.066,0
1583425036.802,29.297,39.062,33.691,40.039,40.039,0
1583425036.799,27.832,36.133,32.227,35.156,9.277,0
1583425036.803,25.391,35.156,33.203,37.109,2.441,0
1583425036.807,23.438,38.086,29.297,31.738,2.930,0
1583425036.811,24.902,34.668,30.273,22.949,-13.184,0
1583425036.815,24.902,32.715,32.227,31.250,42.480,0
1583425036.819,25.879,36.133,30.273,34.180,18.066,0
1583425036.823,28.320,36.133,28.809,33.691,-21.973,0
1583425036.826,29.297,33.691,24.902,32.715,11.230,0
1583425036.830,24.902,35.645,25.879,28.320,51.758,0
1583425036.834,21.973,37.598,27.832,28.809,36.621,0
1583425036.838,25.879,34.668,25.391,28.809,36.621,0
1583425036.842,30.762,34.668,24.902,24.902,77.637,0
1583425036.840,26.367,34.668,24.902,20.996,50.293,0
1583425036.844,23.926,33.203,29.785,22.949,83.984,0
1583425036.848,20.508,31.250,35.645,25.391,107.422,0
1583425036.852,21.484,29.785,38.086,24.902,43.457,0
1583425036.856,26.855,32.715,40.039,23.926,18.555,0
1583425036.860,27.344,34.668,36.133,24.414,16.602,0
1583425036.864,29.785,35.645,31.738,27.344,-4.883,0
1583425036.867,27.344,38.574,34.180,24.902,3.418,0
1583425036.871,27.344,41.016,34.180,23.926,23.438,0
1583425036.875,24.902,40.039,32.227,24.902,45.410,0
1583425036.879,21.484,37.598,29.785,24.414,63.477,0
1583425036.883,21.973,34.668,30.273,23.438,44.922,0
1583425036.899,20.508,33.691,31.250,23.438,24.902,0
1583425036.903,16.602,31.738,33.203,25.879,2.930,0
1583425036.907,11.230,30.762,33.203,28.320,34.668,0
1583425036.911,11.719,30.273,29.785,24.902,20.996,0
1583425036.915,15.625,30.273,32.227,22.461,30.762,0
1583425036.919,18.555,34.180,32.715,20.020,90.820,0
1583425036.923,20.020,36.621,28.320,21.973,17.578,0
1583425036.926,20.996,35.645,29.785,22.461,-47.363,0
1583425036.930,22.949,35.645,32.227,17.578,-7.812,0
1583425036.934,22.949,34.180,31.738,18.555,56.641,0
1583425036.938,22.949,33.691,31.250,23.926,80.566,0
1583425036.942,25.391,34.668,31.738,26.855,33.203,0
1583425036.959,26.855,36.133,30.762,25.391,17.578,0
1583425036.963,29.785,36.621,28.809,26.367,41.504,0
1583425036.967,30.762,37.598,28.320,28.320,85.449,0
1583425036.971,32.227,39.551,29.785,29.785,34.180,0
1583425036.975,35.156,38.086,34.668,32.715,-9.277,0
1583425036.979,38.574,38.574,35.156,34.180,41.504,0
1583425036.983,38.574,38.574,34.180,30.762,53.711,0
1583425036.986,38.574,40.527,35.156,31.250,39.551,0
1583425036.990,34.668,43.945,31.738,34.180,57.617,0
1583425036.994,28.809,42.969,30.273,25.391,64.941,0
1583425036.998,27.344,41.504,29.297,20.020,41.016,0
1583425037.002,23.926,41.016,29.785,21.973,23.926,0
1583425036.979,23.438,39.551,32.227,20.508,62.988,0
1583425036.983,20.020,38.574,30.762,20.508,32.715,0
1583425036.987,19.043,39.551,30.273,22.949,-5.371,0
1583425036.991,17.090,38.086,31.738,25.391,17.578,0
