timestamps,TP9,AF7,AF8,TP10,Right AUX,Marker0
1583425315.620,20.996,35.156,33.203,20.020,12.695,0
1583425315.624,21.484,36.133,34.668,16.602,46.387,0
1583425315.628,22.949,34.668,34.668,18.066,67.871,0
1583425315.632,29.785,37.109,33.203,19.531,58.105,0
1583425315.636,34.180,41.504,33.691,19.531,48.828,0
1583425315.640,39.062,43.945,31.738,20.508,57.617,0
1583425315.644,44.922,43.457,32.715,25.879,52.734,0
1583425315.647,40.527,41.504,33.691,27.832,36.621,0
1583425315.651,49.316,41.016,33.203,33.203,67.871,0
1583425315.655,55.176,38.086,37.109,39.062,46.387,0
1583425315.659,54.199,39.062,40.039,36.133,20.020,0
1583425315.663,59.082,41.992,44.434,38.574,25.879,0
1583425315.680,55.664,38.574,46.387,38.086,-36.621,0
1583425315.684,46.875,36.621,44.922,24.902,17.090,0
1583425315.688,43.945,36.133,44.434,25.879,55.176,0
1583425315.692,44.434,38.574,41.504,26.855,44.922,0
1583425315.696,51.758,40.039,39.062,20.996,106.934,0
1583425315.700,55.664,40.039,40.527,19.043,79.102,0
1583425315.704,50.293,43.457,28.809,16.602,22.461,0
1583425315.707,46.387,42.480,25.391,18.555,9.277,0
1583425315.711,37.598,39.062,39.551,20.020,68.359,0
1583425315.715,30.762,39.062,37.109,21.484,36.621,0
1583425315.719,22.461,36.133,32.227,20.508,-73.242,0
1583425315.723,16.602,35.645,32.227,15.137,-80.078,0
1583425315.720,20.508,34.668,34.180,21.973,24.902,0
1583425315.724,22.949,32.715,33.203,26.855,95.215,0
1583425315.728,22.461,31.738,29.785,26.855,64.453,0
1583425315.732,18.066,33.691,28.809,27.832,60.059,0
1583425315.736,34.180,36.621,32.227,32.715,73.242,0
1583425315.740,47.363,39.062,33.691,34.668,56.641,0
1583425315.744,45.898,40.527,31.738,32.227,71.289,0
1583425315.747,42.969,38.574,30.762,24.902,60.059,0
1583425315.751,50.293,36.133,27.832,27.344,19.043,0
1583425315.755,58.594,37.598,27.832,39.062,60.059,0
1583425315.759,54.688,39.062,30.762,36.133,10.742,0
1583425315.763,56.152,37.598,25.391,29.297,-57.617,0
1583425315.760,51.758,38.086,27.832,34.668,28.320,0
1583425315.764,55.664,40.039,38.574,46.387,66.895,0
1583425315.768,61.035,41.016,41.504,43.945,-23.926,0
1583425315.772,55.176,41.016,40.039,38.574,-9.277,0
1583425315.776,48.828,41.016,36.133,36.621,50.293,0
1583425315.780,48.828,41.992,31.250,35.645,-2.441,0
1583425315.784,40.527,40.527,31.250,28.320,-23.438,0
1583425315.787,35.645,38.574,32.715,20.996,2.441,0
1583425315.791,37.598,36.621,34.180,23.438,-22.949,0
1583425315.795,29.785,32.715,30.762,24.414,24.902,0
1583425315.799,30.762,29.297,27.344,29.785,96.680,0
1583425315.803,26.855,30.273,31.738,17.090,33.203,0
1583425315.820,22.949,34.668,27.832,9.766,-0.977,0
1583425315.824,29.297,35.645,25.879,19.531,32.227,0
1583425315.828,27.344,32.715,31.250,17.578,62.988,0
1583425315.832,32.715,33.691,31.250,20.508,20.020,0
1583425315.836,38.086,34.668,32.227,22.461,15.137,0
1583425315.840,25.879,31.250,32.227,22.949,59.570,0
1583425315.844,27.344,36.133,35.645,25.879,8.301,0
1583425315.847,39.062,39.062,34.668,29.297,38.574,0
1583425315.851,39.551,38.574,30.762,32.227,62.500,0
1583425315.855,39.551,38.086,30.273,28.320,18.555,0
1583425315.859,40.039,39.551,31.738,32.227,8.301,0
1583425315.863,42.480,41.504,33.203,39.062,-18.066,0
1583425315.860,44.434,39.062,30.273,40.527,26.855,0
1583425315.864,43.457,40.527,34.668,38.086,45.410,0
1583425315.868,40.039,38.574,39.062,33.691,45.898,0
1583425315.872,37.109,36.621,37.109,33.691,31.738,0
1583425315.876,39.062,37.109,36.621,35.645,17.090,0
1583425315.880,32.715,38.086,30.762,31.250,21.973,0
1583425315.884,30.762,39.062,28.809,31.738,36.621,0
1583425315.887,35.645,36.621,37.598,29.785,54.199,0
1583425315.891,34.180,34.668,37.109,29.297,111.816,0
1583425315.895,29.297,35.645,33.203,28.809,69.824,0
1583425315.899,18.066,36.621,32.227,22.461,19.043,0
1583425315.903,16.113,36.133,36.621,25.879,69.336,0
1583425315.900,27.832,37.109,42.480,28.809,49.316,0
1583425315.904,34.668,39.062,37.598,25.391,12.207,0
1583425315.908,34.668,37.598,35.645,27.344,-26.855,0
1583425315.912,34.668,34.180,41.016,27.832,8.301,0
1583425315.916,42.480,34.180,41.504,32.227,9.277,0
1583425315.920,40.039,34.668,41.016,32.227,-2.930,0
1583425315.924,35.156,33.691,41.992,28.809,58.105,0
1583425315.927,37.598,36.133,36.133,29.785,22.949,0
1583425315.931,34.180,38.086,30.273,21.973,84.473,0
1583425315.935,26.855,39.062,31.250,15.137,77.637,0
1583425315.939,19.531,38.086,28.320,12.207,17.090,0
1583425315.943,20.020,39.551,27.344,13.184,37.598,0
1583425315.960,22.949,41.016,27.344,21.973,-4.395,0
1583425315.964,34.180,46.875,27.832,27.344,22.949,0
1583425315.968,39.062,47.363,31.250,31.250,49.805,0
1583425315.972,38.574,41.016,31.250,30.273,41.504,0
1583425315.976,41.016,42.969,31.738,31.250,67.871,0
1583425315.980,39.062,43.457,30.762,32.715,66.406,0
1583425315.984,42.480,39.062,35.156,33.691,50.293,0
1583425315.987,41.016,37.598,37.598,33.203,59.570,0
1583425315.991,30.762,36.621,35.156,27.832,112.305,0
1583425315.995,25.391,36.133,34.180,31.738,109.863,0
1583425315.999,31.738,37.598,32.715,35.156,66.895,0
1583425316.003,33.691,34.180,36.133,33.203,7.812,0
1583425316.000,26.855,31.738,39.062,36.133,30.273,0
1583425316.004,23.438,32.227,37.109,38.086,59.570,0
1583425316.008,22.949,30.273,35.156,33.203,31.250,0
1583425316.012,18.066,27.344,34.668,28.320,-9.277,0
1583425316.016,19.531,28.320,32.715,33.203,8.301,0
1583425316.020,25.879,29.785,31.250,39.062,20.508,0
1583425316.024,23.438,30.762,27.344,38.574,-0.977,0
1583425316.027,21.484,33.691,29.785,32.227,25.879,0
1583425316.031,23.438,29.297,33.691,29.297,85.449,0
1583425316.035,27.344,33.203,32.227,25.879,65.430,0
1583425316.039,27.832,38.574,31.738,23.926,-0.977,0
1583425316.043,26.367,36.621,30.273,27.832,-15.137,0
1583425316.040,28.320,37.598,30.273,29.785,-23.926,0
1583425316.044,30.273,39.062,32.227,30.273,5.371,0
1583425316.048,32.715,40.039,32.227,31.250,69.824,0
1583425316.052,30.762,40.039,35.645,24.902,59.570,0
1583425316.056,23.926,42.480,37.598,12.695,49.316,0
1583425316.060,25.879,41.016,37.109,13.672,45.898,0
1583425316.064,28.809,36.133,38.086,25.879,41.992,0
1583425316.067,29.297,38.086,39.551,23.438,73.730,0
1583425316.071,29.785,38.574,40.527,15.137,39.062,0
1583425316.075,23.926,38.086,41.016,19.043,28.809,0
1583425316.079,22.949,39.062,40.527,21.973,42.969,0
1583425316.083,24.414,39.062,34.180,24.414,20.020,0
1583425316.101,24.902,40.527,31.250,27.344,73.730,0
1583425316.105,20.508,38.574,37.109,24.414,83.496,0
1583425316.109,20.996,35.156,35.156,28.809,27.344,0
1583425316.113,28.320,33.203,32.227,34.180,26.855,0
1583425316.117,33.203,35.156,34.668,41.016,26.367,0
1583425316.121,34.668,40.039,35.156,40.039,42.480,0
1583425316.125,35.156,41.016,33.203,38.574,29.785,0
1583425316.128,32.227,36.133,33.203,40.527,41.016,0
1583425316.132,28.809,32.715,36.621,33.203,48.340,0
1583425316.136,32.227,30.762,36.133,35.156,24.414,0
1583425316.140,30.273,31.738,35.645,38.574,51.758,0
1583425316.144,28.320,32.715,36.133,35.156,87.891,0
1583425316.140,28.809,33.203,36.621,34.668,122.559,0
1583425316.144,21.484,33.203,36.621,32.715,92.773,0
1583425316.148,19.531,35.156,35.645,31.738,26.855,0
1583425316.152,18.555,35.645,34.180,28.320,19.531,0
1583425316.156,20.020,33.203,34.668,29.785,21.484,0
1583425316.160,22.949,34.668,39.062,29.297,36.621,0
1583425316.164,26.367,38.574,37.109,25.391,84.473,0
1583425316.167,25.879,36.133,35.156,22.949,89.844,0
1583425316.171,26.367,32.227,40.039,24.414,83.496,0
1583425316.175,27.832,32.227,40.039,24.414,40.527,0
1583425316.179,26.855,31.738,41.992,25.879,-3.906,0
1583425316.183,25.879,35.156,40.039,25.391,-21.973,0
1583425316.180,26.855,34.668,34.180,24.902,-36.621,0
1583425316.184,32.227,31.250,40.039,30.762,-28.320,0
1583425316.188,31.250,29.785,45.410,29.785,29.297,0
1583425316.192,33.203,32.715,41.016,30.273,63.965,0
1583425316.196,37.109,33.691,39.062,38.086,34.668,0
1583425316.200,33.691,32.715,41.016,37.109,57.617,0
1583425316.204,29.785,33.203,38.574,31.738,48.828,0
1583425316.207,29.785,36.133,37.109,30.273,-9.277,0
1583425316.211,30.273,36.621,38.086,27.832,18.555,0
1583425316.215,23.926,36.133,36.621,26.855,27.344,0
1583425316.219,18.066,39.062,35.645,26.855,19.531,0
1583425316.223,16.602,41.504,36.621,31.250,69.824,0
1583425316.240,21.484,41.016,38.086,38.086,101.562,0
1583425316.244,22.949,36.133,37.109,35.645,65.918,0
1583425316.248,21.484,33.691,38.086,31.250,20.508,0
1583425316.252,22.461,33.691,41.504,31.738,22.949,0
1583425316.256,20.996,32.227,44.922,30.273,10.742,0
1583425316.260,22.949,36.133,45.410,33.691,9.277,0
1583425316.264,31.250,40.527,41.016,38.574,44.922,0
1583425316.267,33.691,39.551,38.574,32.227,20.996,0
1583425316.271,33.691,40.039,32.715,28.320,7.324,0
1583425316.275,32.227,41.016,30.762,27.832,0.000,0
1583425316.279,31.738,41.504,38.574,28.320,17.578,0
1583425316.283,36.621,40.527,38.086,28.320,6.348,0
1583425316.280,39.062,35.645,37.598,30.273,11.719,0
1583425316.284,34.180,32.715,36.621,34.668,76.660,0
1583425316.288,33.203,32.715,35.645,28.809,41.504,0
1583425316.292,35.156,33.203,39.551,29.785,25.879,0
1583425316.296,28.809,33.691,42.480,35.645,73.730,0
1583425316.300,26.855,31.738,39.062,27.344,85.938,0
1583425316.304,34.668,33.203,33.691,20.996,80.566,0
1583425316.307,40.039,34.668,31.738,29.785,47.852,0
1583425316.311,31.250,33.691,33.203,32.715,50.293,0
1583425316.315,27.344,31.738,34.668,34.180,88.867,0
1583425316.319,29.785,32.227,37.109,39.062,-41.504,0
1583425316.323,27.832,35.156,37.109,35.645,-27.344,0
1583425316.320,27.344,34.668,39.551,32.715,43.457,0
1583425316.324,20.996,34.180,40.527,30.762,57.617,0
1583425316.328,19.531,36.133,36.133,33.203,38.086,0
1583425316.332,26.855,37.109,35.156,31.250,53.223,0
1583425316.336,30.762,36.133,36.133,28.320,86.426,0
1583425316.340,25.391,34.668,35.156,24.414,51.758,0
1583425316.344,21.973,35.156,35.645,23.438,10.742,0
1583425316.347,28.320,40.039,36.133,34.668,8.789,0
1583425316.351,33.203,40.039,38.574,32.227,50.781,0
1583425316.355,29.785,34.668,41.504,24.414,62.012,0
1583425316.359,29.785,36.621,40.527,26.855,43.945,0
1583425316.363,31.738,38.574,38.574,28.320,60.059,0
1583425316.380,30.762,38.574,39.062,25.879,83.984,0
1583425316.384,25.879,37.109,36.621,28.320,44.434,0
1583425316.388,18.066,31.738,36.133,27.832,41.992,0
1583425316.392,14.160,32.227,41.504,22.949,11.719,0
1583425316.396,15.137,31.738,40.039,24.902,0.488,0
1583425316.400,15.137,31.250,35.156,28.320,37.109,0
1583425316.404,10.254,30.273,35.645,24.902,99.609,0
1583425316.407,8.789,29.785,36.621,24.414,77.148,0
1583425316.411,17.090,31.738,39.062,29.785,79.590,0
1583425316.415,24.414,34.668,36.133,34.668,50.781,0
1583425316.419,29.785,37.109,32.715,39.551,34.180,0
1583425316.423,32.227,38.086,33.691,45.410,17.578,0
1583425316.420,31.250,39.062,32.715,37.109,-23.438,0
1583425316.424,30.762,41.504,32.715,32.715,-5.371,0
1583425316.428,37.598,43.457,26.855,39.062,5.859,0
1583425316.432,36.621,42.480,23.926,34.668,19.531,0
1583425316.436,34.180,41.504,30.762,30.273,-18.555,0
1583425316.440,31.250,38.574,34.668,32.715,52.734,0
1583425316.444,28.809,33.691,36.133,35.156,62.988,0
1583425316.447,30.762,33.691,38.086,36.133,40.039,0
1583425316.451,27.344,32.715,38.574,32.715,34.180,0
1583425316.455,29.785,30.273,39.551,30.762,27.344,0
1583425316.459,31.250,29.297,37.598,31.250,23.438,0
1583425316.463,29.297,30.762,36.133,26.855,-0.488,0
1583425316.480,32.715,33.691,36.133,23.438,1.465,0
1583425316.484,29.297,33.691,36.621,21.973,-17.090,0
1583425316.488,24.902,35.645,33.203,23.926,-14.648,0
1583425316.492,26.367,37.109,32.715,19.043,4.395,0
1583425316.496,30.762,38.086,34.668,17.578,14.648,0
1583425316.500,24.902,40.039,30.762,20.020,-7.324,0
1583425316.504,22.949,42.480,30.273,21.484,28.809,0
1583425316.507,26.855,41.504,27.832,21.484,55.176,0
1583425316.511,29.297,41.016,27.344,21.484,38.574,0
1583425316.515,23.926,43.457,30.273,21.484,32.227,0
1583425316.519,20.508,43.945,31.738,20.996,52.246,0
1583425316.523,28.809,42.969,30.273,24.414,41.992,0
1583425316.520,32.227,40.039,29.785,21.973,-28.809,0
1583425316.524,32.715,40.527,32.227,18.555,-44.434,0
1583425316.528,40.039,39.551,32.227,21.973,-18.555,0
1583425316.532,35.156,34.180,32.227,22.949,27.344,0
1583425316.536,29.785,32.715,37.109,28.320,11.230,0
1583425316.540,31.250,34.180,40.039,32.715,4.395,0
1583425316.544,29.297,33.203,40.039,30.273,80.078,0
1583425316.547,33.203,35.645,42.969,31.250,66.895,0
1583425316.551,38.574,37.598,41.992,37.598,30.273,0
1583425316.555,32.227,34.180,40.039,36.621,8.301,0
1583425316.559,26.855,34.668,37.109,28.320,13.184,0
1583425316.563,27.832,35.645,34.668,22.949,15.137,0
1583425316.560,23.926,34.180,33.691,25.879,21.484,0
1583425316.564,28.809,36.621,30.762,30.762,10.742,0
1583425316.568,35.156,40.527,33.203,32.227,34.180,0
1583425316.572,32.227,41.016,33.203,25.879,37.598,0
1583425316.576,31.250,38.086,35.645,21.973,20.020,0
1583425316.580,32.715,36.621,39.062,27.344,46.875,0
1583425316.584,32.227,37.109,33.691,32.715,35.156,0
1583425316.587,24.414,35.645,29.785,21.484,50.781,0
1583425316.591,24.414,35.645,34.668,20.508,88.379,0
1583425316.595,25.879,37.598,34.668,30.273,36.621,0
1583425316.599,21.973,34.180,30.273,30.762,23.926,0
1583425316.603,22.461,32.227,30.762,28.809,59.570,0
1583425316.620,20.020,28.320,32.227,22.949,32.715,0
1583425316.624,18.555,26.855,32.715,28.809,14.648,0
1583425316.628,25.391,29.785,32.227,33.203,36.133,0
1583425316.632,31.738,32.715,34.180,33.203,38.574,0
1583425316.636,33.203,33.203,32.227,28.320,22.461,0
1583425316.640,39.062,33.691,26.855,29.297,42.480,0
1583425316.644,41.992,36.621,29.297,35.645,-0.977,0
1583425316.647,41.504,38.086,32.227,34.180,58.105,0
1583425316.651,43.457,37.109,33.691,26.367,123.535,0
1583425316.655,45.410,35.645,33.691,25.391,71.777,0
1583425316.659,42.969,36.621,33.691,29.297,76.172,0
1583425316.663,41.504,34.668,30.762,25.879,59.570,0
1583425316.660,33.691,35.156,29.297,22.949,44.434,0
1583425316.664,28.809,35.645,33.691,21.484,20.996,0
1583425316.668,37.109,32.715,34.668,24.902,-9.277,0
1583425316.672,45.410,34.668,33.691,28.320,13.184,0
1583425316.676,38.574,36.133,38.086,22.949,77.637,0
1583425316.680,24.902,40.039,37.598,14.160,80.566,0
1583425316.684,20.996,44.434,34.668,11.719,38.574,0
1583425316.687,15.625,41.992,40.039,10.742,20.508,0
1583425316.691,6.348,42.480,41.992,12.695,-5.859,0
1583425316.695,-0.977,47.852,41.016,11.719,64.453,0
1583425316.699,-15.625,50.781,43.457,-2.930,59.570,0
1583425316.703,-28.809,51.270,48.828,-12.695,-8.301,0
1583425316.700,-37.598,59.570,56.641,-16.113,3.418,0
1583425316.704,-54.688,63.477,58.105,-41.504,30.762,0
1583425316.708,-68.848,61.035,55.664,-65.430,71.289,0
1583425316.712,-72.754,64.453,53.711,-67.383,76.660,0
1583425316.716,-88.379,63.477,53.711,-78.125,21.973,0
1583425316.720,-104.980,59.082,58.594,-98.145,24.414,0
1583425316.724,-113.770,60.059,63.965,-110.352,61.523,0
1583425316.727,-114.746,58.594,69.336,-111.816,23.438,0
1583425316.731,-110.352,60.547,76.172,-119.629,11.230,0
1583425316.735,-109.863,63.477,73.242,-121.094,41.016,0
1583425316.739,-112.305,58.594,70.801,-119.141,47.852,0
1583425316.743,-104.980,55.176,67.871,-115.723,57.129,0
1583425316.760,-92.773,53.223,62.012,-99.609,39.062,0
1583425316.764,-82.520,52.734,62.988,-88.379,67.383,0
1583425316.768,-73.242,51.270,64.453,-83.984,50.293,0
1583425316.772,-66.406,48.340,63.965,-78.613,-10.742,0
1583425316.776,-57.617,44.434,61.523,-73.730,20.996,0
1583425316.780,-34.180,43.945,55.664,-54.199,75.195,0
1583425316.784,-16.113,43.457,50.781,-36.133,66.406,0
1583425316.787,-7.812,38.086,46.387,-25.391,16.602,0
1583425316.791,2.930,35.156,41.992,-12.695,-23.926,0
1583425316.795,15.625,34.668,37.598,2.441,23.438,0
1583425316.799,23.438,28.809,33.203,15.137,84.473,0
1583425316.803,32.715,29.297,29.785,26.367,27.344,0
1583425316.800,46.387,31.738,23.438,37.598,5.371,0
1583425316.804,46.387,28.320,18.066,40.527,47.852,0
1583425316.808,39.551,26.367,20.996,41.992,26.367,0
1583425316.812,42.480,26.367,24.414,46.387,42.969,0
1583425316.816,52.734,26.855,20.020,54.688,48.340,0
1583425316.820,55.176,24.902,14.160,59.570,19.043,0
1583425316.824,50.781,24.414,13.672,63.965,36.133,0
1583425316.827,60.059,22.949,18.066,68.359,62.988,0
1583425316.831,67.383,21.484,16.602,71.777,26.855,0
1583425316.835,75.684,24.902,14.648,82.520,20.020,0
1583425316.839,80.566,24.902,15.137,83.008,70.312,0
1583425316.843,77.637,25.879,16.602,76.660,48.340,0
1583425316.841,77.637,25.879,18.066,75.684,-14.160,0
1583425316.845,80.078,23.438,16.602,77.148,-27.344,0
1583425316.849,84.473,25.391,16.602,82.520,6.836,0
1583425316.853,86.426,25.391,16.602,80.078,54.199,0
1583425316.857,88.379,26.367,13.672,78.125,24.414,0
1583425316.861,83.984,27.344,15.137,79.102,37.109,0
1583425316.865,81.055,28.320,19.531,79.590,115.723,0
1583425316.868,86.914,30.273,19.531,81.543,95.703,0
1583425316.872,82.520,29.785,18.066,71.777,25.879,0
1583425316.876,75.195,29.785,17.578,65.430,22.461,0
1583425316.880,76.660,31.250,19.531,65.918,46.875,0
1583425316.884,73.730,27.832,22.461,64.453,13.672,0
1583425316.900,75.195,27.344,24.902,63.477,10.742,0
1583425316.904,77.637,36.133,22.949,60.059,24.902,0
1583425316.908,70.312,37.109,23.438,63.477,28.320,0
1583425316.912,69.336,32.227,23.438,72.266,39.062,0
1583425316.916,72.754,29.297,23.926,71.289,15.137,0
1583425316.920,67.383,26.855,25.391,70.312,-0.488,0
1583425316.924,63.477,28.809,27.344,69.824,4.883,0
1583425316.927,60.059,29.785,29.297,68.359,-1.953,0
1583425316.931,55.664,23.926,29.785,66.895,38.574,0
1583425316.935,56.152,22.461,23.438,61.523,49.805,0
1583425316.939,53.711,26.855,19.043,55.664,52.734,0
1583425316.943,53.711,28.320,25.391,58.594,33.691,0
1583425316.940,57.129,27.832,26.855,56.152,-42.969,0
1583425316.944,56.152,30.762,25.879,50.781,-34.180,0
1583425316.948,56.152,33.691,21.973,49.316,1.953,0
1583425316.952,62.500,34.668,20.996,59.082,5.859,0
1583425316.956,65.918,34.668,25.879,64.453,-10.254,0
1583425316.960,66.895,35.156,27.344,61.035,-10.254,0
1583425316.964,63.965,35.645,24.414,63.965,12.695,0
1583425316.967,62.988,34.668,26.855,64.941,72.754,0
1583425316.971,64.941,32.227,27.832,64.453,97.168,0
1583425316.975,58.594,31.250,30.273,56.152,56.641,0
1583425316.979,62.012,31.738,35.645,53.223,55.176,0
1583425316.983,57.617,28.320,35.645,55.664,56.641,0
1583425316.980,46.387,25.879,35.156,52.246,20.996,0
1583425316.984,49.805,29.297,35.156,52.734,70.801,0
1583425316.988,51.758,32.715,28.809,49.316,72.754,0
1583425316.992,49.805,34.668,26.367,49.316,22.461,0
1583425316.996,47.852,36.133,28.809,55.664,44.922,0
1583425317.000,49.316,39.551,28.809,54.688,64.453,0
1583425317.004,50.781,38.574,28.320,50.293,9.277,0
1583425317.007,43.457,33.691,28.809,48.828,-5.859,0
1583425317.011,36.133,31.250,23.438,50.781,74.707,0
1583425317.015,38.574,31.250,21.973,48.828,29.297,0
1583425317.019,32.715,32.227,34.668,43.457,37.109,0
1583425317.023,28.809,31.738,38.574,39.062,92.285,0
1583425317.040,35.156,31.738,36.621,40.039,7.812,0
1583425317.044,31.738,34.180,37.598,45.410,20.020,0
1583425317.048,30.762,38.086,35.645,41.016,57.617,0
1583425317.052,33.691,38.086,31.250,28.320,51.270,0
1583425317.056,29.297,36.621,27.344,27.344,41.992,0
1583425317.060,28.320,38.086,35.156,33.203,2.441,0
1583425317.064,30.762,38.574,36.621,33.203,12.207,0
1583425317.067,34.668,39.062,33.691,39.551,51.758,0
1583425317.071,37.109,39.062,35.156,41.016,-13.184,0
1583425317.075,35.645,33.203,33.203,34.180,2.441,0
1583425317.079,39.062,30.762,32.715,36.133,92.285,0
1583425317.083,37.598,30.762,35.645,37.109,60.547,0
1583425317.080,35.156,28.320,36.621,38.574,4.883,0
1583425317.084,37.109,29.785,31.738,42.480,12.207,0
1583425317.088,30.273,30.273,27.344,38.574,46.875,0
1583425317.092,28.320,30.762,27.832,40.039,39.551,0
1583425317.096,29.785,35.645,32.227,42.480,33.691,0
1583425317.100,25.391,36.133,31.738,38.574,41.504,0
1583425317.104,26.855,32.227,32.715,30.762,15.625,0
1583425317.107,21.973,33.691,32.715,26.855,-12.207,0
1583425317.111,15.137,33.203,30.273,25.879,16.602,0
1583425317.115,20.508,35.156,25.391,20.996,35.156,0
1583425317.119,21.973,36.133,25.879,18.066,47.852,0
1583425317.123,20.508,31.738,28.320,20.508,38.574,0
1583425317.120,22.949,33.691,28.809,23.926,27.344,0
1583425317.124,25.391,35.156,32.227,24.902,30.273,0
1583425317.128,25.391,32.715,34.180,25.391,27.832,0
1583425317.132,28.320,34.668,34.180,34.668,1.953,0
1583425317.136,34.668,34.668,37.109,42.969,-37.598,0
1583425317.140,31.250,31.738,37.109,40.527,0.977,0
1583425317.144,26.367,34.180,35.645,33.691,3.906,0
1583425317.147,27.344,32.227,34.668,31.250,5.371,0
1583425317.151,20.020,29.297,30.762,20.020,-31.738,0
1583425317.155,10.254,29.785,30.273,12.207,-32.715,0
1583425317.159,13.672,32.227,30.762,14.648,27.344,0
1583425317.163,15.625,34.180,29.297,17.090,11.719,0
1583425317.180,18.066,39.062,24.414,18.555,-20.996,0
1583425317.184,29.297,40.527,25.879,22.461,-8.789,0
1583425317.188,33.691,34.180,34.180,26.855,41.016,0
1583425317.192,39.062,35.645,35.156,33.691,27.832,0
1583425317.196,40.527,39.551,32.715,35.645,43.457,0
1583425317.200,42.969,39.062,31.738,39.551,116.211,0
1583425317.204,44.434,37.598,36.133,42.480,88.867,0
1583425317.207,41.992,35.645,38.086,45.898,59.082,0
1583425317.211,48.340,32.715,35.645,46.875,50.781,0
1583425317.215,47.852,31.738,36.133,37.109,13.184,0
1583425317.219,41.504,35.645,36.133,38.086,40.527,0
1583425317.223,43.945,38.086,32.227,40.039,82.520,0
1583425317.220,45.410,37.598,27.344,38.086,67.871,0
1583425317.224,41.016,40.039,23.926,40.039,-5.371,0
1583425317.228,38.574,40.527,23.438,36.621,-6.836,0
1583425317.232,41.016,41.016,24.414,34.180,27.832,0
1583425317.236,42.969,40.039,25.879,40.527,45.898,0
1583425317.240,40.527,39.551,29.785,45.898,80.078,0
1583425317.244,40.527,41.992,31.738,42.969,25.391,0
1583425317.247,35.645,41.992,33.203,35.645,37.109,0
1583425317.251,35.645,40.039,35.156,35.156,53.711,0
1583425317.255,38.574,39.551,38.086,35.645,76.172,0
1583425317.259,34.180,38.086,36.621,25.879,59.570,0
1583425317.263,33.203,34.668,33.691,21.484,48.828,0
1583425317.260,24.902,37.109,31.738,24.902,83.496,0
1583425317.264,20.996,35.156,35.156,25.391,-3.418,0
1583425317.268,22.949,30.273,33.203,20.508,-2.930,0
1583425317.272,27.832,31.738,29.297,16.602,93.750,0
1583425317.276,34.668,35.645,36.133,21.484,79.102,0
1583425317.280,37.109,34.180,38.086,27.344,49.316,0
1583425317.284,37.109,34.180,38.086,32.715,12.695,0
1583425317.287,41.016,36.133,38.086,40.527,-17.090,0
1583425317.291,50.293,37.598,41.504,52.246,-13.184,0
1583425317.295,55.664,38.574,40.039,63.965,52.246,0
1583425317.299,51.270,37.109,36.621,62.500,41.016,0
1583425317.303,51.270,38.086,38.574,57.617,8.789,0
1583425317.320,55.664,41.016,41.016,59.082,52.246,0
1583425317.324,52.246,40.039,39.551,57.129,89.355,0
1583425317.328,47.363,36.621,36.621,56.152,79.102,0
1583425317.332,49.805,37.109,38.086,53.223,22.949,0
1583425317.336,50.781,37.598,37.109,50.293,-6.836,0
1583425317.340,46.875,36.133,34.180,52.246,20.508,0
1583425317.344,43.457,36.133,32.227,49.805,19.531,0
1583425317.347,36.133,32.715,31.250,41.504,1.953,0
1583425317.351,34.180,33.203,26.367,41.016,49.316,0
1583425317.355,32.227,36.621,23.926,39.062,65.918,0
1583425317.359,25.879,31.738,29.785,30.762,73.242,0
1583425317.363,25.391,31.250,31.738,21.484,23.438,0
1583425317.360,22.461,33.691,30.762,20.996,2.930,0
1583425317.364,18.555,29.785,29.785,21.973,0.977,0
1583425317.368,20.508,28.809,30.762,17.578,-24.902,0
1583425317.372,24.414,31.250,27.832,13.672,27.832,0
1583425317.376,25.391,31.738,22.949,15.137,37.109,0
1583425317.380,25.391,32.715,24.414,21.484,17.578,0
1583425317.384,27.832,34.668,27.344,23.926,53.223,0
1583425317.387,22.949,34.180,35.645,28.320,77.637,0
1583425317.391,22.949,33.203,34.668,34.180,49.805,0
1583425317.395,32.227,33.203,29.297,36.621,27.832,0
1583425317.399,35.156,32.715,35.645,39.062,33.691,0
1583425317.403,28.809,31.738,37.598,36.133,-4.395,0
1583425317.400,35.156,31.738,41.504,35.156,6.836,0
1583425317.404,43.457,34.668,41.016,45.410,34.180,0
1583425317.408,38.086,36.133,33.691,45.898,-15.137,0
1583425317.412,40.527,32.227,32.227,46.875,0.000,0
1583425317.416,39.062,30.273,33.203,47.852,24.902,0
1583425317.420,35.645,35.156,28.809,45.410,71.289,0
1583425317.424,32.715,36.133,25.879,41.016,35.156,0
1583425317.427,31.738,34.668,33.203,38.574,-47.363,0
1583425317.431,33.691,36.133,37.598,35.156,-19.043,0
1583425317.435,25.879,31.738,35.156,25.879,20.996,0
1583425317.439,27.832,31.738,32.227,23.926,34.180,0
1583425317.443,32.227,33.691,34.668,27.344,70.312,0
1583425317.460,31.738,33.691,37.598,33.691,77.148,0
1583425317.464,33.691,35.645,33.691,30.762,49.316,0
1583425317.468,25.879,37.109,33.203,20.020,37.598,0
1583425317.472,24.902,38.574,40.039,25.391,52.246,0
1583425317.476,31.738,41.504,41.504,31.250,70.801,0
1583425317.480,37.598,46.387,36.621,24.902,75.684,0
1583425317.484,35.645,45.898,30.762,15.625,42.480,0
1583425317.487,27.344,38.086,32.715,6.836,38.086,0
1583425317.491,26.367,34.668,37.598,12.207,31.250,0
1583425317.495,29.785,36.133,36.621,21.973,7.812,0
1583425317.499,27.344,33.691,35.156,18.555,19.531,0
1583425317.503,24.902,36.621,33.203,20.996,31.250,0
1583425317.500,26.855,35.645,30.762,26.855,91.309,0
1583425317.504,18.555,32.227,33.203,23.438,64.941,0
1583425317.508,14.648,33.691,34.668,23.438,9.277,0
1583425317.512,26.855,37.109,30.762,31.738,37.109,0
1583425317.516,31.738,37.109,29.785,38.574,46.875,0
1583425317.520,34.180,33.691,27.832,38.086,29.297,0
1583425317.524,40.527,30.273,31.250,41.016,49.316,0
1583425317.527,37.109,31.250,35.156,42.969,41.992,0
1583425317.531,33.691,35.156,34.668,45.410,12.695,0
1583425317.535,36.621,36.133,33.203,44.922,52.734,0
1583425317.539,36.621,36.621,32.227,38.574,60.547,0
1583425317.543,34.668,35.645,26.855,37.598,20.020,0
1583425317.540,29.785,34.668,25.391,31.250,20.996,0
1583425317.544,25.391,36.133,31.250,25.391,25.391,0
1583425317.548,25.391,38.086,30.762,18.555,32.227,0
1583425317.552,23.926,38.086,30.762,10.254,31.250,0
1583425317.556,26.367,39.551,27.344,13.672,24.414,0
1583425317.560,32.227,41.504,28.809,18.555,47.363,0
1583425317.564,30.762,41.016,34.668,15.625,12.207,0
1583425317.567,33.691,41.504,34.180,13.184,-30.762,0
1583425317.571,31.738,39.551,30.762,14.160,35.645,0
1583425317.575,31.738,38.086,32.715,18.555,58.105,0
1583425317.579,33.203,34.668,37.109,22.949,54.199,0
1583425317.583,27.344,31.738,35.645,28.320,46.875,0
1583425317.600,26.367,33.691,35.645,31.250,16.602,0
1583425317.604,24.414,32.227,35.156,28.809,27.344,0
1583425317.608,20.020,31.250,38.574,24.902,81.055,0
1583425317.612,23.438,37.109,39.551,29.297,100.098,0
1583425317.616,27.344,40.039,31.738,34.180,52.734,0
1583425317.620,23.438,38.086,30.273,35.156,-16.602,0
1583425317.624,20.508,38.574,27.344,37.109,-7.324,0
1583425317.627,20.020,36.133,25.879,37.109,77.148,0
1583425317.631,27.832,32.227,33.691,36.621,85.938,0
1583425317.635,35.645,31.738,36.621,36.621,49.805,0
1583425317.639,33.203,31.738,32.715,38.574,41.992,0
1583425317.643,27.832,28.320,34.668,32.227,36.133,0
1583425317.640,30.273,30.273,36.621,30.273,63.965,0
1583425317.644,33.691,36.133,31.738,36.621,105.957,0
1583425317.648,34.668,40.039,35.645,38.086,32.227,0
1583425317.652,38.086,44.922,32.715,35.645,31.250,0
1583425317.656,36.133,43.945,25.391,27.832,83.496,0
1583425317.660,35.645,40.527,31.738,21.484,22.461,0
1583425317.664,38.086,40.039,31.250,14.648,14.648,0
1583425317.667,32.715,37.109,27.344,10.742,67.383,0
1583425317.671,29.785,36.133,26.855,10.742,36.621,0
1583425317.675,28.809,38.086,28.809,4.883,32.715,0
1583425317.679,22.949,38.574,25.879,-0.488,43.457,0
1583425317.683,22.461,37.109,26.367,7.812,40.039,0
1583425317.680,25.879,33.203,37.598,23.926,43.945,0
1583425317.684,23.438,31.250,37.109,27.344,45.898,0
1583425317.688,19.043,32.715,32.715,31.250,23.926,0
1583425317.692,19.531,30.762,30.273,33.691,20.020,0
1583425317.696,20.020,32.715,28.320,32.227,39.551,0
1583425317.700,19.043,34.668,31.250,33.691,36.133,0
1583425317.704,26.367,31.250,28.809,36.133,76.660,0
1583425317.707,28.320,32.715,26.855,34.180,17.090,0
1583425317.711,32.715,34.180,29.785,36.133,-7.812,0
1583425317.715,28.809,29.297,27.344,42.969,51.758,0
1583425317.719,26.367,30.762,26.855,36.621,48.340,0
1583425317.723,29.297,33.203,31.738,29.297,104.004,0
1583425317.740,29.785,35.156,33.203,33.691,68.359,0
1583425317.744,34.668,38.574,28.809,35.645,-14.160,0
1583425317.748,37.109,37.598,28.320,36.133,19.531,0
1583425317.752,35.156,35.645,31.250,35.156,42.480,0
1583425317.756,32.227,35.645,31.738,38.574,33.203,0
1583425317.760,36.621,34.668,31.250,37.109,54.199,0
1583425317.764,34.180,33.691,33.691,25.879,25.879,0
1583425317.767,25.879,33.691,34.180,25.879,-21.973,0
1583425317.771,26.855,33.203,31.250,25.879,48.340,0
1583425317.775,28.320,30.762,30.762,24.902,68.359,0
1583425317.779,23.926,30.762,31.250,26.367,49.805,0
1583425317.783,17.578,31.250,33.203,22.949,39.062,0
1583425317.780,16.602,32.715,35.156,18.066,0.488,0
1583425317.784,27.344,36.621,38.086,22.949,18.555,0
1583425317.788,36.133,36.621,32.715,23.438,51.270,0
1583425317.792,33.691,32.715,30.273,17.090,59.082,0
1583425317.796,30.273,35.645,37.598,19.531,47.363,0
1583425317.800,27.832,39.062,37.598,21.973,19.043,0
1583425317.804,24.902,37.598,35.645,20.020,7.812,0
1583425317.807,32.227,34.668,33.691,24.902,17.578,0
1583425317.811,41.016,34.180,34.180,34.180,10.742,0
1583425317.815,40.527,34.668,37.598,38.574,30.273,0
1583425317.819,43.945,39.062,32.227,43.457,78.125,0
1583425317.823,41.992,41.016,32.227,43.457,63.477,0
1583425317.820,39.062,38.086,38.574,38.086,-30.762,0
1583425317.824,40.039,39.551,39.062,39.551,-31.250,0
1583425317.828,34.180,40.527,37.109,42.969,24.414,0
1583425317.832,33.691,37.598,35.156,42.480,13.184,0
1583425317.836,36.621,37.598,32.715,44.434,24.414,0
1583425317.840,37.109,39.062,33.691,41.992,47.852,0
1583425317.844,37.598,40.039,36.133,40.527,36.621,0
1583425317.847,41.992,41.504,29.785,43.945,17.578,0
1583425317.851,40.527,41.992,28.809,37.598,-5.371,0
1583425317.855,36.621,40.527,31.738,30.762,20.020,0
1583425317.859,38.574,39.551,31.250,18.555,5.859,0
1583425317.863,28.320,41.016,29.785,12.695,-11.719,0
1583425317.880,31.738,38.574,26.367,25.879,17.578,0
1583425317.884,37.598,35.156,35.645,28.809,42.480,0
1583425317.888,31.738,34.180,40.527,28.320,31.738,0
1583425317.892,32.715,36.621,38.574,34.180,21.484,0
1583425317.896,28.809,38.574,39.551,33.691,44.434,0
1583425317.900,26.367,37.109,39.551,31.250,34.180,0
1583425317.904,37.598,38.086,35.156,33.691,31.250,0
1583425317.907,37.598,39.062,37.109,34.180,1.953,0
1583425317.911,30.273,36.621,37.109,32.715,-10.742,0
1583425317.915,21.973,35.156,28.809,25.391,20.996,0
1583425317.919,23.438,34.180,29.785,22.949,20.996,0
1583425317.923,29.297,33.691,34.180,33.691,28.809,0
1583425317.920,32.715,32.715,32.715,35.156,8.301,0
1583425317.924,38.086,34.668,32.227,30.762,14.160,0
1583425317.928,26.855,34.668,29.297,23.926,39.551,0
1583425317.932,25.391,33.203,27.832,23.438,37.598,0
1583425317.936,32.715,33.203,27.344,23.926,13.672,0
1583425317.940,28.809,32.227,26.855,19.531,14.160,0
1583425317.944,29.785,32.227,26.855,24.414,7.812,0
1583425317.947,26.367,30.762,28.809,21.484,37.598,0
1583425317.951,26.855,33.691,26.367,21.484,92.285,0
1583425317.955,27.344,37.109,27.344,27.344,104.492,0
1583425317.959,26.855,37.109,35.645,30.273,36.621,0
1583425317.963,28.809,37.109,36.133,33.203,52.734,0
1583425317.967,29.785,35.156,35.645,37.109,77.148,0
1583425317.971,28.320,35.645,37.109,38.086,39.551,0
1583425317.975,28.809,36.133,39.551,35.156,87.891,0
1583425317.979,30.762,36.621,41.016,36.133,74.707,0
1583425317.983,34.668,38.086,41.016,43.457,32.227,0
1583425317.987,32.715,37.109,40.039,45.410,38.574,0
1583425317.991,27.344,35.156,41.992,38.574,10.254,0
1583425317.994,30.762,34.180,42.480,40.527,32.227,0
1583425317.998,26.367,31.738,43.457,37.598,52.734,0
1583425318.002,26.855,30.273,39.062,36.133,27.832,0
1583425318.006,31.738,30.273,37.598,37.598,52.246,0
1583425318.010,24.414,32.227,33.203,33.691,106.934,0
1583425318.020,21.973,35.645,31.250,33.203,50.781,0
1583425318.024,19.531,35.156,37.109,34.180,23.438,0
1583425318.028,18.555,35.156,35.156,29.297,62.988,0
1583425318.032,24.902,38.574,34.180,29.785,24.414,0
1583425318.036,24.902,41.992,33.691,32.715,28.320,0
1583425318.040,27.344,40.527,30.762,31.738,0.977,0
1583425318.044,28.320,38.086,30.762,30.273,-59.570,0
1583425318.047,29.785,38.086,32.715,32.227,3.418,0
1583425318.051,42.480,39.551,36.133,36.133,-2.930,0
1583425318.055,40.527,37.598,36.621,33.691,-22.461,0
1583425318.059,40.039,36.621,29.785,35.645,58.594,0
1583425318.063,40.039,37.109,29.785,39.551,68.848,0
1583425318.060,39.551,39.551,32.227,34.180,-7.812,0
1583425318.064,39.551,41.504,31.250,28.320,15.625,0
1583425318.068,31.738,37.598,32.227,27.344,34.668,0
1583425318.072,25.391,36.133,31.738,21.973,6.836,0
1583425318.076,20.996,37.598,32.227,17.578,51.758,0
1583425318.080,23.926,35.156,33.691,20.996,52.246,0
1583425318.084,23.438,33.203,31.250,25.879,-9.277,0
1583425318.087,19.531,33.691,26.367,13.672,40.527,0
1583425318.091,29.785,37.109,25.879,12.207,49.805,0
1583425318.095,29.785,36.133,31.250,23.926,68.359,0
1583425318.099,28.809,33.203,35.156,30.273,118.164,0
1583425318.103,28.320,34.668,34.668,33.691,74.219,0
1583425318.100,29.297,35.156,33.203,36.621,42.969,0
1583425318.104,29.297,35.156,31.738,38.086,61.523,0
1583425318.108,25.879,36.621,32.227,38.574,48.828,0
1583425318.112,25.879,35.156,30.762,43.457,28.809,0
1583425318.116,22.949,34.180,30.762,39.062,27.344,0
1583425318.120,21.973,34.668,33.203,34.180,22.461,0
1583425318.124,29.297,33.203,34.180,36.133,2.930,0
1583425318.127,31.738,34.668,33.691,33.691,42.480,0
1583425318.131,34.180,34.668,32.715,32.715,59.570,0
1583425318.135,40.527,32.227,28.809,40.039,-3.418,0
1583425318.139,37.109,31.738,29.297,46.387,16.113,0
1583425318.143,37.598,32.227,29.297,48.828,16.113,0
1583425318.160,41.016,31.738,30.762,44.922,25.391,0
1583425318.164,37.598,38.086,33.203,38.086,52.734,0
1583425318.168,35.156,40.039,30.273,34.668,60.059,0
1583425318.172,35.156,37.598,29.785,29.297,92.285,0
1583425318.176,37.109,37.598,32.227,26.367,56.641,0
1583425318.180,34.668,37.109,30.762,20.020,27.344,0
1583425318.184,31.250,36.133,30.273,18.555,44.434,0
1583425318.187,30.762,38.574,33.691,22.949,83.496,0
1583425318.191,30.762,41.504,36.621,29.785,40.527,0
1583425318.195,31.250,39.062,35.645,32.227,1.465,0
1583425318.199,35.645,37.598,35.156,32.227,11.719,0
1583425318.203,36.133,37.598,39.551,34.180,-16.602,0
1583425318.200,31.250,36.133,40.039,34.668,11.230,0
1583425318.204,25.391,38.574,37.598,37.598,78.125,0
1583425318.208,24.414,36.133,39.062,36.133,30.273,0
1583425318.212,22.949,31.250,42.969,27.832,-13.184,0
1583425318.216,20.996,32.227,40.039,22.461,9.277,0
1583425318.220,25.391,33.203,38.086,27.344,42.969,0
1583425318.224,26.367,34.180,40.527,31.250,55.176,0
1583425318.227,22.949,34.668,38.574,28.320,11.230,0
1583425318.231,20.996,33.203,35.645,24.902,44.434,0
1583425318.235,24.902,33.203,33.691,22.949,29.297,0
1583425318.239,17.578,31.250,32.715,18.555,30.273,0
1583425318.243,20.996,31.250,31.250,22.461,46.387,0
1583425318.260,30.273,34.180,29.297,28.809,1.465,0
1583425318.264,25.879,34.180,27.832,28.320,17.090,0
1583425318.268,28.320,35.645,26.367,28.320,31.250,0
1583425318.272,28.320,41.016,25.391,29.297,24.414,0
1583425318.276,27.344,43.945,25.879,31.250,48.828,0
1583425318.280,30.273,41.992,27.344,29.297,12.695,0
1583425318.284,36.621,44.434,29.297,29.785,29.785,0
1583425318.287,32.227,41.016,30.762,23.926,18.066,0
1583425318.291,25.391,35.156,31.250,21.484,50.781,0
1583425318.295,31.738,34.180,31.738,30.762,57.129,0
1583425318.299,35.156,33.203,31.250,31.250,4.883,0
1583425318.303,36.133,32.715,29.297,24.414,50.293,0
1583425318.300,42.969,32.227,32.715,32.227,70.312,0
1583425318.304,40.527,30.273,41.992,39.062,17.578,0
1583425318.308,30.273,28.320,48.828,34.180,11.719,0
1583425318.312,34.180,30.273,45.410,34.668,35.156,0
1583425318.316,40.527,29.785,45.410,38.086,50.781,0
1583425318.320,37.109,28.809,48.340,39.551,32.227,0
1583425318.324,32.715,30.762,49.805,36.621,22.949,0
1583425318.327,28.809,29.785,49.316,30.273,37.598,0
1583425318.331,15.137,27.344,49.805,30.762,27.344,0
1583425318.335,6.348,25.879,49.805,24.414,11.719,0
1583425318.339,6.348,24.902,44.922,18.066,23.926,0
1583425318.343,2.930,21.484,45.410,20.020,-2.930,0
1583425318.340,4.395,20.996,50.781,16.113,-18.555,0
1583425318.344,2.930,22.461,49.316,18.555,20.996,0
1583425318.348,4.395,24.414,47.363,22.461,26.855,0
1583425318.352,18.555,26.367,49.316,27.344,24.902,0
1583425318.356,25.879,28.320,48.340,37.109,29.785,0
1583425318.360,25.879,25.879,46.387,37.109,49.805,0
1583425318.364,23.926,25.391,44.434,30.762,73.730,0
1583425318.367,25.879,28.320,41.992,30.273,61.523,0
1583425318.371,27.832,31.250,36.621,30.762,54.199,0
1583425318.375,27.344,31.738,39.062,26.367,46.387,0
1583425318.379,16.602,28.809,41.016,30.273,60.547,0
1583425318.383,15.137,28.809,36.621,32.715,73.242,0
1583425318.400,27.344,29.297,36.621,29.785,28.809,0
1583425318.404,28.320,30.762,35.156,28.320,5.859,0
1583425318.408,25.879,32.227,34.180,32.227,59.570,0
1583425318.412,25.879,34.180,32.715,31.738,52.734,0
1583425318.416,29.297,34.180,32.227,29.785,-19.531,0
1583425318.420,31.738,34.668,33.203,28.809,9.277,0
1583425318.424,30.762,38.574,33.203,29.297,44.434,0
1583425318.427,30.762,40.527,34.180,33.203,38.574,0
1583425318.431,36.133,38.086,35.645,33.691,24.414,0
1583425318.435,37.109,37.598,37.109,35.156,13.672,0
1583425318.439,37.598,34.668,38.086,42.480,20.996,0
1583425318.443,41.504,32.715,39.551,46.875,30.762,0
1583425318.440,40.527,34.180,44.922,42.480,29.785,0
1583425318.444,35.156,34.668,41.016,38.574,42.969,0
1583425318.448,35.156,35.156,38.574,40.039,50.293,0
1583425318.452,34.180,36.133,40.039,31.250,44.922,0
1583425318.456,31.250,37.598,36.133,26.855,32.715,0
1583425318.460,29.785,38.086,37.598,30.273,68.359,0
1583425318.464,24.414,38.574,39.551,23.926,123.047,0
1583425318.467,11.719,37.598,37.598,15.137,58.594,0
1583425318.471,16.602,36.133,35.645,19.043,56.641,0
1583425318.475,28.320,40.039,30.273,30.273,101.074,0
1583425318.479,31.738,39.551,30.762,24.414,49.805,0
1583425318.483,32.715,36.133,34.180,26.367,48.828,0
1583425318.480,31.738,35.645,33.203,39.062,54.688,0
1583425318.484,34.668,35.645,33.691,40.039,-18.066,0
1583425318.488,38.086,33.691,34.180,37.109,-44.922,0
1583425318.492,32.227,32.227,34.668,33.691,5.859,0
1583425318.496,30.762,31.738,31.738,30.273,56.641,0
1583425318.500,30.762,30.273,29.785,32.227,76.660,0
1583425318.504,29.297,31.250,33.203,26.367,59.570,0
1583425318.507,28.320,34.180,33.203,24.902,74.707,0
1583425318.511,28.809,35.156,30.762,30.273,56.641,0
1583425318.515,33.691,34.180,30.762,30.762,34.180,0
1583425318.519,30.762,33.203,30.273,23.926,-2.930,0
1583425318.523,29.785,32.715,34.180,24.902,16.602,0
1583425318.540,36.133,33.691,26.367,32.715,41.016,0
1583425318.544,32.227,33.691,23.438,23.926,50.293,0
1583425318.548,20.996,35.156,35.645,18.066,29.785,0
1583425318.552,26.855,37.598,35.645,23.926,-31.738,0
1583425318.556,36.133,33.691,33.203,24.902,-8.789,0
1583425318.560,30.762,32.715,32.227,26.367,-24.414,0
1583425318.564,25.879,34.180,33.203,20.996,31.738,0
1583425318.567,22.949,31.738,37.598,9.766,71.777,0
1583425318.571,21.973,32.227,38.086,14.160,40.527,0
1583425318.575,22.461,33.691,37.109,20.996,47.363,0
1583425318.579,21.484,32.715,38.086,21.973,53.223,0
1583425318.583,22.949,35.645,36.621,24.414,62.012,0
1583425318.580,22.949,37.598,34.668,22.949,38.574,0
1583425318.584,28.320,37.109,34.180,23.926,43.945,0
1583425318.588,30.762,37.109,33.203,27.832,46.387,0
1583425318.592,31.250,39.062,34.668,31.738,37.598,0
1583425318.596,32.227,38.574,35.156,35.156,27.344,0
1583425318.600,26.855,37.109,35.645,29.785,35.645,0
1583425318.604,26.367,38.086,38.574,27.344,20.996,0
1583425318.607,25.391,37.109,33.203,27.832,-0.488,0
1583425318.611,19.043,32.715,28.809,22.949,-4.395,0
1583425318.615,18.555,35.156,31.738,27.832,29.785,0
1583425318.619,26.367,41.016,33.203,30.762,58.594,0
1583425318.623,28.809,40.039,30.273,23.926,69.336,0
1583425318.620,25.391,38.086,26.855,20.020,58.105,0
1583425318.624,31.250,39.551,23.438,27.832,84.473,0
1583425318.628,27.344,40.527,19.531,26.367,72.266,0
1583425318.632,21.973,38.574,18.066,19.531,14.160,0
1583425318.636,25.879,38.086,18.066,15.625,47.363,0
1583425318.640,23.438,39.551,15.137,9.277,34.180,0
1583425318.644,18.066,37.598,14.648,9.277,27.344,0
1583425318.647,16.113,38.086,14.160,8.789,48.340,0
1583425318.651,13.184,41.016,17.090,7.812,83.984,0
1583425318.655,19.043,41.992,20.508,7.812,106.445,0
1583425318.659,22.461,40.039,21.484,10.254,137.695,0
1583425318.663,24.414,37.598,25.391,15.625,83.984,0
1583425318.680,39.062,40.039,26.367,23.438,44.434,0
1583425318.684,43.457,39.062,26.855,26.855,80.566,0
1583425318.688,39.551,37.598,27.832,29.297,-30.273,0
1583425318.692,36.133,41.992,28.809,35.156,-89.844,0
1583425318.696,37.598,43.457,27.344,40.527,-63.477,0
1583425318.700,39.062,38.574,27.832,43.945,-5.371,0
1583425318.704,38.086,36.133,32.227,41.992,20.996,0
1583425318.707,35.645,38.086,33.203,44.434,-48.340,0
1583425318.711,38.086,41.504,32.227,42.480,-48.828,0
1583425318.715,28.320,41.016,34.180,36.133,17.090,0
1583425318.719,21.484,39.551,39.551,29.785,38.574,0
1583425318.723,30.273,35.645,39.551,22.949,45.410,0
1583425318.720,23.438,34.668,37.109,22.461,42.480,0
1583425318.724,26.367,37.598,35.156,20.996,47.363,0
1583425318.728,32.227,36.621,37.109,23.926,83.008,0
1583425318.732,30.273,37.109,39.062,23.438,54.199,0
1583425318.736,33.691,41.504,36.621,24.414,65.918,0
1583425318.740,37.109,43.457,33.203,29.785,83.984,0
1583425318.744,41.504,42.480,33.691,30.762,13.672,0
1583425318.747,41.992,39.062,33.203,27.832,11.230,0
1583425318.751,39.551,41.504,32.227,27.344,46.387,0
1583425318.755,37.598,41.992,33.203,28.320,32.715,0
1583425318.759,37.598,38.574,34.668,31.250,32.715,0
1583425318.763,40.527,37.109,36.133,38.086,55.176,0
1583425318.760,39.551,36.621,34.180,40.527,68.848,0
1583425318.764,38.574,34.668,32.227,41.504,36.621,0
1583425318.768,33.691,36.133,33.691,34.668,17.578,0
1583425318.772,38.574,37.109,38.086,26.367,49.316,0
1583425318.776,39.551,34.180,38.574,31.250,18.066,0
1583425318.780,38.086,37.598,32.715,37.109,-7.324,0
1583425318.784,40.039,41.504,33.203,32.715,26.367,0
1583425318.787,34.668,42.969,35.645,31.738,40.527,0
1583425318.791,33.691,44.922,35.156,34.668,17.090,0
1583425318.795,35.645,44.922,33.691,34.668,4.395,0
1583425318.799,36.133,43.457,32.227,38.086,4.395,0
1583425318.803,34.180,40.039,31.738,41.016,35.156,0
1583425318.820,35.156,39.551,33.203,40.039,55.176,0
1583425318.824,36.133,38.086,33.691,33.691,65.918,0
1583425318.828,30.762,35.645,32.227,28.320,2.930,0
1583425318.832,28.320,34.668,32.715,24.414,-2.930,0
1583425318.836,30.762,37.598,34.180,20.996,39.551,0
1583425318.840,33.203,41.504,33.203,30.273,-7.812,0
1583425318.844,37.109,41.016,34.180,33.691,3.418,0
1583425318.847,39.551,37.109,37.109,26.367,81.543,0
1583425318.851,29.785,33.203,37.109,24.414,41.992,0
1583425318.855,22.949,30.762,37.109,24.902,-7.324,0
1583425318.859,35.156,30.762,36.133,28.809,8.789,0
1583425318.863,35.645,32.715,37.598,31.250,-28.320,0
1583425318.860,29.297,31.738,38.086,26.855,-3.906,0
1583425318.864,25.879,33.691,34.180,28.809,7.812,0
1583425318.868,24.414,35.645,33.203,27.832,-34.180,0
1583425318.872,30.762,34.180,36.621,27.344,14.648,0
1583425318.876,29.297,31.738,38.574,28.320,30.273,0
1583425318.880,27.344,33.691,37.598,27.832,17.578,0
1583425318.884,24.414,34.668,35.645,27.832,15.137,0
1583425318.887,26.367,32.227,36.621,27.344,40.039,0
1583425318.891,26.367,33.203,38.086,26.367,46.875,0
1583425318.895,23.926,33.691,35.645,24.902,54.688,0
1583425318.899,25.879,35.156,35.156,20.508,0.488,0
1583425318.903,20.508,37.598,29.785,19.531,20.020,0
1583425318.900,28.809,35.645,25.879,29.297,28.320,0
1583425318.904,42.480,32.227,32.227,35.156,46.387,0
1583425318.908,38.086,30.762,34.180,33.691,52.734,0
1583425318.912,35.645,33.203,35.645,35.156,4.395,0
1583425318.916,35.156,32.715,36.133,30.273,26.367,0
1583425318.920,32.227,34.180,33.203,24.414,60.547,0
1583425318.924,36.133,37.598,32.715,28.809,84.961,0
1583425318.927,41.992,37.109,32.227,33.691,61.523,0
1583425318.931,43.457,38.086,36.621,32.715,32.715,0
1583425318.935,38.574,36.621,36.621,26.855,32.715,0
1583425318.939,32.227,32.715,30.762,22.461,7.324,0
1583425318.943,35.645,33.691,26.367,23.438,13.672,0
1583425318.960,31.738,34.668,25.879,22.949,75.195,0
1583425318.964,30.273,37.109,27.344,24.902,80.078,0
1583425318.968,26.367,38.574,26.855,18.555,0.000,0
1583425318.972,16.602,38.086,29.297,15.137,0.977,0
1583425318.976,20.020,35.645,32.715,19.531,42.480,0
1583425318.980,21.484,33.691,31.250,21.484,65.918,0
1583425318.984,23.438,32.715,29.785,25.391,61.035,0
1583425318.987,20.996,31.738,35.645,23.926,3.418,0
1583425318.991,17.578,33.691,36.133,24.414,29.297,0
1583425318.995,20.508,33.691,32.227,28.809,86.426,0
1583425318.999,24.414,35.156,33.203,25.879,60.059,0
1583425319.003,26.855,36.133,31.738,27.344,19.531,0
1583425319.000,24.902,38.086,29.785,35.156,62.012,0
1583425319.004,22.949,41.992,30.273,40.039,68.848,0
1583425319.008,29.297,40.039,30.273,40.527,24.414,0
1583425319.012,37.109,35.645,28.809,40.039,13.184,0
1583425319.016,35.645,33.691,29.785,36.621,-0.977,0
1583425319.020,27.344,34.668,25.391,31.738,22.461,0
1583425319.024,30.762,34.668,28.320,38.086,16.113,0
1583425319.027,36.621,32.227,33.691,39.551,37.598,0
1583425319.031,35.645,33.691,33.203,37.109,70.801,0
1583425319.035,34.668,35.645,32.227,35.645,60.059,0
1583425319.039,31.738,37.598,30.273,30.273,56.641,0
1583425319.043,32.715,39.062,28.809,30.273,17.578,0
1583425319.040,28.320,36.133,28.809,29.785,28.320,0
1583425319.044,23.438,32.715,30.762,22.461,31.738,0
1583425319.048,23.926,31.250,31.250,23.926,43.457,0
1583425319.052,25.391,35.645,28.320,28.809,83.496,0
1583425319.056,24.414,35.645,27.344,23.926,38.574,0
1583425319.060,24.414,32.227,25.879,21.973,5.859,0
1583425319.064,24.414,31.738,26.855,24.902,22.949,0
1583425319.067,22.461,30.762,29.785,29.297,-10.254,0
1583425319.071,19.043,32.227,29.785,28.809,42.480,0
1583425319.075,18.066,31.738,28.320,25.391,100.586,0
1583425319.079,20.508,33.203,31.250,21.484,52.734,0
1583425319.083,17.578,37.109,31.738,22.461,-5.371,0
1583425319.100,20.996,40.039,29.297,24.902,3.906,0
1583425319.104,27.344,37.109,31.250,26.367,47.852,0
1583425319.108,21.973,36.133,31.738,20.996,64.453,0
1583425319.112,25.391,37.109,35.156,17.578,62.988,0
1583425319.116,31.250,37.109,36.621,21.973,67.383,0
1583425319.120,36.133,37.109,33.691,29.785,93.262,0
1583425319.124,36.133,36.133,33.203,30.762,35.645,0
1583425319.127,36.133,37.598,33.691,34.180,7.324,0
1583425319.131,35.156,35.645,35.156,38.086,44.922,0
1583425319.135,36.621,35.645,37.109,37.109,45.410,0
1583425319.139,39.551,36.621,35.645,40.039,11.230,0
1583425319.143,34.180,34.668,34.180,36.621,30.762,0
1583425319.140,27.832,31.738,27.344,25.391,23.438,0
1583425319.144,20.508,27.344,26.367,19.531,-16.113,0
1583425319.148,16.602,28.809,31.250,23.926,-43.945,0
1583425319.152,18.066,31.250,32.227,28.809,21.484,0
1583425319.156,12.207,32.227,34.668,24.902,70.312,0
1583425319.160,8.301,35.156,34.180,19.531,50.293,0
1583425319.164,17.090,36.133,29.297,15.137,11.230,0
1583425319.167,13.184,37.598,25.879,13.672,-22.461,0
1583425319.171,11.230,38.574,27.344,12.207,57.129,0
1583425319.175,30.762,38.086,27.832,15.137,88.867,0
1583425319.179,29.785,35.156,30.273,14.648,45.898,0
1583425319.183,17.578,29.297,35.156,12.695,59.082,0
1583425319.180,23.438,29.297,32.715,20.020,33.691,0
1583425319.184,32.227,27.832,31.738,21.973,-2.441,0
1583425319.188,32.715,28.320,36.133,22.949,75.684,0
1583425319.192,27.344,30.762,40.527,22.461,94.238,0
1583425319.196,19.531,30.762,41.992,19.043,53.711,0
1583425319.200,15.137,30.762,39.062,22.461,70.801,0
1583425319.204,19.043,29.297,39.551,26.855,76.172,0
1583425319.207,20.996,27.344,39.551,24.414,67.871,0
1583425319.211,25.879,27.344,39.062,28.320,31.250,0
1583425319.215,34.180,29.297,41.992,34.180,-10.254,0
1583425319.219,31.738,29.785,40.527,30.273,33.203,0
1583425319.223,30.273,30.273,38.086,39.062,87.402,0
1583425319.240,24.902,28.809,39.551,42.969,62.988,0
1583425319.244,20.996,29.297,41.504,39.062,20.020,0
1583425319.248,15.625,33.203,41.992,40.527,20.020,0
1583425319.252,10.742,29.297,41.992,38.574,-8.789,0
1583425319.256,12.695,25.879,41.992,37.598,-13.184,0
1583425319.260,16.113,29.297,39.551,41.992,-16.113,0
1583425319.264,17.578,27.832,41.016,43.945,4.883,0
1583425319.267,18.066,23.926,36.133,43.457,-33.203,0
1583425319.271,21.973,24.414,32.227,40.527,-48.340,0
1583425319.275,23.438,27.832,36.133,35.645,53.711,0
1583425319.279,27.832,31.738,37.109,36.133,113.281,0
1583425319.283,32.227,35.645,37.598,32.715,53.223,0
1583425319.280,30.762,37.109,38.086,32.227,1.465,0
1583425319.284,33.203,34.668,35.645,30.273,3.906,0
1583425319.288,38.086,31.738,28.320,25.879,38.574,0
1583425319.292,35.645,33.203,32.227,21.973,35.156,0
1583425319.296,37.598,34.668,38.574,21.484,14.160,0
1583425319.300,40.039,35.156,37.109,26.855,53.223,0
1583425319.304,36.621,34.668,36.133,32.715,65.918,0
1583425319.307,36.133,33.203,34.668,35.645,92.285,0
1583425319.311,37.109,31.738,35.156,34.668,71.289,0
1583425319.315,36.621,30.762,37.109,37.109,43.457,0
1583425319.319,36.621,31.250,39.551,43.457,35.645,0
1583425319.323,38.086,34.668,43.945,48.340,102.539,0
1583425319.320,38.086,34.668,45.898,46.875,102.539,0
1583425319.324,44.434,35.645,38.086,50.781,8.789,0
1583425319.328,44.434,36.133,36.133,55.176,34.180,0
1583425319.332,40.527,36.133,41.016,47.852,95.215,0
1583425319.336,38.086,33.203,40.527,43.945,51.758,0
1583425319.340,33.691,33.203,37.598,42.480,28.809,0
1583425319.344,33.203,37.598,38.086,41.992,53.711,0
1583425319.347,30.273,36.133,39.551,43.945,12.207,0
1583425319.351,31.250,31.250,38.574,41.504,-2.441,0
1583425319.355,31.738,30.273,37.109,36.133,4.883,0
1583425319.359,26.855,30.762,38.086,35.156,20.020,0
1583425319.363,25.391,31.250,38.574,37.109,53.223,0
1583425319.380,29.297,33.203,36.133,33.691,33.691,0
1583425319.384,32.715,32.715,36.621,32.715,28.809,0
1583425319.388,32.227,35.645,38.086,40.039,38.086,0
1583425319.392,32.227,37.598,36.133,35.156,16.113,0
1583425319.396,29.297,34.180,33.691,26.855,52.246,0
1583425319.400,27.344,36.621,32.227,25.391,72.266,0
1583425319.404,26.367,39.062,31.738,19.531,17.578,0
1583425319.407,29.297,36.133,32.715,15.625,11.719,0
1583425319.411,32.715,36.133,30.273,15.625,54.688,0
1583425319.415,32.715,40.527,25.391,17.090,54.688,0
1583425319.419,29.785,42.480,31.250,15.137,15.625,0
1583425319.423,29.785,39.062,36.621,17.578,36.621,0
1583425319.420,34.180,37.598,35.156,26.367,45.898,0
1583425319.424,36.621,40.527,33.203,27.344,14.648,0
1583425319.428,45.410,39.551,34.180,31.738,3.906,0
1583425319.432,45.410,39.062,31.250,37.109,19.043,0
1583425319.436,37.109,40.039,27.344,33.203,-11.719,0
1583425319.440,38.574,37.109,27.832,33.203,-48.828,0
1583425319.444,40.527,35.156,32.227,38.574,10.742,0
1583425319.447,44.434,40.527,33.203,40.039,41.016,0
1583425319.451,44.434,44.922,33.203,30.762,45.410,0
1583425319.455,40.039,41.992,28.809,22.949,23.926,0
1583425319.459,35.645,40.527,29.297,21.973,-20.996,0
1583425319.463,33.203,44.434,31.738,25.391,15.137,0
1583425319.480,28.809,48.340,29.785,24.414,63.965,0
1583425319.484,28.320,44.922,25.879,20.996,80.566,0
1583425319.488,32.715,41.992,22.461,27.832,94.238,0
1583425319.492,32.227,41.992,24.414,31.250,54.688,0
1583425319.496,23.438,38.086,23.926,31.738,75.684,0
1583425319.500,25.879,35.156,21.973,30.762,87.891,0
1583425319.504,32.715,34.180,20.508,30.273,8.789,0
1583425319.507,30.762,35.645,21.973,25.391,9.277,0
1583425319.511,28.809,37.598,27.344,26.367,12.207,0
1583425319.515,29.297,39.551,26.855,34.180,17.578,0
1583425319.519,31.738,38.574,26.367,33.203,24.902,0
1583425319.523,32.715,36.621,25.879,31.738,-23.438,0
1583425319.520,34.180,35.645,24.902,33.203,27.344,0
1583425319.524,34.180,34.668,27.832,30.273,94.238,0
1583425319.528,33.203,35.645,23.438,28.320,39.551,0
1583425319.532,34.180,37.109,25.391,23.438,-9.277,0
1583425319.536,35.645,36.133,28.809,23.926,32.715,0
1583425319.540,31.738,34.668,26.367,26.367,38.574,0
1583425319.544,28.320,35.645,26.855,25.879,33.203,0
1583425319.547,31.738,36.621,27.832,28.809,62.012,0
1583425319.551,35.156,38.574,27.832,32.227,45.898,0
1583425319.555,32.227,38.086,25.391,30.762,11.719,0
1583425319.559,27.832,37.598,28.320,22.949,-11.719,0
1583425319.563,24.902,37.598,32.227,18.066,48.340,0
1583425319.561,20.996,34.180,33.203,18.555,27.344,0
1583425319.565,21.973,34.180,33.203,20.020,-18.555,0
1583425319.569,23.926,35.156,32.715,24.414,13.672,0
1583425319.573,18.066,36.621,28.320,24.902,10.742,0
1583425319.577,22.461,36.133,34.180,22.949,38.086,0
1583425319.581,26.855,32.227,40.527,24.414,73.242,0
1583425319.585,27.344,34.668,38.086,27.832,94.727,0
1583425319.588,31.250,33.203,39.062,30.762,12.207,0
1583425319.592,33.203,35.645,37.598,33.691,-34.180,0
1583425319.596,32.227,42.480,35.645,39.062,-5.859,0
1583425319.600,27.344,41.504,32.715,35.156,18.066,0
1583425319.604,28.809,37.109,27.344,32.227,40.527,0
1583425319.620,26.367,36.621,30.273,31.250,46.875,0
1583425319.624,23.438,39.551,29.785,25.391,29.297,0
1583425319.628,22.949,39.062,28.809,20.996,8.301,0
1583425319.632,20.996,36.621,27.344,22.949,17.090,0
1583425319.636,21.484,35.156,25.879,22.461,-1.465,0
1583425319.640,22.461,32.715,30.762,14.160,2.441,0
1583425319.644,27.832,32.715,33.691,20.508,32.227,0
1583425319.647,31.250,37.109,37.598,25.391,14.648,0
1583425319.651,35.156,41.992,41.016,22.949,29.785,0
1583425319.655,38.574,42.480,39.551,26.367,54.688,0
1583425319.659,41.016,39.062,37.109,32.227,16.602,0
1583425319.663,39.062,38.574,35.156,34.668,-20.996,0
1583425319.660,34.668,39.551,36.621,32.715,9.277,0
1583425319.664,36.133,39.551,34.668,30.762,28.809,0
1583425319.668,33.691,35.645,34.668,22.949,25.391,0
1583425319.672,30.762,31.250,33.203,24.414,-9.766,0
1583425319.676,35.645,35.645,31.738,29.785,-16.602,0
1583425319.680,38.086,40.527,29.785,28.809,21.484,0
1583425319.684,33.691,38.574,24.414,20.508,62.012,0
1583425319.687,30.273,36.133,30.273,22.949,132.324,0
1583425319.691,26.855,36.133,36.133,30.762,117.676,0
1583425319.695,20.508,34.668,32.227,27.344,77.637,0
1583425319.699,16.113,35.645,31.250,23.438,91.309,0
1583425319.703,20.996,33.691,31.738,22.461,98.633,0
1583425319.700,23.438,31.738,35.156,23.926,52.734,0
1583425319.704,17.090,30.762,35.156,20.996,79.590,0
1583425319.708,19.531,31.738,29.785,27.832,85.449,0
1583425319.712,30.762,34.180,29.785,34.668,52.246,0
1583425319.716,34.180,37.598,32.715,36.621,99.121,0
1583425319.720,29.297,38.574,36.133,34.668,120.605,0
1583425319.724,28.320,36.621,37.598,29.297,102.051,0
1583425319.727,28.320,37.109,37.109,28.320,73.730,0
1583425319.731,25.879,37.109,37.598,31.250,61.035,0
1583425319.735,25.879,37.598,36.133,33.203,41.016,0
1583425319.739,27.344,37.109,36.133,32.227,61.523,0
1583425319.743,23.926,35.156,33.691,30.273,38.574,0
1583425319.760,20.508,33.691,30.762,31.250,-2.441,0
1583425319.764,17.578,31.250,33.203,35.645,2.441,0
1583425319.768,20.020,32.715,35.645,32.227,-0.977,0
1583425319.772,26.367,36.621,35.156,36.621,20.996,0
1583425319.776,28.809,39.062,33.691,43.945,33.203,0
1583425319.780,28.320,38.574,33.691,41.504,12.695,0
1583425319.784,25.879,38.574,34.180,37.598,41.992,0
1583425319.787,29.785,40.039,36.133,36.621,27.344,0
1583425319.791,27.344,37.109,36.621,32.715,69.336,0
1583425319.795,21.973,36.621,38.086,27.832,70.801,0
1583425319.799,24.902,35.645,38.086,28.809,23.438,0
1583425319.803,24.902,33.691,35.645,30.273,33.203,0
1583425319.800,27.832,32.715,35.156,28.809,26.367,0
1583425319.804,35.645,33.203,28.320,33.203,11.230,0
1583425319.808,32.715,33.203,23.926,32.227,16.602,0
1583425319.812,29.297,33.203,32.227,28.809,-13.672,0
1583425319.816,34.668,37.109,36.133,31.250,-7.812,0
1583425319.820,35.156,37.598,32.715,30.762,61.523,0
1583425319.824,25.879,31.250,29.785,23.926,63.477,0
1583425319.827,25.879,29.297,33.203,23.926,44.434,0
1583425319.831,28.320,31.738,35.645,27.344,31.250,0
1583425319.835,26.855,30.762,31.738,22.461,44.922,0
1583425319.839,26.367,33.691,30.762,23.926,51.758,0
1583425319.843,29.297,34.668,32.715,28.809,25.879,0
1583425319.840,32.227,32.227,31.250,28.320,15.137,0
1583425319.844,33.203,34.668,28.809,30.762,10.254,0
1583425319.848,34.668,31.738,27.344,34.180,46.387,0
1583425319.852,33.203,32.715,26.855,30.762,34.668,0
1583425319.856,33.691,33.203,25.879,25.879,-29.297,0
1583425319.860,33.203,28.809,26.855,28.809,61.523,0
1583425319.864,33.691,32.227,28.320,34.668,63.965,0
1583425319.867,35.645,32.715,30.762,35.645,-35.156,0
1583425319.871,33.691,31.738,33.691,31.738,-4.883,0
1583425319.875,30.762,33.203,32.715,29.297,13.184,0
1583425319.879,29.785,31.738,30.762,31.250,3.906,0
1583425319.883,28.809,29.297,33.691,26.855,49.316,0
1583425319.900,25.879,29.297,36.621,23.438,101.074,0
1583425319.904,21.484,30.273,37.598,23.438,54.199,0
1583425319.908,20.020,30.273,38.086,22.949,4.395,0
1583425319.912,16.113,30.762,34.180,22.461,10.254,0
1583425319.916,14.160,29.297,33.691,16.602,41.504,0
1583425319.920,13.672,29.297,37.598,12.695,51.270,0
1583425319.924,18.066,32.227,33.691,17.578,21.484,0
1583425319.927,26.367,34.180,32.715,21.973,82.520,0
1583425319.931,31.250,36.133,34.668,23.438,32.715,0
1583425319.935,34.180,37.109,32.715,28.809,-4.883,0
1583425319.939,34.668,34.180,32.715,34.180,35.645,0
1583425319.943,35.156,35.645,32.227,36.133,16.602,0
1583425319.940,33.691,36.133,30.762,35.645,32.227,0
1583425319.944,34.668,32.715,30.762,34.180,22.461,0
1583425319.948,31.738,32.227,31.738,26.855,-0.488,0
1583425319.952,29.785,34.180,32.715,25.391,0.000,0
1583425319.956,26.855,37.109,35.156,27.344,-5.371,0
1583425319.960,23.438,36.621,36.133,24.414,5.859,0
1583425319.964,24.902,31.738,35.156,22.949,55.664,0
1583425319.967,26.855,32.227,35.645,23.926,25.391,0
1583425319.971,38.086,37.109,37.598,28.809,28.809,0
1583425319.975,41.504,38.086,33.691,33.203,80.078,0
1583425319.979,34.180,36.621,34.668,30.762,69.824,0
1583425319.983,33.203,37.598,37.598,33.691,66.895,0
1583425319.981,33.203,38.086,37.598,42.969,69.824,0
1583425319.985,28.320,36.621,43.457,42.480,26.367,0
1583425319.989,22.949,36.621,43.457,35.156,12.207,0
1583425319.993,20.508,37.598,39.062,33.203,4.883,0
1583425319.997,24.414,37.109,39.062,28.809,36.133,0
1583425320.001,25.391,38.086,38.086,19.531,73.242,0
1583425320.005,22.949,37.109,33.691,17.578,50.781,0
1583425320.008,18.066,34.668,27.832,14.648,10.742,0
1583425320.012,22.949,37.109,25.391,12.695,17.578,0
1583425320.016,27.344,36.621,23.926,4.883,21.484,0
1583425320.020,25.879,35.645,20.996,5.371,13.672,0
1583425320.024,30.762,39.062,21.484,19.531,104.980,0
1583425320.040,28.320,38.574,24.902,20.020,72.266,0
1583425320.044,28.320,38.086,28.809,20.996,50.293,0
1583425320.048,36.621,41.016,31.250,37.109,35.156,0
1583425320.052,38.574,40.527,31.738,40.039,10.742,0
1583425320.056,34.180,37.109,31.250,32.227,85.449,0
1583425320.060,39.551,36.621,31.738,40.039,58.594,0
1583425320.064,34.180,38.086,31.250,40.039,12.207,0
1583425320.067,26.855,37.109,31.250,34.180,28.320,0
1583425320.071,31.250,36.621,33.203,32.227,4.395,0
1583425320.075,35.156,36.133,32.227,29.785,31.738,0
1583425320.079,35.645,35.645,29.785,33.203,66.895,0
1583425320.083,28.809,33.691,30.273,30.762,4.395,0
1583425320.080,29.785,35.645,30.762,33.203,-41.992,0
1583425320.084,31.250,39.062,29.785,31.250,-31.250,0
1583425320.088,30.273,38.086,30.762,29.297,32.227,0
1583425320.092,32.227,37.598,25.391,32.715,62.012,0
1583425320.096,30.273,38.574,22.949,26.855,47.363,0
1583425320.100,26.367,38.086,27.344,23.926,23.926,0
1583425320.104,30.762,37.598,27.832,25.391,14.160,0
1583425320.107,32.227,37.109,27.832,21.484,-4.883,0
1583425320.111,25.391,35.645,24.902,19.043,10.254,0
1583425320.115,27.832,36.621,24.414,24.414,12.695,0
1583425320.119,32.715,38.574,26.855,23.438,-13.184,0
1583425320.123,30.762,38.574,26.855,19.043,40.039,0
1583425320.120,32.715,38.574,24.902,25.391,21.484,0
1583425320.124,33.691,41.504,22.949,26.855,23.438,0
1583425320.128,29.297,40.527,24.902,25.391,63.965,0
1583425320.132,28.809,37.598,26.855,27.344,41.504,0
1583425320.136,31.738,35.156,31.250,29.297,1.953,0
1583425320.140,30.762,37.109,31.738,30.273,-0.977,0
1583425320.144,37.109,39.062,30.762,34.180,63.477,0
1583425320.147,41.992,39.551,27.832,38.086,40.039,0
1583425320.151,42.969,40.039,28.320,36.621,25.391,0
1583425320.155,45.410,39.062,29.785,40.039,57.617,0
1583425320.159,36.133,38.574,27.344,36.133,24.902,0
1583425320.163,30.762,38.086,24.414,32.227,-22.461,0
1583425320.180,33.691,36.133,25.391,38.086,-28.809,0
1583425320.184,33.203,35.645,27.344,42.480,5.371,0
1583425320.188,30.273,34.668,33.203,40.039,64.941,0
1583425320.192,26.855,33.203,37.109,40.039,99.121,0
1583425320.196,28.809,35.156,37.109,44.434,-14.648,0
1583425320.200,29.785,36.133,35.645,44.434,10.254,0
1583425320.204,26.367,34.668,36.621,39.062,72.266,0
1583425320.207,25.879,34.668,34.180,33.691,31.738,0
1583425320.211,27.344,32.715,31.738,27.344,55.664,0
1583425320.215,29.785,35.645,36.621,27.832,60.059,0
1583425320.219,33.203,38.574,38.086,32.227,20.996,0
1583425320.223,34.180,38.086,38.086,28.320,61.035,0
1583425320.240,33.691,40.039,35.645,28.320,86.426,0
1583425320.244,30.273,38.086,38.086,26.855,45.898,0
1583425320.248,29.297,39.551,34.180,25.391,79.590,0
1583425320.252,31.250,44.434,27.344,31.738,43.945,0
1583425320.256,27.832,38.574,33.691,26.367,-16.113,0
1583425320.260,23.438,36.133,36.621,24.902,20.020,0
1583425320.264,24.414,40.039,33.691,30.762,78.613,0
1583425320.267,25.879,39.551,35.645,27.344,35.645,0
1583425320.271,21.973,39.062,37.109,20.508,-9.277,0
1583425320.275,20.508,39.551,37.109,15.137,22.949,0
1583425320.279,19.531,37.598,38.086,7.324,47.363,0
1583425320.283,15.625,32.715,41.016,0.000,19.531,0
1583425320.260,12.695,29.785,41.016,0.000,-44.922,0
1583425320.264,3.418,27.832,43.945,2.930,27.344,0
1583425320.268,6.348,27.344,46.387,12.207,91.309,0
1583425320.272,12.695,27.344,42.969,18.066,-2.441,0
1583425320.276,15.625,26.367,42.969,23.438,42.969,0
1583425320.280,17.090,24.414,45.410,27.344,111.328,0
1583425320.284,16.113,23.438,47.363,28.320,58.594,0
1583425320.287,10.742,22.461,50.293,26.855,-16.113,0
1583425320.291,6.836,20.508,48.340,26.855,-41.992,0
1583425320.295,7.812,22.461,44.922,26.855,16.602,0
1583425320.299,7.324,21.484,43.457,20.996,41.504,0
1583425320.303,8.301,22.949,40.527,20.508,-0.488,0
1583425320.320,12.207,30.762,36.621,22.949,19.531,0
1583425320.324,21.484,33.691,36.133,16.113,87.402,0
1583425320.328,29.297,40.527,37.109,13.672,56.152,0
1583425320.332,31.738,44.434,33.691,19.043,61.035,0
1583425320.336,34.180,39.062,34.668,18.066,46.875,0
1583425320.340,44.922,38.086,36.133,29.297,24.414,0
1583425320.344,47.363,37.598,33.691,34.180,86.914,0
1583425320.347,48.828,36.621,33.691,33.203,84.473,0
1583425320.351,55.176,37.109,33.203,44.922,43.945,0
1583425320.355,50.293,34.668,33.203,42.969,49.316,0
1583425320.359,43.457,33.691,29.297,41.504,87.891,0
1583425320.363,42.969,37.598,31.250,42.480,57.617,0
1583425320.360,44.922,37.109,38.574,36.133,37.598,0
1583425320.364,34.180,34.180,41.504,30.762,58.594,0
1583425320.368,28.320,36.621,41.504,32.227,31.250,0
1583425320.372,35.156,37.598,39.551,33.691,34.668,0
1583425320.376,34.668,36.621,36.133,31.738,44.434,0
1583425320.380,29.785,39.062,33.203,31.250,-9.766,0
1583425320.384,32.227,40.039,32.715,34.180,-30.273,0
1583425320.387,28.320,36.133,34.668,30.273,14.648,0
1583425320.391,29.297,39.062,33.203,29.297,52.734,0
1583425320.395,34.668,42.480,29.297,34.180,63.965,0
1583425320.399,29.785,37.598,33.203,30.762,77.637,0
1583425320.403,28.320,36.133,34.180,29.785,59.082,0
1583425320.400,24.902,36.621,29.785,22.461,9.766,0
1583425320.404,19.531,33.691,32.227,10.254,-24.414,0
1583425320.408,23.926,37.598,34.668,17.578,50.293,0
1583425320.412,31.250,42.480,38.574,27.344,91.797,0
1583425320.416,34.180,41.992,39.551,29.785,25.391,0
1583425320.420,36.133,39.551,36.621,28.809,-30.762,0
1583425320.424,30.762,37.598,36.133,23.926,-45.410,0
1583425320.427,24.902,36.621,33.691,20.996,-14.648,0
1583425320.431,22.461,32.715,35.156,14.648,14.648,0
1583425320.435,21.484,27.344,36.133,11.719,27.344,0
1583425320.439,17.090,26.855,33.691,17.578,61.035,0
1583425320.443,22.949,28.809,31.738,21.973,33.203,0
1583425320.460,31.738,31.250,31.738,25.879,18.555,0
1583425320.464,31.250,31.738,32.715,31.738,28.320,0
1583425320.468,33.203,35.156,33.203,39.551,-6.836,0
1583425320.472,31.738,35.645,34.180,43.945,26.367,0
1583425320.476,30.762,32.227,36.133,47.852,61.035,0
1583425320.480,28.809,33.691,38.574,46.387,39.062,0
1583425320.484,27.832,36.133,41.992,45.898,49.805,0
1583425320.487,32.715,32.715,41.992,48.828,8.301,0
1583425320.491,34.668,31.738,39.551,47.363,-24.414,0
1583425320.495,35.156,34.180,36.621,43.945,62.988,0
1583425320.499,33.691,33.203,36.621,43.945,35.645,0
1583425320.503,23.438,32.227,35.156,40.039,12.207,0
1583425320.500,28.320,32.227,35.156,41.016,32.227,0
1583425320.504,38.574,31.738,39.551,44.434,-4.883,0
1583425320.508,34.180,35.156,39.551,39.062,8.789,0
1583425320.512,33.691,38.574,31.250,34.668,2.441,0
1583425320.516,36.621,39.062,25.879,32.227,8.301,0
1583425320.520,31.250,39.062,25.879,30.273,42.969,0
1583425320.524,26.367,37.109,24.414,29.785,57.129,0
1583425320.527,22.949,34.668,27.344,30.273,106.445,0
1583425320.531,23.926,36.621,28.320,38.574,88.867,0
1583425320.535,19.531,37.598,26.855,45.410,52.246,0
1583425320.539,15.137,31.250,28.320,41.504,88.867,0
1583425320.543,15.625,28.320,30.273,41.992,97.656,0
1583425320.540,14.160,31.738,28.320,42.480,68.359,0
1583425320.544,17.090,29.785,30.273,42.969,58.105,0
1583425320.548,19.043,25.879,33.203,42.480,36.621,0
1583425320.552,23.438,25.391,38.086,40.527,16.113,0
1583425320.556,26.855,26.367,41.992,45.410,32.227,0
1583425320.560,28.809,27.832,40.527,46.875,89.844,0
1583425320.564,28.320,23.926,37.109,41.504,46.387,0
1583425320.567,26.855,24.902,36.621,38.574,-6.836,0
1583425320.571,28.809,28.320,37.109,35.156,-24.414,0
1583425320.575,32.715,29.785,37.598,33.203,-47.363,0
1583425320.579,31.250,34.668,40.039,39.062,31.738,0
1583425320.583,32.715,34.668,38.574,41.992,88.867,0
1583425320.600,37.109,33.691,34.668,42.480,50.781,0
1583425320.604,37.598,37.109,33.203,41.016,-10.742,0
1583425320.608,35.156,37.598,29.297,36.621,15.137,0
1583425320.612,34.668,35.645,28.809,37.109,19.043,0
1583425320.616,34.668,37.109,27.832,32.715,-3.418,0
1583425320.620,35.645,39.062,26.855,31.250,17.578,0
1583425320.624,40.527,38.574,32.227,37.109,35.645,0
1583425320.627,40.039,39.551,37.598,38.574,41.504,0
1583425320.631,39.551,40.039,40.039,37.109,60.547,0
1583425320.635,36.133,37.109,40.039,32.715,25.879,0
1583425320.639,32.227,35.645,36.621,30.762,4.883,0
1583425320.643,24.414,37.109,38.086,23.926,14.160,0
1583425320.640,18.555,34.180,41.016,20.508,35.645,0
1583425320.644,16.602,30.762,38.086,19.531,65.918,0
1583425320.648,9.277,29.297,34.668,12.207,74.707,0
1583425320.652,9.277,26.367,33.203,11.719,42.480,0
1583425320.656,14.648,28.809,32.715,12.695,75.684,0
1583425320.660,23.438,33.691,31.738,16.113,73.730,0
1583425320.664,30.762,33.203,28.809,20.508,41.016,0
1583425320.667,30.273,31.738,28.809,16.113,56.152,0
1583425320.671,36.621,34.668,31.738,17.090,-19.531,0
1583425320.675,38.574,38.574,32.227,20.996,15.625,0
1583425320.679,37.598,39.062,33.691,26.855,67.871,0
1583425320.683,44.922,39.551,37.109,40.039,23.926,0
1583425320.680,41.992,40.527,36.133,34.668,41.504,0
1583425320.684,37.598,43.457,26.367,29.785,99.609,0
1583425320.688,38.574,47.852,21.973,33.691,63.965,0
1583425320.692,36.621,44.434,23.926,30.762,6.348,0
1583425320.696,28.809,41.016,22.949,22.461,23.926,0
1583425320.700,24.902,42.969,23.438,18.555,60.547,0
1583425320.704,22.461,42.480,26.367,19.531,69.824,0
1583425320.707,22.949,40.039,28.809,20.508,65.430,0
1583425320.711,26.367,39.062,31.250,21.484,51.758,0
1583425320.715,32.227,40.527,37.598,29.785,66.895,0
1583425320.719,39.551,38.086,41.992,36.621,47.852,0
1583425320.723,31.738,40.527,39.551,36.621,28.809,0
1583425320.740,23.438,41.992,39.062,36.621,35.645,0
1583425320.744,19.531,36.621,42.969,30.273,5.859,0
1583425320.748,9.277,45.898,43.457,20.996,41.016,0
1583425320.752,5.371,46.387,43.945,18.555,19.043,0
1583425320.756,-2.441,40.039,47.852,12.695,-20.508,0
1583425320.760,-11.230,49.805,47.852,3.418,46.875,0
1583425320.764,-25.391,51.270,49.316,-14.160,59.082,0
1583425320.767,-40.527,55.176,53.223,-27.832,47.852,0
1583425320.771,-47.363,61.523,55.664,-35.645,59.082,0
1583425320.775,-60.547,55.664,62.500,-45.898,31.250,0
1583425320.779,-81.543,59.082,64.453,-67.383,24.902,0
1583425320.783,-90.820,62.500,56.641,-90.820,14.648,0
1583425320.780,-104.492,57.617,56.152,-104.980,17.578,0
1583425320.784,-116.211,62.012,55.664,-115.723,51.270,0
1583425320.788,-119.629,68.848,56.152,-125.000,32.227,0
1583425320.792,-119.141,67.383,61.523,-133.301,58.594,0
1583425320.796,-112.305,65.430,61.035,-140.137,58.594,0
1583425320.800,-109.863,62.988,58.594,-133.301,33.691,0
1583425320.804,-102.539,63.477,62.012,-114.258,18.066,0
1583425320.807,-86.914,62.988,65.430,-102.051,18.066,0
1583425320.811,-70.801,57.129,65.918,-83.008,65.430,0
1583425320.815,-57.617,53.223,62.988,-62.500,45.410,0
1583425320.819,-46.387,49.805,61.035,-47.363,34.668,0
1583425320.823,-37.598,44.434,57.617,-31.738,-8.789,0
1583425320.820,-28.320,39.551,56.641,-14.648,-20.020,0
1583425320.824,-20.020,35.156,52.734,-6.836,51.758,0
1583425320.828,-10.742,30.762,49.316,8.301,52.734,0
1583425320.832,5.371,28.320,47.852,23.438,25.879,0
1583425320.836,13.184,26.855,41.992,23.926,56.641,0
1583425320.840,22.461,27.832,36.133,31.738,33.691,0
1583425320.844,38.086,29.785,30.762,40.527,18.066,0
1583425320.847,47.852,34.668,25.879,43.457,-5.371,0
1583425320.851,54.688,36.133,24.414,43.457,-8.301,0
1583425320.855,56.152,28.809,25.879,44.922,47.852,0
1583425320.859,62.988,27.344,24.902,53.711,61.035,0
1583425320.863,70.312,30.762,20.996,59.570,52.734,0
1583425320.880,69.824,27.344,19.531,57.617,93.750,0
1583425320.884,69.824,22.949,19.043,58.594,119.629,0
1583425320.888,68.848,25.391,18.555,59.570,57.129,0
1583425320.892,73.730,27.344,17.090,65.430,51.270,0
1583425320.896,87.402,26.367,14.160,79.102,84.473,0
1583425320.900,87.891,25.391,14.160,83.984,51.758,0
1583425320.904,86.426,25.391,14.648,86.914,39.062,0
1583425320.907,94.238,25.879,16.602,97.656,66.895,0
1583425320.911,91.309,26.855,18.555,100.098,34.180,0
1583425320.915,89.355,26.855,18.555,100.586,1.953,0
1583425320.919,88.379,29.785,20.020,101.074,-60.059,0
1583425320.923,78.125,25.879,22.949,95.703,-24.414,0
1583425320.920,77.637,22.461,21.973,97.168,67.871,0
1583425320.924,78.125,22.949,18.066,95.215,40.039,0
1583425320.928,70.801,18.555,17.090,78.125,6.836,0
1583425320.932,71.777,20.508,18.066,76.172,26.367,0
1583425320.936,70.801,24.902,18.066,72.754,30.273,0
1583425320.940,66.406,22.949,15.625,62.012,24.902,0
1583425320.944,69.824,25.391,16.602,61.523,53.711,0
1583425320.947,69.824,29.297,17.090,61.035,53.223,0
1583425320.951,69.824,29.297,16.602,58.594,-10.254,0
1583425320.955,75.684,29.785,18.555,59.570,30.273,0
1583425320.959,80.078,29.785,18.555,65.918,95.215,0
1583425320.963,83.008,29.785,18.066,66.895,66.406,0
1583425320.960,84.961,28.809,20.996,67.383,46.387,0
1583425320.964,83.496,27.344,22.949,69.824,18.066,0
1583425320.968,76.172,26.367,21.484,61.523,24.902,0
1583425320.972,70.801,24.414,23.438,60.547,65.430,0
1583425320.976,65.918,25.391,25.391,66.406,10.254,0
1583425320.980,58.105,25.391,23.926,67.383,12.207,0
1583425320.984,54.199,23.926,26.855,69.824,-0.977,0
1583425320.987,47.363,27.832,30.762,67.383,-30.273,0
1583425320.991,46.387,28.320,33.203,69.336,15.625,0
1583425320.995,52.734,28.809,35.156,73.730,32.715,0
1583425320.999,49.805,31.250,34.668,68.359,52.246,0
1583425321.003,47.363,28.809,31.738,67.871,41.504,0
1583425321.020,44.922,25.879,33.691,67.871,59.570,0
1583425321.024,44.922,27.832,34.180,62.988,104.004,0
1583425321.028,42.480,27.832,29.785,56.641,63.477,0
1583425321.032,39.551,26.855,28.320,47.363,13.184,0
1583425321.036,38.574,29.785,28.809,43.945,1.465,0
1583425321.040,38.574,31.250,28.320,41.504,49.316,0
1583425321.044,42.969,32.715,24.902,41.504,66.406,0
1583425321.047,48.828,35.156,21.973,45.410,23.926,0
1583425321.051,53.223,35.156,24.902,43.945,56.641,0
1583425321.055,55.664,36.133,25.879,44.922,52.734,0
1583425321.059,61.523,39.062,23.438,47.852,-24.414,0
1583425321.063,60.547,38.086,24.414,44.922,-15.625,0
1583425321.060,52.734,36.133,27.344,40.527,31.738,0
1583425321.064,52.246,39.551,29.297,44.434,60.059,0
1583425321.068,53.711,40.039,30.273,43.457,77.148,0
1583425321.072,55.176,34.668,26.367,40.527,102.051,0
1583425321.076,50.781,33.691,25.391,42.969,110.840,0
1583425321.080,45.898,35.156,27.832,46.387,69.824,0
1583425321.084,43.945,34.180,30.762,48.340,50.293,0
1583425321.087,39.062,36.621,31.250,46.875,21.484,0
1583425321.091,36.621,38.574,29.785,42.969,42.969,0
1583425321.095,32.227,36.133,32.715,34.668,17.090,0
1583425321.099,24.414,32.227,37.109,27.344,-25.879,0
1583425321.103,18.066,32.715,36.133,28.809,-9.766,0
1583425321.120,23.926,32.227,34.180,34.668,22.949,0
1583425321.124,27.832,31.738,31.738,36.621,68.359,0
1583425321.128,24.414,34.180,31.738,37.109,50.781,0
1583425321.132,25.391,32.715,31.738,37.598,25.391,0
1583425321.136,29.785,34.180,32.227,38.574,23.926,0
1583425321.140,37.109,39.062,34.668,39.551,48.828,0
1583425321.144,41.992,38.086,31.738,39.062,26.367,0
1583425321.147,41.016,35.156,31.738,37.598,22.949,0
1583425321.151,41.016,33.203,34.668,35.645,51.270,0
1583425321.155,47.852,34.180,31.738,34.180,-1.465,0
1583425321.159,46.387,34.668,30.762,31.250,-12.695,0
1583425321.163,41.504,32.715,29.297,27.832,36.621,0
1583425321.160,38.086,31.250,27.344,27.832,17.090,0
1583425321.164,34.180,29.785,29.785,32.715,7.324,0
1583425321.168,33.691,28.320,30.762,32.227,15.137,0
1583425321.172,33.203,30.273,31.738,32.227,32.227,0
1583425321.176,34.668,30.762,33.691,41.992,75.684,0
1583425321.180,32.227,26.855,34.668,40.039,46.387,0
1583425321.184,29.297,25.879,33.203,36.133,63.477,0
1583425321.187,32.227,28.809,32.715,41.504,69.824,0
1583425321.191,31.250,28.320,32.715,40.039,23.438,0
1583425321.195,20.996,23.926,32.227,36.621,40.527,0
1583425321.199,15.625,24.414,31.738,35.156,106.445,0
1583425321.203,20.996,24.902,30.762,34.180,58.105,0
1583425321.200,20.020,27.832,30.762,35.645,34.180,0
1583425321.204,15.137,31.738,32.715,29.785,22.949,0
1583425321.208,16.602,32.715,31.250,20.996,-8.789,0
1583425321.212,17.090,31.250,27.344,18.555,45.898,0
1583425321.216,18.555,29.785,28.320,17.090,60.547,0
1583425321.220,16.602,30.762,28.320,15.137,23.926,0
1583425321.224,14.160,29.785,30.762,16.602,-7.324,0
1583425321.227,19.531,27.344,35.645,19.531,49.316,0
1583425321.231,21.973,28.809,34.180,19.043,80.078,0
1583425321.235,22.949,28.809,32.227,22.949,-4.883,0
1583425321.239,27.344,29.297,32.227,25.391,12.207,0
1583425321.243,30.762,30.762,35.156,26.367,67.383,0
1583425321.260,36.133,30.762,37.598,29.297,62.988,0
1583425321.264,42.969,37.598,37.598,37.598,-16.602,0
1583425321.268,44.922,39.062,39.062,46.387,-22.461,0
1583425321.272,39.062,34.180,39.551,44.922,50.781,0
1583425321.276,35.645,33.691,37.598,41.992,65.918,0
1583425321.280,34.180,34.180,38.574,36.621,43.945,0
1583425321.284,32.715,35.645,39.062,35.156,31.738,0
1583425321.287,25.879,34.180,42.969,35.645,41.504,0
1583425321.291,24.414,36.621,43.457,35.156,1.953,0
1583425321.295,30.762,37.598,38.086,35.156,-12.207,0
1583425321.299,23.438,35.156,36.621,33.691,17.578,0
1583425321.303,24.414,34.668,33.691,29.297,-12.207,0
1583425321.300,27.832,35.645,29.785,23.926,11.230,0
1583425321.304,28.320,36.133,32.715,22.461,-6.348,0
1583425321.308,30.762,37.109,30.762,17.578,-20.996,0
1583425321.312,35.645,39.062,25.391,15.137,16.602,0
1583425321.316,37.109,40.527,25.391,17.578,23.438,0
1583425321.320,29.297,38.086,26.855,11.230,14.160,0
1583425321.324,26.855,38.086,26.367,5.371,23.926,0
1583425321.327,27.832,41.016,29.785,9.766,37.598,0
1583425321.331,20.996,37.109,33.203,9.766,44.922,0
1583425321.335,22.949,32.227,32.715,13.184,25.391,0
1583425321.339,27.832,32.715,33.203,19.043,13.672,0
1583425321.343,27.344,31.738,37.598,24.902,58.105,0
1583425321.340,31.250,32.227,41.016,28.809,10.742,0
1583425321.344,31.738,36.133,35.645,30.762,22.949,0
1583425321.348,33.691,35.645,29.785,35.156,25.879,0
1583425321.352,32.227,36.133,32.715,37.109,-33.203,0
1583425321.356,36.133,38.086,35.645,41.504,12.695,0
1583425321.360,33.203,40.039,33.203,47.363,37.109,0
1583425321.364,29.785,37.598,30.762,45.410,19.531,0
1583425321.367,35.156,32.715,31.738,46.387,50.293,0
1583425321.371,32.715,30.273,33.203,49.316,116.211,0
1583425321.375,31.250,32.227,33.691,48.340,49.316,0
1583425321.379,26.367,31.738,35.156,43.945,16.602,0
1583425321.383,17.090,26.855,39.551,36.133,61.035,0
1583425321.400,20.020,28.809,39.551,35.156,48.340,0
1583425321.404,23.438,34.668,34.668,34.180,57.617,0
1583425321.408,21.973,34.668,35.156,28.320,55.176,0
1583425321.412,25.391,34.180,32.227,27.344,20.020,0
1583425321.416,28.320,37.598,28.320,21.484,26.855,0
1583425321.420,29.297,39.062,27.344,20.508,-15.137,0
1583425321.424,39.551,38.574,26.855,23.438,6.348,0
1583425321.427,41.016,38.086,29.297,17.090,80.566,0
1583425321.431,38.574,35.156,31.738,18.066,25.391,0
1583425321.435,36.133,34.180,30.762,15.625,35.156,0
1583425321.439,37.598,38.574,29.785,18.066,24.414,0
1583425321.443,37.109,37.598,32.715,19.043,30.273,0
1583425321.440,36.621,38.574,31.738,10.742,13.672,0
1583425321.444,41.016,41.992,27.832,15.625,-34.180,0
1583425321.448,35.156,41.016,28.809,22.461,40.527,0
1583425321.452,30.273,43.945,29.785,25.391,43.945,0
1583425321.456,32.227,40.039,28.809,32.227,53.711,0
1583425321.460,31.738,34.180,25.879,40.039,73.242,0
1583425321.464,26.855,34.180,26.855,44.434,34.668,0
1583425321.467,30.762,32.715,31.250,43.457,28.809,0
1583425321.471,29.297,30.273,32.227,43.945,28.809,0
1583425321.475,22.949,27.344,32.715,38.574,56.641,0
1583425321.479,26.855,28.320,36.133,35.156,68.359,0
1583425321.483,33.691,31.250,39.062,39.551,27.344,0
1583425321.480,18.066,34.180,36.621,37.598,12.695,0
1583425321.484,17.578,32.227,36.621,32.715,15.625,0
1583425321.488,36.133,31.250,36.621,35.156,-4.395,0
1583425321.492,36.133,35.156,32.715,37.109,34.668,0
1583425321.496,33.691,33.691,30.762,29.297,65.918,0
1583425321.500,34.180,34.668,31.738,28.320,-4.395,0
1583425321.504,41.504,36.621,33.691,31.738,-25.391,0
1583425321.507,46.875,36.621,31.738,29.785,4.883,0
1583425321.511,37.598,36.621,31.250,20.996,-14.648,0
1583425321.515,29.297,33.203,35.645,15.625,45.410,0
1583425321.519,36.621,34.180,33.691,25.391,49.316,0
1583425321.523,39.551,36.621,30.273,31.738,-16.113,0
1583425321.540,36.133,34.668,31.250,26.855,9.277,0
1583425321.544,35.645,34.180,31.738,27.832,51.758,0
1583425321.548,35.645,33.203,28.809,30.762,52.734,0
1583425321.552,37.109,33.203,28.320,25.391,17.578,0
1583425321.556,35.645,36.621,34.180,23.438,-35.645,0
1583425321.560,24.414,37.109,36.133,27.344,-31.250,0
1583425321.564,26.855,38.086,34.668,31.250,24.414,0
1583425321.567,30.762,40.527,31.738,27.832,42.969,0
1583425321.571,30.762,41.016,30.762,28.320,36.133,0
1583425321.575,32.715,38.086,29.297,30.273,37.109,0
1583425321.579,29.785,33.203,26.367,28.320,41.016,0
1583425321.583,29.297,32.227,21.973,31.250,38.086,0
1583425321.580,31.250,31.738,25.391,28.809,23.926,0
1583425321.584,32.227,32.227,25.879,32.715,10.254,0
1583425321.588,29.785,30.273,22.949,41.992,1.465,0
1583425321.592,25.879,27.832,26.367,41.016,13.672,0
1583425321.596,23.926,26.367,28.320,34.180,44.434,0
1583425321.600,24.414,27.832,27.344,32.227,57.129,0
1583425321.604,25.879,30.273,25.879,39.062,31.250,0
1583425321.607,26.367,28.320,24.414,37.598,9.277,0
1583425321.611,21.484,30.273,19.531,31.250,30.762,0
1583425321.615,28.809,31.250,21.484,30.273,68.359,0
1583425321.619,34.668,33.203,28.320,29.785,52.246,0
1583425321.623,27.832,33.203,27.344,28.809,82.031,0
1583425321.620,27.344,30.273,27.832,28.320,93.750,0
1583425321.624,27.832,30.273,28.320,25.879,41.016,0
1583425321.628,30.762,30.762,25.391,28.809,0.488,0
1583425321.632,26.855,29.785,26.367,30.273,58.105,0
1583425321.636,21.973,29.785,34.180,29.297,50.293,0
1583425321.640,24.902,28.809,36.133,32.715,-19.531,0
1583425321.644,19.531,31.738,33.203,28.809,32.715,0
1583425321.647,16.602,33.691,34.668,26.855,3.418,0
1583425321.651,21.973,32.715,31.738,27.344,-13.672,0
1583425321.655,26.367,32.227,26.855,22.949,40.527,0
1583425321.659,31.250,32.715,28.320,21.484,31.738,0
1583425321.663,35.156,35.156,32.227,20.508,29.297,0
1583425321.680,40.527,39.551,33.203,23.438,41.016,0
1583425321.684,44.434,42.480,34.180,26.367,40.039,0
1583425321.688,41.992,41.992,33.691,25.391,83.984,0
1583425321.692,43.457,40.039,30.762,26.855,53.223,0
1583425321.696,30.762,37.598,30.762,29.785,34.180,0
1583425321.700,21.484,30.762,32.715,33.691,30.273,0
1583425321.704,19.531,26.855,35.156,27.344,54.688,0
1583425321.707,18.555,23.438,38.086,24.414,78.125,0
1583425321.711,26.367,24.414,39.551,39.551,35.156,0
1583425321.715,24.902,28.809,40.039,41.016,65.918,0
1583425321.719,28.809,32.715,40.039,35.156,53.711,0
1583425321.723,29.297,36.133,39.062,35.156,10.742,0
1583425321.720,29.297,36.621,38.086,38.574,6.836,0
1583425321.724,30.762,38.086,37.598,37.109,51.270,0
1583425321.728,26.367,39.062,37.598,27.832,79.102,0
1583425321.732,27.832,40.527,36.133,28.809,59.570,0
1583425321.736,27.832,41.504,32.227,25.391,57.129,0
1583425321.740,24.414,37.109,33.203,15.137,49.316,0
1583425321.744,25.391,34.668,34.668,20.020,1.465,0
1583425321.747,30.273,34.668,34.668,22.949,6.836,0
1583425321.751,23.438,32.715,37.109,22.949,25.879,0
1583425321.755,17.090,32.227,37.598,27.832,58.594,0
1583425321.759,28.320,30.762,35.645,26.367,86.426,0
1583425321.763,21.973,27.344,36.133,24.902,68.359,0
1583425321.760,16.602,27.832,36.621,27.832,32.715,0
1583425321.764,18.066,30.762,35.645,30.273,18.555,0
1583425321.768,19.043,31.250,34.668,26.367,40.039,0
1583425321.772,19.043,31.250,35.645,22.949,55.176,0
1583425321.776,14.648,35.645,36.621,18.066,36.133,0
1583425321.780,21.973,38.086,33.203,19.043,75.684,0
1583425321.784,35.156,37.598,28.320,27.344,57.129,0
1583425321.787,39.551,39.062,31.738,29.785,19.043,0
1583425321.791,37.109,39.551,35.645,21.484,73.730,0
1583425321.795,34.668,40.039,37.598,20.020,51.270,0
1583425321.799,34.668,37.109,36.621,25.391,-7.324,0
1583425321.803,29.785,34.180,33.203,21.973,36.621,0
1583425321.820,33.203,32.715,31.738,22.461,124.023,0
1583425321.824,31.738,34.180,31.738,28.320,70.801,0
1583425321.828,29.297,33.203,32.715,32.715,3.906,0
1583425321.832,29.785,33.203,34.180,36.621,-14.648,0
1583425321.836,31.250,34.668,36.621,40.039,-37.598,0
1583425321.840,36.133,35.156,34.180,44.434,-28.809,0
1583425321.844,36.133,36.133,35.156,43.457,-20.020,0
1583425321.847,30.762,34.180,37.598,40.527,-3.906,0
1583425321.851,27.344,33.691,36.133,30.762,-15.625,0
1583425321.855,23.438,34.668,34.180,24.414,6.348,0
1583425321.859,19.531,33.691,32.715,32.227,35.156,0
1583425321.863,21.484,35.645,33.691,30.762,29.297,0
1583425321.880,22.461,35.645,34.668,19.043,48.828,0
1583425321.884,17.090,31.250,35.645,12.695,55.664,0
1583425321.888,6.348,31.738,35.645,16.602,35.645,0
1583425321.892,15.625,35.156,36.621,20.508,37.598,0
1583425321.896,24.902,37.109,39.062,20.508,48.340,0
1583425321.900,19.043,36.621,40.527,20.508,52.246,0
1583425321.904,13.184,30.762,40.039,15.625,61.035,0
1583425321.907,8.789,28.809,34.668,10.742,50.293,0
1583425321.911,10.254,33.203,33.691,13.184,111.328,0
1583425321.915,6.836,33.691,37.109,13.184,88.867,0
1583425321.919,7.812,32.227,34.668,13.672,45.898,0
1583425321.923,13.672,32.227,34.668,19.043,62.988,0
1583425321.920,17.578,33.203,38.086,22.949,31.738,0
1583425321.924,22.461,33.203,37.109,24.414,-36.133,0
1583425321.928,28.320,38.086,38.086,25.391,33.691,0
1583425321.932,33.203,38.574,39.062,24.902,77.148,0
1583425321.936,31.250,36.133,36.133,29.785,4.395,0
1583425321.940,44.434,41.016,33.691,33.203,-11.230,0
1583425321.944,55.176,41.504,34.180,36.133,38.086,0
1583425321.947,52.246,39.062,36.621,41.992,51.758,0
1583425321.951,52.734,40.527,39.062,41.992,48.340,0
1583425321.955,53.711,41.504,38.086,38.086,1.465,0
1583425321.959,48.340,38.574,38.574,36.133,-15.137,0
1583425321.963,47.852,36.133,35.156,35.645,30.273,0
1583425321.960,49.805,37.598,32.715,39.551,41.016,0
1583425321.964,43.945,38.086,35.156,35.645,-12.207,0
1583425321.968,37.598,37.109,35.645,26.367,10.742,0
1583425321.972,38.574,36.621,35.645,28.320,84.961,0
1583425321.976,37.598,36.621,38.086,32.715,13.184,0
1583425321.980,37.109,37.598,38.574,34.180,-27.344,0
1583425321.984,40.527,36.621,37.598,29.785,49.316,0
1583425321.987,34.668,33.203,38.574,26.855,20.508,0
1583425321.991,26.855,36.621,37.598,26.855,-1.953,0
1583425321.995,20.996,40.039,35.156,22.949,14.648,0
1583425321.999,14.160,36.133,32.227,16.113,27.344,0
1583425322.003,9.766,35.156,30.762,8.301,47.852,0
1583425322.000,14.160,34.668,33.691,11.719,43.945,0
1583425322.004,23.438,35.156,31.250,25.879,57.129,0
1583425322.008,25.391,37.109,30.762,27.344,82.031,0
1583425322.012,31.250,39.551,34.180,29.785,70.801,0
1583425322.016,36.133,39.062,33.691,35.645,55.664,0
1583425322.020,36.133,39.062,29.785,36.621,49.805,0
1583425322.024,42.969,41.504,29.785,39.062,-19.531,0
1583425322.027,41.504,41.016,30.762,42.480,9.277,0
1583425322.031,33.203,39.551,31.250,43.457,86.426,0
1583425322.035,39.062,39.062,35.156,49.805,38.086,0
1583425322.039,43.457,37.109,36.621,49.316,4.395,0
1583425322.043,47.363,35.156,35.156,51.758,41.992,0
1583425322.040,49.316,34.668,33.203,57.617,80.078,0
1583425322.044,45.898,33.691,33.691,53.223,62.012,0
1583425322.048,44.922,34.180,33.691,52.734,62.988,0
1583425322.052,43.945,35.156,34.180,51.758,62.012,0
1583425322.056,41.992,34.668,33.203,44.922,47.363,0
1583425322.060,35.645,35.156,28.809,41.016,26.855,0
1583425322.064,31.250,36.133,32.227,41.504,22.461,0
1583425322.067,26.367,36.621,37.109,35.156,30.273,0
1583425322.071,26.855,34.668,38.086,29.785,67.383,0
1583425322.075,23.438,32.715,38.086,31.738,98.145,0
1583425322.079,14.160,31.250,35.645,31.738,26.855,0
1583425322.083,20.996,33.203,34.668,35.156,33.691,0
1583425322.100,24.414,33.691,35.645,29.785,16.602,0
1583425322.104,16.113,31.250,34.668,16.602,3.906,0
1583425322.108,5.371,33.203,33.691,12.207,12.695,0
1583425322.112,7.324,35.645,33.691,16.602,13.672,0
1583425322.116,5.859,36.133,32.715,17.578,9.277,0
1583425322.120,-1.465,33.203,30.273,12.207,43.457,0
1583425322.124,2.441,32.715,29.297,11.719,58.594,0
1583425322.127,9.277,35.645,28.320,16.113,-4.883,0
1583425322.131,20.020,39.062,27.344,23.438,64.941,0
1583425322.135,26.855,37.109,30.762,23.926,82.520,0
1583425322.139,34.180,36.133,32.227,30.762,23.926,0
1583425322.143,39.062,38.574,31.738,39.551,16.113,0
1583425322.140,41.504,37.598,31.250,41.016,4.883,0
1583425322.144,45.898,35.645,29.785,43.945,35.645,0
1583425322.148,41.992,34.180,32.715,46.387,107.910,0
1583425322.152,40.039,36.133,33.203,51.270,101.074,0
1583425322.156,54.199,40.039,31.250,49.805,15.625,0
1583425322.160,61.035,37.109,37.109,43.945,17.578,0
1583425322.164,53.711,39.062,36.133,43.945,36.621,0
1583425322.167,52.246,41.992,32.227,43.945,-0.977,0
1583425322.171,42.480,39.062,31.250,37.109,26.855,0
1583425322.175,33.691,41.016,31.738,26.367,62.012,0
1583425322.179,32.227,41.504,32.227,21.484,53.223,0
1583425322.183,29.297,37.109,30.273,23.438,23.438,0
1583425322.180,25.391,36.133,29.785,23.926,54.688,0
1583425322.184,24.902,36.133,26.367,27.344,71.289,0
1583425322.188,27.832,34.668,24.902,21.973,53.223,0
1583425322.192,31.250,35.156,25.879,19.043,23.926,0
1583425322.196,28.809,39.062,25.879,27.344,23.926,0
1583425322.200,34.668,37.109,28.320,29.785,65.918,0
1583425322.204,39.551,33.203,29.785,27.344,35.645,0
1583425322.207,32.715,37.598,31.250,25.391,30.273,0
1583425322.211,20.020,40.039,30.762,13.184,27.832,0
1583425322.215,7.324,32.715,28.809,2.441,20.508,0
1583425322.219,1.953,28.809,32.227,1.465,-10.742,0
1583425322.223,-1.953,31.738,36.133,0.000,-19.043,0
1583425322.240,-2.441,33.203,33.203,1.953,19.531,0
1583425322.244,0.977,32.715,27.832,7.812,8.301,0
1583425322.248,7.324,31.250,26.367,13.184,11.719,0
1583425322.252,14.648,31.738,26.367,18.555,65.918,0
1583425322.256,22.949,32.715,27.344,23.438,82.031,0
1583425322.260,32.715,34.668,31.738,26.855,32.227,0
1583425322.264,40.039,34.668,36.133,32.227,12.695,0
1583425322.267,46.875,33.691,35.645,38.574,48.828,0
1583425322.271,51.270,35.156,33.691,40.527,69.824,0
1583425322.275,53.223,36.133,33.203,46.875,41.992,0
1583425322.279,52.734,38.086,31.250,45.898,-10.742,0
1583425322.283,45.898,37.598,28.809,38.574,18.555,0
1583425322.281,36.133,32.227,34.180,32.227,44.434,0
1583425322.285,34.180,33.691,33.691,32.227,58.594,0
1583425322.289,31.738,37.109,30.273,35.645,58.594,0
1583425322.293,31.738,35.156,31.250,36.133,13.672,0
1583425322.297,39.551,32.715,29.785,36.133,54.688,0
1583425322.301,37.598,31.738,30.762,32.227,108.887,0
1583425322.305,35.645,32.715,38.086,32.715,39.551,0
1583425322.308,32.227,32.227,40.527,31.250,20.020,0
1583425322.312,33.203,35.156,35.645,33.691,12.695,0
1583425322.316,33.691,37.109,38.574,33.691,28.320,0
1583425322.320,22.461,35.156,42.969,25.391,16.602,0
1583425322.324,18.066,34.180,42.480,22.949,8.789,0
1583425322.320,17.090,32.227,42.480,20.508,27.344,0
1583425322.324,15.625,31.738,41.992,20.996,44.434,0
1583425322.328,17.578,32.227,40.039,23.926,60.059,0
1583425322.332,17.090,28.809,38.086,20.020,-9.766,0
1583425322.336,20.020,28.809,35.156,18.066,15.625,0
1583425322.340,21.484,30.273,34.668,22.461,58.105,0
1583425322.344,21.484,30.273,38.086,35.156,44.922,0
1583425322.347,24.902,34.180,39.551,34.668,96.191,0
1583425322.351,26.367,38.086,39.551,32.227,32.227,0
1583425322.355,27.344,35.156,40.527,41.504,-10.254,0
1583425322.359,30.273,33.203,38.086,44.434,83.496,0
1583425322.363,29.785,35.156,34.180,43.457,83.984,0
1583425322.380,33.691,36.133,32.715,40.527,-11.719,0
1583425322.384,41.504,34.668,33.203,40.527,-62.988,0
1583425322.388,37.598,34.668,32.715,33.691,-29.297,0
1583425322.392,33.691,36.621,33.691,26.367,-22.461,0
1583425322.396,28.320,35.645,36.133,25.879,-9.766,0
1583425322.400,24.414,34.180,35.156,24.902,74.707,0
1583425322.404,28.320,33.203,32.227,25.391,57.617,0
1583425322.407,29.297,33.203,32.227,25.391,-28.320,0
1583425322.411,30.762,35.156,32.227,24.902,-10.742,0
1583425322.415,27.832,35.156,31.250,21.973,31.250,0
1583425322.419,26.367,36.621,28.320,19.043,67.383,0
1583425322.423,30.273,36.621,27.832,24.902,57.129,0
1583425322.420,24.902,35.645,31.250,24.902,35.156,0
1583425322.424,23.438,36.133,31.738,23.438,28.809,0
1583425322.428,29.785,39.062,28.809,25.391,59.570,0
1583425322.432,29.297,40.039,30.273,20.508,92.285,0
1583425322.436,24.414,36.621,32.715,23.438,56.641,0
1583425322.440,23.438,34.180,28.320,30.273,-3.418,0
1583425322.444,27.344,35.645,26.367,26.367,6.836,0
1583425322.447,28.320,36.621,31.738,25.391,56.152,0
1583425322.451,32.227,35.645,31.250,30.762,57.617,0
1583425322.455,34.668,34.668,30.273,29.785,31.738,0
1583425322.459,39.551,35.645,33.203,28.809,40.039,0
1583425322.463,40.527,37.598,31.738,29.297,87.402,0
1583425322.460,40.527,37.598,29.297,31.738,57.617,0
1583425322.464,42.969,36.621,27.344,36.133,-35.645,0
1583425322.468,39.551,37.109,27.344,37.109,-44.922,0
1583425322.472,37.109,39.551,29.297,30.762,21.973,0
1583425322.476,37.109,36.621,27.344,24.902,14.160,0
1583425322.480,26.855,38.086,26.367,19.531,28.320,0
1583425322.484,18.066,39.551,27.344,11.719,94.727,0
1583425322.487,18.066,36.621,26.855,7.812,89.355,0
1583425322.491,17.090,34.668,26.367,7.812,33.203,0
1583425322.495,13.672,34.180,26.367,5.859,25.879,0
1583425322.499,13.672,35.645,28.320,4.883,60.059,0
1583425322.503,13.184,35.156,30.273,8.789,24.414,0
1583425322.520,14.648,36.133,33.203,14.648,15.625,0
1583425322.524,19.043,33.691,36.621,20.020,-17.090,0
1583425322.528,20.508,32.715,37.109,19.531,-6.836,0
1583425322.532,25.391,33.691,36.621,22.949,22.461,0
1583425322.536,28.809,34.180,38.086,31.250,52.246,0
1583425322.540,30.762,33.691,35.645,31.738,46.875,0
1583425322.544,30.762,33.203,33.203,32.227,33.203,0
1583425322.547,28.809,32.715,33.691,33.691,48.828,0
1583425322.551,29.297,31.738,33.203,31.250,-9.277,0
1583425322.555,23.926,28.809,34.180,29.785,16.602,0
1583425322.559,20.508,28.809,35.156,32.227,64.941,0
1583425322.563,19.531,31.250,33.203,30.762,35.156,0
1583425322.559,20.020,29.785,34.180,26.855,40.527,0
1583425322.563,23.926,31.738,32.715,26.367,42.969,0
1583425322.567,26.855,35.156,29.297,30.273,36.133,0
1583425322.571,29.785,35.645,33.203,32.715,54.199,0
1583425322.575,27.344,36.133,37.598,27.344,30.762,0
1583425322.579,28.320,35.156,36.133,27.344,-2.930,0
1583425322.583,28.320,32.715,35.156,29.785,6.348,1
1583425322.586,23.438,34.180,36.133,28.320,35.156,0
1583425322.590,30.273,36.133,37.109,29.785,40.527,0
1583425322.594,35.645,35.645,38.574,33.203,55.176,0
1583425322.598,34.180,35.645,37.109,33.203,89.355,0
1583425322.602,36.621,39.551,34.180,33.691,79.102,0
1583425322.620,33.691,39.551,32.227,35.156,70.312,0
1583425322.624,29.785,35.645,33.203,33.691,31.250,0
1583425322.628,29.297,36.621,35.156,33.203,49.316,0
1583425322.632,31.250,38.574,34.668,35.156,26.367,0
1583425322.636,26.367,38.086,30.762,27.832,33.691,0
1583425322.640,21.973,36.621,28.809,20.996,62.500,0
1583425322.644,24.902,39.062,29.785,26.855,75.684,0
1583425322.647,25.879,38.574,31.250,23.926,76.660,0
1583425322.651,27.344,39.551,32.227,24.414,3.906,0
1583425322.655,30.762,41.016,33.691,29.785,-33.691,0
1583425322.659,38.574,41.016,34.180,36.621,-18.066,0
1583425322.663,39.062,39.551,30.762,40.527,57.617,0
1583425322.660,35.645,38.086,30.273,39.062,84.473,0
1583425322.664,35.156,38.086,34.180,39.551,34.668,0
1583425322.668,37.109,36.133,34.180,39.062,33.203,0
1583425322.672,34.180,35.645,30.762,34.668,-18.555,0
1583425322.676,35.156,36.133,34.668,33.691,-10.254,0
1583425322.680,41.992,35.645,32.715,31.738,-7.324,0
1583425322.684,41.504,34.668,26.855,24.414,-28.809,0
1583425322.687,42.480,38.086,29.297,23.926,22.461,0
1583425322.691,41.016,38.086,32.227,24.414,26.367,0
1583425322.695,34.180,35.645,33.691,19.043,30.762,0
1583425322.699,30.762,35.645,34.180,21.973,45.898,0
1583425322.703,28.320,34.668,32.227,30.273,54.199,0
1583425322.700,29.297,35.156,33.203,28.320,56.641,0
1583425322.704,22.461,33.691,34.180,21.973,53.223,0
1583425322.708,20.020,33.691,32.227,23.926,37.109,0
1583425322.712,29.785,36.133,33.691,25.879,19.043,0
1583425322.716,32.715,37.598,33.203,36.133,-11.719,0
1583425322.720,33.691,36.133,34.180,38.086,0.977,0
1583425322.724,39.062,34.668,36.621,32.715,64.941,0
1583425322.727,39.062,33.691,37.109,39.551,43.457,0
1583425322.731,40.039,36.133,36.133,42.480,65.430,0
1583425322.735,44.922,36.133,33.691,37.109,42.480,0
1583425322.739,42.969,34.668,33.691,32.715,5.371,0
1583425322.743,37.598,39.062,32.227,31.738,24.902,0
1583425322.760,31.738,39.551,28.320,31.250,41.992,0
1583425322.764,31.250,38.086,27.832,29.785,37.109,0
1583425322.768,32.715,38.086,32.227,28.320,8.301,0
1583425322.772,28.320,37.109,35.645,25.391,35.156,0
1583425322.776,26.855,35.645,33.691,27.832,-13.184,0
1583425322.780,30.273,36.133,35.156,39.551,-24.414,0
1583425322.784,28.809,34.180,40.039,38.574,21.484,0
1583425322.787,23.926,32.227,39.062,29.297,22.949,0
1583425322.791,18.555,30.762,40.039,21.973,19.531,0
1583425322.795,13.184,30.273,40.527,23.438,47.852,0
1583425322.799,10.742,33.691,38.574,24.414,42.969,0
1583425322.803,11.719,34.668,33.691,15.625,36.621,0
1583425322.800,15.625,34.668,27.344,14.160,66.406,0
1583425322.804,20.508,35.156,22.949,18.555,73.242,0
1583425322.808,22.461,38.086,25.879,20.508,58.105,0
1583425322.812,23.926,39.062,34.180,23.926,48.828,0
1583425322.816,29.785,39.062,39.062,24.414,-8.789,0
1583425322.820,32.715,40.039,36.621,28.320,13.672,0
1583425322.824,30.273,37.598,32.227,29.297,88.379,0
1583425322.827,33.203,36.133,30.762,28.809,36.133,0
1583425322.831,34.180,38.574,30.273,35.156,-0.488,0
1583425322.835,34.668,39.062,29.785,40.039,-2.441,0
1583425322.839,43.457,36.133,29.785,40.039,23.926,0
1583425322.843,41.016,33.203,31.738,34.180,42.480,0
1583425322.840,35.645,31.738,31.250,31.250,14.648,0
1583425322.844,33.691,27.832,29.785,31.738,14.648,0
1583425322.848,28.320,29.297,29.785,26.855,-7.812,0
1583425322.852,28.320,36.133,29.785,25.391,-16.113,0
1583425322.856,31.250,36.133,31.738,30.762,50.293,0
1583425322.860,29.785,36.133,33.203,30.762,67.871,0
1583425322.864,26.367,36.621,30.762,27.832,38.574,0
1583425322.867,26.855,33.203,33.691,27.832,54.199,0
1583425322.871,25.879,34.668,33.691,26.855,71.289,0
1583425322.875,28.320,36.133,33.203,23.438,83.008,0
1583425322.879,29.785,34.180,32.227,19.043,38.086,0
1583425322.883,28.320,34.668,30.273,24.414,28.320,0
1583425322.900,32.715,36.133,39.062,32.227,50.293,0
1583425322.904,33.691,35.156,41.992,29.785,50.293,0
1583425322.908,34.180,34.180,38.086,28.809,40.039,0
1583425322.912,34.180,31.738,35.645,26.855,47.363,0
1583425322.916,35.645,32.227,33.691,27.344,67.871,0
1583425322.920,41.992,36.621,32.227,32.715,64.941,0
1583425322.924,41.016,40.039,31.738,28.809,26.367,0
1583425322.927,34.668,40.039,33.203,25.391,41.992,0
1583425322.931,33.203,36.621,31.250,30.273,62.988,0
1583425322.935,38.574,38.086,28.809,33.691,61.523,0
1583425322.939,43.945,38.574,32.227,35.645,53.711,0
1583425322.943,42.480,39.551,33.691,38.574,18.066,0
1583425322.940,41.016,40.039,35.645,37.109,32.715,0
1583425322.944,40.039,40.527,36.133,30.273,45.410,0
1583425322.948,39.062,40.527,33.691,27.344,-28.320,0
1583425322.952,41.504,39.551,30.762,32.715,0.488,0
1583425322.956,37.598,38.086,27.344,33.691,76.660,0
1583425322.960,32.227,35.156,29.785,31.250,33.691,0
1583425322.964,35.156,33.691,32.227,29.785,-5.859,0
1583425322.967,32.227,33.203,34.668,25.879,23.926,0
1583425322.971,32.227,34.668,41.504,30.762,13.184,0
1583425322.975,36.621,38.574,36.133,36.621,20.996,0
1583425322.979,26.367,37.598,27.832,28.809,63.477,0
1583425322.983,20.996,34.668,35.645,22.461,64.453,0
1583425322.980,23.926,34.668,39.551,24.902,92.773,0
1583425322.984,20.508,35.645,34.668,22.461,24.902,0
1583425322.988,20.020,35.156,29.785,24.414,-8.301,0
1583425322.992,21.973,34.180,30.762,27.344,95.703,0
1583425322.996,22.949,31.738,33.691,23.926,63.477,0
1583425323.000,28.320,30.273,33.203,28.809,-45.898,0
1583425323.004,30.762,32.227,33.203,37.598,-4.883,0
1583425323.007,28.809,32.227,29.297,32.715,55.664,0
1583425323.011,33.691,32.715,28.809,28.809,40.527,0
1583425323.015,34.180,32.715,34.180,32.227,21.973,0
1583425323.019,36.621,30.273,34.180,35.645,16.113,0
1583425323.023,39.062,30.273,30.762,36.621,13.184,0
1583425323.040,34.180,30.273,28.320,32.227,62.012,0
1583425323.044,33.691,30.762,27.832,30.762,42.969,0
1583425323.048,32.715,33.203,34.180,32.715,16.113,0
1583425323.052,30.273,33.203,36.621,33.691,72.754,0
1583425323.056,25.879,35.645,35.645,29.297,95.215,0
1583425323.060,25.879,39.062,38.086,35.645,42.480,0
1583425323.064,31.250,39.062,37.598,40.039,15.137,0
1583425323.067,27.832,39.062,30.762,30.762,32.715,0
1583425323.071,27.344,38.086,32.715,28.320,34.668,0
1583425323.075,25.391,37.598,32.715,28.320,61.035,0
1583425323.079,23.926,37.109,30.762,32.227,32.227,0
1583425323.083,26.855,35.156,35.156,29.785,10.742,0
1583425323.080,25.879,35.645,38.574,26.855,61.035,0
1583425323.084,26.855,32.227,39.062,30.762,99.609,0
1583425323.088,30.273,28.809,37.109,32.227,26.367,0
1583425323.092,27.832,27.832,39.062,30.273,8.301,0
1583425323.096,24.902,26.367,37.598,29.785,66.895,0
1583425323.100,25.391,26.855,31.738,28.809,11.230,0
1583425323.104,25.879,29.297,32.227,32.715,-12.695,0
1583425323.107,22.461,33.691,34.180,35.156,-24.414,0
1583425323.111,20.508,34.180,31.738,28.809,-20.508,0
1583425323.115,29.297,34.668,30.762,25.879,13.672,0
1583425323.119,30.762,36.133,32.227,31.250,-11.230,0
1583425323.123,24.414,33.691,34.180,28.320,16.113,0
1583425323.120,31.738,36.621,35.156,31.250,30.273,0
1583425323.124,37.598,37.598,36.133,37.109,32.227,0
1583425323.128,41.016,38.086,35.645,41.016,19.531,0
1583425323.132,44.434,39.062,36.133,43.457,12.695,0
1583425323.136,40.527,37.598,37.109,36.133,56.152,0
1583425323.140,37.598,37.109,40.039,31.250,41.992,0
1583425323.144,34.668,37.109,43.457,30.762,21.484,0
1583425323.147,34.180,37.598,42.969,36.133,87.891,0
1583425323.151,35.156,39.062,38.574,36.133,90.332,0
1583425323.155,33.691,39.551,36.133,30.273,52.246,0
1583425323.159,36.133,37.109,34.668,33.203,45.898,0
1583425323.163,36.621,39.062,37.598,35.156,20.020,0
1583425323.180,39.062,41.504,37.109,36.621,59.570,0
1583425323.184,37.109,38.086,38.086,36.621,39.062,0
1583425323.188,40.527,37.598,41.016,33.691,25.879,0
1583425323.192,45.898,41.016,36.621,31.738,44.434,0
1583425323.196,42.969,39.062,33.691,33.691,-0.977,0
1583425323.200,40.527,35.156,31.738,36.133,-14.648,0
1583425323.204,35.645,33.203,32.715,36.133,60.547,0
1583425323.207,29.297,34.668,37.109,31.738,86.914,0
1583425323.211,21.484,37.598,37.109,29.785,61.035,0
1583425323.215,20.508,40.527,36.133,30.762,31.250,0
1583425323.219,16.113,40.527,40.039,24.414,39.062,0
1583425323.223,10.254,39.551,41.504,17.578,70.801,0
1583425323.220,13.672,41.992,39.062,19.043,85.449,0
1583425323.224,19.531,41.992,37.109,27.832,77.637,0
1583425323.228,23.926,37.598,38.574,30.762,35.156,0
1583425323.232,27.344,35.645,37.598,31.250,19.531,0
1583425323.236,30.762,35.645,36.133,34.180,-33.203,0
1583425323.240,27.344,37.598,37.109,34.180,-7.324,0
1583425323.244,25.879,36.133,35.156,28.809,23.438,0
1583425323.247,25.391,31.250,37.109,26.855,-12.207,0
1583425323.251,24.414,29.785,38.086,28.809,-20.996,0
1583425323.255,20.508,31.250,36.621,20.996,30.762,0
1583425323.259,20.020,31.738,39.062,20.508,63.477,0
1583425323.263,25.391,27.832,41.016,31.250,30.762,0
1583425323.260,27.344,28.320,40.039,30.273,25.391,0
1583425323.264,26.367,31.738,39.551,31.250,55.664,0
1583425323.268,31.738,36.133,40.039,41.016,40.039,0
1583425323.272,35.156,37.109,38.574,40.527,36.621,0
1583425323.276,32.227,34.180,39.062,35.156,10.254,0
1583425323.280,33.203,36.133,40.039,31.738,2.930,0
1583425323.284,32.227,38.086,37.598,27.344,11.719,0
1583425323.287,26.855,37.598,39.551,25.391,41.504,0
1583425323.291,26.855,40.039,39.551,27.832,76.172,0
1583425323.295,31.250,39.551,38.574,27.832,94.727,0
1583425323.299,28.320,38.574,34.180,29.785,134.277,0
1583425323.303,26.367,40.527,31.738,27.344,62.500,0
1583425323.320,22.949,41.992,33.691,23.926,35.156,0
1583425323.324,20.020,41.504,32.715,26.367,17.578,0
1583425323.328,17.090,41.504,35.156,21.973,20.508,0
1583425323.332,12.207,41.016,35.156,20.996,33.691,0
1583425323.336,9.766,38.086,34.180,19.531,21.484,0
1583425323.340,7.812,37.109,33.203,20.020,63.477,0
1583425323.344,10.742,37.598,32.715,25.879,67.383,0
1583425323.347,19.043,37.598,35.156,32.227,59.570,0
1583425323.351,31.250,37.109,34.180,39.551,69.824,0
1583425323.355,40.527,38.086,33.691,43.945,61.035,0
1583425323.359,44.922,39.062,37.598,48.828,6.348,0
1583425323.363,50.293,37.598,39.062,51.270,35.645,0
1583425323.360,51.758,38.086,38.574,46.875,98.145,0
1583425323.364,49.805,38.086,37.598,41.016,82.520,0
1583425323.368,51.270,39.062,38.574,42.480,40.039,0
1583425323.372,51.758,37.598,38.574,40.039,32.715,0
1583425323.376,46.387,37.109,39.062,39.551,40.527,0
1583425323.380,39.062,39.062,42.480,41.504,42.480,0
1583425323.384,35.156,35.645,42.480,35.156,26.855,0
1583425323.387,33.203,33.203,38.086,36.133,37.598,0
1583425323.391,28.809,34.180,35.645,34.668,41.992,0
1583425323.395,25.879,35.645,33.691,29.297,23.926,0
1583425323.399,20.020,33.691,29.297,27.832,53.711,0
1583425323.403,9.766,32.227,28.320,24.414,15.137,0
1583425323.400,11.230,35.645,26.367,15.625,13.672,0
1583425323.404,15.625,40.527,22.461,16.602,65.918,0
1583425323.408,11.719,41.016,22.949,16.602,25.879,0
1583425323.412,5.859,40.039,25.879,16.113,5.371,0
1583425323.416,11.719,40.039,25.391,21.973,26.367,0
1583425323.420,14.648,38.086,28.809,23.926,36.621,0
1583425323.424,10.254,35.156,32.715,22.461,39.551,0
1583425323.427,16.602,32.227,29.297,21.484,68.359,0
1583425323.431,22.949,31.738,28.320,28.320,81.055,0
1583425323.435,24.902,30.762,30.762,32.715,67.383,0
1583425323.439,26.855,28.809,30.273,32.227,66.406,0
1583425323.443,32.715,33.203,27.344,30.273,64.941,0
1583425323.460,38.086,36.133,25.391,33.203,51.758,0
1583425323.464,40.039,31.250,24.902,39.062,70.801,0
1583425323.468,42.480,32.715,25.391,42.480,15.625,0
1583425323.472,35.645,32.715,26.855,38.086,-5.371,0
1583425323.476,33.691,29.785,30.273,44.434,18.066,0
1583425323.480,39.062,32.715,30.273,54.688,10.742,0
1583425323.484,33.691,29.785,30.762,49.316,45.410,0
1583425323.487,28.809,26.367,34.668,42.480,39.551,0
1583425323.491,28.320,25.879,33.691,41.992,0.977,0
1583425323.495,21.484,25.391,32.227,40.039,-5.859,0
1583425323.499,16.113,26.367,32.227,28.809,-7.812,0
1583425323.503,19.043,31.250,30.273,17.090,26.367,0
1583425323.500,18.555,34.668,30.273,17.578,39.551,0
1583425323.504,18.066,36.133,30.273,15.625,46.387,0
1583425323.508,23.438,40.039,26.367,8.789,51.270,0
1583425323.512,27.344,42.969,21.484,14.160,31.250,0
1583425323.516,30.762,47.852,21.973,12.695,-6.348,0
1583425323.520,28.320,48.828,25.391,8.789,11.230,0
1583425323.524,30.762,48.828,28.320,17.578,48.340,0
1583425323.527,39.551,48.340,29.297,23.926,18.555,0
1583425323.531,41.016,42.969,33.203,29.785,-7.324,0
1583425323.535,37.109,34.668,35.156,34.668,2.441,0
1583425323.539,35.645,30.273,35.156,38.086,15.137,0
1583425323.543,37.598,29.785,36.133,40.527,30.762,0
1583425323.540,39.551,28.809,35.645,38.086,29.785,0
1583425323.544,36.621,27.344,33.691,34.668,42.969,0
1583425323.548,36.133,27.832,31.738,35.156,36.621,0
1583425323.552,31.250,26.855,31.738,24.902,15.625,0
1583425323.556,30.762,29.785,28.320,18.066,7.324,0
1583425323.560,31.738,32.715,28.320,19.531,58.105,0
1583425323.564,25.879,27.832,32.715,20.996,57.129,0
1583425323.567,25.879,30.273,29.297,29.297,-16.602,0
1583425323.571,25.391,33.691,29.785,31.250,32.227,0
1583425323.575,23.438,34.180,32.227,27.832,35.156,0
1583425323.579,13.672,33.691,30.762,26.855,20.020,0
1583425323.583,2.930,33.203,31.738,24.414,44.434,0
1583425323.600,5.859,35.645,34.668,27.832,33.691,0
1583425323.604,11.230,37.109,34.668,28.809,49.316,0
1583425323.608,12.207,34.668,34.180,24.902,77.637,0
1583425323.612,16.113,33.203,35.156,23.926,45.410,0
1583425323.616,16.602,30.273,33.203,22.949,-17.578,0
1583425323.620,20.508,29.785,33.691,27.344,24.902,0
1583425323.624,23.438,31.738,33.691,27.832,77.637,0
1583425323.627,22.461,27.832,31.738,27.344,73.730,0
1583425323.631,24.902,29.297,31.738,30.762,90.332,0
1583425323.635,18.555,32.715,30.762,21.973,71.289,0
1583425323.639,24.414,34.180,24.414,20.508,47.363,0
1583425323.643,32.715,36.621,23.926,23.438,-10.254,0
1583425323.640,33.691,36.621,25.391,18.555,-17.090,0
1583425323.644,37.109,35.645,23.438,23.926,65.430,0
1583425323.648,39.551,35.156,28.320,32.715,83.008,0
1583425323.652,43.945,36.133,32.227,37.109,78.125,0
1583425323.656,45.898,35.645,33.203,39.551,49.316,0
1583425323.660,42.969,32.715,33.691,41.016,20.508,0
1583425323.664,41.992,33.691,30.762,39.062,8.789,0
1583425323.667,40.527,35.645,28.809,41.504,23.926,0
1583425323.671,39.062,37.109,28.809,40.527,31.738,0
1583425323.675,42.969,36.621,29.297,34.180,49.805,0
1583425323.679,47.363,35.156,30.273,34.180,82.031,0
1583425323.683,47.363,37.109,31.250,35.156,86.914,0
1583425323.680,45.898,37.109,31.738,29.297,84.961,0
1583425323.684,44.434,37.109,32.227,34.668,70.801,0
1583425323.688,39.062,36.621,29.297,41.504,60.547,0
1583425323.692,32.227,35.156,32.227,35.645,4.395,0
1583425323.696,27.344,36.621,35.156,35.156,3.906,0
1583425323.700,23.926,36.133,31.250,38.574,20.508,1
1583425323.704,17.090,34.668,29.297,34.668,0.977,0
1583425323.707,13.184,38.086,23.438,26.367,85.938,0
1583425323.711,16.113,42.969,18.555,22.949,46.875,0
1583425323.715,20.508,46.875,20.508,25.879,-12.207,0
1583425323.719,27.832,52.246,20.996,28.320,27.344,0
1583425323.723,36.133,53.223,22.949,30.762,-2.930,0
1583425323.740,47.363,55.664,26.855,31.738,36.621,0
1583425323.744,54.688,58.105,28.809,38.574,62.988,0
1583425323.748,54.688,55.176,32.227,41.504,12.695,0
1583425323.752,50.781,51.270,39.551,41.992,15.625,0
1583425323.756,49.316,48.340,45.410,50.781,39.062,0
1583425323.760,49.316,44.922,47.852,52.734,38.086,0
1583425323.764,44.434,37.598,48.828,44.922,46.387,0
1583425323.767,40.527,33.203,48.340,44.922,18.066,0
1583425323.771,32.227,29.785,48.828,40.527,-5.859,0
1583425323.775,21.484,24.414,50.293,32.227,47.363,0
1583425323.779,18.066,22.461,52.246,38.574,114.746,0
1583425323.783,8.789,20.508,50.781,36.133,83.008,0
1583425323.780,3.418,20.508,47.852,29.297,65.430,0
1583425323.784,7.324,26.855,44.922,35.645,67.383,0
1583425323.788,9.277,32.227,40.527,37.598,50.781,0
1583425323.792,12.207,33.691,37.598,34.668,-0.977,0
1583425323.796,14.160,36.133,34.180,35.645,-2.930,0
1583425323.800,18.066,38.086,31.250,33.203,8.789,0
1583425323.804,22.949,37.598,29.297,35.156,20.508,0
1583425323.807,28.320,39.062,30.273,38.574,20.020,0
1583425323.811,31.250,41.504,29.297,34.668,-57.129,0
1583425323.815,30.273,39.551,28.809,30.762,-13.184,0
1583425323.819,32.227,37.109,32.715,32.227,41.504,0
1583425323.823,39.551,38.574,32.715,37.598,14.648,0
1583425323.820,46.387,37.109,35.156,33.691,16.113,0
1583425323.824,47.363,35.156,39.551,26.367,32.715,0
1583425323.828,46.387,37.109,35.645,22.949,27.832,0
1583425323.832,48.828,35.645,35.156,22.949,17.578,0
1583425323.836,54.199,37.109,36.133,30.762,75.684,0
1583425323.840,62.988,40.039,35.156,40.039,83.008,0
1583425323.844,68.848,37.598,36.133,46.875,46.387,0
1583425323.847,66.406,35.156,40.039,48.828,5.859,0
1583425323.851,64.453,37.598,42.480,50.293,-38.086,0
1583425323.855,61.523,38.574,42.480,54.199,-11.719,0
1583425323.859,59.082,32.227,45.410,50.293,38.086,0
1583425323.863,53.223,30.762,40.039,43.457,24.414,0
1583425323.880,45.410,34.180,38.574,39.551,11.719,0
1583425323.884,37.598,32.715,43.457,29.785,-3.906,0
1583425323.888,30.273,28.320,40.039,20.020,0.488,0
1583425323.892,22.949,29.297,31.250,15.625,30.273,0
1583425323.896,21.973,32.227,27.832,14.160,6.348,0
1583425323.900,21.973,32.715,23.926,14.160,-5.859,0
1583425323.904,16.113,37.109,24.414,10.254,18.555,0
1583425323.907,12.695,40.527,31.250,7.812,86.914,0
1583425323.911,17.578,41.016,30.762,13.672,96.191,0
1583425323.915,26.367,39.551,31.738,17.090,59.082,0
1583425323.919,32.227,41.016,34.668,26.367,41.504,0
1583425323.923,34.668,41.016,35.156,36.621,58.594,0
1583425323.920,39.062,39.551,32.227,38.574,68.848,0
1583425323.924,46.387,41.016,33.691,41.504,60.059,0
1583425323.928,50.293,42.969,35.156,38.574,17.578,0
1583425323.932,49.805,44.922,30.762,38.086,9.277,0
1583425323.936,44.922,44.434,27.832,36.133,13.672,0
1583425323.940,43.945,43.945,29.297,25.879,18.066,0
1583425323.944,46.387,42.480,32.715,26.855,49.316,0
1583425323.947,46.875,43.945,31.250,29.785,40.527,0
1583425323.951,44.922,42.969,29.785,24.414,30.762,0
1583425323.955,40.039,37.109,32.227,19.531,74.707,0
1583425323.959,42.969,36.621,34.668,27.344,54.199,0
1583425323.963,43.945,37.109,33.691,30.273,-21.973,0
1583425323.960,41.504,35.156,31.738,29.785,-6.348,0
1583425323.964,40.527,38.086,32.227,30.762,62.012,0
1583425323.968,41.992,41.504,31.738,27.832,62.012,0
1583425323.972,34.180,37.598,28.320,30.762,54.688,0
1583425323.976,30.273,37.109,27.832,36.133,51.270,0
1583425323.980,24.902,35.645,28.320,34.668,25.391,0
1583425323.984,13.672,32.715,31.738,29.297,22.949,0
1583425323.987,13.184,31.738,36.621,31.250,45.898,0
1583425323.991,16.113,32.715,35.156,38.086,63.965,0
1583425323.995,16.602,31.250,33.691,37.109,68.848,0
1583425323.999,15.625,31.250,34.180,37.109,10.742,0
1583425324.003,13.184,36.133,33.691,37.109,-10.254,0
1583425324.020,13.672,38.574,29.297,32.715,-23.926,0
1583425324.024,22.461,40.527,26.855,35.156,-23.438,0
1583425324.028,24.902,41.992,25.879,36.621,88.867,0
1583425324.032,26.367,44.434,25.879,34.180,93.262,0
1583425324.036,33.203,43.457,28.320,35.645,43.945,0
1583425324.040,34.180,42.969,30.762,37.598,24.414,0
1583425324.044,36.621,40.039,34.180,41.016,21.973,0
1583425324.047,40.527,37.598,32.227,39.062,29.297,0
1583425324.051,41.504,36.133,30.273,40.527,7.812,0
1583425324.055,39.551,29.297,30.762,43.945,13.672,0
1583425324.059,39.551,30.273,29.785,37.109,-32.715,0
1583425324.063,36.133,33.203,28.809,30.273,22.461,0
1583425324.060,28.320,30.762,28.809,24.414,78.613,0
1583425324.064,26.367,25.391,29.297,17.090,7.324,0
1583425324.068,26.855,28.809,26.855,20.996,-29.785,0
1583425324.072,25.391,35.645,26.855,20.508,40.039,0
1583425324.076,23.926,38.086,28.809,14.160,76.172,0
1583425324.080,28.809,42.969,27.832,16.113,44.922,0
1583425324.084,30.762,42.480,25.879,17.090,78.125,0
1583425324.087,31.738,41.016,27.344,16.113,100.586,0
1583425324.091,34.180,44.434,27.832,15.625,63.965,0
1583425324.095,29.785,45.410,31.250,11.719,17.578,0
1583425324.099,25.879,41.504,29.297,13.672,51.758,0
1583425324.103,28.320,42.480,25.879,19.531,59.570,0
1583425324.120,34.180,40.527,29.297,18.066,31.738,0
1583425324.124,38.086,34.180,32.715,20.508,43.945,0
1583425324.128,36.133,32.227,34.180,21.484,34.668,0
1583425324.132,35.645,32.715,30.762,25.879,41.992,0
1583425324.136,37.109,32.227,30.762,29.297,80.078,0
1583425324.140,31.250,29.297,32.227,26.367,157.227,0
1583425324.144,22.949,25.879,29.297,26.367,64.453,0
1583425324.147,13.672,26.855,25.391,20.996,-6.348,0
1583425324.151,5.859,28.320,25.391,16.113,41.504,0
1583425324.155,6.836,27.344,28.320,18.066,29.297,0
1583425324.159,11.719,27.344,32.227,18.555,4.883,0
1583425324.163,17.090,28.320,32.715,21.484,33.203,0
1583425324.160,27.344,29.785,30.273,30.762,59.570,0
1583425324.164,31.738,35.156,31.250,27.344,22.949,0
1583425324.168,36.621,39.062,29.297,23.926,-24.902,0
1583425324.172,40.527,38.574,29.785,25.391,24.414,0
1583425324.176,37.598,38.086,32.715,18.066,13.672,0
1583425324.180,35.156,38.086,29.785,18.066,2.441,0
1583425324.184,36.133,41.016,29.785,22.949,57.129,0
1583425324.187,31.738,41.016,27.832,23.438,31.250,0
1583425324.191,24.414,38.574,28.809,23.438,-6.348,0
1583425324.195,25.391,37.109,28.320,23.438,41.504,0
1583425324.199,19.531,32.715,27.344,19.531,62.988,0
1583425324.203,12.695,28.320,32.715,17.090,54.688,0
1583425324.200,20.020,27.344,32.715,24.414,74.707,0
1583425324.204,23.438,26.855,35.156,30.273,44.434,0
1583425324.208,18.555,27.832,40.039,27.344,20.508,0
1583425324.212,13.184,25.879,38.086,23.926,36.133,0
1583425324.216,11.230,26.367,35.156,28.320,67.383,0
1583425324.220,8.789,26.855,36.133,28.809,41.016,0
1583425324.224,14.648,26.855,32.715,31.738,-1.953,0
1583425324.227,22.461,26.855,32.227,35.645,30.273,0
1583425324.231,14.648,25.879,36.621,33.203,49.316,0
1583425324.235,13.672,28.809,37.109,35.645,30.762,0
1583425324.239,17.090,31.738,40.527,38.574,22.461,0
1583425324.243,15.625,32.715,42.969,44.434,67.871,0
1583425324.260,15.625,37.109,42.480,50.293,14.648,0
1583425324.264,13.672,38.574,40.039,43.945,-16.602,0
1583425324.268,12.695,38.086,40.527,41.992,30.273,0
1583425324.272,9.766,36.621,44.434,35.645,-9.277,0
1583425324.276,7.324,34.668,44.434,32.715,25.391,0
1583425324.280,6.348,33.691,43.945,36.621,41.016,0
1583425324.284,9.766,35.156,42.969,32.715,-14.160,0
1583425324.287,11.230,38.086,45.410,32.715,33.203,0
1583425324.291,10.742,37.598,47.363,35.156,-8.789,0
1583425324.295,11.230,33.203,42.480,33.691,-23.926,0
1583425324.299,12.695,33.691,41.016,35.156,62.500,0
1583425324.303,20.508,33.203,45.410,39.551,81.055,0
1583425324.300,22.949,29.297,47.363,35.156,47.852,0
1583425324.304,23.926,32.715,45.898,32.227,38.574,0
1583425324.308,31.250,36.133,42.969,36.133,24.902,0
1583425324.312,35.156,36.621,40.527,38.086,-32.715,0
1583425324.316,35.645,37.109,40.527,41.016,9.277,0
1583425324.320,38.086,40.039,37.598,35.645,26.367,0
1583425324.324,38.574,40.527,33.203,30.273,19.043,0
1583425324.327,40.039,39.062,30.762,31.738,93.750,0
1583425324.331,39.551,40.527,32.227,36.133,48.340,0
1583425324.335,34.668,38.086,33.203,30.273,30.762,0
1583425324.339,33.691,37.109,29.297,26.367,0.977,0
1583425324.343,32.715,35.645,33.203,29.785,-26.367,0
1583425324.340,32.227,32.227,37.598,26.855,-22.949,0
1583425324.344,28.320,29.297,35.645,19.043,2.441,0
1583425324.348,23.926,29.297,33.691,20.020,4.883,0
1583425324.352,24.414,31.250,36.621,22.461,-37.598,0
1583425324.356,23.438,30.762,38.574,18.555,-11.230,0
1583425324.360,21.484,29.297,38.086,18.066,15.625,0
1583425324.364,18.066,28.809,38.574,18.066,61.523,0
1583425324.367,18.066,32.227,39.062,21.484,78.613,0
1583425324.371,22.461,34.180,38.574,21.484,72.754,0
1583425324.375,26.367,31.250,40.527,19.531,104.492,0
1583425324.379,27.344,33.203,41.016,24.902,90.332,0
1583425324.383,32.715,34.180,41.016,31.738,-0.977,0
1583425324.400,38.086,34.668,40.039,30.762,15.625,0
1583425324.404,39.551,38.086,37.109,25.391,90.820,0
1583425324.408,38.086,40.039,36.133,27.832,58.105,0
1583425324.412,34.668,37.598,36.621,26.367,41.992,0
1583425324.416,42.480,38.086,35.645,30.273,47.363,0
1583425324.420,45.898,41.504,31.250,35.156,38.574,0
1583425324.424,43.945,41.504,29.297,30.273,41.504,0
1583425324.427,43.945,41.016,29.785,26.855,42.480,0
1583425324.431,40.527,41.504,27.832,28.809,62.988,0
1583425324.435,35.645,40.527,23.926,21.484,102.051,0
1583425324.439,37.109,39.551,23.926,16.113,118.164,0
1583425324.443,40.039,38.574,25.391,20.508,46.387,0
1583425324.440,41.016,39.551,27.344,22.461,8.789,0
1583425324.444,41.504,38.086,30.762,24.414,-29.785,0
1583425324.448,41.992,36.621,33.691,23.926,6.836,0
1583425324.452,41.992,40.039,33.203,24.414,69.336,0
1583425324.456,39.062,38.574,32.715,29.297,4.395,0
