timestamps,TP9,AF7,AF8,TP10,Right AUX,Marker0
1583343620.428,15.137,37.109,41.016,12.695,53.711,0
1583343620.432,25.391,35.645,40.527,14.160,59.570,0
1583343620.436,45.410,37.598,41.016,22.461,4.395,0
1583343620.440,38.574,35.645,42.969,23.438,-41.504,0
1583343620.444,11.719,34.180,43.945,17.578,8.789,0
1583343620.448,8.301,36.621,43.457,20.996,49.805,0
1583343620.452,39.062,35.645,43.945,29.297,47.852,0
1583343620.455,56.152,30.273,39.062,37.109,40.039,0
1583343620.459,32.715,32.715,32.715,31.738,10.254,0
1583343620.463,-3.906,40.039,27.832,2.930,-4.395,0
1583343620.467,5.371,40.527,23.438,-9.277,13.184,0
1583343620.471,33.203,42.480,21.484,-4.883,9.277,0
1583343620.469,8.301,47.363,19.043,-20.020,9.766,0
1583343620.473,-15.137,45.898,18.066,-24.414,41.992,0
1583343620.477,2.441,47.852,15.137,-19.531,15.625,0
1583343620.481,16.602,48.340,12.207,-23.438,29.297,0
1583343620.485,0.977,49.805,17.578,-25.879,58.594,0
1583343620.489,-25.879,53.223,22.461,-32.715,40.039,0
1583343620.493,-26.367,46.387,19.531,-35.156,89.844,0
1583343620.496,6.348,45.898,20.996,-28.809,83.008,0
1583343620.500,14.160,48.828,24.414,-20.020,13.672,0
1583343620.504,-3.418,46.875,22.461,-17.090,23.926,0
1583343620.508,-2.441,43.945,24.414,-14.648,35.156,0
1583343620.512,18.066,40.039,26.855,-3.418,-15.625,0
1583343620.528,33.203,39.062,27.344,1.465,-29.297,0
1583343620.532,16.113,41.504,28.320,-0.488,-1.953,0
1583343620.536,-0.488,40.527,28.809,-5.859,-17.090,0
1583343620.540,18.555,36.621,28.809,-4.883,14.160,0
1583343620.544,40.039,38.574,32.715,6.836,53.223,0
1583343620.548,25.391,43.945,37.598,12.207,-20.508,0
1583343620.552,0.977,39.551,34.668,-4.395,-39.551,0
1583343620.555,17.090,34.668,30.273,-7.324,29.297,0
1583343620.559,43.457,32.715,26.367,5.859,44.434,0
1583343620.563,31.738,35.156,25.879,6.348,-1.953,0
1583343620.567,10.742,40.039,30.762,5.859,-39.062,0
1583343620.571,11.719,39.551,30.273,1.953,-25.391,0
1583343620.568,32.227,37.598,25.391,1.953,39.062,0
1583343620.572,38.086,38.574,30.762,9.766,31.738,0
1583343620.576,12.695,37.598,36.133,13.672,36.621,0
1583343620.580,10.254,41.016,35.156,14.160,28.320,0
1583343620.584,40.039,43.457,36.133,17.578,-27.344,0
1583343620.588,51.270,41.992,40.039,20.996,35.645,0
1583343620.592,35.156,41.016,40.527,21.484,14.160,0
1583343620.595,21.484,41.016,40.039,19.043,-26.367,0
1583343620.599,41.504,39.551,40.527,26.367,4.883,0
1583343620.603,55.176,39.551,41.016,33.203,27.832,0
1583343620.607,40.039,40.039,38.574,20.996,36.133,0
1583343620.611,23.438,37.598,38.086,20.996,10.742,0
1583343620.608,36.133,39.551,43.945,30.762,27.832,0
1583343620.612,67.871,41.016,44.434,35.645,48.340,0
1583343620.616,57.129,38.086,40.039,35.156,52.246,0
1583343620.620,29.297,38.086,40.527,26.855,46.387,0
1583343620.624,29.785,36.621,39.551,21.973,4.395,0
1583343620.628,49.316,35.645,38.086,30.273,45.898,0
1583343620.632,49.805,35.156,39.551,31.738,75.684,0
1583343620.635,20.508,34.180,40.527,24.902,66.895,0
1583343620.639,6.348,34.180,41.992,11.719,21.973,0
1583343620.643,38.086,36.133,44.434,16.113,-49.316,0
1583343620.647,57.617,36.621,41.992,28.320,-2.441,0
1583343620.651,31.738,34.180,35.645,18.066,62.012,0
1583343620.668,13.184,34.180,35.645,13.672,48.828,0
1583343620.672,34.668,34.180,34.180,16.113,39.062,0
1583343620.676,57.617,36.621,35.156,22.461,19.043,0
1583343620.680,44.434,38.574,38.086,26.367,-13.184,0
1583343620.684,20.020,35.645,36.621,19.531,40.527,0
1583343620.688,23.438,35.156,36.133,23.438,65.430,0
1583343620.692,47.363,34.668,37.598,27.344,-24.902,0
1583343620.695,44.922,34.180,35.156,22.949,-25.879,0
1583343620.699,22.949,37.109,37.598,22.949,6.348,0
1583343620.703,24.902,38.086,39.551,22.461,-12.207,0
1583343620.707,44.922,32.715,38.574,22.949,21.973,0
1583343620.711,50.293,32.227,37.109,23.438,65.918,0
1583343620.709,33.203,35.156,35.645,21.484,19.043,0
1583343620.713,20.508,37.109,37.598,22.461,27.832,0
1583343620.717,37.598,38.086,39.551,24.902,88.867,0
1583343620.721,51.758,38.086,41.016,26.855,67.383,0
1583343620.725,24.902,37.598,40.527,23.926,93.750,0
1583343620.729,1.465,37.109,40.527,25.391,112.793,0
1583343620.733,20.020,37.598,41.992,31.250,27.832,0
1583343620.736,53.711,41.016,45.898,39.062,1.953,0
1583343620.740,45.898,40.527,46.387,35.645,18.555,0
1583343620.744,9.766,36.133,40.527,24.414,18.555,0
1583343620.748,16.113,35.156,39.062,23.438,21.973,0
1583343620.752,43.457,34.180,40.527,25.879,56.152,0
1583343620.748,39.062,34.668,41.016,29.297,40.527,0
1583343620.752,15.625,35.156,38.574,24.902,29.297,0
1583343620.756,14.160,37.598,38.574,19.043,9.766,0
1583343620.760,42.969,40.527,39.551,24.902,-25.879,0
1583343620.764,50.293,34.668,36.621,26.855,48.828,0
1583343620.768,21.973,30.762,36.621,24.902,64.941,0
1583343620.772,14.160,30.273,36.133,23.438,12.695,0
1583343620.775,36.621,32.227,36.621,25.879,-4.883,0
1583343620.779,52.246,33.203,38.086,25.391,34.180,0
1583343620.783,35.645,29.297,37.598,20.020,39.551,0
1583343620.787,13.184,29.785,39.062,18.555,1.953,0
1583343620.791,30.762,32.227,41.992,20.996,-2.441,0
1583343620.808,55.664,34.180,44.434,26.367,-5.371,0
1583343620.812,49.805,38.086,45.898,28.809,9.277,0
1583343620.816,29.297,39.062,46.387,22.949,36.133,0
1583343620.820,24.414,33.203,40.039,16.113,16.602,0
1583343620.824,42.480,32.227,35.156,17.578,7.324,0
1583343620.828,38.086,33.691,36.621,14.648,10.254,0
1583343620.832,1.953,29.785,35.156,1.953,40.527,0
1583343620.835,-4.395,29.297,32.715,-0.488,-24.414,0
1583343620.839,25.391,33.203,34.668,10.742,3.418,0
1583343620.843,40.039,33.203,34.668,14.160,90.820,0
1583343620.847,14.160,31.738,36.133,9.277,35.156,0
1583343620.851,0.000,33.691,36.133,8.789,12.695,0
1583343620.848,22.949,34.180,37.598,13.672,19.531,0
1583343620.852,35.645,27.344,36.621,14.648,21.973,0
1583343620.856,19.531,24.902,33.203,5.371,30.762,0
1583343620.860,1.465,28.320,34.180,4.883,41.016,0
1583343620.864,17.090,28.809,38.086,19.531,48.828,0
1583343620.868,44.434,28.320,39.062,24.414,45.898,0
1583343620.872,37.598,31.738,40.039,22.949,11.719,0
1583343620.875,14.648,33.691,38.086,12.695,3.418,0
1583343620.879,20.508,33.203,35.156,11.719,4.395,0
1583343620.883,41.504,33.691,38.086,18.066,-35.645,0
1583343620.887,46.875,34.668,39.062,15.625,-39.062,0
1583343620.891,29.785,36.621,40.039,19.531,-30.762,0
1583343620.888,11.230,31.738,38.086,12.207,16.113,0
1583343620.892,30.273,30.273,35.156,11.719,13.184,0
1583343620.896,46.387,32.715,39.062,16.113,6.836,0
1583343620.900,24.902,32.715,39.062,10.742,8.789,0
1583343620.904,8.789,34.180,37.109,11.719,-4.883,0
1583343620.908,26.855,33.203,38.086,14.648,6.348,0
1583343620.912,50.293,31.738,39.551,18.555,17.090,0
1583343620.915,34.180,33.203,41.504,17.578,66.406,0
1583343620.919,11.230,35.156,41.992,16.113,111.816,0
1583343620.923,31.250,37.598,44.922,31.250,92.285,0
1583343620.927,52.734,35.645,44.922,28.809,35.645,0
1583343620.931,38.574,29.297,37.109,15.625,-47.363,0
1583343620.948,17.090,30.273,36.133,17.090,-38.574,0
1583343620.952,20.020,32.715,39.062,20.020,33.203,0
1583343620.956,47.852,35.645,40.527,26.367,62.012,0
1583343620.960,55.664,35.645,40.527,24.414,38.574,0
1583343620.964,28.320,35.156,39.062,18.555,13.672,0
1583343620.968,14.160,38.086,41.992,21.484,35.645,0
1583343620.972,41.992,39.062,44.434,23.926,47.852,0
1583343620.975,58.105,32.227,41.504,25.879,37.598,0
1583343620.979,31.250,31.738,38.086,17.090,89.355,0
1583343620.983,11.719,33.691,35.156,11.719,86.914,0
1583343620.987,30.273,35.645,36.133,19.531,48.340,0
1583343620.991,46.875,35.645,35.156,16.602,31.738,0
1583343620.988,32.227,33.691,37.598,10.254,66.895,0
1583343620.992,5.859,36.133,38.574,6.348,33.203,0
1583343620.996,12.207,35.645,36.621,7.812,-7.324,0
1583343621.000,35.645,33.203,38.086,19.531,34.180,0
1583343621.004,36.621,37.109,43.457,21.484,23.438,0
1583343621.008,12.695,39.062,46.387,15.625,33.203,0
1583343621.012,3.418,32.715,41.016,10.742,17.090,0
1583343621.015,28.320,28.809,36.621,14.648,-13.672,0
1583343621.019,36.621,30.273,36.621,21.973,6.348,0
1583343621.023,8.789,31.250,39.062,10.254,-17.578,0
1583343621.027,3.418,27.344,36.133,7.812,-20.020,0
1583343621.031,35.645,29.297,36.621,20.020,30.273,0
1583343621.028,48.828,32.715,41.016,22.949,31.250,0
1583343621.032,24.902,32.715,42.480,21.484,-26.855,0
1583343621.036,11.719,34.180,43.945,22.461,12.207,0
1583343621.040,33.203,38.086,45.898,31.738,25.391,0
1583343621.044,49.316,32.227,43.457,30.762,22.461,0
1583343621.048,38.574,28.320,40.039,20.508,18.066,0
1583343621.052,16.113,32.227,39.062,18.555,8.301,0
1583343621.055,15.625,33.691,39.551,17.578,12.695,0
1583343621.059,47.852,33.203,40.527,16.113,-14.160,0
1583343621.063,49.316,35.645,41.016,15.625,-33.691,0
1583343621.067,19.531,35.645,41.016,14.160,-30.273,0
1583343621.071,13.672,34.180,40.039,15.137,40.527,0
1583343621.088,34.180,35.156,40.039,20.996,63.477,0
1583343621.092,46.387,34.668,41.504,23.926,23.438,0
1583343621.096,21.973,36.621,42.969,16.113,33.203,0
1583343621.100,5.859,36.621,40.527,16.602,36.133,0
1583343621.104,30.762,35.156,41.992,27.832,22.949,0
1583343621.108,44.922,35.645,43.457,28.809,35.645,0
1583343621.112,20.020,30.273,37.598,20.020,1.953,0
1583343621.115,3.418,27.832,36.621,13.184,-15.137,0
1583343621.119,21.973,28.809,35.156,17.090,12.695,0
1583343621.123,47.852,27.344,34.180,29.297,30.762,0
1583343621.127,34.180,32.227,41.504,23.926,66.895,0
1583343621.131,8.301,39.062,45.898,19.531,91.309,0
1583343621.129,14.160,33.203,41.016,20.996,47.363,0
1583343621.133,41.504,29.297,35.156,22.461,-32.227,0
1583343621.137,47.852,32.227,36.621,27.344,-22.949,0
1583343621.141,20.508,33.203,38.574,25.391,-2.930,0
1583343621.145,11.230,32.715,39.551,21.484,7.324,0
1583343621.149,36.621,31.738,39.062,22.949,-3.906,0
1583343621.153,52.246,31.250,40.527,23.926,11.230,0
1583343621.156,28.809,32.715,41.016,17.578,86.426,0
1583343621.160,9.277,34.668,42.969,14.648,73.730,0
1583343621.164,22.949,35.156,43.945,17.578,46.387,0
1583343621.168,44.922,35.156,38.086,20.020,76.660,0
1583343621.172,35.645,39.062,41.016,20.996,75.195,0
1583343621.168,13.184,36.133,41.992,18.555,13.672,0
1583343621.172,19.531,34.180,39.062,19.531,26.367,0
1583343621.176,41.992,33.691,36.133,20.996,68.359,0
1583343621.180,37.109,33.203,34.180,14.648,104.980,0
1583343621.184,11.719,32.227,37.109,7.812,59.570,0
1583343621.188,10.742,31.250,38.086,9.277,42.969,0
1583343621.192,39.551,32.715,36.621,14.160,9.766,0
1583343621.195,44.434,33.203,38.574,11.719,27.344,0
1583343621.199,18.555,31.738,38.086,9.766,69.336,0
1583343621.203,13.672,32.227,38.086,18.555,3.906,0
1583343621.207,41.016,36.133,38.574,29.297,18.066,0
1583343621.211,48.828,34.668,35.645,29.785,60.547,0
1583343621.229,24.414,32.227,35.156,22.461,48.340,0
1583343621.233,12.695,33.203,34.180,19.043,1.465,0
1583343621.237,29.297,30.273,33.691,25.391,-15.137,0
1583343621.241,45.898,30.273,34.180,32.227,-2.930,0
1583343621.245,33.691,32.227,32.227,28.809,-2.441,0
1583343621.249,15.137,34.668,32.715,25.879,7.324,0
1583343621.253,31.250,38.574,37.598,28.809,8.301,0
1583343621.256,56.641,36.133,36.133,30.762,2.930,0
1583343621.260,47.852,32.715,32.715,24.414,33.691,0
1583343621.264,23.926,34.180,28.320,19.531,16.113,0
1583343621.268,18.555,35.645,28.320,20.508,33.691,0
1583343621.272,41.992,36.133,30.762,21.484,95.703,0
1583343621.268,49.805,35.645,32.227,23.926,35.156,0
1583343621.272,22.461,34.180,32.715,19.531,-0.488,0
1583343621.276,14.648,35.645,34.668,20.508,56.641,0
1583343621.280,36.133,38.086,38.086,28.320,82.031,0
1583343621.284,55.664,39.062,41.992,31.250,41.016,0
1583343621.288,38.574,38.086,44.434,31.250,68.848,0
1583343621.292,12.207,33.691,39.551,21.484,64.453,0
1583343621.295,30.273,31.738,33.203,17.578,13.672,0
1583343621.299,49.805,32.715,32.715,20.996,47.852,0
1583343621.303,30.273,31.738,33.691,13.184,69.336,0
1583343621.307,10.254,33.203,31.738,14.648,7.812,0
1583343621.311,20.508,34.668,33.691,22.949,12.695,0
1583343621.328,48.340,32.715,33.203,31.250,30.273,0
1583343621.332,48.340,36.133,35.645,35.645,-18.555,0
1583343621.336,23.926,38.086,39.062,27.344,8.301,0
1583343621.340,21.484,35.156,36.133,21.973,40.527,0
1583343621.344,43.457,33.691,36.621,28.320,38.086,0
1583343621.348,50.293,31.250,37.109,30.273,50.781,0
1583343621.352,24.902,32.715,36.621,22.949,-4.883,0
1583343621.355,9.766,32.715,37.598,13.672,-86.914,0
1583343621.359,36.133,31.738,36.621,23.926,-46.387,0
1583343621.363,55.664,34.180,36.133,32.227,15.137,0
1583343621.367,36.133,33.691,36.133,20.020,28.320,0
1583343621.371,11.230,33.691,37.598,13.672,28.809,0
1583343621.369,24.902,37.109,40.039,18.555,26.367,0
1583343621.373,54.688,40.039,41.504,28.809,26.367,0
1583343621.377,39.551,38.574,40.039,26.367,13.672,0
1583343621.381,8.789,34.668,35.156,15.625,-14.160,0
1583343621.385,13.184,32.227,33.691,12.695,-14.648,0
1583343621.389,35.156,32.715,36.133,14.648,0.488,0
1583343621.393,33.203,31.738,35.156,12.695,-72.266,0
1583343621.396,9.766,32.227,34.668,8.789,-48.340,0
1583343621.400,9.277,33.691,35.645,10.254,19.531,0
1583343621.404,34.668,33.691,34.180,18.555,19.043,0
1583343621.408,42.480,37.598,36.133,21.973,0.488,0
1583343621.412,27.344,40.527,40.039,20.020,-25.879,0
1583343621.408,19.531,37.109,39.551,18.555,-9.766,0
1583343621.412,31.738,33.691,35.156,21.484,20.996,0
1583343621.416,48.340,32.227,35.156,19.531,101.562,0
1583343621.420,35.156,31.738,39.062,16.113,119.629,0
1583343621.424,13.184,31.738,38.574,14.648,25.391,0
1583343621.428,22.461,31.250,36.621,12.695,-2.441,0
1583343621.432,48.340,31.250,35.156,20.508,11.719,0
1583343621.435,44.922,29.785,32.227,21.973,4.395,0
1583343621.439,16.113,32.227,34.668,13.672,30.273,0
1583343621.443,12.207,34.668,38.086,11.230,36.621,0
1583343621.447,41.504,32.715,36.621,18.555,51.758,0
1583343621.451,49.805,37.109,41.016,24.414,29.785,0
1583343621.469,21.484,37.109,41.016,17.578,21.484,0
1583343621.473,6.348,33.691,38.086,17.578,25.391,0
1583343621.477,34.180,33.691,38.574,23.926,24.902,0
1583343621.481,48.828,32.227,38.574,24.414,76.660,0
1583343621.485,22.461,33.691,38.574,22.949,88.867,0
1583343621.489,6.836,36.133,39.551,17.090,61.523,0
1583343621.493,24.414,34.668,40.527,20.996,28.320,0
1583343621.496,46.875,36.133,39.062,28.809,62.012,0
1583343621.500,39.551,36.133,39.062,25.391,96.680,0
1583343621.504,18.555,41.016,48.340,26.367,38.086,0
1583343621.508,30.762,43.457,50.781,27.344,-37.598,0
1583343621.512,57.129,38.086,41.992,27.832,8.301,0
1583343621.508,56.152,39.551,40.527,23.926,25.391,0
1583343621.512,27.344,40.039,41.016,13.184,5.859,0
1583343621.516,19.043,37.598,42.480,19.531,4.883,0
1583343621.520,41.992,37.598,42.480,25.391,5.859,0
1583343621.524,42.480,35.645,41.504,20.996,45.410,0
1583343621.528,15.625,36.133,41.992,15.625,33.203,0
1583343621.532,6.348,36.621,41.504,13.184,11.230,0
1583343621.535,29.785,35.645,41.992,18.066,15.137,0
1583343621.539,50.781,39.062,42.480,19.531,59.570,0
1583343621.543,36.621,38.086,40.039,13.672,44.922,0
1583343621.547,13.184,34.668,38.086,7.324,-46.387,0
1583343621.551,27.832,35.156,35.156,6.348,1.953,0
1583343621.548,54.688,35.645,35.645,14.648,61.035,0
1583343621.552,43.457,34.668,37.598,13.184,74.219,0
1583343621.556,20.996,35.156,38.574,14.648,54.688,0
1583343621.560,28.809,36.133,41.992,22.461,23.438,0
1583343621.564,53.223,35.645,42.480,28.320,-7.324,0
1583343621.568,45.410,38.086,42.480,31.738,-33.691,0
1583343621.572,13.672,38.086,41.016,20.508,11.719,0
1583343621.575,15.625,38.086,44.922,17.578,37.598,0
1583343621.579,42.480,38.086,46.875,29.297,53.711,0
1583343621.583,45.898,31.738,40.527,23.926,37.109,0
1583343621.587,21.484,30.762,40.527,18.555,16.113,0
1583343621.591,8.301,32.227,42.969,17.578,-14.648,0
1583343621.608,29.785,30.762,42.480,24.902,18.066,0
1583343621.612,45.898,35.645,42.969,27.832,86.426,0
1583343621.616,27.832,36.133,41.992,22.461,97.168,0
1583343621.620,10.254,32.227,41.016,20.996,67.871,0
1583343621.624,24.414,37.109,41.504,17.578,34.668,0
1583343621.628,47.852,36.621,38.574,25.391,54.688,0
1583343621.632,39.551,36.621,41.504,29.785,51.758,0
1583343621.635,18.066,38.574,47.852,22.949,13.184,0
1583343621.639,20.996,31.738,43.945,21.973,37.109,0
1583343621.643,40.527,28.809,42.969,23.926,0.488,0
1583343621.647,42.969,29.785,42.969,27.344,-11.230,0
1583343621.651,15.625,30.762,41.016,23.926,-2.930,0
1583343621.649,9.277,32.715,41.992,21.973,-8.301,0
1583343621.653,37.109,33.203,41.504,31.738,8.789,0
1583343621.657,44.922,30.762,41.504,32.715,7.812,0
1583343621.661,26.367,30.273,43.945,29.297,-21.973,0
1583343621.665,19.043,35.156,47.852,30.762,39.551,0
1583343621.669,37.109,35.156,46.387,30.273,110.352,0
1583343621.673,52.246,30.273,41.016,25.391,58.594,0
1583343621.676,36.621,31.738,40.527,17.578,31.738,0
1583343621.680,16.602,35.156,39.551,12.695,9.766,0
1583343621.684,26.367,35.645,40.527,18.555,41.992,0
1583343621.688,47.852,36.621,40.039,19.531,54.688,0
1583343621.692,42.480,35.156,36.133,12.695,43.457,0
1583343621.688,12.695,34.668,36.133,4.395,3.418,0
1583343621.692,14.160,34.668,38.086,7.812,9.277,0
1583343621.696,45.898,32.227,39.062,20.996,-1.465,0
1583343621.700,46.387,31.738,37.598,19.531,-22.461,0
1583343621.704,22.949,36.133,38.574,13.184,11.230,0
1583343621.708,17.090,40.527,41.504,16.113,6.836,0
1583343621.712,36.133,34.668,37.109,20.020,20.020,0
1583343621.715,47.363,31.250,35.156,24.414,13.672,0
1583343621.719,22.949,35.645,40.039,20.020,1.465,0
1583343621.723,3.418,36.621,41.504,12.207,-0.977,0
1583343621.727,26.367,35.156,40.527,20.508,-16.602,0
1583343621.731,52.734,37.109,40.527,30.762,50.781,0
1583343621.748,42.969,40.039,38.574,30.762,83.008,0
1583343621.752,19.043,40.527,39.062,24.414,27.832,0
1583343621.756,29.785,37.109,37.598,24.902,27.344,0
1583343621.760,51.270,35.645,33.203,33.691,26.855,0
1583343621.764,41.992,34.180,37.598,30.273,-4.883,0
1583343621.768,21.484,36.133,42.969,22.949,-28.809,0
1583343621.772,17.090,37.598,41.016,18.555,21.484,0
1583343621.775,39.062,34.180,39.062,18.555,73.242,0
1583343621.779,47.852,32.227,38.086,20.996,31.738,0
1583343621.783,21.484,35.156,40.039,18.066,-41.016,0
1583343621.787,15.137,37.109,39.062,18.066,0.977,0
1583343621.791,42.969,36.621,36.133,26.855,46.875,0
1583343621.788,61.035,37.598,36.133,30.762,0.000,0
1583343621.792,43.945,36.621,35.645,22.461,61.035,0
1583343621.796,27.344,39.551,38.574,22.461,95.215,0
1583343621.800,48.340,41.992,45.410,34.180,100.098,0
1583343621.804,67.383,39.062,46.875,34.668,49.805,0
1583343621.808,44.922,36.133,41.504,22.949,-25.879,0
1583343621.812,21.973,35.156,38.574,21.973,-26.367,0
1583343621.815,34.668,37.109,40.527,29.785,23.926,0
1583343621.819,57.129,36.621,41.992,30.273,46.387,0
1583343621.823,49.316,37.109,41.504,28.320,57.617,0
1583343621.827,21.484,37.109,40.527,21.484,86.426,0
1583343621.831,18.555,34.180,38.574,14.160,56.152,0
1583343621.828,46.387,34.668,38.086,20.508,16.602,0
1583343621.832,60.059,41.016,40.527,30.273,-39.551,0
1583343621.836,29.785,42.969,40.527,22.461,-8.301,0
1583343621.840,10.254,36.621,37.109,12.207,19.043,0
1583343621.844,35.645,33.203,36.621,19.531,16.113,0
1583343621.848,50.293,35.645,38.086,26.855,4.883,0
1583343621.852,30.273,38.086,37.598,21.484,14.160,0
1583343621.855,9.766,36.621,40.039,17.578,47.852,0
1583343621.859,16.113,34.668,41.016,18.066,40.039,0
1583343621.863,41.504,33.691,37.598,21.484,75.195,0
1583343621.867,41.016,34.180,37.109,25.879,93.750,0
1583343621.871,15.137,36.133,35.645,23.438,73.730,0
1583343621.888,22.949,37.598,36.621,31.250,35.156,0
1583343621.892,51.758,40.527,43.457,38.086,21.484,0
1583343621.896,46.875,41.016,43.945,31.250,-6.836,0
1583343621.900,18.066,34.668,40.039,25.879,4.395,0
1583343621.904,11.230,32.715,39.062,22.461,61.523,0
1583343621.908,35.156,35.645,39.551,27.832,25.391,0
1583343621.912,43.945,35.645,41.504,27.832,20.020,0
1583343621.915,21.484,34.180,40.039,12.207,1.953,0
1583343621.919,11.230,32.227,39.062,7.812,-7.812,0
1583343621.923,36.133,34.668,42.480,16.602,39.062,0
1583343621.927,54.199,36.133,44.434,22.461,10.742,0
1583343621.931,25.879,29.785,41.016,13.184,-26.367,0
1583343621.928,-1.465,27.344,38.574,4.395,29.297,0
1583343621.932,16.602,29.297,36.621,7.324,55.176,0
1583343621.936,41.016,28.320,36.621,13.184,60.547,0
1583343621.940,27.344,28.809,39.062,12.207,83.008,0
1583343621.944,2.930,30.273,38.086,4.395,32.715,0
1583343621.948,4.395,30.762,37.598,3.906,2.930,0
1583343621.952,25.879,31.250,37.598,16.113,53.223,0
1583343621.955,34.180,33.203,35.645,16.602,71.777,0
1583343621.959,13.184,32.227,32.227,10.254,58.105,0
1583343621.963,0.488,33.691,38.086,12.695,39.551,0
1583343621.967,25.391,34.180,41.016,17.578,4.395,0
1583343621.971,47.363,35.645,40.527,21.484,-37.109,0
1583343621.968,22.949,33.203,40.039,14.160,-30.762,0
1583343621.972,2.930,27.344,38.086,8.789,-1.465,0
1583343621.976,23.926,29.785,38.574,10.254,59.570,0
1583343621.980,45.898,31.250,36.133,10.742,82.031,0
1583343621.984,30.273,29.785,36.621,13.672,74.707,0
1583343621.988,9.277,32.715,38.086,13.184,31.738,0
1583343621.992,25.391,32.715,37.109,13.672,-38.086,0
1583343621.995,46.387,31.250,39.062,17.090,-5.859,0
1583343621.999,36.621,34.668,38.086,16.113,-9.277,0
1583343622.003,16.113,32.227,37.109,14.648,-11.230,0
1583343622.007,22.949,33.203,41.992,20.996,47.363,0
1583343622.011,49.316,31.738,37.109,24.414,27.832,0
1583343622.028,46.387,26.855,34.668,14.648,35.156,0
1583343622.032,20.996,28.320,37.598,13.184,55.176,0
1583343622.036,15.625,29.785,34.668,21.484,-41.992,0
1583343622.040,36.621,29.785,32.227,25.879,-5.371,0
1583343622.044,44.922,28.320,30.762,26.855,90.332,0
1583343622.048,19.531,31.738,32.715,20.996,48.340,0
1583343622.052,1.953,35.645,35.645,11.719,-0.977,0
1583343622.055,20.996,31.738,34.668,14.648,-46.387,0
1583343622.059,43.457,31.738,34.180,23.926,-29.297,0
1583343622.063,30.762,35.645,38.574,24.414,41.016,0
1583343622.067,8.789,39.062,40.039,19.531,-7.324,0
1583343622.071,9.766,38.086,37.598,17.090,6.836,0
1583343622.068,32.715,32.227,34.668,16.113,45.898,0
1583343622.072,33.203,28.809,36.133,13.672,39.551,0
1583343622.076,3.418,27.832,36.621,8.789,39.551,0
1583343622.080,0.000,28.320,36.133,7.812,37.598,0
1583343622.084,24.902,26.855,38.086,17.578,41.016,0
1583343622.088,32.715,26.367,40.527,24.902,32.227,0
1583343622.092,9.766,28.809,41.504,18.066,53.223,0
1583343622.095,1.953,27.832,39.062,13.672,40.527,0
1583343622.099,35.156,25.879,40.527,18.555,17.090,0
1583343622.103,49.805,29.785,41.504,20.996,36.133,0
1583343622.107,23.438,29.297,39.062,12.207,21.484,0
1583343622.111,0.000,24.414,36.621,7.812,-31.738,0
1583343622.108,15.625,24.414,34.180,14.648,-37.109,0
1583343622.112,42.969,26.855,35.645,18.555,31.250,0
1583343622.116,33.203,27.344,39.062,17.090,77.637,0
1583343622.120,8.789,29.785,38.574,13.184,60.547,0
1583343622.124,10.254,33.203,40.527,14.648,54.199,0
1583343622.128,40.527,38.086,44.922,26.367,7.812,0
1583343622.132,38.574,37.109,45.410,25.391,-2.441,0
1583343622.135,1.953,32.715,42.480,14.648,17.578,0
1583343622.139,-0.977,32.227,40.527,9.766,41.016,0
1583343622.143,28.320,30.762,38.086,17.578,62.012,0
1583343622.147,33.203,30.273,38.086,24.902,50.781,0
1583343622.151,8.789,30.762,38.086,13.672,-2.930,0
1583343622.168,2.441,34.668,39.062,23.438,-27.344,0
1583343622.172,31.250,36.621,38.574,41.016,-2.441,0
1583343622.176,39.551,29.785,40.527,33.691,27.344,0
1583343622.180,6.348,25.879,46.387,16.602,65.918,0
1583343622.184,-9.766,27.344,49.316,12.695,18.066,0
1583343622.188,9.277,26.855,49.805,28.320,-49.316,0
1583343622.192,35.645,32.715,52.246,36.621,-13.672,0
1583343622.195,31.738,33.691,52.246,28.320,14.648,0
1583343622.199,-0.488,26.367,47.363,18.555,77.148,0
1583343622.203,2.441,26.367,46.875,20.020,90.332,0
1583343622.207,33.691,29.297,47.852,29.785,48.340,0
1583343622.211,35.645,27.832,45.410,24.414,1.465,0
1583343622.208,12.207,27.832,40.039,15.137,8.301,0
1583343622.212,4.883,28.809,36.133,17.090,70.312,0
1583343622.216,32.715,27.832,37.598,21.973,59.082,0
1583343622.220,50.781,28.320,38.086,20.996,33.691,0
1583343622.224,36.133,34.668,39.551,24.414,20.508,0
1583343622.228,22.461,34.180,37.109,23.438,4.883,0
1583343622.232,39.551,31.250,32.227,17.578,6.348,0
1583343622.235,62.988,32.715,29.785,18.066,-42.480,0
1583343622.239,48.828,33.203,32.715,20.020,-16.602,0
1583343622.243,16.602,34.668,35.645,14.160,21.484,0
1583343622.247,24.902,36.621,34.180,10.742,17.578,0
1583343622.251,58.105,36.621,30.273,23.438,13.184,0
1583343622.248,52.246,36.621,32.715,27.832,-4.883,0
1583343622.252,27.344,37.598,36.621,19.531,-2.930,0
1583343622.256,32.227,40.527,37.109,20.020,-81.055,0
1583343622.260,62.988,40.527,37.598,29.297,-51.758,0
1583343622.264,66.895,41.016,37.598,29.785,95.215,0
1583343622.268,39.551,46.875,42.480,25.879,35.156,0
1583343622.272,32.715,46.875,43.457,29.785,18.066,0
1583343622.275,51.758,42.480,39.551,33.691,68.848,0
1583343622.279,62.500,40.527,37.598,33.203,47.852,0
1583343622.283,46.387,41.992,37.598,29.785,55.176,0
1583343622.287,28.320,46.387,37.598,28.320,2.930,0
1583343622.291,44.434,45.410,35.645,35.645,16.113,0
1583343622.308,62.988,44.922,37.109,40.527,61.523,0
1583343622.312,46.387,43.457,40.527,30.273,46.875,0
1583343622.316,28.320,41.504,41.992,23.926,11.719,0
1583343622.320,41.504,47.852,44.434,33.691,28.320,0
1583343622.324,61.523,43.457,43.457,39.551,13.184,0
1583343622.328,46.875,36.621,40.527,29.785,13.184,0
1583343622.332,22.461,40.039,40.527,21.484,61.035,0
1583343622.335,31.250,40.527,39.551,21.484,47.363,0
1583343622.339,56.641,40.039,40.039,28.809,23.926,0
1583343622.343,59.082,43.457,41.504,34.180,8.301,0
1583343622.347,37.109,44.922,42.480,32.715,4.395,0
1583343622.351,27.344,45.898,45.410,31.738,37.109,0
1583343622.348,45.898,44.434,44.434,37.109,3.906,0
1583343622.352,64.941,43.457,41.504,40.527,20.020,0
1583343622.356,45.410,45.410,41.504,37.598,38.086,0
1583343622.360,29.785,49.316,44.434,38.574,30.273,0
1583343622.364,47.852,51.758,45.898,47.363,83.984,0
1583343622.368,62.988,47.363,42.480,47.363,101.562,0
1583343622.372,45.410,46.875,41.016,38.086,8.789,0
1583343622.375,21.973,49.805,39.062,32.715,-57.617,0
1583343622.379,26.855,46.387,33.691,29.297,56.641,0
1583343622.383,43.945,42.969,36.133,26.855,42.480,0
1583343622.387,42.969,44.922,38.574,22.461,53.223,0
1583343622.391,20.996,45.898,37.598,18.555,104.004,0
1583343622.388,14.160,41.504,36.133,19.043,62.500,0
1583343622.392,40.527,38.086,34.668,23.438,23.926,0
1583343622.396,52.246,40.527,36.133,30.273,-23.438,0
1583343622.400,32.715,41.992,36.133,29.297,30.273,0
1583343622.404,29.297,42.480,38.086,31.738,53.223,0
1583343622.408,64.453,49.316,38.574,50.781,31.250,0
1583343622.412,82.520,54.688,34.668,48.828,20.508,0
1583343622.415,44.434,55.176,38.086,25.391,19.043,0
1583343622.419,15.625,54.199,41.992,13.184,11.719,0
1583343622.423,40.039,51.758,40.527,21.973,-31.250,0
1583343622.427,63.477,56.641,46.387,39.551,47.363,0
1583343622.431,53.711,63.477,53.711,41.016,42.480,0
1583343622.448,24.414,59.570,55.664,38.574,0.977,0
1583343622.452,25.391,55.176,55.664,41.992,60.547,0
1583343622.456,57.129,57.129,56.641,45.410,28.320,0
1583343622.460,60.059,58.594,57.129,51.270,35.645,0
1583343622.464,40.527,59.082,55.176,49.316,27.344,0
1583343622.468,33.691,61.523,53.711,47.852,6.836,0
1583343622.472,55.176,60.059,51.758,40.527,57.617,0
1583343622.475,74.707,58.105,50.293,37.109,67.871,0
1583343622.479,56.641,60.547,53.711,46.387,41.504,0
1583343622.483,38.086,60.547,53.223,45.898,27.832,0
1583343622.487,60.547,65.430,56.152,53.711,16.602,0
1583343622.491,80.078,63.965,58.105,56.152,21.484,0
1583343622.488,57.617,56.641,54.199,44.434,1.465,0
1583343622.492,34.668,60.547,58.105,46.875,-3.418,0
1583343622.496,51.270,64.453,60.547,55.176,73.242,0
1583343622.500,79.590,68.359,64.453,62.012,108.398,0
1583343622.504,72.754,70.801,70.312,62.012,68.359,0
1583343622.508,48.340,71.289,72.266,60.547,27.832,0
1583343622.512,48.828,75.195,76.172,66.406,26.367,0
1583343622.515,71.777,70.312,72.266,67.871,7.324,0
1583343622.519,74.219,69.336,68.848,66.895,31.250,0
1583343622.523,44.434,75.195,72.754,57.129,72.266,0
1583343622.527,34.180,74.219,73.730,55.176,33.203,0
1583343622.531,62.988,72.754,73.242,64.941,52.734,0
1583343622.528,77.148,74.219,73.242,64.453,35.645,0
1583343622.532,52.734,74.219,75.684,57.129,-48.340,0
1583343622.536,29.297,73.242,74.707,44.434,-4.395,0
1583343622.540,44.434,72.266,69.824,46.387,21.973,0
1583343622.544,69.824,74.219,70.801,60.059,3.418,0
1583343622.548,53.711,76.660,72.754,63.965,12.207,0
1583343622.552,30.762,73.730,68.848,57.129,27.832,0
1583343622.555,40.527,74.707,72.266,53.223,62.500,0
1583343622.559,65.918,72.266,74.219,56.152,60.059,0
1583343622.563,70.801,69.824,75.195,63.477,47.363,0
1583343622.567,42.480,70.801,75.195,62.500,38.086,0
1583343622.571,39.062,70.801,63.965,59.570,49.805,0
1583343622.588,65.430,71.289,62.988,64.941,52.246,0
1583343622.592,73.730,72.266,73.242,64.453,7.324,0
1583343622.596,48.828,73.242,78.125,60.547,-4.883,0
1583343622.600,34.668,74.707,81.543,61.035,-5.371,0
1583343622.604,59.570,73.242,77.637,64.453,1.465,0
1583343622.608,70.312,66.406,71.777,57.617,52.246,0
1583343622.612,51.270,63.965,68.359,48.340,-12.207,0
1583343622.615,37.598,63.477,64.941,47.852,-83.984,0
1583343622.619,52.734,62.988,64.941,56.152,-41.992,0
1583343622.623,77.637,61.523,63.477,63.477,-33.203,0
1583343622.627,59.082,61.035,62.500,57.129,-36.621,0
1583343622.631,30.273,61.523,61.035,48.828,28.320,0
1583343622.628,44.434,61.035,58.594,53.711,37.598,0
1583343622.632,71.289,62.012,60.547,62.500,49.316,0
1583343622.636,63.477,56.641,55.176,57.129,89.844,0
1583343622.640,33.203,54.199,54.688,48.828,27.832,0
1583343622.644,33.691,52.734,58.594,49.805,0.000,0
1583343622.648,63.965,51.270,56.641,54.199,12.207,0
1583343622.652,70.801,52.246,54.688,52.246,-58.105,0
1583343622.655,42.480,49.805,46.875,41.504,-30.273,0
1583343622.659,26.855,49.805,43.945,35.645,39.062,0
1583343622.663,44.922,54.199,46.387,39.551,54.688,0
1583343622.667,62.012,50.781,39.551,39.062,56.152,0
1583343622.671,43.945,47.852,39.551,36.621,-21.973,0
1583343622.668,17.090,46.387,44.922,35.156,6.836,0
1583343622.672,30.762,44.434,45.410,36.133,80.078,0
1583343622.676,55.176,41.504,41.992,40.039,73.730,0
1583343622.680,44.922,39.062,41.016,36.133,50.781,0
1583343622.684,19.043,41.016,44.434,29.297,-2.441,0
1583343622.688,20.020,37.598,43.457,29.297,6.836,0
1583343622.692,48.340,39.551,41.992,31.250,31.250,0
1583343622.695,48.340,46.387,48.828,30.762,40.527,0
1583343622.699,14.160,39.551,49.316,21.484,24.902,0
1583343622.703,4.395,37.109,45.898,21.973,-3.418,0
1583343622.707,34.180,41.504,47.852,32.715,61.523,0
1583343622.711,48.828,39.551,47.363,33.203,73.242,0
1583343622.728,24.414,39.551,46.387,29.297,12.207,0
1583343622.732,14.648,41.992,48.828,28.809,-3.418,0
1583343622.736,39.062,44.434,50.293,38.086,34.668,0
1583343622.740,57.129,46.387,50.293,41.016,37.598,0
1583343622.744,41.504,46.875,51.270,36.133,26.367,0
1583343622.748,22.949,50.781,56.641,39.551,11.719,0
1583343622.752,33.691,53.223,55.664,42.480,29.297,0
1583343622.755,57.617,48.828,50.293,40.527,-4.883,0
1583343622.759,53.711,47.363,49.316,39.062,-93.262,0
1583343622.763,24.414,48.340,47.852,37.598,-51.270,0
1583343622.767,21.973,49.316,51.758,38.086,-43.457,0
1583343622.771,49.805,49.316,55.176,43.945,-26.367,0
1583343622.768,56.641,51.758,57.129,49.805,-19.531,0
1583343622.772,30.762,55.176,59.570,46.387,-11.719,0
1583343622.776,21.484,51.270,59.082,42.480,50.293,0
1583343622.780,41.016,45.898,61.523,49.805,77.637,0
1583343622.784,46.875,45.410,59.570,49.316,61.523,0
1583343622.788,26.367,50.293,62.012,45.410,17.578,0
1583343622.792,9.766,49.316,62.988,41.016,18.066,0
1583343622.795,24.414,41.504,55.664,35.645,46.387,0
1583343622.799,39.551,41.504,53.223,41.504,60.547,0
1583343622.803,21.973,44.434,54.688,39.551,56.641,0
1583343622.807,0.000,43.945,54.199,31.250,26.855,0
1583343622.811,3.906,41.504,55.176,36.133,38.086,0
1583343622.829,31.250,42.480,55.664,41.016,55.664,0
1583343622.833,26.855,44.434,55.664,40.039,70.312,0
1583343622.837,-4.883,41.504,57.129,36.621,88.867,0
1583343622.841,-3.418,42.480,58.105,36.621,21.973,0
1583343622.845,23.438,44.434,57.129,41.992,-14.648,0
1583343622.849,26.855,47.363,59.570,45.410,31.738,0
1583343622.853,4.883,50.781,58.594,42.480,30.762,0
1583343622.856,-5.859,46.875,55.176,27.832,37.598,0
1583343622.860,18.066,42.969,54.199,24.414,9.277,0
1583343622.864,37.598,40.527,51.270,33.691,-28.809,0
1583343622.868,20.020,38.086,50.781,33.691,2.441,0
1583343622.872,4.395,39.062,54.688,32.715,0.000,0
1583343622.869,23.438,40.527,54.688,41.504,1.953,0
1583343622.873,49.805,40.039,53.711,46.387,2.441,0
1583343622.877,41.504,39.062,55.664,37.109,-25.391,0
1583343622.881,22.949,40.039,59.570,34.180,-9.766,0
1583343622.885,32.715,43.457,64.453,45.410,-3.906,0
1583343622.889,51.758,40.527,61.035,48.828,37.109,0
1583343622.893,44.922,37.598,57.129,38.574,4.395,0
1583343622.896,19.043,39.062,57.129,33.203,-2.441,0
1583343622.900,18.066,41.992,58.105,35.156,56.641,0
1583343622.904,46.387,41.016,58.105,40.527,75.684,0
1583343622.908,55.664,43.457,61.035,45.898,80.078,0
1583343622.912,29.297,45.898,60.547,40.527,54.688,0
1583343622.909,18.066,44.922,57.129,34.668,12.695,0
1583343622.913,39.551,45.898,56.152,42.969,11.719,0
1583343622.917,60.547,46.875,58.105,55.176,43.945,0
1583343622.921,42.969,51.270,62.012,47.852,60.547,0
1583343622.925,20.996,48.828,55.176,37.598,53.223,0
1583343622.929,37.109,47.363,51.270,36.133,70.801,0
1583343622.933,53.711,45.410,57.129,36.621,43.945,0
1583343622.936,39.062,41.504,60.547,39.551,26.855,0
1583343622.940,11.719,46.387,62.012,32.715,69.824,0
1583343622.944,10.742,47.852,60.059,24.902,37.109,0
1583343622.948,35.645,43.457,55.664,28.320,-22.461,0
1583343622.952,30.762,44.434,56.641,26.855,-22.949,0
1583343622.969,1.465,43.457,58.105,20.996,2.930,0
1583343622.973,-0.488,40.527,55.664,23.438,-5.859,0
1583343622.977,26.367,40.039,51.758,31.250,-2.930,0
1583343622.981,40.527,44.434,54.199,34.668,64.453,0
1583343622.985,18.555,42.480,54.199,31.738,64.453,0
1583343622.989,6.836,36.621,49.316,38.086,-7.324,0
1583343622.993,27.344,40.039,47.363,41.016,27.344,0
1583343622.996,42.480,41.504,45.898,36.133,62.012,0
1583343623.000,32.227,40.527,44.922,28.320,53.223,0
1583343623.004,6.348,41.016,42.969,24.414,98.633,0
1583343623.008,9.766,38.086,42.480,31.738,63.965,0
1583343623.012,34.180,39.551,41.992,39.062,25.879,0
1583343623.009,29.297,40.527,42.969,35.156,-21.484,0
1583343623.013,19.531,44.434,43.945,30.762,-25.879,0
1583343623.017,21.973,45.410,38.574,32.227,19.043,0
1583343623.021,43.945,39.551,33.203,36.621,-12.695,0
1583343623.025,50.293,41.016,34.180,40.039,33.691,0
1583343623.029,23.438,41.992,36.133,38.574,59.082,0
1583343623.033,20.996,41.504,39.062,36.621,26.367,0
1583343623.036,51.270,42.480,39.551,43.457,40.527,0
1583343623.040,67.871,41.016,38.574,53.711,44.434,0
1583343623.044,53.223,41.016,41.016,47.852,20.996,0
1583343623.048,38.574,41.992,40.039,39.551,62.012,0
1583343623.052,60.547,43.457,36.133,37.598,67.383,0
1583343623.049,89.844,42.969,38.574,38.574,30.762,0
1583343623.053,76.172,43.945,41.992,40.527,24.414,0
1583343623.057,61.523,49.805,45.410,44.434,69.336,0
1583343623.061,69.336,50.781,46.387,49.316,6.348,0
1583343623.065,90.820,45.898,46.875,49.805,-23.926,0
1583343623.069,94.238,44.922,48.340,50.293,37.598,0
1583343623.073,69.336,46.875,46.387,49.316,17.578,0
1583343623.076,73.730,45.410,43.457,49.805,-26.855,0
1583343623.080,102.051,46.875,43.457,55.176,-25.391,0
1583343623.084,105.957,49.805,42.969,48.340,17.090,0
1583343623.088,87.402,47.363,41.992,42.480,31.738,0
1583343623.092,86.426,47.363,42.969,48.340,23.438,0
1583343623.109,109.375,47.363,44.434,51.270,30.762,0
1583343623.113,112.305,48.828,50.293,54.199,64.453,0
1583343623.117,86.914,48.828,46.875,47.852,57.617,0
1583343623.121,64.453,46.387,41.016,37.109,29.297,0
1583343623.125,76.172,46.387,41.504,41.016,20.996,0
1583343623.129,96.191,47.363,44.434,46.387,-17.578,0
1583343623.133,79.102,46.875,46.387,41.504,10.742,0
1583343623.136,50.781,44.922,47.852,24.902,59.082,0
1583343623.140,61.035,42.480,48.340,24.902,20.508,0
1583343623.144,79.590,41.504,46.875,36.621,45.898,0
1583343623.148,63.477,39.062,47.363,29.297,56.641,0
1583343623.152,35.156,42.480,47.852,24.902,0.000,0
1583343623.149,36.621,44.434,47.363,24.902,-1.953,0
1583343623.153,54.688,38.574,42.969,21.484,-15.137,0
1583343623.157,55.176,36.133,41.504,21.484,-6.836,0
1583343623.161,29.785,35.645,42.969,15.137,34.668,0
1583343623.165,12.207,34.180,42.969,15.137,55.176,0
1583343623.169,31.250,35.156,42.480,18.555,64.453,0
1583343623.173,51.270,34.180,42.480,19.531,16.602,0
1583343623.176,36.133,33.203,40.527,17.090,6.836,0
1583343623.180,17.090,35.156,41.992,17.578,26.367,0
1583343623.184,31.250,34.668,42.480,26.855,64.941,0
1583343623.188,44.434,31.738,43.457,21.973,54.688,0
1583343623.192,31.738,28.809,43.457,12.695,9.766,0
1583343623.189,8.789,27.832,40.527,11.230,35.645,0
1583343623.193,14.160,29.785,41.992,17.090,39.062,0
1583343623.197,38.574,32.227,44.922,25.391,49.805,0
1583343623.201,30.273,33.203,41.992,18.066,39.062,0
1583343623.205,2.441,34.668,42.969,13.184,-1.465,0
1583343623.209,1.953,32.715,44.434,12.695,-5.859,0
1583343623.213,33.203,32.227,39.551,14.648,22.461,0
1583343623.216,47.852,37.109,37.598,25.391,21.484,0
1583343623.220,23.926,38.086,44.922,21.484,-24.902,0
1583343623.224,1.465,38.086,53.223,11.719,-40.039,0
1583343623.228,19.043,32.227,53.223,15.625,17.578,0
1583343623.232,28.320,26.367,47.852,6.836,29.297,0
1583343623.249,4.395,24.414,46.875,0.977,-30.273,0
1583343623.253,-24.414,21.484,50.293,-5.859,-25.879,0
1583343623.257,-23.926,20.020,47.363,-10.742,42.969,0
1583343623.261,2.930,19.531,44.434,0.977,55.664,0
1583343623.265,-6.836,22.949,48.828,-3.418,6.348,0
1583343623.269,-33.203,26.855,48.828,-10.254,11.230,0
1583343623.273,-26.855,27.832,47.363,-5.371,27.344,0
1583343623.276,5.859,30.273,51.270,3.418,37.109,0
1583343623.280,9.277,29.785,47.852,7.324,48.340,0
1583343623.284,-22.949,27.832,44.434,1.465,15.137,0
1583343623.288,-20.508,27.832,46.387,3.906,17.090,0
1583343623.292,11.230,30.762,45.898,14.160,47.363,0
1583343623.289,25.391,32.715,45.898,17.090,43.457,0
1583343623.293,11.230,34.180,46.387,17.090,49.805,0
1583343623.297,-1.465,34.668,47.363,18.066,61.523,0
1583343623.301,15.137,35.645,46.387,21.484,-14.648,0
1583343623.305,35.645,39.551,48.340,26.367,-38.086,0
1583343623.309,26.367,38.086,50.781,33.691,12.207,0
1583343623.313,3.906,36.621,45.898,28.320,12.695,0
1583343623.316,22.461,40.039,44.922,24.414,46.875,0
1583343623.320,59.082,37.598,43.457,31.738,98.145,0
1583343623.324,51.270,36.133,42.969,34.668,56.152,0
1583343623.328,24.414,38.086,42.480,26.855,58.594,0
1583343623.332,38.086,38.086,41.504,23.438,24.902,0
1583343623.328,73.242,41.016,47.363,31.738,-24.902,0
1583343623.332,75.684,36.621,41.504,33.203,60.059,0
1583343623.336,52.734,35.156,39.062,29.297,65.430,0
1583343623.340,52.734,36.621,40.039,28.809,46.875,0
1583343623.344,77.637,31.738,38.086,41.016,93.262,0
1583343623.348,89.355,34.180,39.551,46.387,95.703,0
1583343623.352,73.242,38.086,40.039,34.180,-4.883,0
1583343623.355,60.059,37.598,41.016,34.180,-54.688,0
1583343623.359,80.566,40.039,41.016,40.527,-22.949,0
1583343623.363,102.051,42.480,39.551,42.480,-5.859,0
1583343623.367,96.680,47.852,45.410,48.828,-10.742,0
1583343623.371,77.148,46.875,48.828,46.387,34.180,0
1583343623.388,86.426,42.969,44.922,45.410,93.750,0
1583343623.392,116.211,42.480,43.457,55.176,30.762,0
1583343623.396,113.281,41.016,45.410,53.223,20.508,0
1583343623.400,88.379,44.434,46.387,48.340,46.387,0
1583343623.404,81.543,45.898,46.875,48.340,5.859,0
1583343623.408,111.328,44.922,48.340,56.641,-4.395,0
1583343623.412,125.000,46.387,47.852,55.664,-16.113,0
1583343623.415,99.121,47.363,48.340,48.340,-0.488,0
1583343623.419,94.238,45.410,47.363,50.781,44.922,0
1583343623.423,117.676,46.387,49.316,51.758,51.270,0
1583343623.427,128.418,47.363,48.340,50.781,21.484,0
1583343623.431,107.910,47.363,44.434,50.293,-11.230,0
1583343623.428,86.914,47.363,41.504,47.363,11.230,0
1583343623.432,98.633,43.945,41.016,47.852,7.812,0
1583343623.436,127.930,45.898,45.410,53.711,1.465,0
1583343623.440,121.582,48.828,47.852,50.293,36.133,0
1583343623.444,97.168,46.387,45.410,48.828,68.848,0
1583343623.448,107.910,46.387,45.410,55.664,85.938,0
1583343623.452,145.020,46.387,48.340,66.406,52.734,0
1583343623.455,152.832,46.875,45.898,62.500,54.688,0
1583343623.459,140.625,47.363,46.875,57.617,35.156,0
1583343623.463,146.484,46.875,48.828,72.754,18.555,0
1583343623.467,178.223,46.387,46.387,85.449,24.414,0
1583343623.471,198.730,42.969,46.387,86.426,41.016,0
1583343623.468,184.570,41.016,47.852,80.566,71.777,0
1583343623.472,177.246,40.527,48.340,79.590,30.273,0
1583343623.476,204.102,43.945,50.293,89.844,15.137,0
1583343623.480,235.840,46.875,53.223,90.820,38.086,0
1583343623.484,222.656,41.016,50.781,86.426,77.637,0
1583343623.488,205.566,40.039,48.340,86.426,90.332,0
1583343623.492,228.027,41.504,47.852,86.914,57.129,0
1583343623.495,258.789,42.480,46.387,97.168,76.660,0
1583343623.499,249.512,44.922,43.457,91.797,117.676,0
1583343623.503,231.445,42.480,41.504,86.914,134.766,0
1583343623.507,253.906,41.992,42.969,100.586,170.898,0
1583343623.511,293.945,41.992,44.922,111.816,232.910,0
1583343623.529,289.062,40.039,53.711,112.305,271.484,0
1583343623.533,260.742,39.551,58.105,107.910,291.992,0
1583343623.537,263.184,38.086,56.152,109.863,359.375,0
1583343623.541,295.410,37.598,53.223,114.746,439.941,0
1583343623.545,315.918,36.133,52.734,125.000,520.996,0
1583343623.549,307.129,37.598,57.617,131.836,560.547,0
1583343623.553,303.223,41.016,56.152,131.836,581.055,0
1583343623.556,337.402,37.109,49.805,136.719,660.645,0
1583343623.560,375.488,34.668,48.340,150.391,764.648,0
1583343623.564,361.328,38.086,48.340,151.855,833.008,0
1583343623.568,334.473,40.039,48.340,149.414,892.578,0
1583343623.572,338.379,39.062,48.828,155.762,943.359,0
1583343623.569,364.746,41.504,48.828,158.691,983.398,0
1583343623.573,353.027,48.828,50.293,145.996,-999.023,0
1583343623.577,301.758,47.363,48.828,132.324,998.047,0
1583343623.581,286.133,43.945,43.945,127.930,999.512,0
1583343623.585,295.410,44.434,45.410,126.465,999.512,0
1583343623.589,275.879,44.434,48.340,125.000,999.512,0
1583343623.593,231.934,44.922,46.875,108.398,999.512,0
1583343623.596,208.008,43.945,45.898,96.191,999.512,0
1583343623.600,227.051,41.992,47.852,104.492,999.512,0
1583343623.604,231.934,44.434,52.246,102.539,999.512,0
1583343623.608,187.500,43.457,50.781,85.449,999.512,0
1583343623.612,149.902,40.039,48.340,74.707,999.512,0
1583343623.609,159.180,41.016,49.316,75.195,999.512,0
1583343623.613,178.711,39.062,48.828,81.055,999.512,0
1583343623.617,154.785,42.480,54.199,76.172,999.512,0
1583343623.621,116.211,45.410,55.176,60.059,999.512,0
1583343623.625,110.840,42.480,53.711,48.828,999.512,0
1583343623.629,125.488,41.992,53.711,49.805,999.512,0
1583343623.633,114.258,41.504,54.199,45.410,999.512,0
1583343623.636,73.730,43.945,56.641,38.574,999.512,0
1583343623.640,58.594,44.922,57.129,33.691,999.512,0
1583343623.644,91.797,39.551,55.664,42.969,999.023,0
1583343623.648,100.586,38.574,57.129,49.805,999.512,0
1583343623.652,62.500,39.551,56.152,31.250,997.559,0
1583343623.669,42.480,40.039,53.711,23.926,985.352,0
1583343623.673,73.242,41.504,52.246,32.715,965.332,0
1583343623.677,92.285,44.434,56.152,30.762,962.891,0
1583343623.681,52.246,46.387,58.105,24.414,938.965,0
1583343623.685,11.230,43.945,55.664,21.484,883.789,0
1583343623.689,20.020,42.480,54.688,20.508,878.906,0
1583343623.693,45.898,41.992,52.734,15.625,867.188,0
1583343623.696,30.762,41.992,52.246,0.000,834.961,0
1583343623.700,-3.906,42.480,53.223,-6.836,812.012,0
1583343623.704,0.488,44.434,54.688,1.953,797.852,0
1583343623.708,24.902,43.457,55.664,16.113,815.430,0
1583343623.712,30.273,41.504,53.711,27.344,803.223,0
1583343623.709,1.953,50.781,52.734,10.254,780.273,0
1583343623.713,-17.090,60.547,47.363,-6.348,754.395,0
1583343623.717,2.930,60.547,41.016,-12.695,760.254,0
1583343623.721,-4.883,61.523,42.969,-27.832,749.023,0
1583343623.725,-52.734,63.477,44.434,-46.387,697.266,0
1583343623.729,-88.379,65.430,43.457,-71.289,674.805,0
1583343623.733,-72.754,70.801,44.922,-73.242,686.035,0
1583343623.736,-57.617,80.078,47.363,-70.801,714.844,0
1583343623.740,-98.633,82.031,49.316,-90.332,685.547,0
1583343623.744,-146.484,83.496,49.316,-108.398,620.605,0
1583343623.748,-137.695,86.426,49.316,-118.652,599.609,0
1583343623.752,-111.816,84.961,48.828,-118.164,604.980,0
1583343623.749,-137.207,84.473,49.316,-115.234,595.215,0
1583343623.753,-180.664,87.891,52.734,-125.488,552.246,0
1583343623.757,-179.688,88.379,53.223,-134.277,525.391,0
1583343623.761,-155.273,83.008,49.805,-138.184,518.066,0
1583343623.765,-164.551,81.055,47.363,-143.555,514.160,0
1583343623.769,-209.961,77.637,45.898,-158.203,448.730,0
1583343623.773,-219.727,75.195,45.410,-152.832,399.902,0
1583343623.776,-178.223,72.754,47.363,-122.070,399.902,0
1583343623.780,-158.203,70.312,48.828,-112.305,378.906,0
1583343623.784,-183.594,67.383,46.387,-118.652,345.215,0
1583343623.788,-199.219,61.035,44.434,-110.352,311.035,0
1583343623.792,-165.039,54.199,44.922,-86.914,290.527,0
1583343623.809,-139.160,52.734,47.363,-67.383,263.672,0
1583343623.813,-159.668,51.758,48.340,-66.895,197.266,0
1583343623.817,-181.152,44.922,45.898,-72.266,161.621,0
1583343623.821,-164.062,38.574,40.527,-62.012,152.832,0
1583343623.825,-125.000,33.203,38.086,-48.828,118.652,0
1583343623.829,-137.695,33.203,41.504,-43.457,51.270,0
1583343623.833,-183.594,29.785,43.457,-44.922,3.906,0
1583343623.836,-176.270,26.367,41.504,-40.039,8.301,0
1583343623.840,-129.883,27.832,41.016,-31.250,-13.672,0
1583343623.844,-129.395,27.344,39.551,-17.578,-47.363,0
1583343623.848,-176.270,28.809,41.016,-21.484,-88.867,0
1583343623.852,-196.289,26.367,41.016,-31.250,-157.715,0
1583343623.849,-172.852,24.414,40.527,-20.508,-204.102,0
1583343623.853,-174.316,25.391,42.969,-17.090,-229.980,0
1583343623.857,-235.352,19.531,41.016,-40.527,-285.156,0
1583343623.861,-281.738,17.578,41.992,-62.500,-377.930,0
1583343623.865,-285.645,18.555,45.898,-69.824,-468.750,0
1583343623.869,-301.270,23.926,48.828,-75.195,-543.945,0
1583343623.873,-371.094,28.320,51.270,-93.750,-659.180,0
1583343623.876,-424.805,25.879,51.758,-111.328,-786.133,0
1583343623.880,-385.742,25.879,49.805,-94.727,-808.105,0
1583343623.884,-329.590,29.297,51.270,-73.242,-841.797,0
1583343623.888,-331.055,29.785,51.270,-79.590,-910.645,0
1583343623.892,-366.211,27.344,48.828,-91.797,-942.871,0
1583343623.889,-375.488,24.902,47.852,-94.727,-968.262,0
1583343623.893,-353.027,27.832,47.852,-87.891,-968.262,0
1583343623.897,-349.609,33.203,52.246,-81.055,-968.262,0
1583343623.901,-378.906,34.668,52.734,-89.844,-968.750,0
1583343623.905,-394.531,33.691,50.781,-91.797,-968.262,0
1583343623.909,-354.980,29.785,47.852,-87.402,-968.750,0
1583343623.913,-314.453,26.367,47.363,-76.660,-968.750,0
1583343623.916,-329.102,31.738,50.293,-76.172,-968.750,0
1583343623.920,-336.914,33.691,49.805,-82.031,-968.750,0
1583343623.924,-292.480,31.738,48.828,-63.965,-968.262,0
1583343623.928,-240.234,37.598,50.781,-44.922,-968.750,0
1583343623.932,-244.629,36.133,50.781,-52.246,-968.750,0
1583343623.949,-270.508,31.250,48.340,-65.430,-968.750,0
1583343623.953,-243.652,33.203,48.340,-58.594,-968.750,0
1583343623.957,-196.777,30.273,47.363,-51.270,-968.262,0
1583343623.961,-194.824,29.297,47.363,-47.363,-968.750,0
1583343623.965,-209.473,32.715,46.875,-47.852,-968.750,0
1583343623.969,-192.871,33.203,48.340,-38.574,-968.750,0
1583343623.973,-152.344,31.738,47.363,-30.762,-968.750,0
1583343623.976,-116.211,31.250,43.945,-33.691,-968.262,0
1583343623.980,-125.000,33.203,46.875,-31.250,-968.750,0
1583343623.984,-117.676,35.645,48.828,-26.855,-968.750,0
1583343623.988,-62.012,38.086,47.852,-15.625,-968.262,0
1583343623.992,-30.273,39.062,48.340,-2.441,-968.750,0
1583343623.989,-33.203,41.016,48.340,0.977,-967.773,0
1583343623.993,-33.203,38.574,44.922,5.371,-968.750,0
1583343623.997,-0.488,33.691,40.527,9.277,-964.355,0
1583343624.001,43.457,31.250,40.527,19.531,-929.199,0
1583343624.005,45.898,31.738,39.551,22.949,-854.980,0
1583343624.009,29.785,30.762,35.156,17.578,-790.527,0
1583343624.013,52.734,28.320,34.668,26.855,-724.609,0
1583343624.016,102.051,26.855,35.156,39.551,-629.395,0
1583343624.020,117.188,28.809,37.109,47.852,-620.117,0
1583343624.024,91.309,34.180,42.969,41.016,-589.844,0
1583343624.028,92.285,36.621,45.410,39.551,-588.867,0
1583343624.032,138.672,38.574,43.945,60.547,-558.594,0
1583343624.029,156.738,34.668,40.039,70.801,-448.242,0
1583343624.033,127.930,29.785,36.133,62.988,-428.711,0
1583343624.037,114.258,32.715,38.574,67.383,-373.535,0
1583343624.041,141.113,30.762,42.480,76.172,-379.883,0
1583343624.045,159.668,30.273,42.480,75.195,-389.160,0
1583343624.049,133.789,36.133,41.016,67.383,-344.727,0
1583343624.053,100.098,36.621,40.039,56.641,-337.891,0
1583343624.056,102.539,36.133,38.086,55.664,-286.133,0
1583343624.060,124.512,35.645,34.668,62.988,-255.859,0
1583343624.064,110.840,37.598,34.180,60.059,-276.855,0
1583343624.068,66.895,39.551,34.668,43.457,-189.453,0
1583343624.072,53.223,37.109,32.227,37.109,-160.156,0
1583343624.089,72.266,40.527,35.645,44.434,-199.707,0
1583343624.093,66.895,41.992,38.086,40.039,-205.078,0
1583343624.097,19.043,39.062,33.691,26.367,-143.066,0
1583343624.101,-11.719,36.621,33.691,9.277,-70.312,0
1583343624.105,5.371,36.621,36.133,12.695,-160.156,0
1583343624.109,9.766,41.016,37.598,24.902,-159.668,0
1583343624.113,-19.043,40.527,39.062,11.230,-152.344,0
1583343624.116,-36.621,36.133,37.598,0.000,-108.887,0
1583343624.120,-13.672,39.062,37.109,11.230,-45.410,0
1583343624.124,23.926,41.992,38.086,24.414,-102.051,0
1583343624.128,15.137,41.992,40.039,22.949,-145.508,0
1583343624.132,-8.301,41.504,40.039,16.113,-118.652,0
1583343624.129,19.531,39.551,38.574,20.020,-93.262,0
1583343624.133,64.453,42.969,44.434,39.062,-74.219,0
1583343624.137,66.895,42.969,43.945,41.016,-59.082,0
1583343624.141,44.434,40.527,39.551,32.715,-61.523,0
1583343624.145,56.641,39.062,41.016,39.062,-105.469,0
1583343624.149,94.727,38.574,41.016,54.688,-137.695,0
1583343624.153,107.422,39.551,39.062,55.176,-106.445,0
1583343624.156,90.820,39.062,39.062,45.898,-86.426,0
1583343624.160,81.543,37.598,40.527,49.316,-35.645,0
1583343624.164,113.281,40.039,41.504,56.641,-30.762,0
1583343624.168,141.602,40.039,41.016,61.035,-71.289,0
1583343624.172,120.605,35.156,35.156,49.805,-26.855,0
1583343624.169,112.305,36.621,33.203,52.734,-17.090,0
1583343624.173,135.742,36.133,35.156,71.777,-28.320,0
1583343624.177,142.578,30.762,36.133,70.312,-18.555,0
1583343624.181,123.535,30.273,38.086,54.199,-49.805,0
1583343624.185,98.145,31.738,43.945,41.504,-24.902,0
1583343624.189,104.492,31.250,44.922,45.898,-2.441,0
1583343624.193,131.348,31.738,44.434,55.664,38.574,0
1583343624.196,117.188,31.250,48.340,45.898,35.156,0
1583343624.200,83.008,30.273,47.852,30.273,-12.695,0
1583343624.204,84.473,31.738,43.945,34.180,44.922,0
1583343624.208,111.328,34.668,45.898,46.387,44.434,0
1583343624.212,114.746,38.574,47.852,48.828,4.883,0
1583343624.229,79.590,39.062,47.363,42.969,6.836,0
1583343624.233,57.129,35.156,44.434,35.645,-57.129,0
1583343624.237,77.148,33.203,43.457,39.551,-71.777,0
1583343624.241,93.750,34.180,45.410,50.781,0.488,0
1583343624.245,71.289,34.180,45.410,42.480,33.203,0
1583343624.249,43.945,35.156,46.875,26.855,-18.066,0
1583343624.253,60.547,35.645,45.410,34.668,-13.672,0
1583343624.256,92.773,35.645,41.992,46.875,11.719,0
1583343624.260,83.008,33.691,40.039,41.992,10.254,0
1583343624.264,58.105,33.691,37.598,32.715,-9.277,0
1583343624.268,71.289,38.574,38.086,38.086,13.184,0
1583343624.272,117.676,40.039,40.039,49.805,19.043,0
1583343624.269,140.137,43.457,41.504,59.082,-19.531,0
1583343624.273,134.277,47.852,45.410,66.406,9.766,0
1583343624.277,152.344,41.992,44.434,76.172,-11.230,0
1583343624.281,212.891,36.621,41.016,94.727,2.441,0
1583343624.285,265.137,39.062,41.992,110.352,44.922,0
1583343624.289,280.762,39.062,42.969,125.977,68.359,0
1583343624.293,311.035,37.598,40.039,144.043,83.496,0
1583343624.296,379.883,35.156,36.133,157.715,47.852,0
1583343624.300,431.641,32.715,37.598,176.270,47.852,0
1583343624.304,444.336,34.180,38.086,181.641,76.172,0
1583343624.308,457.031,33.203,36.133,188.477,88.867,0
1583343624.312,505.859,34.668,39.551,209.473,96.191,0
1583343624.309,564.453,36.621,43.457,226.074,47.363,0
1583343624.313,562.988,34.180,45.410,226.074,48.828,0
1583343624.317,526.855,32.227,42.969,218.750,142.090,0
1583343624.321,524.414,28.320,38.574,217.285,247.559,0
1583343624.325,542.480,28.809,39.551,226.074,362.305,0
1583343624.329,520.508,32.715,42.969,221.191,469.238,0
1583343624.333,455.078,34.668,43.457,198.242,526.855,0
1583343624.336,407.715,35.645,41.504,179.199,571.777,0
1583343624.340,402.832,34.668,39.062,170.898,616.699,0
1583343624.344,385.254,35.156,41.504,164.062,684.570,0
1583343624.348,318.359,36.133,43.945,136.230,729.492,0
1583343624.352,259.277,35.645,43.945,112.793,727.051,0
1583343624.368,245.117,37.109,43.457,112.305,724.121,0
1583343624.372,238.281,41.992,46.875,108.887,770.020,0
1583343624.376,189.453,43.457,49.805,86.914,770.020,0
1583343624.380,127.930,41.504,47.852,66.406,708.008,0
1583343624.384,113.770,40.527,42.969,62.500,698.242,0
1583343624.388,118.164,42.480,41.504,62.012,707.031,0
1583343624.392,83.984,42.480,42.480,49.316,674.805,0
1583343624.395,30.273,41.016,41.504,28.809,658.203,0
1583343624.399,12.695,40.527,41.016,16.113,643.555,0
1583343624.403,28.320,42.969,41.016,25.879,604.004,0
1583343624.407,15.625,43.457,42.969,25.879,592.773,0
1583343624.411,-33.691,40.527,44.434,5.371,535.156,0
1583343624.408,-54.688,41.016,47.363,-0.488,472.656,0
1583343624.412,-33.691,41.992,50.293,9.766,464.355,0
1583343624.416,-30.762,39.062,44.434,0.000,445.312,0
1583343624.420,-79.102,37.109,41.504,-25.879,360.352,0
1583343624.424,-112.793,36.133,41.992,-36.133,308.105,0
1583343624.428,-93.262,33.203,39.551,-27.344,305.176,0
1583343624.432,-75.684,32.715,38.086,-16.113,303.711,0
1583343624.435,-100.098,33.203,39.062,-26.367,272.461,0
1583343624.439,-140.625,35.156,42.480,-40.039,201.172,0
1583343624.443,-145.508,35.645,46.387,-45.898,135.742,0
1583343624.447,-127.441,35.156,44.922,-40.039,111.816,0
1583343624.451,-142.090,38.086,43.457,-39.062,88.379,0
1583343624.449,-181.152,38.574,46.875,-56.641,40.039,0
1583343624.453,-200.684,38.574,47.852,-66.895,-47.363,0
1583343624.457,-185.547,40.039,45.898,-66.895,-119.141,0
1583343624.461,-199.219,36.621,43.945,-72.266,-121.094,0
1583343624.465,-258.789,34.668,44.434,-89.355,-190.430,0
1583343624.469,-297.363,37.109,45.898,-98.145,-321.777,0
1583343624.473,-289.551,40.527,49.316,-99.609,-388.184,0
1583343624.476,-286.133,41.016,51.758,-115.234,-428.711,0
1583343624.480,-328.125,37.598,44.434,-137.207,-487.305,0
1583343624.484,-370.605,38.086,41.504,-146.484,-547.363,0
1583343624.488,-370.605,41.016,43.457,-139.160,-651.855,0
1583343624.492,-358.398,42.969,46.875,-132.812,-697.266,0
1583343624.509,-364.746,40.527,46.875,-135.254,-688.965,0
1583343624.513,-374.023,41.016,47.852,-131.836,-695.312,0
1583343624.517,-341.309,45.898,50.293,-121.094,-665.527,0
1583343624.521,-274.414,44.922,46.875,-99.121,-627.441,0
1583343624.525,-236.816,48.340,47.852,-81.055,-638.672,0
1583343624.529,-226.562,50.293,49.316,-80.566,-589.844,0
1583343624.533,-187.988,43.457,45.410,-68.848,-519.043,0
1583343624.536,-110.840,37.598,43.945,-40.527,-461.426,0
1583343624.540,-56.152,36.621,45.410,-25.879,-433.105,0
1583343624.544,-53.223,37.109,45.410,-26.855,-377.930,0
1583343624.548,-40.527,39.551,44.434,-18.066,-307.617,0
1583343624.552,18.555,39.551,43.457,3.418,-339.844,0
1583343624.549,58.594,37.598,40.527,22.461,-392.578,0
1583343624.553,54.199,39.551,39.062,30.762,-333.496,0
1583343624.557,43.945,36.133,38.574,25.391,-239.258,0
1583343624.561,65.918,33.691,37.598,35.645,-285.156,0
1583343624.565,101.562,35.645,36.621,45.898,-272.949,0
1583343624.569,92.773,40.527,40.527,36.133,-241.699,0
1583343624.573,62.988,42.480,41.992,36.621,-223.633,0
1583343624.576,56.641,39.062,37.109,26.855,-182.129,0
1583343624.580,70.312,42.480,40.527,21.973,-200.195,0
1583343624.584,59.082,41.504,41.016,21.973,-214.355,0
1583343624.588,16.113,40.039,37.598,12.695,-193.848,0
1583343624.592,-7.324,42.969,40.039,10.254,-140.137,0
1583343624.609,12.207,45.898,44.434,11.719,-144.043,0
1583343624.613,8.789,44.922,45.898,11.230,-125.488,0
1583343624.617,-43.945,42.480,44.922,4.395,-69.824,0
1583343624.621,-76.660,44.922,46.387,-8.301,-116.211,0
1583343624.625,-70.801,44.922,46.875,-10.742,-125.977,0
1583343624.629,-67.383,43.945,45.410,-15.137,-72.754,0
1583343624.633,-104.492,47.852,48.340,-30.273,-82.031,0
1583343624.636,-145.020,51.758,50.293,-40.527,-127.441,0
1583343624.640,-137.207,51.270,46.875,-41.992,-101.562,0
1583343624.644,-122.559,45.898,43.457,-38.574,-4.395,0
1583343624.648,-142.578,42.969,44.922,-46.387,11.719,0
1583343624.652,-181.152,46.875,47.852,-57.617,-50.781,0
1583343624.649,-181.152,45.898,48.828,-58.105,-38.086,0
1583343624.653,-145.996,45.898,46.875,-46.875,-32.227,0
1583343624.657,-144.531,47.852,47.852,-36.621,-105.957,0
1583343624.661,-171.387,46.875,47.852,-51.270,-77.637,0
1583343624.665,-179.199,52.246,48.340,-52.734,-32.227,0
1583343624.669,-154.297,51.270,48.828,-39.062,-94.727,0
1583343624.673,-130.859,43.945,41.992,-31.250,-62.012,0
1583343624.676,-139.648,41.504,40.039,-27.344,11.719,0
1583343624.680,-139.160,41.992,40.527,-39.062,-30.273,0
1583343624.684,-102.051,42.969,41.504,-31.738,-62.012,0
1583343624.688,-57.129,44.434,43.457,-10.254,-77.148,0
1583343624.692,-40.039,41.992,41.504,-1.953,-66.895,0
1583343624.689,-40.527,41.504,40.039,8.301,23.438,0
1583343624.693,-14.648,45.410,37.109,18.066,-24.902,0
1583343624.697,22.949,44.922,36.621,22.461,-68.359,0
1583343624.701,37.109,50.293,37.109,24.414,-82.520,0
1583343624.705,30.273,54.199,37.598,27.832,-49.316,0
1583343624.709,33.691,46.387,38.574,30.273,0.488,0
1583343624.713,72.754,42.480,35.156,32.715,20.020,0
1583343624.716,96.191,42.480,33.691,44.922,-18.555,0
1583343624.720,89.355,43.945,38.574,57.129,-15.625,0
1583343624.724,93.750,43.945,38.574,60.059,28.809,0
1583343624.728,126.953,40.039,39.062,65.430,22.949,0
1583343624.732,153.809,37.598,39.551,69.336,10.742,0
1583343624.749,146.973,40.527,38.574,75.684,5.859,0
1583343624.753,135.742,43.945,41.504,80.566,27.344,0
1583343624.757,158.691,38.574,34.668,81.055,21.484,0
1583343624.761,197.754,35.156,30.762,86.914,25.391,0
1583343624.765,198.242,38.574,33.691,84.473,66.406,0
1583343624.769,176.758,40.039,35.156,88.867,41.504,0
1583343624.773,185.059,39.551,35.645,93.262,-2.930,0
1583343624.776,217.773,39.062,31.250,97.168,14.160,0
1583343624.780,221.191,37.598,30.762,100.098,31.738,0
1583343624.784,191.895,37.109,37.109,88.867,26.855,0
1583343624.788,192.383,40.039,41.992,91.797,-30.273,0
1583343624.792,221.191,39.062,43.457,107.422,-34.180,0
1583343624.789,224.609,35.645,42.969,104.492,-26.855,0
1583343624.793,192.383,35.156,44.922,92.773,7.812,0
1583343624.797,172.852,35.645,45.898,85.449,-0.977,0
1583343624.801,197.754,38.574,40.039,92.285,-34.180,0
1583343624.805,213.379,38.086,37.598,98.633,26.855,0
1583343624.809,182.617,36.133,39.062,93.750,32.227,0
1583343624.813,157.227,37.598,37.109,86.914,-0.488,0
1583343624.816,170.410,39.551,37.109,85.938,15.137,0
1583343624.820,190.430,37.109,35.156,90.332,41.016,0
1583343624.824,167.969,34.180,31.738,84.473,8.301,0
1583343624.828,129.395,34.668,33.203,66.895,20.508,0
1583343624.832,132.324,34.668,31.250,64.453,49.805,0
1583343624.829,159.180,35.645,34.180,82.520,77.637,0
1583343624.833,155.273,37.109,38.574,79.102,45.898,0
1583343624.837,116.699,38.086,36.621,70.801,-26.855,0
1583343624.841,102.051,38.086,35.156,64.453,-3.906,0
1583343624.845,123.047,37.598,36.133,57.617,19.043,0
1583343624.849,127.441,42.969,39.551,56.152,-48.828,0
1583343624.853,93.262,44.434,40.039,45.898,-11.719,0
1583343624.856,58.594,38.574,33.203,39.062,73.242,0
1583343624.860,64.941,38.574,32.715,39.062,48.340,0
1583343624.864,79.590,37.598,35.156,37.598,48.828,0
1583343624.868,55.176,40.039,35.156,30.273,43.945,0
1583343624.872,19.043,42.480,39.551,24.414,0.000,0
1583343624.889,25.879,40.527,38.574,27.344,-3.418,0
1583343624.893,47.852,41.992,40.039,36.133,30.273,0
1583343624.897,34.180,45.410,45.410,34.180,39.551,0
1583343624.901,-4.883,42.480,41.016,18.555,28.809,0
1583343624.905,-12.695,37.109,36.621,9.277,10.254,0
1583343624.909,10.254,39.062,40.527,16.113,-4.395,0
1583343624.913,6.348,41.992,40.039,12.695,30.273,0
1583343624.916,-22.461,40.039,37.598,-3.906,56.641,0
1583343624.920,-30.762,38.086,37.598,-7.324,3.906,0
1583343624.924,-10.254,40.527,42.480,4.883,-5.859,0
1583343624.928,0.977,45.410,47.852,9.766,33.691,0
1583343624.932,-37.598,46.387,44.434,-0.977,22.461,0
1583343624.929,-69.824,41.992,40.527,-7.812,21.973,0
1583343624.933,-51.758,43.457,41.992,-5.371,-0.488,0
1583343624.937,-34.668,43.457,43.945,-6.836,-8.789,0
1583343624.941,-59.570,43.945,43.945,-11.230,20.020,0
1583343624.945,-95.703,44.922,44.434,-18.066,10.742,0
1583343624.949,-96.191,42.969,43.945,-22.949,-3.418,0
1583343624.953,-68.359,42.969,40.527,-22.949,22.949,0
1583343624.956,-66.406,41.992,39.551,-24.902,21.973,0
1583343624.960,-88.867,41.016,45.410,-20.508,60.547,0
1583343624.964,-78.613,45.410,50.781,-4.883,111.816,0
1583343624.968,-42.969,43.945,47.363,-4.395,4.883,0
1583343624.972,-24.902,38.086,40.527,-9.766,-34.668,0
1583343624.969,-29.785,41.992,41.016,1.465,-27.344,0
1583343624.973,-18.555,43.945,40.527,13.184,10.742,0
1583343624.977,18.555,41.016,42.969,27.832,41.016,0
1583343624.981,52.246,41.016,47.852,36.133,41.504,0
1583343624.985,44.922,38.574,44.922,27.832,14.648,0
1583343624.989,31.250,36.133,41.016,23.926,-12.207,0
1583343624.993,61.523,34.668,37.109,29.297,8.301,0
1583343624.996,92.773,33.691,39.551,41.992,33.691,0
1583343625.000,87.891,33.203,41.992,40.039,28.809,0
1583343625.004,76.172,33.691,40.527,37.598,21.973,0
1583343625.008,102.539,37.598,42.480,60.059,16.602,0
1583343625.012,130.859,34.668,44.922,65.918,54.688,0
1583343625.029,112.305,32.227,46.387,51.270,59.570,0
1583343625.033,84.473,34.180,51.758,50.293,37.109,0
1583343625.037,83.496,32.715,53.223,52.734,51.758,0
1583343625.041,104.492,29.785,47.852,55.176,52.734,0
1583343625.045,102.051,27.344,49.805,53.711,17.578,0
1583343625.049,76.660,28.809,50.781,46.875,-16.602,0
1583343625.053,61.523,35.645,50.781,41.504,39.062,0
1583343625.056,82.520,36.621,49.805,37.598,31.738,0
1583343625.060,104.492,36.133,48.340,43.457,-18.066,0
1583343625.064,83.984,41.992,53.223,40.527,-13.672,0
1583343625.068,56.641,42.969,55.664,41.992,-7.812,0
1583343625.072,62.500,39.062,51.758,44.922,16.113,0
1583343625.069,81.543,37.598,48.340,41.504,38.086,0
1583343625.073,63.965,36.133,48.340,40.039,49.805,0
1583343625.077,29.297,37.109,46.387,37.598,53.223,0
1583343625.081,31.738,40.527,45.410,29.785,20.996,0
1583343625.085,55.664,41.016,44.922,26.855,19.531,0
1583343625.089,56.641,41.992,45.410,33.691,14.160,0
1583343625.093,27.832,41.504,44.922,33.203,-15.137,0
1583343625.096,22.461,37.109,41.016,24.414,9.766,0
1583343625.100,54.688,35.645,38.574,33.203,8.789,0
1583343625.104,65.430,39.062,41.504,37.109,17.578,0
1583343625.108,37.598,37.109,41.992,24.414,10.742,0
1583343625.112,28.320,34.180,39.551,25.391,23.438,0
1583343625.109,61.035,35.645,42.969,41.992,27.832,0
1583343625.113,81.055,36.133,43.457,51.758,-2.441,0
1583343625.117,63.965,40.527,45.898,44.434,15.625,0
1583343625.121,44.922,42.969,48.828,35.156,-19.531,0
1583343625.125,58.105,37.598,44.922,38.574,0.488,0
1583343625.129,81.055,37.598,42.969,45.898,-28.809,0
1583343625.133,72.754,39.551,41.992,44.434,-54.199,0
1583343625.136,45.410,38.574,45.410,40.527,34.180,0
1583343625.140,53.711,38.574,45.898,34.180,36.621,0
1583343625.144,91.797,38.086,41.016,35.645,18.066,0
1583343625.148,93.262,36.621,44.434,47.363,-33.691,0
1583343625.152,63.477,36.133,48.340,48.828,-30.762,0
1583343625.169,60.547,41.504,52.246,49.805,12.695,0
1583343625.173,85.938,43.457,50.781,54.688,-14.160,0
1583343625.177,93.750,35.156,42.480,53.223,10.742,0
1583343625.181,74.219,33.203,41.504,46.875,43.945,0
1583343625.185,61.035,38.086,44.922,52.734,67.383,0
1583343625.189,81.543,41.504,45.410,60.059,66.895,0
1583343625.193,103.516,43.945,42.480,56.152,61.523,0
1583343625.196,82.520,39.551,41.504,43.457,26.855,0
1583343625.200,58.594,39.551,42.969,41.504,11.230,0
1583343625.204,73.730,41.992,41.504,46.387,20.020,0
1583343625.208,98.145,40.039,41.992,46.875,16.113,0
1583343625.212,89.355,42.480,43.457,46.875,51.758,0
1583343625.209,60.547,42.969,41.504,38.086,-0.488,0
1583343625.213,58.105,41.504,44.922,43.457,-47.363,0
1583343625.217,87.891,41.992,50.293,57.617,33.691,0
1583343625.221,90.332,43.457,54.688,56.152,35.156,0
1583343625.225,57.129,44.922,56.152,43.945,42.480,0
1583343625.229,42.969,42.969,56.152,42.480,77.637,0
1583343625.233,67.871,41.504,56.641,49.316,52.246,0
1583343625.236,85.938,42.480,56.152,50.781,1.953,0
1583343625.240,59.570,44.434,57.617,45.898,-7.812,0
1583343625.244,31.738,42.969,57.617,38.574,79.590,0
1583343625.248,45.898,44.434,58.594,43.945,91.797,0
1583343625.252,70.312,46.875,63.965,45.410,100.098,0
1583343625.249,47.363,41.504,59.082,37.109,105.469,0
1583343625.253,16.113,37.109,53.223,24.902,69.824,0
1583343625.257,19.531,36.133,56.152,20.020,14.160,0
1583343625.261,41.992,34.180,53.711,26.855,0.488,0
1583343625.265,39.062,31.250,53.711,37.598,48.340,0
1583343625.269,13.672,37.598,54.688,37.598,65.918,0
1583343625.273,4.883,45.898,47.852,15.137,33.691,0
1583343625.276,30.762,45.410,44.434,13.184,17.578,0
1583343625.280,48.828,45.410,44.434,25.879,33.691,0
1583343625.284,16.113,37.109,38.086,5.859,19.531,0
1583343625.288,1.953,31.738,36.621,-3.418,25.391,0
1583343625.292,38.086,35.156,36.621,11.719,35.156,0
1583343625.309,61.035,37.109,35.645,16.602,47.852,0
1583343625.313,41.016,38.086,36.133,16.113,49.805,0
1583343625.317,25.391,39.062,36.133,14.648,22.949,0
1583343625.321,42.969,39.551,36.621,20.020,8.301,0
1583343625.325,61.035,37.109,38.574,25.391,-9.766,0
1583343625.329,44.434,41.504,41.504,28.809,38.086,0
1583343625.333,19.043,44.922,41.504,20.996,76.660,0
1583343625.336,24.902,38.574,35.645,11.230,48.340,0
1583343625.340,55.176,36.133,32.715,25.391,34.668,0
1583343625.344,53.711,38.086,37.598,32.227,-2.930,0
1583343625.348,18.555,37.109,41.504,20.020,-14.160,0
1583343625.352,10.254,33.691,39.551,18.555,18.555,0
1583343625.349,41.016,37.598,41.016,30.273,25.879,0
1583343625.353,49.805,38.086,42.480,29.297,19.043,0
1583343625.357,25.879,33.203,38.574,18.066,10.742,0
1583343625.361,12.695,37.109,38.574,19.531,-20.020,0
1583343625.365,30.273,40.039,41.016,25.391,6.348,0
1583343625.369,48.828,39.062,41.504,29.785,35.645,0
1583343625.373,30.273,41.016,42.969,27.344,27.344,0
1583343625.376,10.254,41.992,41.504,25.391,59.082,0
1583343625.380,22.949,38.574,41.992,27.344,68.848,0
1583343625.384,45.410,41.504,50.781,27.832,7.812,0
1583343625.388,37.598,42.480,50.781,20.020,14.648,0
1583343625.392,6.836,35.645,43.945,9.277,41.504,0
1583343625.389,3.906,33.691,45.410,12.207,-1.953,0
1583343625.393,28.320,32.227,45.898,17.090,-2.441,0
1583343625.397,33.203,31.738,44.434,14.160,-1.953,0
1583343625.401,7.812,30.762,43.945,8.789,-5.859,0
1583343625.405,4.395,31.738,47.363,12.207,35.645,0
1583343625.409,35.156,34.180,50.781,25.391,0.977,0
1583343625.413,39.551,32.227,45.898,26.367,-36.621,0
1583343625.416,11.230,32.227,43.945,15.625,-7.324,0
1583343625.420,-1.465,31.250,42.969,13.672,3.418,0
1583343625.424,21.973,28.809,37.598,14.160,31.250,0
1583343625.428,42.480,26.855,39.551,14.160,40.039,0
1583343625.432,26.855,26.367,43.945,15.137,10.742,0
1583343625.449,3.418,28.809,45.410,14.160,35.645,0
1583343625.453,16.602,28.809,41.504,17.090,47.852,0
1583343625.457,46.387,28.320,39.062,20.508,51.270,0
1583343625.461,40.527,31.738,45.898,19.531,54.199,0
1583343625.465,16.113,38.574,51.758,19.043,38.086,0
1583343625.469,14.160,39.062,49.316,22.461,64.453,0
1583343625.473,35.645,34.668,43.457,23.926,54.199,0
1583343625.476,45.410,34.180,43.457,25.879,21.484,0
1583343625.480,24.902,34.668,45.898,22.949,-65.430,0
1583343625.484,19.531,33.691,44.434,23.926,-71.777,0
1583343625.488,44.434,37.109,42.480,34.668,11.719,0
1583343625.492,57.617,37.598,40.039,38.574,70.801,0
1583343625.489,41.992,38.086,42.969,39.551,89.844,0
1583343625.493,25.879,40.527,48.828,36.621,42.969,0
1583343625.497,41.504,36.621,43.457,31.250,-3.418,0
1583343625.501,62.500,37.109,43.945,38.574,1.465,0
1583343625.505,50.781,39.062,48.340,37.109,44.434,0
1583343625.509,31.738,37.598,46.875,27.832,59.082,0
1583343625.513,44.434,37.598,47.363,31.738,-5.371,0
1583343625.516,71.289,36.621,47.852,41.016,18.555,0
1583343625.520,67.383,34.180,46.875,35.156,59.082,0
1583343625.524,32.227,37.109,51.758,26.367,3.906,0
1583343625.528,31.250,36.133,52.246,20.996,-12.207,0
1583343625.532,64.941,32.715,48.340,25.391,33.203,0
1583343625.529,67.871,30.273,51.758,30.762,30.273,0
1583343625.533,37.109,29.785,53.223,24.414,-10.254,0
1583343625.537,23.438,32.227,50.781,23.926,6.836,0
1583343625.541,51.270,33.203,51.758,30.762,17.578,0
1583343625.545,67.383,31.250,51.758,34.668,30.762,0
1583343625.549,46.387,33.691,53.711,31.250,43.457,0
1583343625.553,29.785,37.109,54.688,28.320,23.438,0
1583343625.556,41.992,35.645,49.316,26.367,-23.926,0
1583343625.560,58.594,33.203,45.898,22.949,0.488,0
1583343625.564,44.434,34.180,46.875,23.438,53.711,0
1583343625.568,24.414,36.621,46.387,18.555,31.738,0
1583343625.572,36.621,37.598,46.875,16.113,44.434,0
1583343625.588,62.500,40.527,50.293,27.344,17.578,0
1583343625.592,62.500,40.039,46.387,26.855,-3.418,0
1583343625.596,35.645,40.527,45.410,21.973,19.531,0
1583343625.600,31.250,43.457,49.805,31.738,49.805,0
1583343625.604,62.012,37.109,46.875,38.574,36.621,0
1583343625.608,63.477,35.156,45.410,35.645,-36.621,0
1583343625.612,29.785,36.133,44.922,23.438,96.680,0
1583343625.615,19.043,33.691,43.457,19.531,115.723,0
1583343625.619,45.410,35.156,45.898,34.668,11.719,0
1583343625.623,63.965,34.668,44.922,41.504,67.871,0
1583343625.627,41.016,37.598,46.387,36.133,83.984,0
1583343625.631,21.484,40.039,51.758,27.344,57.129,0
1583343625.629,45.410,40.039,55.664,34.180,70.801,0
1583343625.633,68.848,38.086,53.711,38.574,35.645,0
1583343625.637,54.199,34.668,47.852,33.203,38.086,0
1583343625.641,29.785,37.109,46.875,28.320,51.270,0
1583343625.645,32.715,36.133,48.340,18.555,42.969,0
1583343625.649,58.105,36.621,44.922,25.391,38.086,0
1583343625.653,61.035,41.016,44.434,36.621,1.465,0
1583343625.656,33.203,40.039,48.340,33.203,24.902,0
1583343625.660,23.438,37.598,44.922,27.344,11.230,0
1583343625.664,50.293,36.133,41.016,21.484,-4.395,0
1583343625.668,62.500,36.621,41.016,20.020,20.508,0
1583343625.672,33.203,38.574,43.457,23.438,-13.184,0
1583343625.669,19.531,36.621,45.898,25.391,-9.766,0
1583343625.673,42.480,34.668,44.922,30.273,35.645,0
1583343625.677,61.523,36.621,42.969,27.344,0.000,0
1583343625.681,42.969,35.645,43.457,20.996,-31.250,0
1583343625.685,17.578,34.668,47.852,22.949,0.488,0
1583343625.689,32.227,40.527,50.293,34.180,64.453,0
1583343625.693,58.594,39.062,48.340,37.109,69.824,0
1583343625.696,52.246,37.598,46.875,23.438,22.949,0
1583343625.700,27.832,40.039,44.434,18.066,15.625,0
1583343625.704,29.785,37.598,44.434,22.461,45.898,0
1583343625.708,52.246,37.109,47.363,34.180,9.766,0
1583343625.712,51.758,39.062,48.340,37.598,-7.812,0
1583343625.729,22.461,41.504,48.828,19.531,72.754,0
1583343625.733,17.578,40.527,49.805,14.648,63.965,0
1583343625.737,49.316,42.480,52.734,28.320,-13.672,0
1583343625.741,58.594,44.434,52.246,31.250,-53.711,0
1583343625.745,33.203,41.016,47.852,26.367,-11.230,0
1583343625.749,12.695,43.457,47.852,21.973,58.105,0
1583343625.753,37.598,44.434,47.852,26.367,45.898,0
1583343625.756,73.730,44.434,47.363,36.621,21.484,0
1583343625.760,59.570,47.363,47.363,31.250,-10.254,0
1583343625.764,31.250,45.410,44.434,27.344,36.621,0
1583343625.768,38.086,46.875,45.898,30.273,63.965,0
1583343625.772,61.523,48.828,48.340,33.203,49.805,0
1583343625.769,55.176,43.457,44.434,23.926,47.852,0
1583343625.773,23.926,41.016,44.434,10.742,28.320,0
1583343625.777,20.996,41.016,43.945,12.695,35.156,0
1583343625.781,53.223,41.992,42.480,19.043,33.691,0
1583343625.785,61.523,40.527,43.945,27.832,9.277,0
1583343625.789,27.344,39.551,44.922,24.414,-20.020,0
1583343625.793,12.207,39.062,45.410,21.973,-19.531,0
1583343625.796,42.969,40.527,47.363,35.645,7.324,0
1583343625.800,63.477,42.969,48.828,31.738,7.812,0
1583343625.804,37.109,40.039,45.410,13.672,-40.527,0
1583343625.808,22.461,36.621,41.992,12.207,22.461,0
1583343625.812,39.551,37.598,44.434,23.926,100.098,0
1583343625.809,59.570,34.668,44.434,29.297,52.246,0
1583343625.813,49.316,37.598,44.434,29.297,61.035,0
1583343625.817,16.602,40.039,46.875,25.391,43.945,0
1583343625.821,23.438,38.574,48.340,25.391,42.969,0
1583343625.825,56.641,42.969,50.781,40.039,79.590,0
1583343625.829,55.664,46.387,53.711,40.039,69.336,0
1583343625.833,20.020,42.969,47.852,20.996,6.348,0
1583343625.836,10.254,41.016,41.016,13.184,8.301,0
1583343625.840,39.551,40.039,38.574,20.508,63.477,0
1583343625.844,53.711,39.551,40.527,28.320,3.418,0
1583343625.848,31.250,40.039,39.551,19.531,-9.766,0
1583343625.852,20.020,45.898,43.457,20.996,22.949,0
1583343625.869,42.969,50.293,47.363,33.691,5.859,0
1583343625.873,59.082,43.945,42.969,36.133,39.062,0
1583343625.877,40.527,42.480,43.457,22.949,16.113,0
1583343625.881,21.484,43.945,45.898,19.531,-26.855,0
1583343625.885,35.156,42.480,42.969,26.367,92.773,0
1583343625.889,58.105,43.945,42.969,29.785,61.523,0
1583343625.893,45.898,43.945,42.969,33.691,-17.578,0
1583343625.896,20.020,42.969,40.527,25.879,-29.297,0
1583343625.900,24.414,42.480,41.504,20.020,11.230,0
1583343625.904,52.246,43.457,43.945,24.414,16.113,0
1583343625.908,46.875,46.387,48.340,22.949,24.902,0
1583343625.912,20.020,45.898,48.828,18.066,23.438,0
1583343625.910,26.367,46.875,48.340,25.879,-11.719,0
1583343625.914,53.223,47.852,50.781,37.109,24.414,0
1583343625.918,62.012,44.434,47.363,33.691,56.152,0
1583343625.922,32.715,43.457,43.945,23.438,52.734,0
1583343625.926,16.602,41.504,44.922,19.043,51.270,0
1583343625.930,39.551,41.016,47.363,31.250,-18.066,0
1583343625.934,59.082,40.039,46.387,35.156,-5.859,0
1583343625.937,40.527,41.504,48.828,20.996,85.449,0
1583343625.941,18.066,42.969,53.223,18.066,65.430,0
1583343625.945,31.250,41.992,53.711,26.367,-16.113,0
1583343625.949,57.129,40.039,51.270,29.297,-28.809,0
1583343625.953,56.641,43.945,52.734,23.926,19.531,0
1583343625.969,35.156,45.410,53.711,26.367,8.789,0
1583343625.973,28.809,41.992,51.270,24.414,-2.930,0
1583343625.977,56.641,43.945,51.270,23.926,-0.977,0
1583343625.981,63.477,41.016,50.293,28.320,-17.090,0
1583343625.985,28.320,40.527,49.316,28.320,8.301,0
1583343625.989,23.438,43.457,49.316,32.715,51.758,0
1583343625.993,53.711,42.969,49.805,32.227,54.199,0
1583343625.996,55.176,38.574,49.316,26.367,21.484,0
1583343626.000,32.715,38.574,50.781,27.832,40.527,0
1583343626.004,24.414,41.016,54.688,32.715,50.293,0
1583343626.008,36.133,36.133,51.270,34.668,78.613,0
1583343626.012,53.711,32.715,47.363,32.227,92.773,0
1583343626.009,39.062,36.133,49.805,29.297,38.086,0
1583343626.013,10.742,37.109,50.781,25.391,88.867,0
1583343626.017,21.484,39.062,50.293,32.715,137.207,0
1583343626.021,46.875,37.598,48.828,43.457,117.676,0
1583343626.025,37.109,37.598,48.340,33.203,49.805,0
1583343626.029,12.207,40.527,51.758,30.273,40.039,0
1583343626.033,19.531,43.457,54.688,41.504,37.109,0
1583343626.036,53.223,42.969,50.293,45.898,10.742,0
1583343626.040,55.664,40.527,44.922,41.016,53.223,0
1583343626.044,19.531,39.551,46.875,31.738,46.387,0
1583343626.048,4.395,39.551,49.316,18.555,-14.160,0
1583343626.052,30.273,40.527,45.410,23.438,30.762,0
1583343626.049,47.363,39.551,41.992,31.738,81.055,0
1583343626.053,26.855,38.574,42.480,24.902,40.039,0
1583343626.057,10.742,37.598,42.480,24.414,36.133,0
1583343626.061,37.598,41.016,44.434,33.691,-24.414,0
1583343626.065,68.848,44.922,46.875,45.410,-18.555,0
1583343626.069,50.781,42.480,45.898,41.016,10.254,0
1583343626.073,22.461,38.086,43.457,25.391,-7.812,0
1583343626.076,29.297,37.109,41.992,28.320,-3.418,0
1583343626.080,50.781,38.086,46.387,39.062,36.621,0
1583343626.084,49.805,38.574,46.875,33.203,40.039,0
1583343626.088,24.902,39.551,46.387,18.555,-34.180,0
1583343626.092,20.996,39.551,48.340,17.578,-42.480,0
1583343626.109,49.805,37.598,44.434,25.879,-1.953,0
1583343626.113,53.223,41.992,45.898,33.691,9.766,0
1583343626.117,21.484,39.062,46.387,24.902,-83.008,0
1583343626.121,10.254,32.715,42.969,11.719,-56.152,0
1583343626.125,34.668,33.203,42.480,20.508,-33.691,0
1583343626.129,52.246,36.621,44.922,31.738,-18.555,0
1583343626.133,34.180,39.062,45.898,26.367,23.926,0
1583343626.136,14.160,39.551,43.457,15.137,17.090,0
1583343626.140,30.762,36.621,43.457,20.508,48.828,0
1583343626.144,58.105,40.039,48.828,35.645,16.602,0
1583343626.148,49.316,43.457,49.805,30.762,9.277,0
1583343626.152,16.602,41.016,47.363,28.809,41.504,0
1583343626.149,22.949,39.062,47.363,31.738,22.461,0
1583343626.153,55.664,40.039,48.340,31.738,33.691,0
1583343626.157,51.758,41.016,46.387,33.691,41.504,0
1583343626.161,24.414,37.109,46.875,21.973,-9.766,0
1583343626.165,23.438,36.133,49.316,20.508,8.789,0
1583343626.169,44.434,39.062,48.340,31.250,45.410,0
1583343626.173,50.781,39.551,46.387,30.273,57.129,0
1583343626.176,32.227,40.527,49.805,23.926,20.508,0
1583343626.180,17.578,41.504,50.293,21.973,2.441,0
1583343626.184,31.738,36.621,46.387,20.996,79.102,0
1583343626.188,48.828,35.645,45.898,23.438,43.457,0
1583343626.192,34.668,38.086,44.434,19.043,4.883,0
1583343626.189,15.137,38.574,45.410,21.973,41.016,0
1583343626.193,28.809,37.598,48.828,28.320,19.531,0
1583343626.197,52.246,35.645,46.387,27.344,-47.363,0
1583343626.201,47.363,39.551,48.828,24.414,-18.066,0
1583343626.205,20.020,41.016,54.199,16.602,-14.160,0
1583343626.209,18.066,33.691,48.340,16.602,11.230,0
1583343626.213,47.852,32.715,42.969,28.320,56.152,0
1583343626.216,55.664,33.203,43.945,28.809,64.453,0
1583343626.220,25.391,34.668,47.852,20.996,54.688,0
1583343626.224,16.113,36.133,47.852,15.625,24.902,0
1583343626.228,49.316,34.668,44.922,24.902,-4.883,0
1583343626.232,64.941,39.062,48.828,34.668,-35.156,0
1583343626.249,43.457,44.922,53.223,31.738,28.809,0
1583343626.253,24.902,45.898,52.734,30.762,60.547,0
1583343626.257,39.062,41.504,48.340,29.297,98.633,0
1583343626.261,58.594,40.527,47.852,31.250,76.660,0
1583343626.265,42.969,41.992,49.316,35.156,56.152,0
1583343626.269,19.531,42.480,50.781,31.250,55.176,0
1583343626.273,24.414,41.992,55.176,34.668,10.254,0
1583343626.276,47.852,38.574,52.734,42.969,-2.930,0
1583343626.280,49.316,37.109,48.828,41.504,-15.625,0
1583343626.284,23.438,36.621,49.805,36.621,31.738,0
1583343626.288,24.902,41.016,52.246,41.504,46.387,0
1583343626.292,51.270,41.992,50.781,42.969,46.875,0
1583343626.289,47.852,38.086,48.340,34.668,49.805,0
1583343626.293,19.531,38.086,49.805,29.785,31.738,0
1583343626.297,15.625,36.621,48.828,28.320,5.371,0
1583343626.301,42.969,37.598,47.363,33.691,49.805,0
1583343626.305,51.270,40.039,47.363,37.109,69.824,0
1583343626.309,23.438,40.527,48.340,23.926,22.461,0
1583343626.313,5.859,40.527,48.340,18.555,-0.977,0
1583343626.316,38.574,45.410,49.805,25.391,30.273,0
1583343626.320,62.500,46.387,48.340,23.438,18.555,0
1583343626.324,41.016,42.969,43.945,17.090,20.996,0
1583343626.328,10.742,41.016,44.922,8.789,40.527,0
1583343626.332,17.578,39.062,41.016,10.742,49.316,0
1583343626.329,60.547,42.480,36.621,29.297,73.242,0
1583343626.333,66.406,43.457,38.574,30.762,-3.906,0
1583343626.337,21.973,38.086,47.852,16.602,-31.250,0
1583343626.341,6.348,34.180,52.246,10.254,-14.648,0
1583343626.345,35.645,30.273,49.316,19.043,-8.301,0
1583343626.349,44.922,28.809,50.781,21.484,-3.906,0
1583343626.353,24.902,31.738,53.223,18.555,-20.020,0
1583343626.356,12.695,34.180,56.152,21.973,43.457,0
1583343626.360,21.973,30.273,58.594,16.602,65.918,0
1583343626.364,39.062,29.785,54.199,11.230,17.578,0
1583343626.368,23.438,29.297,50.781,16.113,61.523,0
1583343626.372,3.418,29.785,49.316,15.625,120.117,0
1583343626.389,21.973,32.227,48.340,20.508,85.938,0
1583343626.393,51.270,34.668,49.805,25.879,34.180,0
1583343626.397,43.945,40.527,53.223,31.250,14.160,0
1583343626.401,27.832,44.434,54.199,32.715,-7.812,0
1583343626.405,37.109,41.016,47.852,30.762,12.207,0
1583343626.409,60.547,40.039,44.922,36.621,-13.672,0
1583343626.413,58.594,40.039,46.387,35.645,-20.508,0
1583343626.416,28.320,40.039,44.434,22.461,40.527,0
1583343626.420,26.855,38.086,41.992,25.879,34.180,0
1583343626.424,53.711,37.598,43.457,37.109,3.906,0
1583343626.428,64.941,41.504,47.852,38.574,27.832,0
1583343626.432,41.992,41.992,51.758,34.180,26.367,0
1583343626.429,22.461,35.645,49.316,29.297,-16.113,0
1583343626.433,43.457,35.645,47.363,33.691,42.969,0
1583343626.437,63.477,40.039,46.387,34.668,73.730,0
1583343626.441,43.945,40.527,44.434,30.273,22.461,0
1583343626.445,25.391,42.480,41.016,28.809,11.719,0
1583343626.449,35.156,42.480,41.992,28.320,0.977,0
1583343626.453,61.035,39.551,45.898,37.598,34.180,0
1583343626.456,56.152,40.039,46.387,44.434,66.895,0
1583343626.460,28.809,43.945,46.875,38.086,25.391,0
1583343626.464,28.320,46.387,48.340,33.203,-20.020,0
1583343626.468,47.363,41.016,44.922,34.180,-65.918,0
1583343626.472,53.711,38.574,38.574,33.203,-0.977,0
1583343626.469,28.320,39.062,40.039,27.344,45.898,0
1583343626.473,21.484,37.598,40.039,24.902,-8.789,0
1583343626.477,49.316,38.086,38.574,32.227,-18.555,0
1583343626.481,61.035,39.551,40.039,35.645,4.395,0
1583343626.485,36.133,40.039,41.504,31.250,9.277,0
1583343626.489,18.555,40.527,42.969,31.250,0.488,0
1583343626.493,41.992,43.457,42.969,39.062,29.785,0
1583343626.496,60.547,44.434,43.457,37.109,41.016,0
1583343626.500,37.109,40.527,43.457,26.855,41.504,0
1583343626.504,14.648,36.621,44.434,24.414,55.176,0
1583343626.508,30.273,39.062,43.945,27.832,25.879,0
1583343626.512,57.617,40.527,42.480,33.203,38.086,0
1583343626.529,51.758,42.480,46.875,32.715,43.457,0
1583343626.533,26.367,44.922,46.875,18.066,29.785,0
1583343626.537,32.227,44.434,44.434,12.695,48.340,0
1583343626.541,64.941,45.898,44.922,29.785,52.246,0
1583343626.545,69.824,49.805,48.828,38.086,38.086,0
1583343626.549,36.621,48.340,46.387,29.297,-14.648,0
1583343626.553,20.020,42.480,38.086,24.414,-14.160,0
1583343626.556,50.293,40.527,40.039,33.203,19.043,0
1583343626.560,62.988,41.016,41.504,35.156,54.688,0
1583343626.564,33.203,40.527,41.504,25.391,65.430,0
1583343626.568,17.090,41.992,46.875,21.973,44.434,0
1583343626.572,35.156,42.969,46.387,28.809,40.527,0
1583343626.568,59.570,41.992,43.457,31.738,-11.230,0
1583343626.572,47.363,38.574,40.527,28.320,-10.254,0
1583343626.576,23.926,36.133,36.621,19.531,34.668,0
1583343626.580,38.086,39.062,41.016,19.531,43.457,0
1583343626.584,57.617,42.480,46.875,33.203,20.996,0
1583343626.588,43.457,38.086,41.992,30.273,17.578,0
1583343626.592,15.137,34.668,37.598,19.043,21.484,0
1583343626.595,15.625,35.156,38.574,15.625,-0.977,0
1583343626.599,48.828,38.086,40.039,21.484,38.086,0
1583343626.603,51.758,39.551,40.039,23.926,43.945,0
1583343626.607,21.973,36.133,38.574,13.184,17.578,0
1583343626.611,17.090,39.062,39.062,18.066,67.871,0
1583343626.608,43.945,45.410,42.480,32.227,66.406,0
1583343626.612,53.223,40.039,37.598,26.855,27.344,0
1583343626.616,27.832,38.574,35.645,17.090,41.504,0
1583343626.620,8.301,40.527,37.598,11.719,34.668,0
1583343626.624,25.391,38.574,35.645,17.578,79.102,0
1583343626.628,48.828,40.527,38.086,27.344,39.551,0
1583343626.632,39.551,41.016,38.574,25.391,-4.883,0
1583343626.635,16.602,40.039,39.551,27.832,54.688,0
1583343626.639,25.391,41.016,40.527,31.250,58.594,0
1583343626.643,62.012,41.016,39.062,50.293,36.621,0
1583343626.647,58.105,40.527,46.387,51.758,40.039,0
1583343626.651,17.578,35.645,51.270,26.367,20.508,0
1583343626.668,0.977,26.855,50.293,17.578,60.059,0
1583343626.672,29.785,24.414,52.734,24.902,50.293,0
1583343626.676,44.434,28.320,53.711,31.250,30.762,0
1583343626.680,16.113,29.785,54.688,18.066,66.406,0
1583343626.684,-1.953,27.832,55.664,12.207,41.992,0
1583343626.688,21.973,34.180,56.152,26.855,0.488,0
1583343626.692,48.340,39.551,53.711,29.785,1.465,0
1583343626.695,33.691,36.133,47.363,18.066,14.160,0
1583343626.699,23.438,36.133,43.457,21.484,7.324,0
1583343626.703,43.457,38.086,43.457,29.297,-14.160,0
1583343626.707,71.289,38.574,46.387,32.227,23.926,0
1583343626.711,56.152,37.598,45.898,31.738,48.340,0
1583343626.708,23.926,36.621,44.434,31.738,47.363,0
1583343626.712,32.715,37.598,45.410,35.645,6.348,0
1583343626.716,57.129,35.645,44.922,36.621,-41.016,0
1583343626.720,57.617,37.598,45.410,31.738,2.441,0
1583343626.724,37.598,44.922,51.758,34.180,44.434,0
1583343626.728,26.367,41.504,51.758,33.203,19.531,0
1583343626.732,42.480,35.156,44.922,31.250,-3.906,0
1583343626.735,51.758,39.062,43.457,34.180,15.137,0
1583343626.739,35.156,41.992,43.945,25.879,17.090,0
1583343626.743,19.043,42.969,42.480,16.602,3.906,0
1583343626.747,35.645,41.504,41.992,19.043,-22.949,0
1583343626.751,58.105,38.086,38.574,29.297,20.996,0
1583343626.748,43.945,42.969,42.480,28.809,24.414,0
1583343626.752,26.855,48.340,50.781,21.973,-1.465,0
1583343626.756,34.180,45.898,49.316,24.902,33.203,0
1583343626.760,54.199,40.527,45.410,39.062,39.062,0
1583343626.764,46.387,38.086,45.410,36.133,59.570,0
1583343626.768,19.043,40.039,45.898,25.391,75.684,0
1583343626.772,21.973,40.527,46.387,26.367,51.270,0
1583343626.775,46.875,39.062,43.945,29.297,75.195,0
1583343626.779,47.852,40.527,41.504,29.297,40.039,0
1583343626.783,21.973,42.480,41.992,25.391,29.297,0
1583343626.787,14.648,43.945,44.434,28.809,44.434,0
1583343626.791,37.109,40.527,41.504,32.715,40.527,0
1583343626.809,51.758,41.016,41.992,36.133,18.555,0
1583343626.813,35.645,44.922,46.387,27.832,-62.988,0
1583343626.817,15.137,40.527,42.969,15.625,-54.199,0
1583343626.821,29.785,35.645,40.527,21.484,13.672,0
1583343626.825,47.852,33.691,41.016,24.902,45.410,0
1583343626.829,31.738,35.645,42.969,23.438,35.645,0
1583343626.833,7.324,35.645,44.922,14.648,7.812,0
1583343626.836,16.602,35.156,41.504,14.648,9.766,0
1583343626.840,46.387,35.645,43.457,23.926,-2.930,0
1583343626.844,43.457,35.645,43.945,22.461,-41.016,0
1583343626.848,19.531,38.574,44.922,20.508,-14.648,0
1583343626.852,25.391,42.969,49.805,25.391,61.523,0
1583343626.851,51.270,39.551,48.340,30.762,99.121,0
1583343626.855,53.711,36.133,44.922,31.250,77.148,0
1583343626.859,27.344,37.109,45.898,22.949,49.805,0
1583343626.863,17.090,38.086,46.875,18.066,60.059,0
1583343626.867,42.969,38.574,43.945,24.902,57.129,0
1583343626.871,53.223,36.621,41.992,30.273,15.625,0
1583343626.875,30.762,37.109,45.410,26.855,-12.207,0
1583343626.878,18.066,38.086,43.945,17.090,-23.926,0
1583343626.882,37.109,37.598,41.016,22.949,10.742,0
1583343626.886,64.453,37.598,43.945,31.738,45.410,0
1583343626.890,61.035,41.504,46.875,24.902,37.598,0
1583343626.894,35.645,43.945,47.852,23.438,11.230,0
1583343626.888,37.109,39.062,42.480,33.691,41.016,0
1583343626.892,67.871,38.086,41.504,32.227,7.812,0
1583343626.896,60.059,38.574,45.410,22.461,-16.113,0
1583343626.900,27.832,36.621,46.875,20.020,40.527,0
1583343626.904,28.809,38.574,45.898,28.809,14.160,0
1583343626.908,55.664,42.480,45.410,36.133,-34.668,0
1583343626.912,61.035,41.016,43.945,29.297,3.418,0
1583343626.915,31.738,41.504,43.457,17.578,39.551,0
1583343626.919,18.555,44.922,42.969,12.207,70.312,0
1583343626.923,49.316,45.410,44.434,21.973,67.871,0
1583343626.927,63.477,39.062,44.434,24.414,36.621,0
1583343626.931,32.715,34.180,44.434,18.555,-9.277,0
1583343626.948,9.277,35.156,49.316,16.113,-37.598,0
1583343626.952,23.438,35.156,48.340,21.484,49.316,0
1583343626.956,44.434,32.715,43.457,29.785,72.754,0
1583343626.960,39.062,31.250,43.945,26.855,40.039,0
1583343626.964,14.160,31.738,44.434,16.113,41.992,0
1583343626.968,16.602,33.203,46.875,18.555,61.035,0
1583343626.972,45.410,35.156,46.875,18.066,8.301,0
1583343626.975,50.293,38.086,46.875,23.926,-12.695,0
1583343626.979,24.414,39.551,47.852,27.832,6.836,0
1583343626.983,15.137,34.668,45.410,20.508,-17.578,0
1583343626.987,38.574,33.203,44.434,29.297,47.852,0
1583343626.991,45.898,34.180,42.969,29.297,69.824,0
1583343626.989,20.508,33.691,41.992,20.508,49.316,0
1583343626.993,11.719,37.109,45.410,23.438,9.766,0
1583343626.997,32.715,38.574,44.434,32.227,-36.133,0
1583343627.001,49.316,36.133,43.457,31.738,-5.859,0
1583343627.005,32.715,35.645,45.410,25.391,65.430,0
1583343627.009,17.578,40.527,47.852,23.926,65.918,0
1583343627.013,34.668,39.551,45.410,31.738,-29.297,0
1583343627.016,54.199,33.691,45.898,32.227,-49.805,0
1583343627.020,41.016,34.180,50.781,25.879,-21.973,0
1583343627.024,8.301,33.203,53.223,22.461,27.344,0
1583343627.028,10.742,32.715,52.734,20.020,63.965,0
1583343627.032,43.457,33.691,50.781,30.762,38.086,0
1583343627.029,40.527,32.715,50.293,26.367,0.488,0
1583343627.033,8.789,33.203,51.758,12.695,-19.531,0
1583343627.037,3.418,35.156,55.664,14.160,-54.199,0
1583343627.041,31.738,32.715,52.246,23.438,10.254,0
1583343627.045,53.223,35.645,50.293,35.156,37.598,0
1583343627.049,34.180,41.016,52.734,31.738,42.969,0
1583343627.053,13.672,37.598,49.805,17.578,70.801,0
1583343627.056,28.809,36.621,50.781,20.996,-11.230,0
1583343627.060,51.270,36.621,50.293,26.855,-0.977,0
1583343627.064,38.086,36.133,48.340,24.902,43.945,0
1583343627.068,10.742,41.016,49.805,24.414,4.395,0
1583343627.072,20.508,40.527,49.316,27.832,-14.648,0
1583343627.089,47.852,39.551,51.270,39.551,-9.766,0
1583343627.093,42.480,39.062,51.758,28.809,4.395,0
1583343627.097,16.113,39.062,48.340,13.184,-1.953,0
1583343627.101,20.996,42.480,50.781,20.996,34.180,0
1583343627.105,54.688,39.551,49.805,32.227,50.293,0
1583343627.109,52.734,36.133,46.387,29.785,49.316,0
1583343627.113,18.555,34.668,44.922,18.555,70.801,0
1583343627.116,12.695,34.668,43.945,20.020,61.035,0
1583343627.120,36.621,34.668,43.457,27.832,27.344,0
1583343627.124,56.152,34.668,42.480,34.180,45.898,0
1583343627.128,31.250,36.621,43.945,30.273,70.312,0
1583343627.132,7.324,37.598,43.945,23.926,54.688,0
1583343627.129,25.879,38.086,44.922,30.762,18.066,0
1583343627.133,45.410,32.227,44.922,36.621,-44.434,0
1583343627.137,33.691,29.297,40.527,27.832,-12.207,0
1583343627.141,7.324,31.738,40.527,22.461,49.805,0
1583343627.145,15.625,31.250,41.016,27.832,58.105,0
1583343627.149,46.875,30.762,39.062,25.879,46.875,0
1583343627.153,43.945,31.738,40.039,23.926,38.574,0
1583343627.156,12.695,31.738,37.109,14.648,22.461,0
1583343627.160,9.766,33.203,35.645,16.113,-37.109,0
1583343627.164,36.621,34.668,38.574,25.879,-44.922,0
1583343627.168,49.805,36.621,42.480,28.320,-42.969,0
1583343627.172,32.227,35.156,38.574,28.809,-14.160,0
1583343627.169,20.508,32.715,34.180,26.367,14.648,0
1583343627.173,42.480,33.203,36.621,28.320,26.367,0
1583343627.177,59.082,34.180,38.086,34.668,-3.906,0
1583343627.181,41.016,36.621,40.527,28.320,-11.719,0
1583343627.185,21.973,38.086,41.504,20.508,6.836,0
1583343627.189,32.715,37.109,41.504,21.973,11.230,0
1583343627.193,56.152,41.016,45.410,28.320,5.371,0
1583343627.196,52.246,44.922,49.805,25.879,3.418,0
1583343627.200,24.902,40.527,47.852,12.207,44.922,0
1583343627.204,33.203,38.574,45.898,22.461,49.805,0
1583343627.208,60.059,41.504,47.852,35.156,26.367,0
1583343627.212,51.270,41.504,46.875,36.621,74.707,0
1583343627.229,22.949,39.551,47.852,33.203,41.504,0
1583343627.233,20.996,39.062,47.363,20.020,30.762,0
1583343627.237,46.387,38.086,45.410,22.461,85.938,0
1583343627.241,57.129,41.016,47.852,29.785,70.312,0
1583343627.245,31.738,46.387,50.781,25.391,56.641,0
1583343627.249,11.230,45.898,51.270,21.973,9.277,0
1583343627.253,34.668,40.527,47.852,27.832,-6.348,0
1583343627.256,58.594,40.039,44.434,36.133,69.824,0
1583343627.260,39.062,40.527,46.875,31.738,57.129,0
1583343627.264,22.461,38.574,48.340,32.715,0.488,0
1583343627.268,41.016,43.457,46.875,40.527,-4.395,0
1583343627.272,60.059,47.852,42.480,29.785,3.418,0
1583343627.269,40.527,48.340,40.039,20.996,35.156,0
1583343627.273,6.836,45.410,40.039,5.859,-27.832,0
1583343627.277,10.254,40.527,37.598,8.789,-41.016,0
1583343627.281,38.574,39.551,37.598,24.414,57.617,0
1583343627.285,40.039,40.527,38.086,20.020,59.082,0
1583343627.289,17.090,43.457,40.039,22.461,-4.883,0
1583343627.293,16.602,42.969,41.016,28.320,29.297,0
1583343627.296,43.457,41.504,37.109,26.367,62.988,0
1583343627.300,55.664,42.480,36.621,30.273,-0.488,0
1583343627.304,32.715,45.410,39.551,31.738,-57.129,0
1583343627.308,21.973,45.898,41.504,28.320,9.766,0
1583343627.312,45.898,44.922,40.527,28.320,45.410,0
1583343627.309,58.105,41.992,37.598,23.926,53.711,0
1583343627.313,37.109,39.551,33.691,19.531,82.031,0
1583343627.317,13.672,41.016,36.133,22.949,62.012,0
1583343627.321,27.344,42.480,39.062,32.715,12.695,0
1583343627.325,51.270,44.434,37.109,33.203,-9.277,0
1583343627.329,39.551,45.410,38.086,25.391,42.969,0
1583343627.333,13.184,47.363,42.969,21.973,78.613,0
1583343627.336,17.090,50.781,47.363,22.949,60.059,0
1583343627.340,46.387,43.945,41.992,22.949,46.875,0
1583343627.344,58.594,40.039,35.156,23.926,60.059,0
1583343627.348,37.109,41.992,36.621,17.578,27.344,0
1583343627.352,21.973,41.504,36.621,26.367,-9.277,0
1583343627.370,43.945,43.945,35.645,36.133,30.762,0
1583343627.374,63.477,43.945,36.621,30.762,49.316,0
1583343627.378,41.016,43.457,39.062,23.438,55.176,0
1583343627.382,20.508,44.922,39.551,19.531,55.664,0
1583343627.386,45.898,46.387,43.457,29.297,22.461,0
1583343627.390,72.266,48.340,45.898,35.645,1.465,0
1583343627.394,51.758,44.922,39.062,34.668,10.254,0
1583343627.397,25.879,40.039,34.668,26.855,42.480,0
1583343627.401,33.203,39.062,37.598,24.902,56.641,0
1583343627.405,58.594,39.062,41.016,31.738,40.039,0
1583343627.409,48.340,38.574,41.992,28.320,33.691,0
1583343627.413,16.602,36.621,42.480,19.043,47.852,0
1583343627.408,21.484,35.645,40.527,16.602,61.035,0
1583343627.412,49.316,39.551,42.969,27.344,25.879,0
1583343627.416,56.641,41.992,44.922,33.691,24.902,0
1583343627.420,28.809,41.504,44.434,28.809,4.395,0
1583343627.424,12.695,38.086,40.527,20.508,-5.859,0
1583343627.428,37.109,34.668,41.992,26.855,31.738,0
1583343627.432,55.664,34.668,44.922,32.227,-12.207,0
1583343627.435,34.668,35.156,41.992,21.484,-9.277,0
1583343627.439,12.207,36.133,43.457,17.090,12.695,0
1583343627.443,24.414,36.133,46.387,18.066,3.906,0
1583343627.447,56.152,36.133,45.410,23.438,-3.418,0
1583343627.451,43.457,33.203,42.480,22.949,44.434,0
1583343627.468,13.672,30.273,41.016,16.602,40.527,0
1583343627.472,26.855,32.715,43.457,18.555,-23.926,0
1583343627.476,53.223,33.691,44.434,27.832,-19.531,0
1583343627.480,50.781,34.180,41.504,22.949,3.418,0
1583343627.484,26.855,36.621,40.039,11.230,11.719,0
1583343627.488,34.180,37.109,40.039,12.207,37.109,0
1583343627.492,67.383,40.527,45.410,29.297,36.133,0
1583343627.495,73.730,41.504,44.434,35.156,-22.949,0
1583343627.499,42.480,35.645,38.574,26.855,-12.207,0
1583343627.503,26.855,38.086,41.992,24.902,53.711,0
1583343627.507,46.387,39.062,41.992,20.996,33.691,0
1583343627.511,57.617,38.086,41.016,27.344,75.195,0
1583343627.508,33.203,40.039,41.016,23.926,70.801,0
1583343627.512,12.695,40.527,37.109,13.672,59.082,0
1583343627.516,27.344,40.527,37.109,23.438,43.945,0
1583343627.520,50.781,41.504,36.133,30.762,24.414,0
1583343627.524,41.504,41.504,37.109,33.691,68.359,0
1583343627.528,14.160,38.574,39.551,30.762,82.520,0
1583343627.532,22.461,41.016,40.039,25.879,70.312,0
1583343627.535,51.270,43.457,43.945,33.691,37.109,0
1583343627.539,42.969,36.133,40.527,31.250,13.184,0
1583343627.543,15.137,34.668,38.086,28.809,-0.977,0
1583343627.547,11.719,39.551,43.457,22.461,-4.883,0
1583343627.551,37.109,36.621,43.945,18.555,-2.441,0
1583343627.548,45.410,32.715,39.062,23.926,30.273,0
1583343627.552,18.066,31.738,35.156,18.066,120.117,0
1583343627.556,11.719,28.809,37.598,25.879,79.590,0
1583343627.560,43.945,31.250,37.109,36.621,42.969,0
1583343627.564,54.688,39.551,32.715,28.320,54.688,0
1583343627.568,26.855,41.504,28.320,15.137,4.395,0
1583343627.572,12.207,42.969,27.344,19.043,7.324,0
1583343627.575,20.020,48.340,24.902,15.137,46.387,0
1583343627.579,32.227,50.293,21.484,1.953,42.969,0
1583343627.583,23.438,52.734,17.578,-5.859,36.621,0
1583343627.587,9.277,58.105,17.090,-6.348,2.930,0
1583343627.591,16.113,58.594,19.043,1.465,-19.043,1
1583343627.608,38.086,55.176,15.137,6.348,-19.531,0
1583343627.612,36.133,57.129,16.113,5.371,-7.324,0
1583343627.616,3.906,56.152,20.020,-7.812,5.859,0
1583343627.620,2.441,52.734,21.973,-7.812,10.254,0
1583343627.624,34.668,53.711,23.926,7.324,8.301,0
1583343627.628,48.828,53.223,25.391,14.160,-3.906,0
1583343627.632,28.320,51.758,26.855,9.766,38.086,0
1583343627.635,9.766,51.758,26.367,4.395,64.941,0
1583343627.639,34.668,49.805,25.879,17.090,40.039,0
1583343627.643,65.430,53.223,31.738,33.203,25.879,0
1583343627.647,48.828,52.734,32.227,28.320,16.602,0
1583343627.651,20.508,48.340,30.273,19.531,30.273,0
1583343627.648,25.391,43.945,30.762,14.160,-5.859,0
1583343627.652,52.246,41.504,30.273,21.973,11.230,0
1583343627.656,50.781,44.434,31.250,21.484,47.852,0
1583343627.660,21.484,42.969,30.273,10.254,54.199,0
1583343627.664,24.902,41.992,30.273,9.766,89.355,0
1583343627.668,60.059,47.363,36.133,22.949,41.504,0
1583343627.672,65.430,49.316,39.551,31.738,2.930,0
1583343627.675,33.203,44.434,38.086,16.602,44.922,0
1583343627.679,20.508,41.016,37.109,9.766,25.391,0
1583343627.683,47.363,39.062,37.109,20.996,33.691,0
1583343627.687,61.523,39.551,39.062,18.555,44.434,0
1583343627.691,40.039,40.039,39.551,17.090,28.320,0
1583343627.689,24.902,37.109,37.598,21.973,32.227,0
1583343627.693,48.340,37.598,39.551,35.645,88.867,0
1583343627.697,73.242,40.039,39.062,41.992,94.238,0
1583343627.701,51.270,39.062,35.156,27.832,-13.672,0
1583343627.705,26.855,39.062,31.738,23.438,6.348,0
1583343627.709,37.109,39.551,33.203,27.344,-0.488,0
1583343627.713,56.152,38.574,33.691,24.902,-20.020,0
1583343627.716,57.617,41.504,35.156,24.414,59.082,0
1583343627.720,32.227,42.480,36.621,22.461,9.277,0
1583343627.724,20.996,37.598,33.203,17.578,-31.738,0
1583343627.728,52.734,35.156,30.762,28.809,-35.645,0
1583343627.732,59.570,36.133,31.250,30.762,-24.902,0
1583343627.748,28.320,38.574,30.273,12.207,16.113,0
1583343627.752,12.207,41.504,33.691,2.930,-45.410,0
1583343627.756,35.156,40.039,35.645,12.207,-57.129,0
1583343627.760,56.152,39.062,37.598,22.949,4.395,0
1583343627.764,29.297,37.598,39.062,19.531,2.441,0
1583343627.768,1.953,35.156,36.133,12.207,39.551,0
1583343627.772,13.672,35.156,36.621,18.066,48.340,0
1583343627.775,39.062,31.738,35.156,20.020,5.371,0
1583343627.779,34.668,31.250,36.621,12.695,-1.953,0
1583343627.783,15.625,35.156,39.551,16.113,8.789,0
1583343627.787,20.996,36.133,41.504,20.508,52.246,0
1583343627.791,42.969,35.156,41.992,26.855,40.039,0
1583343627.788,52.246,38.086,43.945,31.738,12.695,0
1583343627.792,34.180,37.109,41.016,23.926,35.156,0
1583343627.796,34.180,37.109,31.250,26.855,41.992,0
1583343627.800,71.289,36.133,33.691,46.875,24.902,0
1583343627.804,57.617,31.738,44.434,43.945,93.262,0
1583343627.808,0.977,27.832,47.852,18.555,70.801,0
1583343627.812,-13.672,20.508,46.875,4.395,-8.789,0
1583343627.815,15.625,20.020,47.363,11.719,30.273,0
1583343627.819,33.691,21.973,49.805,14.648,85.938,0
1583343627.823,9.277,21.484,50.293,3.906,88.867,0
1583343627.827,-20.996,19.531,46.387,-3.906,90.820,0
1583343627.831,0.488,17.578,42.480,0.977,51.270,0
1583343627.829,38.574,19.531,39.551,16.113,-42.480,0
1583343627.833,26.855,23.926,41.016,16.602,-42.969,0
1583343627.837,-6.348,25.879,45.410,15.625,-5.859,0
1583343627.841,-0.488,24.414,44.434,20.996,16.113,0
1583343627.845,34.180,27.344,45.898,26.855,17.090,0
1583343627.849,39.551,31.738,48.340,31.738,-19.043,0
1583343627.853,14.648,33.203,47.852,20.020,14.160,0
1583343627.856,9.277,35.645,48.828,14.648,52.246,0
1583343627.860,30.762,31.738,44.922,20.996,44.434,0
1583343627.864,39.551,28.809,41.504,21.973,47.363,0
1583343627.868,19.531,31.250,41.992,19.531,59.570,0
1583343627.872,5.371,31.738,43.457,20.508,84.473,0
1583343627.889,28.320,31.250,44.922,30.273,39.551,0
1583343627.893,52.246,33.691,44.922,33.691,24.902,0
1583343627.897,41.016,34.668,44.434,28.809,48.340,0
1583343627.901,24.414,36.621,45.898,25.391,58.105,0
1583343627.905,35.156,36.621,46.875,26.367,49.805,0
1583343627.909,53.711,32.715,42.969,39.551,19.531,0
1583343627.913,46.387,35.156,41.504,39.551,-22.461,0
1583343627.916,21.973,35.156,41.504,22.461,-26.855,0
1583343627.920,26.367,31.738,38.086,23.926,34.668,0
1583343627.924,60.547,36.133,43.945,34.180,44.922,0
1583343627.928,67.383,41.016,47.852,45.410,3.906,0
1583343627.932,32.715,37.598,41.504,40.039,52.246,0
1583343627.929,21.973,34.668,41.504,21.973,125.977,0
1583343627.933,51.758,36.133,42.480,26.855,112.305,0
1583343627.937,61.035,37.109,43.945,33.691,20.996,0
1583343627.941,33.691,34.668,43.457,31.738,-5.859,0
1583343627.945,11.719,35.156,41.992,24.902,29.785,0
1583343627.949,25.879,36.621,42.480,21.484,8.789,0
1583343627.953,50.781,38.086,42.480,27.832,9.766,0
1583343627.956,36.133,40.527,47.363,29.785,79.102,0
1583343627.960,9.766,39.062,45.410,17.578,110.840,0
1583343627.964,16.602,37.598,39.062,14.160,82.520,0
1583343627.968,43.945,36.621,39.551,22.461,35.156,0
1583343627.972,46.387,37.109,40.527,23.438,30.762,0
1583343627.969,20.996,39.062,44.922,21.484,27.344,0
1583343627.973,20.508,38.574,47.852,28.320,-30.273,0
1583343627.977,40.527,35.156,42.969,36.133,1.953,0
1583343627.981,45.898,39.062,40.527,32.715,3.418,0
1583343627.985,31.738,45.410,44.922,28.809,2.441,0
1583343627.989,20.996,40.527,41.504,21.484,5.859,0
1583343627.993,38.086,35.645,35.645,21.484,-9.766,0
1583343627.996,56.152,36.621,38.086,27.832,-15.625,0
1583343628.000,35.645,38.086,41.992,15.625,21.484,0
1583343628.004,16.602,35.645,39.551,7.324,59.570,0
1583343628.008,35.156,35.156,36.621,14.160,-7.812,0
1583343628.012,57.129,35.645,38.086,25.391,-9.277,0
1583343628.029,49.805,35.645,42.480,27.344,43.457,0
1583343628.033,20.508,36.133,40.527,20.508,97.168,0
1583343628.037,22.949,34.668,34.668,16.113,68.848,0
1583343628.041,50.781,33.691,34.668,24.902,25.391,0
1583343628.045,49.316,34.668,38.086,25.879,9.277,0
1583343628.049,20.508,36.621,41.504,21.484,-14.160,0
1583343628.053,13.184,38.574,40.039,21.484,-0.977,0
1583343628.056,42.480,38.574,36.621,25.391,13.184,0
1583343628.060,55.176,34.668,34.668,24.414,15.625,0
1583343628.064,25.391,31.250,33.691,18.555,36.133,0
1583343628.068,11.719,35.156,38.086,23.926,70.312,0
1583343628.072,33.691,36.133,39.551,27.344,42.480,0
1583343628.069,50.781,30.762,36.133,27.832,-6.836,0
1583343628.073,31.250,30.273,37.109,22.949,43.457,0
1583343628.077,7.324,31.250,39.062,19.531,20.020,0
1583343628.081,17.578,28.809,37.598,21.973,7.812,0
1583343628.085,40.039,30.273,34.180,26.855,62.012,0
1583343628.089,31.738,32.715,34.668,24.414,44.922,0
1583343628.093,7.324,36.133,38.574,20.996,49.805,0
1583343628.096,15.137,36.133,41.504,23.926,63.477,0
1583343628.100,43.945,32.715,39.062,29.297,-12.695,0
1583343628.104,45.410,33.691,39.551,24.902,3.906,0
1583343628.108,15.625,32.715,39.062,7.324,45.898,0
1583343628.112,7.324,28.809,36.133,5.859,34.180,0
1583343628.109,33.203,28.320,34.668,17.090,2.930,0
1583343628.113,48.340,29.785,35.156,23.926,-0.488,0
1583343628.117,22.461,30.273,36.133,20.508,61.035,0
1583343628.121,6.836,34.180,39.062,17.090,72.754,0
1583343628.125,32.227,38.086,42.480,30.273,29.297,0
1583343628.129,50.293,33.691,40.039,35.156,-0.488,0
1583343628.133,29.785,28.320,37.598,19.531,-17.578,0
1583343628.136,5.371,28.320,37.598,17.578,-21.973,0
1583343628.140,16.602,31.250,38.574,19.043,24.414,0
1583343628.144,44.922,30.762,38.574,15.137,29.785,0
1583343628.148,41.504,32.715,39.551,18.066,17.090,0
1583343628.152,13.184,33.203,40.527,12.695,63.477,0
1583343628.169,8.789,33.203,42.480,21.973,44.434,0
1583343628.173,37.598,34.668,40.527,31.738,15.625,0
1583343628.177,42.480,30.762,34.668,21.973,0.977,0
1583343628.181,13.184,28.320,35.156,19.531,9.277,0
1583343628.185,0.977,27.344,38.086,21.484,49.316,0
1583343628.189,22.461,29.785,40.527,27.344,22.461,0
1583343628.193,43.457,33.203,41.016,24.414,-43.457,0
1583343628.196,28.320,31.250,42.480,14.160,-22.949,0
1583343628.200,3.906,29.785,40.039,10.254,39.062,0
1583343628.204,23.926,30.273,35.156,8.789,35.156,0
1583343628.208,47.852,26.855,37.109,13.672,52.246,0
1583343628.212,33.691,32.227,41.504,11.230,70.312,0
1583343628.209,9.766,34.668,41.504,9.277,38.086,0
1583343628.213,12.207,28.320,36.621,14.648,37.109,0
1583343628.217,40.527,27.344,37.109,11.719,56.152,0
1583343628.221,38.574,28.320,38.574,8.301,-10.254,0
1583343628.225,16.113,28.809,39.062,2.441,14.648,0
1583343628.229,15.137,27.344,39.062,7.812,-14.648,0
1583343628.233,40.039,27.832,34.668,23.926,-24.902,0
1583343628.236,51.270,28.320,34.180,22.461,28.320,0
1583343628.240,32.715,31.738,37.598,16.602,8.301,0
1583343628.244,19.043,32.227,41.016,12.207,52.734,0
1583343628.248,35.156,27.832,39.062,15.625,53.711,0
1583343628.252,53.711,25.879,35.156,23.438,-14.648,0
1583343628.249,38.086,27.832,35.156,22.461,-12.207,0
1583343628.253,15.625,27.832,36.133,20.508,40.527,0
1583343628.257,26.367,27.344,38.086,19.531,36.133,0
1583343628.261,53.223,29.785,37.109,18.066,21.484,0
1583343628.265,43.457,29.297,33.691,15.625,42.480,0
1583343628.269,14.160,28.809,37.598,11.719,56.641,0
1583343628.273,21.484,32.227,40.039,8.301,34.668,0
1583343628.276,41.016,29.297,35.156,3.906,70.312,0
1583343628.280,33.691,28.320,34.180,-0.977,22.461,0
1583343628.284,10.742,29.785,34.180,-0.977,-40.039,0
1583343628.288,5.859,28.320,32.227,-2.441,33.691,0
1583343628.292,29.785,27.832,28.809,0.977,30.762,0
1583343628.309,35.645,28.320,33.203,0.000,15.137,0
1583343628.313,11.719,31.738,40.039,-1.953,20.020,0
1583343628.317,-2.930,30.273,38.086,-3.906,-5.371,0
1583343628.321,20.508,26.367,33.691,1.953,-9.277,0
1583343628.325,38.574,25.391,35.156,7.324,-17.090,0
1583343628.329,12.695,27.344,33.691,1.953,4.883,0
1583343628.333,-8.301,27.832,34.668,-5.859,77.148,0
1583343628.336,9.766,24.902,33.203,-3.418,63.477,0
1583343628.340,30.762,24.902,32.227,8.789,29.785,0
1583343628.344,21.484,28.320,34.668,5.859,24.414,0
1583343628.348,0.488,33.691,36.621,-7.324,30.273,0
1583343628.352,9.277,38.574,38.574,-7.324,27.344,0
1583343628.350,38.574,33.691,33.691,7.812,5.371,0
1583343628.354,39.062,27.344,33.203,7.812,8.789,0
1583343628.358,9.277,27.832,32.227,0.977,56.641,0
1583343628.362,4.395,31.250,31.250,4.883,55.176,0
1583343628.366,31.250,31.738,32.715,11.719,55.176,0
1583343628.370,39.062,31.250,33.203,16.113,103.027,0
1583343628.374,11.230,32.715,36.133,9.277,18.555,0
1583343628.377,-4.883,35.156,40.039,7.324,16.602,0
1583343628.381,21.973,33.691,40.527,12.695,76.660,0
1583343628.385,42.480,32.715,39.551,17.090,47.852,0
1583343628.389,27.344,31.738,40.527,14.648,28.320,0
1583343628.393,11.719,30.273,39.062,9.766,18.066,0
1583343628.389,27.344,33.691,36.133,10.254,15.625,0
1583343628.393,54.199,35.156,35.156,8.789,17.090,0
1583343628.397,48.340,31.250,37.598,6.348,32.715,0
1583343628.401,18.555,29.297,38.086,5.371,42.480,0
1583343628.405,13.184,31.738,38.574,8.301,33.203,0
1583343628.409,40.527,35.645,42.480,19.043,41.992,0
1583343628.413,37.598,32.227,39.062,15.137,32.715,0
1583343628.416,-2.441,28.320,32.715,-0.977,-11.719,0
1583343628.420,-5.371,29.297,31.250,-2.930,-15.137,0
1583343628.424,29.785,32.227,34.668,6.836,13.672,0
1583343628.428,39.551,30.273,36.133,13.184,-4.395,0
1583343628.432,16.113,26.367,34.180,12.695,11.230,0
1583343628.449,-5.859,27.832,36.133,9.277,-27.832,0
1583343628.453,10.742,29.785,38.574,9.277,-22.949,0
1583343628.457,37.598,30.273,37.109,18.555,10.254,0
1583343628.461,22.461,29.785,33.691,22.461,46.875,0
1583343628.465,-1.465,28.809,31.250,13.184,93.750,0
1583343628.469,11.230,32.715,33.691,13.672,82.031,0
1583343628.473,40.527,34.180,35.156,25.879,33.203,0
1583343628.476,34.180,26.367,31.250,19.043,8.301,0
1583343628.480,8.301,23.926,31.250,4.883,46.875,0
1583343628.484,5.859,25.391,30.762,8.789,39.062,0
1583343628.488,26.367,27.832,32.227,24.414,59.570,0
1583343628.492,30.273,28.320,31.250,18.066,60.059,0
1583343628.489,6.348,26.367,26.367,5.859,52.734,0
1583343628.493,0.977,28.320,30.273,10.254,78.613,0
1583343628.497,29.297,31.250,37.109,8.789,74.219,0
1583343628.501,43.457,29.785,36.621,13.672,36.621,0
1583343628.505,19.531,29.785,35.156,11.719,9.766,0
1583343628.509,-3.418,32.227,35.645,3.906,28.320,0
1583343628.513,14.648,29.785,34.668,14.648,60.059,0
1583343628.516,46.387,28.809,33.691,24.902,46.875,0
1583343628.520,39.551,27.832,31.250,14.648,21.484,0
1583343628.524,6.836,29.785,30.762,5.859,13.672,0
1583343628.528,9.277,30.273,30.762,7.812,20.508,0
1583343628.532,45.410,26.855,28.809,12.207,20.996,0
1583343628.528,41.992,28.320,30.273,14.160,11.719,0
1583343628.532,8.789,28.809,32.227,12.207,-16.602,0
1583343628.536,7.812,26.855,30.762,14.160,30.273,0
1583343628.540,33.203,22.461,26.367,24.414,4.395,0
1583343628.544,43.945,21.484,25.879,27.344,21.484,0
1583343628.548,19.043,25.879,26.367,18.066,50.293,0
1583343628.552,6.348,28.809,24.902,13.184,8.789,0
1583343628.555,26.367,28.320,24.902,15.137,21.973,0
1583343628.559,50.781,30.762,26.367,23.438,34.180,0
1583343628.563,41.992,35.156,28.809,19.531,4.883,0
1583343628.567,14.160,31.738,28.320,6.348,4.395,0
1583343628.571,27.344,29.785,25.879,13.672,14.648,0
1583343628.588,48.828,28.320,25.879,23.438,-24.414,0
1583343628.592,35.645,27.344,26.855,15.625,5.859,0
1583343628.596,17.090,31.250,28.320,4.395,-16.113,0
1583343628.600,25.879,33.691,29.785,13.184,-2.930,0
1583343628.604,51.758,31.738,30.273,30.273,57.129,0
1583343628.608,46.875,30.762,33.691,27.344,23.438,0
1583343628.612,19.531,30.273,38.574,13.672,39.062,0
1583343628.615,20.508,33.203,39.062,17.578,8.789,0
1583343628.619,41.504,29.297,34.180,22.461,-22.461,0
1583343628.623,48.828,22.949,29.297,21.973,67.871,0
1583343628.627,25.391,27.344,31.250,24.902,48.340,0
1583343628.631,7.324,26.367,31.738,19.531,19.531,0
1583343628.628,23.926,23.438,31.250,20.996,69.336,0
1583343628.632,45.898,24.414,34.668,24.414,41.992,0
1583343628.636,33.203,25.879,35.645,19.043,24.414,0
1583343628.640,12.695,30.273,35.156,17.578,64.453,0
1583343628.644,21.973,31.250,34.180,27.832,46.875,0
1583343628.648,46.387,33.691,37.598,32.715,29.297,0
1583343628.652,41.016,35.156,41.016,28.809,29.785,0
1583343628.655,10.742,29.785,37.109,18.066,27.832,0
1583343628.659,11.230,25.879,34.180,9.277,-1.465,3
1583343628.663,42.480,26.855,36.621,11.719,-17.090,0
1583343628.667,47.852,30.762,37.109,16.113,38.086,0
1583343628.671,19.043,31.738,34.668,16.602,71.777,0
1583343628.668,11.230,29.785,34.668,13.672,28.809,0
1583343628.672,41.016,33.203,36.621,22.461,32.715,0
1583343628.676,50.781,35.156,35.645,26.855,44.922,0
1583343628.680,23.926,32.227,32.715,7.324,-17.578,0
1583343628.684,7.324,33.203,33.691,4.883,-42.969,0
1583343628.688,21.973,34.180,36.133,22.949,-57.617,0
1583343628.692,47.852,33.203,39.062,25.879,-20.020,0
1583343628.695,35.156,34.668,41.016,18.555,15.137,0
1583343628.699,7.324,31.738,42.480,11.230,37.598,0
1583343628.703,22.461,32.715,42.969,13.672,18.555,0
1583343628.707,52.734,37.109,41.992,27.832,19.043,0
1583343628.711,45.898,32.715,38.574,28.320,59.082,0
1583343628.728,10.742,29.785,34.668,15.137,13.184,0
1583343628.732,16.113,33.203,35.156,13.672,58.594,0
1583343628.736,45.410,34.180,36.621,23.926,110.352,0
1583343628.740,45.898,33.691,33.691,25.391,80.078,0
1583343628.744,17.090,34.668,31.738,16.113,54.199,0
1583343628.748,1.465,35.645,32.715,8.789,30.762,0
1583343628.752,22.461,34.668,35.645,6.348,-6.348,0
1583343628.755,42.969,35.645,37.598,17.090,3.906,0
1583343628.759,23.438,36.133,36.133,19.531,21.484,0
1583343628.763,0.977,33.203,37.109,9.766,22.949,0
1583343628.767,14.648,31.738,35.645,10.254,17.090,0
1583343628.771,36.621,31.738,31.250,17.578,42.969,0
1583343628.768,23.926,32.715,33.203,18.555,24.414,0
1583343628.772,1.465,31.250,32.715,17.090,-15.625,0
1583343628.776,10.254,27.832,31.738,24.414,16.113,0
1583343628.780,35.645,29.297,33.203,23.926,32.227,0
1583343628.784,39.551,33.691,35.645,13.672,29.297,0
1583343628.788,17.090,30.273,39.062,14.648,62.012,0
1583343628.792,9.766,23.926,34.180,17.090,60.059,0
1583343628.795,32.715,22.949,30.273,17.090,55.176,0
1583343628.799,43.457,25.879,32.227,17.578,38.086,0
1583343628.803,20.020,29.785,34.180,6.836,-13.184,0
1583343628.807,3.418,27.344,33.691,5.371,8.789,0
1583343628.811,29.297,27.832,33.691,21.484,20.020,0
1583343628.808,53.711,29.785,33.203,29.297,45.898,0
1583343628.812,34.180,33.691,38.574,21.973,38.086,0
1583343628.816,12.695,36.133,40.527,10.254,-24.414,0
1583343628.820,22.461,30.273,31.250,13.184,-49.805,0
1583343628.824,40.039,26.367,28.320,20.020,-9.766,0
1583343628.828,28.320,30.273,31.738,13.184,22.949,0
1583343628.832,5.859,31.250,32.227,7.812,60.547,0
1583343628.835,10.742,31.250,35.645,2.441,66.406,0
1583343628.839,44.922,31.738,35.156,5.859,48.340,0
1583343628.843,55.664,30.762,33.203,17.090,33.691,0
1583343628.847,23.438,29.785,33.203,13.184,11.230,0
1583343628.851,16.113,30.273,33.691,16.602,45.410,0
1583343628.869,42.480,34.180,37.598,20.020,38.574,0
1583343628.873,43.945,30.273,34.668,11.719,14.648,0
1583343628.877,16.113,27.832,30.762,7.324,4.395,0
1583343628.881,4.883,30.762,31.250,4.395,1.465,0
1583343628.885,25.391,34.180,30.273,7.324,-1.465,0
1583343628.889,45.410,34.180,28.809,10.742,66.895,0
1583343628.893,29.785,32.715,30.273,11.230,85.938,0
1583343628.896,3.906,33.203,30.762,6.836,45.410,0
1583343628.900,18.066,31.250,32.227,14.648,-1.953,0
1583343628.904,40.039,27.344,33.691,22.949,11.230,0
1583343628.908,24.902,28.320,34.668,13.184,66.895,0
1583343628.912,-0.488,32.715,37.598,5.859,7.812,0
1583343628.909,11.230,30.273,35.156,7.812,-16.602,0
1583343628.913,40.527,26.855,29.297,17.090,36.621,0
1583343628.917,43.457,26.367,29.297,20.996,55.664,0
1583343628.921,19.043,28.809,34.180,13.184,51.270,0
1583343628.925,14.648,30.273,36.621,15.137,1.953,0
1583343628.929,42.480,27.832,36.133,26.367,13.184,0
1583343628.933,55.664,27.832,32.715,28.320,57.129,0
1583343628.936,29.785,28.809,31.738,20.508,20.020,0
1583343628.940,3.906,30.762,34.180,15.625,61.523,0
1583343628.944,23.926,32.227,36.621,15.137,57.617,0
1583343628.948,53.223,32.715,34.668,16.113,7.812,0
1583343628.952,33.203,28.809,28.809,11.230,58.105,0
1583343628.949,6.348,27.344,29.297,5.859,22.949,0
1583343628.953,18.555,29.297,33.203,19.531,-19.531,0
1583343628.957,44.922,28.320,33.203,28.320,-13.672,0
1583343628.961,42.969,30.273,33.203,28.809,-35.645,0
1583343628.965,18.066,33.691,35.645,21.484,-41.504,0
1583343628.969,12.695,28.809,33.203,19.531,-6.836,0
1583343628.973,39.062,25.879,30.273,25.879,66.895,0
1583343628.976,43.457,27.832,32.715,22.461,42.969,0
1583343628.980,19.531,28.809,34.668,16.602,9.766,0
1583343628.984,17.090,29.785,36.133,16.113,28.809,0
1583343628.988,41.504,30.273,36.133,18.555,34.180,0
1583343628.992,50.293,30.762,35.156,24.414,-2.441,0
1583343629.011,28.320,31.738,34.180,24.902,-43.945,0
1583343629.015,18.555,34.668,34.180,19.043,-4.883,0
1583343629.019,40.527,38.086,37.598,23.926,-4.395,0
1583343629.023,58.105,33.691,35.645,28.320,7.812,0
1583343629.027,35.645,31.250,31.738,17.578,29.297,0
1583343629.031,10.254,33.203,32.715,9.277,-8.301,0
1583343629.035,20.996,32.715,33.691,17.090,23.438,0
1583343629.038,50.293,29.785,32.715,26.855,32.227,0
1583343629.042,51.270,28.809,34.180,27.832,46.875,0
1583343629.046,18.555,29.785,34.180,21.973,32.715,0
1583343629.050,5.371,30.762,32.715,22.949,14.160,0
1583343629.054,39.551,35.645,37.109,31.738,46.875,0
1583343629.049,54.688,38.086,41.016,31.250,64.941,0
1583343629.053,28.320,34.180,39.062,17.090,32.715,0
1583343629.057,14.160,33.691,37.109,18.555,-33.691,0
1583343629.061,30.273,33.691,37.109,28.320,-19.043,0
1583343629.065,48.828,30.273,36.621,20.508,28.320,0
1583343629.069,37.109,28.809,35.645,13.672,41.992,0
1583343629.073,11.719,33.203,34.668,10.742,40.527,0
1583343629.076,21.484,33.691,32.227,7.812,94.238,0
1583343629.080,51.270,32.715,38.086,24.414,96.680,0
1583343629.084,47.852,38.086,42.480,27.832,58.105,0
1583343629.088,22.461,37.109,38.574,7.812,-13.184,0
1583343629.092,23.438,30.273,35.645,4.883,-15.137,0
1583343629.089,42.969,27.344,34.180,8.789,83.008,0
1583343629.093,39.062,30.273,33.691,10.254,49.805,0
1583343629.097,13.184,31.250,34.180,9.766,32.227,0
1583343629.101,7.324,28.320,35.156,8.301,27.344,0
1583343629.105,40.527,26.367,37.109,14.648,7.812,0
1583343629.109,51.270,23.926,35.645,18.066,17.090,0
1583343629.113,27.832,29.785,38.574,19.043,4.395,0
1583343629.116,11.230,33.691,41.016,13.184,-10.742,0
1583343629.120,25.391,25.391,32.715,8.301,-29.297,0
1583343629.124,44.434,22.461,31.250,9.766,20.020,0
1583343629.128,33.203,25.879,32.715,6.836,20.996,0
1583343629.132,7.324,27.344,32.227,12.207,35.156,0
1583343629.149,12.695,24.902,30.273,11.230,99.121,0
1583343629.153,42.480,25.391,28.320,16.113,40.527,0
1583343629.157,35.645,27.344,27.344,20.508,-31.738,0
1583343629.161,11.719,29.297,25.391,10.254,21.973,0
1583343629.165,17.578,35.156,29.297,5.371,-0.488,0
1583343629.169,37.598,30.762,29.785,16.113,-13.184,0
1583343629.173,33.691,26.367,28.809,20.996,66.406,0
1583343629.176,9.766,28.809,30.273,10.254,42.480,0
1583343629.180,4.883,30.273,32.715,9.277,5.371,0
1583343629.184,32.715,28.320,32.715,19.531,46.387,0
1583343629.188,44.434,27.832,31.250,13.672,77.637,0
1583343629.192,19.531,29.297,32.715,3.418,75.195,0
1583343629.189,7.324,32.715,37.598,7.324,34.668,0
1583343629.193,24.902,32.227,37.598,4.395,23.438,0
1583343629.197,39.062,24.902,30.762,2.930,11.719,0
