timestamps,TP9,AF7,AF8,TP10,Right AUX,Marker0
1583500882.003,52.734,27.344,26.855,10.254,60.059,0
1583500882.007,60.059,24.414,24.902,10.254,-8.301,0
1583500882.011,63.477,27.832,25.391,7.324,19.531,0
1583500882.015,66.895,28.320,24.902,3.418,69.336,0
1583500882.019,69.824,29.785,25.391,8.789,49.805,0
1583500882.023,68.848,31.738,26.367,11.719,25.879,0
1583500882.026,67.383,32.715,26.855,11.230,32.227,0
1583500882.030,61.523,35.645,28.809,5.859,79.102,0
1583500882.034,46.387,33.691,27.344,4.883,78.125,0
1583500882.038,28.809,32.715,27.832,12.695,60.547,0
1583500882.042,24.414,39.062,33.691,9.277,2.930,0
1583500882.046,17.578,37.598,29.785,-0.488,32.715,0
1583500882.044,0.977,32.715,27.344,-2.441,79.102,0
1583500882.048,-9.766,32.227,33.691,4.883,76.172,0
1583500882.052,-17.578,31.738,32.715,10.742,90.332,0
1583500882.056,-25.391,32.227,31.250,5.371,66.406,0
1583500882.060,-36.133,30.762,34.180,4.883,51.270,0
1583500882.064,-36.133,32.715,32.715,7.812,50.781,0
1583500882.067,-35.156,35.156,26.855,8.301,3.418,0
1583500882.071,-43.945,33.203,25.879,7.324,-2.441,0
1583500882.075,-41.992,33.691,31.738,3.418,25.391,0
1583500882.079,-33.691,35.645,29.297,3.906,30.762,0
1583500882.083,-27.832,36.133,27.832,10.254,31.738,0
1583500882.087,-23.438,37.598,32.715,10.254,-35.156,0
1583500882.103,-18.555,35.156,25.879,0.977,-5.859,0
1583500882.107,-6.348,32.715,23.438,1.465,89.844,0
1583500882.111,-9.277,27.832,25.391,6.836,62.988,0
1583500882.115,-20.020,25.391,24.414,0.488,56.152,0
1583500882.119,-21.484,31.738,25.391,-6.348,33.203,0
1583500882.123,-20.996,33.691,24.902,1.465,36.621,0
1583500882.126,-22.461,33.203,26.367,11.230,61.523,0
1583500882.130,-22.461,33.691,27.344,9.277,61.523,0
1583500882.134,-15.625,32.227,25.879,0.977,52.734,0
1583500882.138,-11.719,34.180,27.832,0.977,37.598,0
1583500882.142,-8.789,36.621,28.809,13.672,8.301,0
1583500882.146,-7.324,38.574,32.227,21.484,-45.898,0
1583500882.143,-5.859,36.621,33.203,13.672,-40.039,0
1583500882.147,-5.371,35.156,32.227,7.324,29.785,0
1583500882.151,-11.230,33.691,33.691,7.812,34.180,0
1583500882.155,-15.625,27.832,30.762,9.766,20.996,0
1583500882.159,-18.555,26.367,33.203,11.230,54.688,0
1583500882.163,-22.949,28.320,34.668,7.812,57.129,0
1583500882.166,-25.879,26.855,32.715,2.441,31.250,0
1583500882.170,-27.832,26.367,29.785,6.348,5.859,0
1583500882.174,-34.180,25.879,29.785,9.277,41.016,0
1583500882.178,-34.668,23.438,30.762,5.859,77.637,0
1583500882.182,-31.250,26.855,30.762,1.953,58.105,0
1583500882.186,-35.156,28.320,28.809,0.488,62.012,0
1583500882.183,-28.809,26.367,26.367,8.789,81.055,0
1583500882.187,-15.625,27.832,29.297,11.719,48.340,0
1583500882.191,-10.254,29.297,27.344,7.324,34.668,0
1583500882.195,-7.324,24.902,24.414,7.324,71.777,0
1583500882.199,0.977,21.973,26.855,7.812,53.711,0
1583500882.203,8.301,22.949,30.762,9.766,44.922,0
1583500882.206,3.418,20.508,32.227,9.277,25.879,0
1583500882.210,-1.465,17.090,29.297,12.695,35.645,0
1583500882.214,-1.465,16.602,30.273,16.113,100.098,0
1583500882.218,-4.395,15.625,31.250,5.859,49.805,0
1583500882.222,-4.395,13.184,27.344,6.836,60.547,0
1583500882.226,4.395,12.695,24.902,8.301,45.898,0
1583500882.243,18.555,14.648,25.879,13.672,-15.137,0
1583500882.247,21.973,16.602,28.809,18.066,-6.836,0
1583500882.251,18.066,13.672,25.391,3.418,17.578,0
1583500882.255,13.184,11.230,24.414,0.977,73.242,0
1583500882.259,3.906,12.695,25.391,10.254,104.492,0
1583500882.263,-8.301,14.648,27.344,14.160,40.039,0
1583500882.266,-18.066,13.184,32.715,13.184,27.344,0
1583500882.270,-27.344,12.695,35.156,4.883,-13.672,0
1583500882.274,-38.086,13.184,29.785,8.789,-32.227,0
1583500882.278,-30.273,13.672,28.320,18.066,17.578,0
1583500882.282,-4.883,13.672,31.250,14.648,25.879,0
1583500882.286,12.695,15.137,35.156,9.766,4.395,0
1583500882.284,20.508,16.602,35.645,7.324,17.090,0
1583500882.288,31.738,12.695,32.715,8.301,62.500,0
1583500882.292,39.551,13.184,32.715,9.766,66.895,0
1583500882.296,38.574,16.602,33.691,5.859,36.133,0
1583500882.300,28.809,13.672,30.762,-0.488,16.113,0
1583500882.304,20.508,9.766,28.320,-1.465,-11.230,0
1583500882.307,14.648,9.277,28.320,4.395,23.926,0
1583500882.311,4.883,7.812,26.367,-0.488,16.113,0
1583500882.315,-5.859,5.371,24.414,-6.836,-8.789,0
1583500882.319,-9.766,9.277,26.367,5.859,56.152,0
1583500882.323,-7.324,13.672,28.809,11.719,31.250,0
1583500882.327,-9.766,8.301,24.902,3.906,12.207,0
1583500882.323,-5.859,3.906,22.949,1.465,4.395,0
1583500882.327,-0.488,3.418,21.973,5.371,-43.457,0
1583500882.331,6.348,2.930,23.438,14.160,-31.250,0
1583500882.335,16.113,0.000,24.902,13.184,-2.930,0
1583500882.339,16.113,-10.254,20.508,0.488,-3.906,0
1583500882.343,19.043,-12.695,23.926,-1.953,-8.301,0
1583500882.346,19.531,-9.766,24.414,4.395,3.418,0
1583500882.350,17.578,-8.301,21.484,1.465,-19.531,0
1583500882.354,22.461,-6.348,22.949,-7.812,3.418,0
1583500882.358,20.020,-7.812,19.531,-13.672,39.062,0
1583500882.362,14.648,-9.766,14.160,-10.742,28.320,0
1583500882.366,17.090,-7.812,17.578,-4.395,-17.578,0
1583500882.383,20.020,-7.812,20.996,-5.859,-3.418,0
1583500882.387,21.484,-0.488,23.438,-4.395,8.301,0
1583500882.391,17.090,2.930,20.020,3.418,18.555,0
1583500882.395,13.672,1.465,16.602,3.906,36.133,0
1583500882.399,11.719,4.883,19.043,-2.441,18.555,0
1583500882.403,9.766,7.812,18.555,-7.812,20.020,0
1583500882.406,11.719,11.230,19.531,-4.883,25.879,0
1583500882.410,18.066,10.254,19.043,-0.977,26.367,0
1583500882.414,16.602,11.719,17.578,-5.859,6.348,0
1583500882.418,9.766,13.184,15.137,-14.160,-45.410,0
1583500882.422,6.348,10.254,12.695,-13.672,-18.066,0
1583500882.426,-2.441,13.672,17.578,-4.883,49.316,0
1583500882.423,-13.184,14.160,16.602,-6.348,37.109,0
1583500882.427,-12.695,13.672,12.695,-13.672,-1.465,0
1583500882.431,-7.324,19.043,16.602,-10.742,23.438,0
1583500882.435,0.977,21.973,16.602,-2.441,78.125,0
1583500882.439,11.719,21.973,15.625,0.000,55.176,0
1583500882.443,15.137,19.531,16.602,-2.441,38.574,0
1583500882.446,15.137,16.602,16.602,-5.371,42.969,0
1583500882.450,14.648,17.578,18.066,0.977,34.668,0
1583500882.454,16.113,22.949,20.508,4.395,52.246,0
1583500882.458,11.230,27.832,20.508,-3.418,21.484,0
1583500882.462,3.418,27.344,19.531,-9.277,-5.859,0
1583500882.466,-7.324,22.949,16.602,-8.789,38.574,0
1583500882.463,-17.578,23.438,14.648,-5.371,43.457,0
1583500882.467,-23.438,24.902,15.137,-8.301,28.320,0
1583500882.471,-27.832,26.855,15.137,-12.695,74.219,0
1583500882.475,-36.133,27.832,13.184,-10.742,18.555,0
1583500882.479,-46.387,26.367,12.695,-9.277,-25.879,0
1583500882.483,-52.734,22.461,13.672,-7.812,42.969,0
1583500882.486,-57.129,18.066,11.230,-13.672,17.578,0
1583500882.490,-59.082,17.578,10.742,-17.578,-3.906,0
1583500882.494,-63.477,18.555,13.184,-14.160,13.184,0
1583500882.498,-63.965,16.113,9.766,-13.672,16.602,0
1583500882.502,-63.477,20.508,11.230,-13.672,4.395,0
1583500882.506,-59.082,22.461,11.230,-24.414,38.086,0
1583500882.523,-50.293,20.996,7.812,-21.484,73.730,0
1583500882.527,-59.570,22.949,6.836,-12.695,0.000,0
1583500882.531,-68.848,18.066,2.930,-22.949,8.301,0
1583500882.535,-65.918,13.184,1.465,-26.855,60.547,0
1583500882.539,-69.336,16.113,3.418,-24.902,7.324,0
1583500882.543,-85.938,18.066,3.906,-15.137,42.480,0
1583500882.546,-91.797,19.043,6.348,-9.277,74.707,0
1583500882.550,-95.703,18.066,8.301,-19.043,29.785,0
1583500882.554,-104.980,17.090,6.348,-20.508,32.227,0
1583500882.558,-89.355,17.578,9.277,-15.625,26.367,0
1583500882.562,-65.430,16.113,8.789,-12.207,0.488,0
1583500882.566,-51.758,15.137,5.371,-13.184,-2.930,0
1583500882.564,-39.551,15.625,7.812,-17.090,33.691,0
1583500882.568,-22.461,18.066,15.137,-5.859,15.625,0
1583500882.572,-11.719,18.066,15.137,-5.859,37.109,0
1583500882.576,-6.836,15.625,8.301,-17.090,62.500,0
1583500882.580,2.930,16.602,10.254,-15.137,70.801,0
1583500882.584,16.113,17.090,11.719,-11.230,53.223,0
1583500882.587,23.926,14.648,9.277,-7.812,18.555,0
1583500882.591,27.832,12.695,10.742,-13.672,46.875,0
1583500882.595,35.645,15.625,12.207,-24.902,26.367,0
1583500882.599,46.875,21.484,15.625,-18.555,25.879,0
1583500882.603,56.152,23.438,17.578,-14.648,19.043,0
1583500882.607,64.941,21.484,13.672,-18.066,16.602,0
1583500882.603,65.430,23.438,15.625,-20.996,43.945,0
1583500882.607,50.293,24.902,17.578,-17.090,15.137,0
1583500882.611,35.645,22.461,18.066,-5.371,29.785,0
1583500882.615,20.996,24.414,16.113,-6.348,86.914,0
1583500882.619,1.465,27.832,16.113,-12.207,15.137,0
1583500882.623,-9.277,31.250,20.996,-9.277,-9.766,0
1583500882.626,-17.578,30.273,17.090,-5.371,18.066,0
1583500882.630,-34.180,23.438,13.672,-4.395,3.418,0
1583500882.634,-35.645,23.438,20.020,-12.207,19.531,0
1583500882.638,-31.250,21.973,19.043,-17.578,-36.133,0
1583500882.642,-37.598,20.996,18.066,-8.301,17.578,0
1583500882.646,-35.156,23.926,21.973,-0.977,54.688,0
1583500882.663,-24.414,25.879,22.461,1.953,8.789,0
1583500882.667,-16.602,26.855,19.531,-5.371,39.551,0
1583500882.671,-20.020,24.902,18.066,-7.812,59.570,0
1583500882.675,-23.926,25.879,20.020,-1.953,34.180,0
1583500882.679,-10.254,26.855,19.531,-0.977,29.785,0
1583500882.683,12.207,25.879,18.555,-1.465,38.086,0
1583500882.686,32.227,28.320,24.414,-0.977,-20.508,0
1583500882.690,46.875,29.785,23.926,4.883,2.930,0
1583500882.694,52.246,26.855,21.484,4.883,55.664,0
1583500882.698,60.547,24.414,24.902,-1.953,61.035,0
1583500882.702,70.312,24.414,25.879,-1.465,67.871,0
1583500882.706,82.031,26.855,28.809,9.766,33.203,0
1583500882.703,92.285,24.414,26.855,9.277,31.738,0
1583500882.707,97.168,18.555,22.461,-3.418,50.781,0
1583500882.711,98.633,17.578,24.414,-7.324,38.086,0
1583500882.715,99.121,17.578,23.926,-0.488,17.090,0
1583500882.719,101.074,16.602,23.926,5.371,63.965,0
1583500882.723,105.469,20.020,24.414,0.977,44.922,0
1583500882.726,103.027,26.367,21.973,-5.859,45.410,0
1583500882.730,87.891,28.809,20.508,-4.883,80.078,0
1583500882.734,72.754,28.320,18.066,5.859,22.461,0
1583500882.738,64.453,29.785,19.043,13.184,33.203,0
1583500882.742,62.988,33.691,23.438,9.766,14.648,0
1583500882.746,48.340,34.180,23.438,2.930,-41.992,0
1583500882.743,16.113,26.855,22.461,0.977,2.930,0
1583500882.747,-5.859,24.902,22.949,1.953,-3.906,0
1583500882.751,-18.555,25.879,23.438,1.953,-10.742,0
1583500882.755,-39.062,20.996,21.484,-5.371,22.461,0
1583500882.759,-58.594,27.832,19.043,-2.930,37.598,0
1583500882.763,-73.730,30.273,20.508,5.859,57.129,0
1583500882.766,-88.867,24.902,21.484,0.488,10.742,0
1583500882.770,-100.098,24.902,23.438,-2.930,-21.973,0
1583500882.774,-104.980,27.344,23.926,2.441,20.508,0
1583500882.778,-113.770,27.344,21.484,4.883,36.133,0
1583500882.782,-117.188,28.320,23.438,6.348,38.086,0
1583500882.786,-112.793,27.344,23.438,1.953,23.926,0
1583500882.803,-119.629,26.367,23.926,0.000,17.090,0
1583500882.807,-133.301,26.855,24.414,1.465,46.387,0
1583500882.811,-141.113,27.832,25.391,2.930,-25.391,0
1583500882.815,-145.996,29.297,25.879,4.883,-40.039,0
1583500882.819,-150.391,32.227,26.855,4.395,26.855,0
1583500882.823,-151.367,31.250,29.785,12.695,30.762,0
1583500882.826,-148.438,30.762,30.273,16.602,20.996,0
1583500882.830,-149.902,28.809,25.391,0.488,1.465,0
1583500882.834,-143.555,26.855,21.973,-1.953,35.645,0
1583500882.838,-130.371,27.344,21.484,9.277,-3.906,0
1583500882.842,-127.441,27.344,24.902,14.160,3.906,0
1583500882.846,-126.953,27.344,26.855,11.719,97.168,0
1583500882.843,-122.070,26.855,25.879,2.930,71.289,0
1583500882.847,-120.605,28.320,31.250,7.812,55.176,0
1583500882.851,-126.465,27.832,30.762,15.137,38.086,0
1583500882.855,-135.742,27.832,26.367,8.789,28.320,0
1583500882.859,-144.531,27.344,25.879,0.488,24.902,0
1583500882.863,-152.344,24.414,23.438,-1.465,99.609,0
1583500882.866,-151.855,25.391,20.996,4.395,69.824,0
1583500882.870,-146.484,26.367,20.996,6.836,11.230,0
1583500882.874,-143.555,26.367,20.996,0.977,33.203,0
1583500882.878,-145.020,29.297,22.949,-6.836,13.672,0
1583500882.882,-150.391,31.250,22.461,-8.789,-2.441,0
1583500882.886,-154.297,27.344,20.508,3.418,6.836,0
1583500882.883,-151.367,24.902,21.484,4.395,29.785,0
1583500882.887,-146.973,26.855,21.973,-2.441,-37.109,0
1583500882.891,-152.832,27.344,21.973,2.441,9.766,0
1583500882.895,-152.344,24.414,22.949,11.230,75.195,0
1583500882.899,-146.484,25.391,24.414,12.695,59.082,0
1583500882.903,-141.113,26.855,25.879,8.301,11.230,0
1583500882.906,-135.742,23.438,23.438,5.371,-29.297,0
1583500882.910,-136.719,23.438,23.438,9.277,18.555,0
1583500882.914,-136.719,22.949,20.508,4.395,46.875,0
1583500882.918,-135.742,19.531,18.066,-4.395,67.871,0
1583500882.922,-133.789,25.391,24.414,-0.977,66.406,0
1583500882.926,-132.324,25.879,26.367,6.348,27.832,0
1583500882.943,-131.836,22.949,27.344,7.812,54.688,0
1583500882.947,-132.324,23.438,27.832,-0.977,105.957,0
1583500882.951,-130.859,23.438,26.367,-7.324,40.039,0
1583500882.955,-128.906,23.926,27.344,-0.977,-11.719,0
1583500882.959,-119.141,23.926,27.832,8.301,16.113,0
1583500882.963,-103.027,28.809,31.738,6.348,27.344,0
1583500882.966,-99.609,31.738,32.715,-7.324,30.762,0
1583500882.970,-100.098,25.391,27.832,-2.930,35.156,0
1583500882.974,-90.820,22.461,29.297,10.742,40.039,0
1583500882.978,-92.773,23.438,29.785,6.836,38.574,0
1583500882.982,-90.820,25.391,27.344,-2.930,15.137,0
1583500882.986,-83.008,26.367,24.902,-4.395,29.297,0
1583500882.983,-63.477,25.391,21.484,5.371,65.918,0
1583500882.987,-14.160,28.809,26.367,7.812,24.414,0
1583500882.991,44.434,31.250,28.320,2.441,12.207,0
1583500882.995,62.500,30.762,24.902,0.977,32.715,0
1583500882.999,35.645,29.297,23.438,10.254,60.547,0
1583500883.003,6.348,28.320,23.926,16.602,47.363,0
1583500883.006,-20.020,28.320,24.902,6.348,-17.090,0
1583500883.010,-40.527,29.785,23.926,1.953,55.176,0
1583500883.014,-53.711,34.180,26.367,-0.977,33.691,0
1583500883.018,-61.035,36.621,31.738,-0.488,-49.805,0
1583500883.022,-66.895,33.691,28.320,8.301,-34.180,0
1583500883.026,-74.707,31.738,24.414,1.465,-9.277,0
1583500883.023,-84.473,31.738,25.391,1.465,-11.719,0
1583500883.027,-89.355,31.738,24.414,0.000,25.391,0
1583500883.031,-89.844,34.180,27.832,-3.906,62.988,0
1583500883.035,-94.238,30.762,28.320,-5.859,39.062,0
1583500883.039,-97.168,29.297,28.320,-4.395,44.434,0
1583500883.043,-88.379,35.156,31.250,10.254,45.898,0
1583500883.046,-84.961,31.738,26.367,6.348,16.113,0
1583500883.050,-82.520,31.738,27.832,-2.930,17.578,0
1583500883.054,-82.031,32.227,29.785,-1.465,86.426,0
1583500883.058,-84.473,29.297,22.949,1.465,71.777,0
1583500883.062,-84.473,28.809,24.414,7.812,8.789,0
1583500883.066,-86.426,30.273,28.809,5.371,-2.930,0
1583500883.083,-83.984,33.691,28.320,-15.137,38.574,0
1583500883.087,-80.566,31.250,24.902,0.488,65.918,0
1583500883.091,-75.684,28.809,24.902,27.344,-1.465,0
1583500883.095,-73.242,31.250,26.367,17.090,-21.973,0
1583500883.099,-71.777,34.180,26.855,6.348,41.016,0
1583500883.103,-62.500,36.133,30.762,14.160,87.891,0
1583500883.106,-56.152,35.156,29.785,24.902,74.707,0
1583500883.110,-54.688,34.180,23.926,16.602,26.367,0
1583500883.114,-51.270,33.203,22.949,16.602,21.484,0
1583500883.118,-53.223,35.645,25.879,16.602,40.527,0
1583500883.122,-41.504,39.551,31.250,21.973,41.016,0
1583500883.126,5.859,35.645,30.762,21.973,22.461,0
1583500883.123,67.383,33.203,27.344,9.277,30.273,0
1583500883.127,110.840,36.133,27.344,5.859,49.316,0
1583500883.131,144.531,35.645,25.391,6.348,53.223,0
1583500883.135,172.363,35.156,26.855,7.812,31.738,0
1583500883.139,187.012,36.133,28.809,3.906,6.348,0
1583500883.143,191.895,35.645,28.320,0.977,35.156,0
1583500883.146,196.777,35.156,26.855,6.348,49.805,0
1583500883.150,207.520,37.598,27.344,6.348,33.203,0
1583500883.154,214.844,40.527,29.785,5.859,28.320,0
1583500883.158,212.402,38.086,27.832,0.000,9.277,0
1583500883.162,214.355,34.668,26.367,-0.977,13.672,0
1583500883.166,214.355,34.180,27.832,6.836,41.016,0
1583500883.163,213.379,36.133,26.855,1.953,35.156,0
1583500883.167,204.102,39.062,25.879,-1.953,38.086,0
1583500883.171,184.082,41.016,28.809,1.465,27.344,0
1583500883.175,182.129,39.062,29.785,-1.953,-44.922,0
1583500883.179,187.012,38.574,27.344,1.953,2.930,0
1583500883.183,189.941,38.574,28.320,5.859,52.246,0
1583500883.186,191.406,38.086,28.809,0.000,14.648,0
1583500883.190,192.871,42.969,30.762,11.719,111.816,0
1583500883.194,194.824,40.527,31.250,15.625,142.090,0
1583500883.198,191.895,38.086,28.809,10.254,67.383,0
1583500883.202,192.871,39.062,28.809,2.441,19.531,0
1583500883.206,192.871,37.109,30.273,1.953,43.457,0
1583500883.223,184.570,39.062,30.762,6.348,80.078,0
1583500883.227,178.223,37.109,27.344,3.906,59.570,0
1583500883.231,175.293,37.598,26.367,0.488,63.965,0
1583500883.235,168.457,40.039,26.367,-0.488,-13.184,0
1583500883.239,158.203,38.086,23.438,4.883,-30.273,0
1583500883.243,158.203,41.016,25.391,4.395,53.223,0
1583500883.246,159.180,40.039,26.855,-4.395,33.203,0
1583500883.250,149.414,33.203,21.484,-8.789,18.066,0
1583500883.254,150.391,35.645,23.438,-4.883,16.602,0
1583500883.258,151.855,35.156,25.391,0.000,19.043,0
1583500883.262,146.484,37.109,25.879,-1.953,51.270,0
1583500883.266,138.672,40.527,25.391,-8.301,74.707,0
1583500883.283,131.836,38.086,23.438,-4.395,47.363,0
1583500883.287,124.512,36.133,20.996,4.883,104.980,0
1583500883.291,120.605,39.062,21.484,2.930,85.938,0
1583500883.295,119.141,42.480,23.926,-5.371,19.531,0
1583500883.299,110.352,37.109,21.484,-8.789,-9.277,0
1583500883.303,101.562,34.180,19.531,-4.395,-60.547,0
1583500883.306,94.727,31.738,18.555,-4.883,14.160,0
1583500883.310,88.379,28.809,17.090,-9.766,42.969,0
1583500883.314,91.797,33.203,20.020,-2.441,11.230,0
1583500883.318,87.891,38.086,24.414,2.930,3.906,0
1583500883.322,78.613,35.645,20.020,5.859,12.695,0
1583500883.326,82.520,36.133,20.020,8.301,59.082,0
1583500883.303,83.496,38.574,25.391,6.348,19.531,0
1583500883.307,82.031,41.016,27.344,11.719,-36.133,0
1583500883.311,78.125,39.062,24.902,11.719,40.527,0
1583500883.315,77.637,36.133,21.973,5.371,39.062,0
1583500883.319,80.078,38.574,24.902,7.324,64.941,0
1583500883.323,75.195,39.062,23.926,9.277,132.324,0
1583500883.326,74.707,39.062,22.949,8.789,23.438,0
1583500883.330,72.754,41.504,29.785,11.719,16.602,0
1583500883.334,63.965,39.062,26.855,4.883,53.223,0
1583500883.338,56.641,36.621,22.949,1.465,-1.465,0
1583500883.342,58.105,36.621,24.414,8.301,7.812,0
1583500883.346,62.012,36.621,26.367,9.766,58.105,0
1583500883.363,64.453,37.598,27.344,4.883,81.543,0
1583500883.367,67.871,33.691,25.391,3.418,82.031,0
1583500883.371,72.754,31.250,25.391,9.277,69.824,0
1583500883.375,75.195,32.715,27.832,16.602,32.227,0
1583500883.379,71.777,34.668,28.320,13.184,33.203,0
1583500883.383,70.801,35.156,29.785,5.371,30.273,0
1583500883.386,71.289,32.715,28.809,10.742,67.871,0
1583500883.390,76.172,32.227,27.832,16.602,51.270,0
1583500883.394,81.543,34.180,29.785,8.789,-30.762,0
1583500883.398,84.473,33.203,31.250,3.906,-27.832,0
1583500883.402,89.355,37.109,34.180,9.766,6.348,0
1583500883.406,91.309,35.645,31.250,11.230,36.133,0
1583500883.403,94.727,36.133,30.762,11.230,70.801,0
1583500883.407,96.680,39.551,33.691,9.277,51.758,0
1583500883.411,91.797,35.156,30.762,5.859,-60.059,0
1583500883.415,91.797,33.203,30.762,11.719,-17.578,0
1583500883.419,94.727,33.203,30.762,15.625,46.387,0
1583500883.423,89.355,30.273,28.809,10.742,3.906,0
1583500883.426,80.078,28.320,28.809,8.789,17.090,0
1583500883.430,75.195,26.855,27.344,13.672,39.551,0
1583500883.434,73.242,28.320,28.320,16.113,40.527,0
1583500883.438,66.895,30.273,31.250,11.230,11.230,0
1583500883.442,59.082,27.832,26.367,3.418,6.348,0
1583500883.446,54.199,27.832,24.414,7.812,49.316,0
1583500883.463,43.945,30.273,25.879,11.230,30.273,0
1583500883.467,42.480,32.715,27.344,9.277,24.414,0
1583500883.471,41.992,32.715,30.273,6.348,35.645,0
1583500883.475,36.621,31.250,29.297,10.742,67.383,0
1583500883.479,36.621,29.297,26.855,18.555,70.801,0
1583500883.483,36.621,28.809,26.367,16.113,39.551,0
1583500883.486,31.738,29.785,25.391,6.348,40.527,0
1583500883.490,26.855,27.344,21.973,0.977,50.781,0
1583500883.494,22.949,28.320,21.973,5.859,71.289,0
1583500883.498,21.973,33.203,25.391,13.184,20.020,0
1583500883.502,12.207,25.879,20.996,7.812,-5.859,0
1583500883.506,0.977,26.855,17.578,0.000,22.949,0
1583500883.503,-3.418,33.203,20.996,-0.488,29.297,0
1583500883.507,-7.324,30.273,24.414,2.441,41.992,0
1583500883.511,-6.836,29.785,25.879,8.789,18.066,0
1583500883.515,-8.301,31.250,26.855,10.742,68.848,0
1583500883.519,-13.672,32.227,29.297,12.695,27.832,0
1583500883.523,-10.742,31.738,31.250,19.531,0.000,0
1583500883.526,-6.836,27.832,31.738,15.137,69.336,0
1583500883.530,-3.418,26.855,31.738,8.789,69.824,0
1583500883.534,-1.465,29.297,30.762,13.184,35.645,0
1583500883.538,-1.465,32.227,29.785,23.926,-1.465,0
1583500883.542,2.441,35.645,33.203,17.578,66.895,0
1583500883.546,3.906,33.691,34.180,7.812,75.195,0
1583500883.543,4.883,30.762,28.320,17.090,0.977,0
1583500883.547,7.812,31.738,26.367,19.043,39.551,0
1583500883.551,5.371,30.762,26.855,16.602,55.664,0
1583500883.555,0.488,30.762,26.367,11.719,31.250,0
1583500883.559,-1.465,29.297,24.902,7.324,4.395,0
1583500883.563,-2.930,26.855,23.438,11.719,16.602,0
1583500883.566,0.000,29.785,26.855,16.113,1.953,0
1583500883.570,3.906,30.762,26.367,10.742,-35.645,0
1583500883.574,0.977,29.785,23.438,-0.488,-6.836,0
1583500883.578,-1.953,27.344,23.438,-3.418,-16.113,0
1583500883.582,-1.953,23.438,21.484,3.418,-66.895,0
1583500883.586,-3.906,24.414,23.438,2.930,-49.316,0
1583500883.603,-4.395,25.391,23.926,-2.441,58.594,0
1583500883.607,-5.371,27.832,24.902,-4.395,83.008,0
1583500883.611,-14.160,28.809,27.344,0.000,53.223,0
1583500883.615,-15.137,25.391,28.320,6.836,20.508,0
1583500883.619,-12.695,26.367,28.809,3.906,39.551,0
1583500883.623,-13.184,30.762,30.762,3.906,-0.488,0
1583500883.626,-6.348,32.227,29.297,7.812,43.457,0
1583500883.630,0.000,31.250,29.785,5.371,92.285,0
1583500883.634,0.488,28.809,31.738,4.395,40.039,0
1583500883.638,2.441,27.344,32.227,3.906,53.223,0
1583500883.642,4.395,26.855,32.227,9.766,19.043,0
1583500883.646,5.371,30.762,33.691,13.184,-21.973,0
1583500883.643,8.789,29.785,34.668,4.883,36.133,0
1583500883.647,9.766,23.438,30.762,0.977,56.152,0
1583500883.651,11.719,26.367,33.203,12.695,25.391,0
1583500883.655,12.695,31.250,36.133,22.461,37.109,0
1583500883.659,10.742,28.320,32.715,13.672,72.754,0
1583500883.663,14.160,26.855,34.180,8.301,47.852,0
1583500883.666,18.555,29.297,34.668,13.672,-20.020,0
1583500883.670,20.020,28.809,31.738,15.137,0.488,0
1583500883.674,16.113,26.855,30.273,14.160,42.969,0
1583500883.678,14.648,26.367,30.762,3.906,81.543,0
1583500883.682,16.602,29.297,31.738,-5.371,38.574,0
1583500883.686,17.578,28.809,31.250,3.418,-31.738,0
1583500883.683,15.137,28.320,31.250,5.859,-23.926,0
1583500883.687,15.625,30.762,31.250,-3.418,5.371,0
1583500883.691,20.996,30.762,29.297,-4.395,31.250,0
1583500883.695,20.020,31.738,29.297,1.465,58.594,0
1583500883.699,20.020,31.738,29.297,6.836,32.227,0
1583500883.703,27.832,37.598,29.785,15.625,25.879,0
1583500883.706,27.344,37.109,30.762,11.230,-13.672,0
1583500883.710,21.973,31.738,29.785,5.859,-32.227,0
1583500883.714,25.879,37.109,35.645,15.137,-7.324,0
1583500883.718,25.879,35.156,36.621,18.066,12.695,0
1583500883.722,21.484,29.297,30.273,16.113,34.668,0
1583500883.726,20.996,27.832,29.297,20.508,-9.766,0
1583500883.743,25.391,27.832,32.227,20.508,-5.371,0
1583500883.747,24.414,29.785,37.109,14.160,27.832,0
1583500883.751,22.949,27.832,38.574,8.301,28.809,0
1583500883.755,25.391,25.879,35.156,6.348,17.090,0
1583500883.759,26.855,27.832,33.691,10.254,-25.391,0
1583500883.763,22.949,31.250,35.645,8.789,-1.465,0
1583500883.766,25.879,34.668,37.598,5.371,74.219,0
1583500883.770,30.273,36.133,35.645,3.418,40.527,0
1583500883.774,31.250,33.691,34.180,6.836,-12.207,0
1583500883.778,31.738,31.738,35.156,13.672,54.688,0
1583500883.782,30.762,32.227,31.250,9.277,86.426,0
1583500883.786,36.621,35.645,31.250,6.348,53.711,0
1583500883.783,40.039,36.621,34.180,11.230,21.484,0
1583500883.787,39.551,36.133,33.203,18.555,13.184,0
1583500883.791,46.387,39.551,35.645,21.973,54.688,0
1583500883.795,46.387,36.621,36.621,14.160,78.125,0
1583500883.799,38.086,32.715,36.133,10.254,53.223,0
1583500883.803,30.762,31.738,35.156,17.090,14.648,0
1583500883.806,26.855,31.250,34.668,18.555,-18.555,0
1583500883.810,24.902,29.785,33.691,8.301,1.465,0
1583500883.814,26.367,29.297,31.250,7.324,78.125,0
1583500883.818,29.785,32.715,32.227,17.578,64.453,0
1583500883.822,28.809,33.691,32.227,16.113,51.270,0
1583500883.826,26.367,32.715,27.344,2.930,18.066,0
1583500883.823,29.785,33.691,24.902,-1.465,-11.230,0
1583500883.827,29.297,34.180,25.391,6.348,27.832,0
1583500883.831,23.438,34.180,25.879,10.254,22.949,0
1583500883.835,25.879,35.156,25.879,5.371,22.949,0
1583500883.839,30.762,33.203,24.902,-0.977,8.789,0
1583500883.843,28.809,32.227,23.438,7.324,23.438,0
1583500883.846,25.879,30.762,22.949,10.742,55.176,0
1583500883.850,23.438,30.273,22.949,6.348,51.758,0
1583500883.854,27.832,32.715,23.926,5.859,24.902,0
1583500883.858,29.785,34.668,25.879,5.371,41.016,0
1583500883.862,27.344,33.691,26.367,10.742,63.965,0
1583500883.866,24.414,27.832,23.926,9.277,52.246,0
1583500883.883,23.926,25.391,23.926,3.418,59.082,0
1583500883.887,26.855,28.320,27.832,1.465,40.527,0
1583500883.891,29.297,29.297,29.297,1.465,-33.691,0
1583500883.895,30.273,27.344,26.855,1.953,-40.039,0
1583500883.899,34.180,24.414,28.320,-4.395,-4.883,0
1583500883.903,35.156,25.391,28.320,-5.859,-13.672,0
1583500883.906,32.227,28.809,30.273,0.488,35.156,0
1583500883.910,33.203,26.367,28.320,1.953,41.504,0
1583500883.914,37.109,24.902,24.414,2.441,0.488,0
1583500883.918,36.621,28.809,26.367,-1.465,6.348,0
1583500883.922,33.203,29.785,25.391,3.418,21.973,0
1583500883.926,35.156,30.273,25.391,13.184,46.387,0
1583500883.943,40.527,25.879,26.855,7.324,64.941,0
1583500883.947,43.457,25.879,27.344,0.977,19.043,0
1583500883.951,41.016,31.738,28.320,0.000,19.043,0
1583500883.955,42.969,33.691,29.297,5.859,20.508,0
1583500883.959,44.434,32.715,31.250,13.184,57.617,0
1583500883.963,36.621,30.273,28.809,6.836,80.566,0
1583500883.966,30.273,27.832,26.367,-2.930,41.016,0
1583500883.970,28.320,26.855,29.297,1.953,44.922,0
1583500883.974,21.973,24.902,28.320,8.789,22.949,0
1583500883.978,18.066,23.926,28.320,5.371,17.090,0
1583500883.982,20.020,26.367,33.691,-3.906,15.625,0
1583500883.986,12.695,24.902,28.809,-7.812,17.090,0
1583500883.963,9.277,25.391,26.367,-0.488,62.988,0
1583500883.967,14.648,26.855,29.785,-1.953,62.500,0
1583500883.971,20.020,30.273,29.297,-6.348,64.453,0
1583500883.975,23.926,32.227,29.785,0.000,93.750,0
1583500883.979,27.344,32.227,28.320,6.348,97.656,0
1583500883.983,33.691,33.203,25.879,4.883,71.777,0
1583500883.986,41.504,32.715,26.367,5.859,12.207,0
1583500883.990,48.340,33.691,26.855,8.789,-20.996,0
1583500883.994,52.246,33.203,24.414,12.695,-13.184,0
1583500883.998,50.293,30.273,22.949,11.230,26.367,0
1583500884.002,55.664,30.762,24.902,2.441,31.738,0
1583500884.006,63.477,32.715,26.855,0.000,-31.250,0
1583500884.024,64.453,31.250,23.438,5.859,-0.488,0
1583500884.028,68.848,31.738,25.879,11.719,84.473,0
1583500884.032,72.266,29.785,26.367,3.418,50.781,0
1583500884.036,71.777,28.320,21.484,-7.324,36.621,0
1583500884.040,74.219,30.273,23.438,1.953,31.738,0
1583500884.044,79.590,30.762,27.344,10.742,3.906,0
1583500884.047,81.543,32.227,30.762,7.812,22.461,0
1583500884.051,72.754,28.809,24.902,-9.277,7.324,0
1583500884.055,68.359,23.438,19.043,-13.184,34.180,0
1583500884.059,68.359,24.902,20.996,0.488,41.992,0
1583500884.063,65.918,26.855,19.531,0.977,-8.789,0
1583500884.067,62.988,27.832,17.578,-6.836,20.020,0
1583500884.063,59.570,28.320,16.113,-13.672,52.246,0
1583500884.067,58.594,26.367,18.066,-10.742,61.523,0
1583500884.071,59.082,24.902,18.066,-4.395,104.004,0
1583500884.075,58.105,26.855,18.555,-5.859,86.914,0
1583500884.079,59.082,28.809,20.996,-2.930,73.730,0
1583500884.083,61.523,25.391,21.973,0.977,66.406,0
1583500884.086,60.547,24.414,21.484,1.953,44.922,0
1583500884.090,64.453,25.879,22.949,3.906,7.812,0
1583500884.094,66.895,25.879,22.461,0.977,-2.441,0
1583500884.098,63.477,27.832,22.461,4.883,33.691,0
1583500884.102,64.941,25.879,19.043,4.883,21.484,0
1583500884.106,68.359,24.414,19.531,0.977,3.906,0
1583500884.103,64.941,27.344,23.438,3.906,-7.324,0
1583500884.107,63.477,30.762,22.949,-0.488,-24.414,0
1583500884.111,64.941,32.715,20.020,5.371,60.547,0
1583500884.115,65.918,31.738,20.020,0.000,42.480,0
1583500884.119,64.453,26.855,17.578,-8.789,-23.438,0
1583500884.123,63.477,24.414,18.066,-0.977,35.156,0
1583500884.126,65.918,24.414,22.461,5.371,77.637,0
1583500884.130,65.430,26.855,20.508,11.719,40.527,0
1583500884.134,64.941,29.785,22.461,2.930,52.246,0
1583500884.138,67.871,28.320,24.414,-4.395,48.828,0
1583500884.142,64.941,26.855,20.508,5.371,18.066,0
1583500884.146,59.570,26.855,19.531,4.883,32.715,0
1583500884.163,62.012,27.832,22.461,6.348,4.883,0
1583500884.167,62.988,26.855,23.926,-0.488,25.879,0
1583500884.171,56.641,24.414,22.461,-7.324,-16.602,0
1583500884.175,50.781,24.414,22.949,1.465,-32.715,0
1583500884.179,53.223,22.461,20.996,3.418,47.852,0
1583500884.183,60.547,26.855,20.508,8.301,37.109,0
1583500884.186,62.500,27.832,23.926,10.254,-13.184,0
1583500884.190,58.105,22.461,25.391,9.766,12.207,0
1583500884.194,59.570,23.926,21.973,19.531,48.340,0
1583500884.198,62.988,23.926,22.461,17.090,19.043,0
1583500884.202,59.082,19.043,28.809,15.625,3.418,0
1583500884.206,67.871,20.996,30.273,27.344,34.180,0
1583500884.203,79.590,24.414,26.367,41.504,60.059,0
1583500884.207,84.961,26.367,26.367,50.293,-13.672,0
1583500884.211,85.449,30.273,33.203,44.922,-6.348,0
1583500884.215,81.055,29.297,38.574,46.387,78.125,0
1583500884.219,88.867,24.902,39.551,56.152,85.449,0
1583500884.223,102.051,26.855,38.574,60.059,69.824,0
1583500884.226,111.816,33.203,38.574,63.965,68.359,0
1583500884.230,116.699,32.227,41.504,71.289,0.977,0
1583500884.234,114.258,24.902,41.992,84.473,-9.277,0
1583500884.238,121.094,27.344,47.852,96.191,72.266,0
1583500884.242,134.766,31.738,50.781,102.051,44.922,0
1583500884.246,133.789,30.273,43.457,100.586,20.508,0
1583500884.243,128.906,26.855,45.410,108.887,45.898,0
1583500884.247,139.160,24.902,51.270,125.488,32.715,0
1583500884.251,146.973,27.832,48.828,117.676,33.203,0
1583500884.255,147.949,27.832,45.410,113.770,67.383,0
1583500884.259,160.156,31.738,44.434,132.324,11.719,0
1583500884.263,154.297,34.180,44.922,134.277,-21.973,0
1583500884.266,137.207,29.297,48.828,120.605,22.949,0
1583500884.270,139.160,31.250,52.246,114.258,26.367,0
1583500884.274,144.531,34.180,56.641,120.605,20.508,0
1583500884.278,143.066,26.367,52.734,129.883,-11.230,0
1583500884.282,144.531,25.391,49.805,127.930,0.977,0
1583500884.286,136.719,27.344,50.781,113.281,28.809,0
1583500884.303,137.207,29.785,50.781,113.770,92.773,0
1583500884.307,147.461,34.668,49.805,128.906,48.340,0
1583500884.311,145.508,32.715,48.340,132.324,28.320,0
1583500884.315,141.602,32.715,48.340,118.652,61.523,0
1583500884.319,141.602,37.109,45.898,111.328,31.250,0
1583500884.323,141.113,38.086,45.410,117.188,59.082,0
1583500884.326,132.324,36.133,49.805,114.258,68.848,0
1583500884.330,124.512,34.180,45.898,98.633,61.523,0
1583500884.334,125.000,34.180,41.992,90.820,71.289,0
1583500884.338,125.977,37.598,42.480,94.238,23.926,0
1583500884.342,119.141,39.062,41.016,97.168,-11.719,0
1583500884.346,113.281,36.133,41.504,89.355,-0.977,0
1583500884.343,111.328,33.691,41.992,85.449,33.691,0
1583500884.347,106.445,32.227,40.527,84.961,60.547,0
1583500884.351,99.609,33.203,42.480,84.961,36.621,0
1583500884.355,92.773,33.691,43.945,81.055,5.859,0
1583500884.359,90.820,32.715,42.480,75.684,28.809,0
1583500884.363,88.379,37.598,43.457,76.660,64.941,0
1583500884.366,84.473,40.039,39.551,77.148,77.637,0
1583500884.370,83.008,39.062,35.156,70.312,41.504,0
1583500884.374,80.566,39.551,36.621,60.059,-0.977,0
1583500884.378,85.938,41.016,41.016,59.570,20.020,0
1583500884.382,84.473,39.551,41.504,62.012,18.066,0
1583500884.386,77.637,36.133,36.621,62.012,2.441,0
1583500884.383,79.590,37.109,34.180,56.641,-8.789,0
1583500884.387,78.613,36.621,33.691,42.480,-16.113,0
1583500884.391,73.730,36.133,34.180,45.898,3.418,0
1583500884.395,71.289,35.645,32.715,55.176,11.719,0
1583500884.399,69.336,37.598,31.738,49.805,54.688,0
1583500884.403,64.941,38.574,34.668,41.504,28.809,0
1583500884.406,60.059,36.133,34.668,38.086,20.020,0
1583500884.410,59.082,39.062,37.109,44.434,-1.465,0
1583500884.414,56.641,37.598,36.621,39.551,9.277,0
1583500884.418,51.758,35.156,28.320,25.879,65.430,0
1583500884.422,49.316,36.621,27.832,22.461,52.734,0
1583500884.426,50.781,39.062,33.203,23.926,14.160,0
1583500884.443,46.875,38.574,32.227,24.902,25.391,0
1583500884.447,47.852,36.133,29.297,22.949,62.500,0
1583500884.451,50.781,37.598,31.250,20.508,91.309,0
1583500884.455,44.922,41.016,35.156,23.438,64.941,0
1583500884.459,46.387,41.504,35.645,23.926,25.391,0
1583500884.463,42.969,41.992,35.156,15.625,-18.555,0
1583500884.466,47.852,45.410,37.109,16.113,-58.105,0
1583500884.470,63.965,43.945,36.133,31.738,-30.762,0
1583500884.474,31.738,37.598,34.180,7.812,14.648,0
1583500884.478,-24.414,35.645,29.297,-49.316,-14.160,0
1583500884.482,-55.176,33.203,27.832,-82.520,-12.207,0
1583500884.486,-86.426,32.715,25.391,-112.793,64.453,0
1583500884.483,-119.141,31.250,17.578,-146.973,41.992,0
1583500884.487,-133.301,28.809,15.137,-161.621,36.621,0
1583500884.491,-164.551,23.438,12.207,-197.754,94.727,0
1583500884.495,-195.312,20.020,13.672,-227.539,84.961,0
1583500884.499,-208.008,22.949,14.648,-240.234,63.965,0
1583500884.503,-228.027,22.461,9.277,-260.254,20.996,0
1583500884.506,-233.887,21.484,10.254,-271.484,8.789,0
1583500884.510,-250.488,22.949,11.230,-296.387,41.992,0
1583500884.514,-270.020,24.414,10.742,-306.641,41.016,0
1583500884.518,-270.020,26.855,18.066,-304.688,21.484,0
1583500884.522,-269.043,24.414,17.090,-310.547,39.551,0
1583500884.526,-270.996,21.973,16.602,-309.082,52.734,0
1583500884.523,-279.785,20.020,24.902,-313.965,-12.695,0
1583500884.527,-277.832,19.531,25.879,-307.129,0.000,0
1583500884.531,-259.766,21.973,25.391,-295.898,2.441,0
1583500884.535,-253.906,17.578,20.996,-295.410,40.039,0
1583500884.539,-250.000,20.508,16.602,-298.828,75.195,0
1583500884.543,-228.027,24.414,10.742,-278.809,5.859,0
1583500884.546,-198.242,25.391,2.930,-246.094,31.738,0
1583500884.550,-176.758,29.785,0.000,-232.910,48.828,0
1583500884.554,-158.691,27.832,-4.883,-216.309,35.156,0
1583500884.558,-132.324,25.391,-7.812,-184.570,16.602,0
1583500884.562,-103.027,25.879,-3.418,-148.926,3.418,0
1583500884.566,-81.543,26.367,0.000,-128.906,36.133,0
1583500884.583,-63.965,22.949,0.000,-116.699,53.223,0
1583500884.587,-47.363,22.461,-1.953,-92.773,4.883,0
1583500884.591,-39.062,21.484,-5.859,-75.684,28.809,0
1583500884.595,-24.902,19.043,-1.953,-64.453,56.152,0
1583500884.599,-6.348,21.484,2.930,-43.945,-18.555,0
1583500884.603,13.184,27.344,6.348,-24.414,22.461,0
1583500884.606,27.344,29.785,5.859,-11.719,45.898,0
1583500884.610,38.574,27.344,1.953,-2.930,31.250,0
1583500884.614,54.688,29.785,5.859,6.836,30.273,0
1583500884.618,61.523,31.250,4.395,14.160,30.762,0
1583500884.622,69.824,31.250,4.395,27.832,80.566,0
1583500884.626,82.031,34.180,7.324,42.480,78.613,0
1583500884.623,88.379,37.109,8.301,39.062,62.500,0
1583500884.627,88.379,36.621,11.230,41.992,64.941,0
1583500884.631,85.449,37.109,13.184,56.641,17.578,0
1583500884.635,81.543,42.480,15.625,62.012,25.391,0
1583500884.639,85.449,49.316,20.996,64.941,-29.297,0
1583500884.643,82.520,46.387,17.090,53.711,20.996,0
1583500884.646,75.684,41.992,10.742,46.875,56.641,0
1583500884.650,76.172,41.504,13.184,53.223,14.648,0
1583500884.654,76.172,40.039,17.578,51.758,43.945,0
1583500884.658,79.102,43.457,18.555,50.293,15.137,0
1583500884.662,79.102,42.969,15.625,48.340,3.906,0
1583500884.666,80.078,40.039,14.160,56.641,44.434,0
1583500884.666,84.473,40.039,14.648,62.012,63.965,0
1583500884.670,82.031,41.504,16.113,54.688,-10.254,0
1583500884.674,77.637,40.527,19.043,57.129,-24.902,0
1583500884.678,76.172,37.598,19.043,59.082,41.016,0
1583500884.682,76.172,39.551,20.996,58.594,3.906,0
1583500884.686,74.219,41.992,25.391,60.059,-6.836,0
1583500884.689,68.359,37.598,20.996,54.199,23.926,0
1583500884.693,66.406,34.180,18.066,55.176,-15.625,0
1583500884.697,61.523,33.691,19.043,49.316,0.977,0
1583500884.701,59.570,34.180,19.531,42.969,-3.906,0
1583500884.705,63.965,36.621,20.996,43.457,0.488,0
1583500884.709,63.477,38.086,21.973,43.945,-8.789,0
1583500884.723,60.547,38.086,25.391,50.293,-5.371,0
1583500884.727,51.270,34.668,25.391,41.016,56.152,0
1583500884.731,45.898,33.691,23.926,32.715,45.898,0
1583500884.735,53.711,33.691,26.367,46.875,20.020,0
1583500884.739,62.500,34.668,27.832,56.641,-25.879,0
1583500884.743,50.781,39.551,24.902,42.969,-11.719,0
1583500884.746,45.410,38.574,23.438,29.297,55.176,0
1583500884.750,51.270,31.738,22.949,31.250,69.336,0
1583500884.754,50.293,30.762,22.949,41.992,42.969,0
1583500884.758,41.992,33.203,21.973,36.621,61.035,0
1583500884.762,37.109,35.156,21.973,22.949,53.223,0
1583500884.766,41.504,38.086,19.043,16.113,29.785,0
1583500884.764,36.133,35.645,16.113,16.602,42.480,0
1583500884.768,31.738,33.691,15.625,22.949,70.801,0
1583500884.772,38.574,35.156,17.090,26.367,65.430,0
1583500884.776,42.969,33.691,21.484,23.438,55.664,0
1583500884.780,41.992,31.250,20.020,19.043,26.367,0
1583500884.784,39.551,32.715,17.090,29.785,46.875,0
1583500884.787,39.062,34.180,17.578,33.691,83.496,0
1583500884.791,41.016,32.227,17.578,19.531,83.008,0
1583500884.795,42.969,31.738,19.043,17.090,34.668,0
1583500884.799,42.969,32.715,20.508,20.020,27.344,0
1583500884.803,39.062,32.227,15.137,21.484,71.289,0
1583500884.807,38.086,32.715,15.625,21.484,10.742,0
1583500884.803,38.086,32.227,16.602,16.113,10.254,0
1583500884.807,35.156,33.691,18.066,20.508,59.570,0
1583500884.811,28.809,33.691,19.531,18.555,-27.832,0
1583500884.815,26.855,31.250,17.090,10.254,-62.012,0
1583500884.819,28.809,31.250,18.555,6.348,0.488,0
1583500884.823,27.344,31.738,19.043,7.324,29.785,0
1583500884.826,26.855,31.250,18.555,13.672,80.566,0
1583500884.830,24.414,30.273,22.949,10.254,16.113,0
1583500884.834,17.578,29.297,19.043,-1.953,53.711,0
1583500884.838,15.137,29.297,17.090,-1.465,51.270,0
1583500884.842,16.602,30.762,21.973,10.254,13.184,0
1583500884.846,18.066,29.785,22.949,12.207,78.613,0
1583500884.863,20.020,27.344,23.438,5.371,56.641,0
1583500884.867,23.926,26.367,22.949,5.859,8.789,0
1583500884.871,17.578,25.391,21.484,15.625,69.336,0
1583500884.875,12.207,26.367,22.461,16.602,72.754,0
1583500884.879,14.160,28.320,26.367,9.766,-2.441,0
1583500884.883,11.230,31.738,28.809,1.465,-22.461,0
1583500884.886,12.207,33.203,30.762,7.812,2.930,0
1583500884.890,11.719,30.762,28.809,10.742,-2.441,0
1583500884.894,3.418,27.344,23.926,-2.930,1.953,0
1583500884.898,1.465,25.391,26.855,-8.301,47.852,0
1583500884.902,1.953,27.832,29.297,-5.859,32.227,0
1583500884.906,0.000,28.320,25.879,-0.488,48.828,0
1583500884.904,0.000,25.879,25.391,-1.953,68.359,0
1583500884.908,4.883,26.855,28.320,-4.395,36.621,0
1583500884.912,7.324,26.855,25.879,-2.930,69.336,0
1583500884.916,8.301,29.297,25.879,2.930,21.973,0
1583500884.920,12.207,27.832,29.297,8.789,52.734,0
1583500884.924,12.207,25.391,31.250,7.324,69.824,0
1583500884.927,5.859,24.414,27.832,3.418,15.137,0
1583500884.931,0.977,26.855,28.809,9.766,25.879,0
1583500884.935,2.930,32.227,36.621,14.648,-5.371,0
1583500884.939,-2.441,28.809,33.203,0.977,-22.949,0
1583500884.943,-12.695,24.902,24.414,-7.324,37.598,0
1583500884.947,-15.137,27.832,25.391,1.465,37.109,0
1583500884.943,-14.648,27.344,24.414,8.789,18.066,0
1583500884.947,-6.836,30.762,22.949,12.695,12.207,0
1583500884.951,1.953,31.250,26.367,16.602,-4.395,0
1583500884.955,-10.742,20.996,29.297,10.254,5.371,0
1583500884.959,-24.902,17.578,33.691,5.371,-14.160,0
1583500884.963,-25.879,19.043,35.645,3.906,-2.930,0
1583500884.966,-18.555,20.020,36.133,0.977,-36.621,0
1583500884.970,-6.836,22.949,41.016,4.883,-25.391,0
1583500884.974,-8.789,21.484,36.621,5.371,41.992,0
1583500884.978,-7.324,18.555,30.273,6.348,36.133,0
1583500884.982,2.441,22.461,31.738,2.441,54.199,0
1583500884.986,9.277,25.391,31.250,0.000,74.219,0
1583500885.003,11.719,25.879,31.738,7.812,68.359,0
1583500885.007,10.742,25.391,30.762,5.371,94.238,0
1583500885.011,15.137,26.367,30.273,-0.977,76.172,0
1583500885.015,17.090,23.926,32.715,-3.418,76.172,0
1583500885.019,16.602,24.414,35.156,-1.953,56.641,0
1583500885.023,16.113,26.367,35.156,1.953,-20.020,0
1583500885.026,16.602,22.949,33.691,-3.906,-36.621,0
1583500885.030,23.926,23.926,36.133,-7.324,33.203,0
1583500885.034,24.414,23.926,35.645,-3.906,65.430,0
1583500885.038,25.391,22.949,32.715,2.441,34.180,0
1583500885.042,30.762,27.832,32.227,1.953,8.789,0
1583500885.046,26.367,27.344,25.391,-7.812,10.254,0
1583500885.043,26.367,26.367,24.902,-5.371,52.734,0
1583500885.047,33.691,28.320,28.320,1.953,5.371,0
1583500885.051,32.715,28.320,25.391,0.977,-16.602,0
1583500885.055,33.691,25.879,26.367,-1.465,8.301,0
1583500885.059,33.691,26.367,27.832,-2.930,-18.555,0
1583500885.063,29.297,26.367,27.832,2.441,48.828,0
1583500885.066,31.250,26.855,26.367,4.395,89.844,0
1583500885.070,31.738,23.438,24.414,-0.488,36.133,0
1583500885.074,29.785,25.391,26.367,1.465,19.531,0
1583500885.078,27.832,32.715,27.832,4.395,7.324,0
1583500885.082,29.785,31.738,28.320,13.672,45.410,0
1583500885.086,30.762,28.320,26.855,12.695,85.938,0
1583500885.084,28.809,27.344,25.879,3.418,113.281,0
1583500885.088,31.738,30.273,29.785,9.766,73.730,0
1583500885.092,31.738,30.762,31.738,17.090,-11.230,0
1583500885.096,31.250,29.297,28.320,17.090,29.297,0
1583500885.100,29.785,30.273,29.785,10.742,46.387,0
1583500885.104,24.902,31.250,30.273,7.812,-8.301,0
1583500885.107,24.414,31.738,30.762,16.113,-31.250,0
1583500885.111,26.367,32.715,32.227,10.742,-37.109,0
1583500885.115,26.855,31.738,30.762,4.883,-8.789,0
1583500885.119,21.973,30.762,28.320,-1.953,20.508,0
1583500885.123,19.531,30.762,26.855,0.000,-1.465,0
1583500885.127,21.973,30.762,27.832,14.648,-32.715,0
1583500885.144,20.020,29.297,28.320,4.883,-16.602,0
1583500885.148,19.531,28.320,27.344,-2.441,14.160,0
1583500885.152,20.996,29.785,26.855,2.930,36.133,0
1583500885.156,17.090,26.367,22.949,5.371,63.477,0
1583500885.160,16.113,22.949,20.020,9.277,47.363,0
1583500885.164,21.484,25.879,23.926,4.395,38.086,0
1583500885.167,21.973,24.902,25.391,1.953,30.273,0
1583500885.171,24.414,26.367,27.344,9.277,27.832,0
1583500885.175,29.297,32.715,30.273,8.789,45.898,0
1583500885.179,21.973,27.832,24.902,1.953,45.898,0
1583500885.183,16.602,25.391,25.879,-4.883,7.812,0
1583500885.187,15.625,28.320,24.902,-2.441,-44.922,0
1583500885.183,18.066,27.832,20.996,5.859,-16.602,0
1583500885.187,25.391,29.785,23.926,4.883,6.836,0
1583500885.191,29.297,31.738,25.879,0.977,-5.859,0
1583500885.195,29.297,32.715,28.320,4.395,-6.836,0
1583500885.199,27.344,31.250,28.320,12.207,-10.254,0
1583500885.203,27.832,30.762,29.785,6.836,9.766,0
1583500885.206,32.227,32.227,28.320,0.977,25.391,0
1583500885.210,38.086,35.645,27.832,13.672,47.363,0
1583500885.214,40.039,40.039,33.203,22.461,22.461,0
1583500885.218,32.227,32.715,28.320,11.230,41.016,0
1583500885.222,31.738,27.832,23.926,-0.488,70.801,0
1583500885.226,35.645,32.715,26.855,7.324,75.684,0
1583500885.243,33.203,31.738,25.879,15.137,91.309,0
1583500885.247,31.250,31.738,29.785,9.277,23.926,0
1583500885.251,27.344,31.250,29.785,2.441,2.441,0
1583500885.255,22.461,29.785,25.879,-2.930,17.090,0
1583500885.259,23.926,31.250,29.297,4.883,14.160,0
1583500885.263,23.438,28.320,27.832,10.254,8.789,0
1583500885.266,23.438,27.344,27.832,6.836,63.965,0
1583500885.270,26.855,27.344,31.738,2.930,72.266,0
1583500885.274,25.879,26.855,26.367,5.371,60.547,0
1583500885.278,28.809,28.320,23.926,15.625,61.035,0
1583500885.282,33.203,31.250,28.809,16.113,4.395,0
1583500885.286,30.273,33.691,32.227,4.395,-9.766,0
1583500885.283,26.367,31.738,30.762,2.441,10.742,0
1583500885.287,23.926,30.762,30.762,6.348,39.551,0
1583500885.291,24.414,32.715,31.250,6.836,41.016,0
1583500885.295,28.320,28.809,29.785,0.977,55.664,0
1583500885.299,30.762,29.785,32.227,-0.488,94.238,0
1583500885.303,34.180,34.180,35.645,9.766,48.828,0
1583500885.306,40.039,34.180,34.668,10.742,4.883,0
1583500885.310,39.062,34.668,29.785,4.883,48.340,0
1583500885.314,38.574,35.156,28.809,3.906,40.527,0
1583500885.318,48.828,39.062,31.250,18.066,-20.020,0
1583500885.322,50.781,38.574,29.297,20.508,33.203,0
1583500885.326,41.504,32.715,26.367,6.348,49.805,0
1583500885.323,37.109,34.180,27.832,7.324,11.230,0
1583500885.327,37.598,37.109,27.832,16.602,50.293,0
1583500885.331,38.574,36.621,30.273,24.902,97.656,0
1583500885.335,38.574,36.621,32.227,19.043,49.316,0
1583500885.339,32.715,35.156,28.809,3.418,17.090,0
1583500885.343,34.180,37.598,29.785,10.742,55.176,0
1583500885.346,39.551,40.039,31.250,22.461,21.484,0
1583500885.350,36.133,37.109,28.320,19.531,19.531,0
1583500885.354,34.668,39.062,27.832,8.789,53.711,0
1583500885.358,31.738,39.551,28.809,-2.441,80.078,0
1583500885.362,26.367,33.691,26.855,0.977,47.363,0
1583500885.366,27.832,34.180,24.902,6.836,48.340,0
1583500885.383,27.832,36.133,25.391,-0.488,23.438,0
1583500885.387,24.902,34.668,25.391,-4.395,12.695,0
1583500885.391,23.926,34.668,25.391,1.953,34.668,0
1583500885.395,27.344,33.691,27.832,6.836,8.301,0
1583500885.399,31.250,34.180,26.855,4.883,8.301,0
1583500885.403,29.785,36.133,25.879,1.953,56.641,0
1583500885.406,26.367,35.645,31.738,5.859,35.645,0
1583500885.410,26.367,35.156,30.762,7.812,-9.766,0
1583500885.414,25.391,32.227,26.855,3.906,57.617,0
1583500885.418,20.508,30.762,28.320,-4.395,71.777,0
1583500885.422,16.113,31.250,28.320,0.977,13.184,0
1583500885.426,16.602,33.691,29.785,11.230,15.625,0
1583500885.423,18.555,31.738,30.273,3.906,5.371,0
1583500885.427,20.020,26.855,26.367,-4.883,-40.527,0
1583500885.431,22.461,30.762,27.344,-0.977,-4.883,0
1583500885.435,25.391,32.715,29.785,1.953,73.730,0
1583500885.439,22.461,30.762,28.809,-0.488,75.195,0
1583500885.443,22.461,28.809,28.809,-3.906,28.320,0
1583500885.446,24.902,26.855,26.367,-2.930,62.500,0
1583500885.450,27.832,29.297,26.367,4.883,97.656,0
1583500885.454,30.273,30.273,26.855,8.301,66.406,0
1583500885.458,33.691,31.738,31.738,9.277,38.574,0
1583500885.462,34.180,33.691,35.645,2.930,39.551,0
1583500885.466,32.227,30.762,33.203,0.977,7.324,0
1583500885.464,37.109,31.250,30.762,12.695,13.672,0
1583500885.468,41.504,33.691,30.762,14.648,61.523,0
1583500885.472,40.527,36.621,33.691,12.695,103.027,0
1583500885.476,35.156,34.668,31.738,12.207,96.191,0
1583500885.480,27.344,30.273,29.297,15.625,8.789,0
1583500885.484,27.344,31.250,28.809,17.090,9.766,0
1583500885.487,27.832,31.738,26.367,10.254,36.621,0
1583500885.491,26.367,33.203,27.344,8.301,9.277,0
1583500885.495,26.367,38.086,29.785,15.625,11.719,0
1583500885.499,24.902,34.180,28.320,18.555,28.809,0
1583500885.503,30.273,32.715,24.902,19.043,21.484,0
1583500885.507,36.133,35.645,29.297,23.926,21.973,0
1583500885.529,25.391,28.320,34.668,27.344,69.336,0
1583500885.533,14.648,25.879,37.109,21.973,89.844,0
1583500885.537,20.508,26.367,41.016,20.508,53.711,0
1583500885.541,21.484,23.438,41.504,21.973,41.504,0
1583500885.545,12.695,22.949,37.598,12.695,26.855,0
1583500885.549,15.137,24.902,39.062,13.672,65.918,0
1583500885.552,20.508,29.785,41.992,10.742,63.965,0
1583500885.556,15.625,29.297,38.574,1.465,16.113,0
1583500885.560,13.184,26.855,35.645,3.906,34.180,0
1583500885.564,20.020,29.297,37.598,16.113,28.809,0
1583500885.568,23.438,28.809,36.133,16.602,4.395,0
1583500885.572,24.414,32.227,41.016,6.348,-46.387,0
1583500885.563,19.531,37.109,44.434,6.836,-10.254,0
1583500885.567,15.625,32.715,37.109,11.719,24.902,0
1583500885.571,15.625,28.320,34.180,12.207,-8.301,0
1583500885.575,11.719,27.832,35.156,4.395,26.855,0
1583500885.579,11.719,30.273,37.109,2.930,43.457,0
1583500885.583,7.812,33.203,35.156,11.719,7.324,0
1583500885.586,5.371,32.227,30.762,12.695,34.668,0
1583500885.590,6.836,30.273,32.227,10.742,27.344,0
1583500885.594,1.465,27.344,32.715,3.418,-5.371,0
1583500885.598,-3.418,29.297,34.668,7.324,-2.930,0
1583500885.602,-5.371,33.203,37.598,17.578,-24.902,0
1583500885.606,-7.812,26.855,31.738,13.184,-7.324,0
1583500885.603,-7.324,24.414,29.297,10.254,21.973,0
1583500885.607,-0.977,26.855,29.297,7.812,44.434,0
1583500885.611,-0.488,29.297,27.832,13.184,48.828,0
1583500885.615,3.906,30.273,28.320,21.484,-4.883,0
1583500885.619,7.812,28.809,28.809,12.695,59.570,0
1583500885.623,7.812,30.762,30.762,12.695,98.145,0
1583500885.626,10.742,32.227,29.297,19.043,55.664,0
1583500885.630,13.672,32.227,28.809,18.555,34.668,0
1583500885.634,15.137,31.250,28.809,12.207,18.066,0
1583500885.638,19.043,35.156,29.785,6.348,16.602,0
1583500885.642,23.926,37.598,29.297,13.672,35.156,0
1583500885.646,26.367,31.250,22.461,10.254,33.691,0
1583500885.663,26.855,29.785,22.949,8.301,-33.691,0
1583500885.667,24.902,31.738,25.391,13.672,-1.953,0
1583500885.671,20.508,33.691,22.949,9.766,19.043,0
1583500885.675,16.113,33.691,24.414,13.184,29.297,0
1583500885.679,15.137,34.668,23.926,14.160,109.863,0
1583500885.683,13.672,37.109,22.949,11.719,128.418,0
1583500885.686,13.184,38.086,29.785,7.812,70.801,0
1583500885.690,16.602,36.621,30.762,11.230,15.137,0
1583500885.694,20.020,37.598,28.809,21.484,50.781,0
1583500885.698,20.996,36.621,31.250,16.602,65.918,0
1583500885.702,19.043,31.250,29.297,8.301,24.414,0
1583500885.706,19.043,33.203,28.809,12.207,10.742,0
1583500885.703,21.484,35.645,29.297,16.113,43.945,0
1583500885.707,23.926,36.133,29.297,12.695,23.926,0
1583500885.711,24.902,38.086,29.297,6.348,-10.742,0
1583500885.715,30.273,39.062,28.320,10.254,18.066,0
1583500885.719,35.645,40.039,28.809,23.438,64.453,0
1583500885.723,35.156,42.969,31.738,18.555,36.621,0
1583500885.726,32.715,41.504,30.273,10.254,11.230,0
1583500885.730,31.738,36.621,27.344,7.812,50.781,0
1583500885.734,30.273,35.645,26.855,12.207,34.668,0
1583500885.738,28.320,36.621,31.738,18.555,78.613,0
1583500885.742,31.250,36.133,34.668,14.648,68.359,0
1583500885.746,28.320,35.156,31.738,11.230,30.273,0
1583500885.744,27.344,33.203,29.785,13.184,75.195,0
1583500885.748,35.156,35.156,30.273,18.555,51.270,0
1583500885.752,39.551,37.598,32.227,19.531,-20.020,0
1583500885.756,34.180,33.691,30.273,11.230,43.945,0
1583500885.760,29.297,33.203,28.809,13.672,63.965,0
1583500885.764,30.762,37.109,29.297,18.066,-17.578,0
1583500885.767,31.250,36.621,26.367,12.207,15.137,0
1583500885.771,32.715,36.133,26.855,11.230,53.223,0
1583500885.775,35.156,40.527,30.762,12.695,47.852,0
1583500885.779,32.715,36.133,25.879,14.648,12.207,0
1583500885.783,35.156,35.156,22.949,13.672,-20.996,0
1583500885.787,32.715,36.133,21.484,5.859,21.973,0
1583500885.803,26.367,32.227,18.555,5.859,-17.090,0
1583500885.807,24.902,31.738,19.043,12.207,-62.988,0
1583500885.811,20.996,31.738,20.020,10.742,-49.805,0
1583500885.815,23.438,34.668,21.484,1.953,-23.438,0
1583500885.819,22.461,36.133,20.508,0.000,-16.602,0
1583500885.823,22.461,35.645,21.484,7.812,21.484,0
1583500885.826,27.344,37.109,28.809,12.207,46.875,0
1583500885.830,26.367,36.133,26.855,5.859,2.441,0
1583500885.834,24.902,34.668,22.461,-1.953,17.090,0
1583500885.838,28.320,39.062,28.320,8.789,-8.789,0
1583500885.842,27.832,39.062,28.809,16.602,-15.137,0
1583500885.846,23.926,35.156,23.926,6.348,41.016,0
1583500885.844,28.809,32.227,21.484,3.906,39.062,0
1583500885.848,33.203,30.273,22.461,12.695,-10.742,0
1583500885.852,22.461,26.367,23.438,14.648,55.664,0
1583500885.856,5.859,22.949,24.902,-2.441,41.016,0
1583500885.860,6.348,24.902,24.414,-12.207,-11.230,0
1583500885.864,9.277,24.414,28.320,-6.836,16.602,0
1583500885.867,3.906,22.949,28.809,-5.859,15.625,0
1583500885.871,1.465,23.438,20.996,-7.324,2.441,0
1583500885.875,-1.465,20.996,20.020,-13.672,-9.277,0
1583500885.879,5.859,23.438,21.973,-13.672,19.531,0
1583500885.883,15.625,26.855,20.020,-3.906,22.461,0
1583500885.887,20.996,27.344,20.508,1.953,29.297,0
1583500885.883,20.996,29.297,25.391,2.930,98.145,0
1583500885.887,20.996,28.809,25.879,1.953,81.543,0
1583500885.891,23.438,32.715,30.273,1.953,17.090,0
1583500885.895,24.902,34.180,35.645,10.742,37.598,0
1583500885.899,23.926,28.809,31.250,7.812,34.180,0
1583500885.903,20.996,28.320,25.879,-2.441,28.809,0
1583500885.906,19.531,27.344,25.879,-1.465,73.242,0
1583500885.910,26.367,28.809,27.832,8.789,45.410,0
1583500885.914,28.320,29.297,28.809,-8.789,72.754,0
1583500885.918,24.414,26.855,29.297,-20.508,61.035,0
1583500885.922,25.391,31.738,28.320,10.742,-3.906,0
1583500885.926,23.926,30.762,26.855,15.625,10.254,0
1583500885.944,25.879,31.738,29.297,15.625,37.598,0
1583500885.948,25.391,30.762,28.320,7.324,4.395,0
1583500885.952,21.484,27.832,23.926,-5.859,-42.969,0
1583500885.956,22.949,30.273,23.438,0.977,56.152,0
1583500885.960,27.832,32.715,24.414,10.254,85.938,0
1583500885.964,34.180,36.621,28.809,16.113,-24.414,0
1583500885.967,36.621,35.156,33.203,16.602,-35.645,0
1583500885.971,33.691,33.203,31.738,15.625,0.488,0
1583500885.975,32.715,33.691,32.227,25.391,31.250,0
1583500885.979,35.156,32.227,31.250,25.879,32.715,0
1583500885.983,36.621,37.598,31.250,18.555,25.879,0
1583500885.987,34.180,38.086,32.227,17.090,73.242,0
1583500885.983,28.320,33.203,29.785,16.602,68.359,0
1583500885.987,25.879,31.250,27.344,15.137,31.250,0
1583500885.991,25.391,30.762,25.391,12.695,-7.324,0
1583500885.995,28.809,32.227,30.762,15.625,-49.316,0
1583500885.999,26.367,31.250,32.715,16.113,-16.602,0
1583500886.003,22.461,30.762,29.297,13.184,59.570,0
1583500886.006,26.855,30.762,28.809,11.230,132.324,0
1583500886.010,29.785,34.668,30.273,9.766,90.332,0
1583500886.014,25.879,37.109,29.297,12.207,13.672,0
1583500886.018,20.020,35.156,29.785,12.207,15.625,0
1583500886.022,20.996,36.133,31.250,3.418,-6.836,0
1583500886.026,24.414,34.668,29.297,2.930,-8.789,0
1583500886.023,28.809,34.668,31.250,11.719,21.484,0
1583500886.027,32.227,36.133,33.691,21.484,25.391,0
1583500886.031,35.156,37.598,35.156,21.973,11.230,0
1583500886.035,40.039,38.574,33.203,10.254,19.043,0
1583500886.039,40.039,37.598,30.762,7.324,38.574,0
1583500886.043,40.039,40.039,31.250,13.184,25.879,0
1583500886.046,38.086,42.480,33.203,22.461,69.824,0
1583500886.050,31.250,42.480,32.715,17.578,149.902,0
1583500886.054,28.320,39.062,30.762,3.906,106.445,0
1583500886.058,26.367,34.668,30.273,7.324,0.000,0
1583500886.062,23.926,34.180,31.250,13.672,10.742,0
1583500886.066,20.508,32.227,30.273,11.230,13.184,0
1583500886.084,22.949,34.668,31.250,8.301,-13.672,0
1583500886.088,27.832,38.086,30.762,12.207,25.879,0
1583500886.092,29.785,35.156,31.250,20.508,50.293,0
1583500886.096,33.691,37.109,30.762,17.578,33.203,0
1583500886.100,35.645,42.480,29.785,17.578,-5.859,0
1583500886.104,28.320,39.062,31.250,15.625,45.898,0
1583500886.107,23.926,34.668,28.320,9.277,39.062,0
1583500886.111,23.438,32.227,24.902,13.184,64.453,0
1583500886.115,21.973,30.762,23.438,6.836,83.008,0
1583500886.119,25.879,31.250,21.484,10.742,23.438,0
1583500886.123,22.949,32.227,26.367,20.508,41.504,0
1583500886.127,9.766,28.809,33.203,11.230,50.293,0
1583500886.124,3.906,24.414,30.762,-0.977,38.086,0
1583500886.128,9.277,23.926,30.273,3.418,-16.602,0
1583500886.132,11.719,23.438,27.344,11.719,56.152,0
1583500886.136,12.207,24.414,24.414,9.277,116.699,0
1583500886.140,14.648,23.438,27.832,3.418,34.668,0
1583500886.144,15.625,26.367,29.785,2.930,-11.230,0
1583500886.147,15.625,27.344,28.320,8.789,-9.277,0
1583500886.151,11.719,20.508,25.879,13.672,33.203,0
1583500886.155,13.672,21.973,26.367,9.766,57.129,0
1583500886.159,18.066,26.367,26.855,4.395,66.406,0
1583500886.163,16.113,22.461,25.879,7.324,37.598,0
1583500886.167,17.090,20.996,27.344,13.672,58.594,0
1583500886.165,23.926,23.926,29.297,14.648,41.992,0
1583500886.169,23.926,25.879,31.738,7.324,12.207,0
1583500886.173,25.879,28.320,33.203,6.836,15.137,0
1583500886.177,24.902,25.391,28.809,13.184,-3.906,0
1583500886.181,23.438,25.879,25.391,15.625,-17.090,0
1583500886.185,26.855,28.320,25.879,16.113,22.461,0
1583500886.188,30.273,28.320,24.902,11.719,-2.930,0
1583500886.192,30.273,31.250,29.785,12.695,-58.105,0
1583500886.196,31.738,31.738,31.738,20.508,-7.324,0
1583500886.200,36.133,27.832,27.832,18.066,39.551,0
1583500886.204,38.086,27.344,26.367,11.230,60.059,0
1583500886.208,41.504,29.297,27.832,12.695,52.734,0
1583500886.223,46.387,33.691,32.715,21.973,22.461,0
1583500886.227,48.828,32.715,33.691,28.320,30.762,0
1583500886.231,45.898,31.738,30.762,19.531,51.270,0
1583500886.235,44.922,36.133,30.762,18.066,23.438,0
1583500886.239,48.340,36.621,35.645,23.926,29.297,0
1583500886.243,51.270,40.039,38.574,28.320,52.734,0
1583500886.246,49.805,38.574,33.691,25.391,22.949,0
1583500886.250,44.434,31.738,31.250,18.555,15.137,0
1583500886.254,43.457,30.762,34.180,21.484,43.457,0
1583500886.258,42.480,30.273,35.156,23.438,42.969,0
1583500886.262,43.945,33.691,38.574,9.766,35.645,0
1583500886.266,42.969,35.156,37.109,-0.488,29.297,0
1583500886.263,41.504,32.227,34.668,27.344,24.902,0
1583500886.267,41.504,35.156,37.598,37.109,37.598,0
1583500886.271,37.109,32.227,35.645,21.484,39.551,0
1583500886.275,33.203,28.320,35.156,12.695,42.480,0
1583500886.279,33.691,27.832,34.180,20.020,13.184,0
1583500886.283,35.156,29.297,31.250,26.367,23.438,0
1583500886.286,33.203,31.250,31.738,19.043,19.531,0
1583500886.290,32.227,30.762,31.250,11.230,23.926,0
1583500886.294,33.691,30.762,30.762,9.277,3.906,0
1583500886.298,33.691,31.738,32.715,14.160,2.441,0
1583500886.302,31.250,30.273,32.715,15.137,26.855,0
1583500886.306,28.809,30.273,32.715,12.207,15.625,0
1583500886.304,26.855,33.203,30.762,8.301,50.293,0
1583500886.308,26.367,39.062,33.691,18.066,75.195,0
1583500886.312,23.926,37.109,34.180,22.949,11.230,0
1583500886.316,18.066,30.273,27.832,11.719,-22.949,0
1583500886.320,15.625,31.250,28.320,12.207,30.762,0
1583500886.324,12.207,33.691,31.738,12.207,77.637,0
1583500886.327,10.742,35.156,32.227,15.625,34.180,0
1583500886.331,12.207,34.668,29.785,16.113,-14.648,0
1583500886.335,8.789,31.250,28.809,6.348,-5.371,0
1583500886.339,8.301,32.227,30.273,13.184,16.602,0
1583500886.343,7.812,33.203,31.250,19.043,5.371,0
1583500886.347,4.883,32.227,31.250,12.695,-8.789,0
1583500886.363,8.301,34.180,33.203,6.348,5.371,0
1583500886.367,10.742,33.203,29.297,4.883,38.574,0
1583500886.371,7.812,27.832,24.414,11.719,46.875,0
1583500886.375,7.324,26.367,25.391,9.277,25.391,0
1583500886.379,9.277,28.809,25.879,4.883,50.293,0
1583500886.383,10.742,33.203,27.344,2.441,64.453,0
1583500886.386,9.277,30.762,25.879,-0.977,84.473,0
1583500886.390,8.301,28.320,21.484,0.000,40.527,0
1583500886.394,11.719,30.273,21.484,-3.906,-25.879,0
1583500886.398,17.090,29.297,22.949,0.977,-21.973,0
1583500886.402,12.695,29.785,21.973,5.371,22.949,0
1583500886.406,6.836,29.785,19.531,3.418,35.645,0
1583500886.403,12.207,27.832,20.996,6.836,0.488,0
1583500886.407,16.113,27.344,21.973,2.441,22.461,0
1583500886.411,15.137,25.879,22.949,2.441,29.785,0
1583500886.415,14.648,23.926,26.855,12.695,10.254,0
1583500886.419,18.066,23.926,25.879,15.137,34.668,0
1583500886.423,21.973,25.391,25.879,10.742,81.055,0
1583500886.426,16.602,24.414,25.391,5.859,107.910,0
1583500886.430,20.020,27.344,25.879,9.766,49.316,0
1583500886.434,22.461,28.809,26.855,12.207,1.465,0
1583500886.438,19.043,28.809,24.414,0.977,5.371,0
1583500886.442,16.113,26.855,21.484,-2.441,-25.391,0
1583500886.446,12.695,26.855,21.484,7.812,3.418,0
1583500886.443,22.949,27.344,18.555,18.066,15.625,0
1583500886.447,33.203,27.832,17.578,24.414,35.645,0
1583500886.451,27.832,26.855,27.832,19.043,52.246,0
1583500886.455,13.184,20.020,33.203,8.301,45.410,0
1583500886.459,5.371,12.695,30.762,1.465,64.941,0
1583500886.463,12.207,11.230,32.227,3.906,75.195,0
1583500886.466,20.508,19.043,32.715,5.371,20.508,0
1583500886.470,13.672,23.438,36.133,-7.324,-34.180,0
1583500886.474,5.371,20.508,32.227,-10.254,-27.344,0
1583500886.478,8.789,16.602,28.809,-0.977,1.953,0
1583500886.482,12.695,18.066,30.762,1.465,32.227,0
1583500886.486,14.648,20.996,28.320,2.441,23.926,0
1583500886.503,19.043,24.414,31.738,9.766,-13.184,0
1583500886.507,21.484,21.484,28.809,13.184,10.254,0
1583500886.511,20.508,19.531,25.391,5.859,42.480,0
1583500886.515,16.602,21.973,25.391,-1.465,54.688,0
1583500886.519,19.531,22.461,24.902,4.395,49.316,0
1583500886.523,23.438,23.438,26.855,9.766,-11.719,0
1583500886.526,18.555,22.949,26.367,4.395,16.602,0
1583500886.530,19.531,25.391,25.391,0.488,43.945,0
1583500886.534,24.414,26.367,24.414,6.836,29.297,0
1583500886.538,25.879,26.367,24.414,15.137,38.086,0
1583500886.542,30.273,35.645,31.738,19.531,-41.016,0
1583500886.546,31.738,39.062,32.227,16.113,2.441,0
1583500886.544,26.367,30.762,23.438,12.207,70.801,0
1583500886.548,24.414,28.809,23.438,15.625,57.617,0
1583500886.552,27.832,31.738,23.438,14.160,56.152,0
1583500886.556,30.273,31.738,23.438,7.324,64.453,0
1583500886.560,23.926,30.762,24.902,3.418,81.055,0
1583500886.564,21.973,30.273,24.414,10.742,33.203,0
1583500886.567,23.926,28.809,23.926,14.648,-15.137,0
1583500886.571,22.949,26.855,22.461,8.789,62.012,0
1583500886.575,25.879,35.645,26.855,7.812,43.457,0
1583500886.579,24.414,35.645,25.391,11.719,-9.277,0
1583500886.583,16.113,26.367,18.066,10.742,53.711,0
1583500886.587,16.113,27.832,20.508,9.277,53.711,0
1583500886.583,19.531,31.738,22.461,3.418,24.414,0
1583500886.587,19.043,34.180,24.902,5.371,8.789,0
1583500886.591,19.043,33.691,26.367,12.695,16.602,0
1583500886.595,18.066,31.250,24.902,9.277,-0.488,0
1583500886.599,18.555,31.738,25.879,4.883,-33.691,0
1583500886.603,22.461,35.156,27.344,7.324,12.695,0
1583500886.606,21.973,31.250,26.855,13.184,22.949,0
1583500886.610,21.484,31.250,29.785,10.742,-1.465,0
1583500886.614,20.996,33.691,29.785,2.441,64.941,0
1583500886.618,16.602,29.785,26.367,6.836,81.055,0
1583500886.622,15.625,29.785,25.879,13.672,74.707,0
1583500886.626,19.043,33.203,27.344,18.066,64.941,0
1583500886.643,19.043,33.203,28.809,11.719,33.203,0
1583500886.647,17.578,33.203,28.320,3.906,-1.953,0
1583500886.651,18.066,35.645,30.762,11.719,-12.695,0
1583500886.655,20.508,39.062,31.250,20.020,-12.695,0
1583500886.659,22.949,42.480,31.250,19.531,-7.812,0
1583500886.663,20.020,41.992,32.715,9.277,40.527,0
1583500886.666,20.508,40.527,30.273,9.277,61.035,0
1583500886.670,25.391,43.945,32.715,20.996,51.270,0
1583500886.674,23.438,43.945,34.668,20.508,74.219,0
1583500886.678,18.066,37.109,30.273,10.254,25.391,0
1583500886.682,15.137,34.180,32.227,0.488,-25.391,0
1583500886.686,11.719,34.180,30.273,2.930,-29.297,0
1583500886.684,12.207,33.691,28.320,11.230,-7.324,0
1583500886.688,15.137,33.691,30.762,5.859,4.395,0
1583500886.692,16.113,34.668,31.250,6.836,15.625,0
1583500886.696,17.090,36.621,31.738,11.230,36.133,0
1583500886.700,20.996,35.645,30.762,15.625,42.480,0
1583500886.704,23.926,34.668,32.227,21.484,50.781,0
1583500886.707,25.879,36.621,35.156,16.113,42.480,0
1583500886.711,27.344,33.691,29.785,15.137,77.637,0
1583500886.715,25.391,35.645,28.809,16.602,54.199,0
1583500886.719,23.438,37.109,33.203,14.160,-19.043,0
1583500886.723,25.391,31.250,28.320,8.789,29.785,0
1583500886.727,23.926,31.250,26.367,4.883,85.938,0
1583500886.743,20.020,31.250,29.785,14.160,47.852,0
1583500886.747,21.484,32.715,36.621,16.602,16.602,0
1583500886.751,24.414,33.691,38.086,7.812,-16.113,0
1583500886.755,29.785,32.227,35.645,13.672,35.156,0
1583500886.759,35.156,25.391,35.156,27.832,69.336,0
1583500886.763,41.992,27.832,29.785,37.109,23.926,0
1583500886.766,38.086,39.062,25.391,18.066,59.082,0
1583500886.770,25.879,41.016,23.926,-8.789,101.074,0
1583500886.774,18.555,42.480,16.113,-9.277,64.941,0
1583500886.778,10.254,48.340,7.812,-6.348,27.344,0
1583500886.782,9.277,45.898,5.371,-13.184,42.480,0
1583500886.786,16.113,47.363,4.395,-38.574,33.691,0
1583500886.784,20.020,49.805,0.977,-28.320,-12.695,0
1583500886.788,15.625,45.410,0.977,-5.859,-29.297,0
1583500886.792,17.090,44.434,4.395,-15.137,-17.090,0
1583500886.796,21.973,44.922,7.812,-17.578,-1.953,0
1583500886.800,21.973,41.992,6.348,-16.602,42.969,0
1583500886.804,26.367,38.086,6.836,-5.859,16.113,0
1583500886.807,34.180,36.621,11.230,7.812,5.371,0
1583500886.811,40.527,40.039,14.648,2.441,17.090,0
1583500886.815,41.016,39.062,13.184,0.000,37.598,0
1583500886.819,42.969,36.621,13.672,9.766,120.605,0
1583500886.823,44.434,37.109,19.043,14.160,56.152,0
1583500886.827,43.457,34.668,18.066,8.789,9.277,0
1583500886.824,47.363,36.621,20.996,16.602,41.016,0
1583500886.828,58.105,39.551,22.949,14.160,47.363,0
1583500886.832,55.664,37.109,21.973,9.277,1.953,0
1583500886.836,52.734,31.738,23.438,29.785,-0.488,0
1583500886.840,55.176,26.855,20.508,24.902,60.059,0
1583500886.844,52.734,25.391,22.949,22.461,50.781,0
1583500886.847,47.852,27.344,27.344,29.785,39.551,0
1583500886.851,49.316,30.273,25.879,31.738,43.945,0
1583500886.855,54.199,32.715,28.809,27.344,32.227,0
1583500886.859,51.270,33.691,31.250,22.461,41.016,0
1583500886.863,45.898,32.227,27.832,27.344,55.176,0
1583500886.867,45.410,31.738,28.320,25.879,12.695,0
1583500886.903,49.805,30.762,30.762,19.531,-4.883,0
1583500886.907,49.805,31.250,29.785,25.391,20.996,0
1583500886.911,45.898,29.297,27.344,32.227,40.039,0
1583500886.915,47.852,29.297,29.785,38.574,59.570,0
1583500886.919,54.688,35.156,32.715,37.598,39.062,0
1583500886.923,53.711,35.156,32.227,29.297,14.648,0
1583500886.926,44.922,30.762,29.297,30.762,33.691,0
1583500886.930,41.992,30.273,28.320,37.598,59.570,0
1583500886.934,45.410,28.809,28.320,27.344,16.602,0
1583500886.938,46.387,30.273,28.320,20.996,23.438,0
1583500886.942,40.527,33.203,27.344,21.484,3.906,0
1583500886.946,38.574,32.715,28.809,23.926,-6.348,0
1583500886.924,39.551,31.250,28.320,22.461,17.578,0
1583500886.928,41.992,32.715,28.809,20.508,43.945,0
1583500886.932,42.969,33.203,31.738,23.438,26.855,0
1583500886.936,36.133,34.180,30.273,24.414,44.434,0
1583500886.940,36.621,40.039,31.738,27.344,63.965,0
1583500886.944,48.340,42.969,36.621,29.785,9.766,0
1583500886.947,46.387,41.992,30.762,19.531,-18.555,0
1583500886.951,42.480,41.992,23.926,18.066,34.668,0
1583500886.955,45.410,42.480,27.832,26.367,21.973,0
1583500886.959,49.805,46.387,32.227,29.785,-5.371,0
1583500886.963,50.781,49.316,32.715,24.414,7.324,0
1583500886.967,51.270,48.340,31.738,28.320,18.555,0
1583500886.983,52.246,50.781,32.227,24.414,20.996,0
1583500886.987,51.758,53.223,34.668,13.672,-0.488,0
1583500886.991,51.758,52.734,33.203,34.668,6.348,0
1583500886.995,54.199,57.129,35.645,40.527,18.066,0
1583500886.999,56.152,56.641,39.551,42.969,8.301,0
1583500887.003,54.688,49.805,39.551,44.922,47.363,0
1583500887.006,54.688,50.781,37.109,35.645,50.781,0
1583500887.010,57.129,50.781,34.668,34.180,29.785,0
1583500887.014,60.059,51.758,40.527,39.062,11.230,0
1583500887.018,58.105,50.781,40.527,33.691,-10.254,0
1583500887.022,54.688,48.340,35.645,32.715,-42.480,0
1583500887.026,54.199,49.316,35.156,28.809,-31.250,0
1583500887.024,57.617,50.293,32.227,30.762,7.812,0
1583500887.028,62.988,48.340,31.738,44.922,27.344,0
1583500887.032,54.688,40.039,39.062,37.598,5.859,0
1583500887.036,35.645,37.109,39.551,12.695,-8.301,0
1583500887.040,35.156,36.621,32.715,17.090,52.734,0
1583500887.044,37.598,36.621,37.109,31.250,95.215,0
1583500887.047,31.738,36.621,38.574,22.461,49.316,0
1583500887.051,30.762,34.180,34.668,12.207,4.395,0
1583500887.055,34.180,31.738,36.133,12.207,-0.977,0
1583500887.059,39.062,29.785,36.133,19.531,18.555,0
1583500887.063,42.480,29.785,33.203,23.926,43.945,0
1583500887.067,45.898,36.621,37.109,24.902,46.875,0
1583500887.063,41.992,40.039,38.086,20.996,-4.883,0
1583500887.067,36.621,37.598,32.715,28.809,28.809,0
1583500887.071,40.527,38.574,32.227,14.648,61.523,0
1583500887.075,35.156,40.527,33.691,6.348,55.176,0
1583500887.079,34.180,44.434,35.156,31.250,86.914,0
1583500887.083,37.109,44.434,35.645,26.855,37.109,0
1583500887.086,32.715,44.434,37.109,25.879,20.508,0
1583500887.090,39.062,45.410,37.109,26.855,77.637,0
1583500887.094,38.574,41.504,32.715,24.902,40.039,0
1583500887.098,35.156,46.875,36.133,28.320,13.184,0
1583500887.102,36.621,49.805,41.016,34.180,76.660,0
1583500887.106,36.621,45.410,39.062,31.250,89.844,0
1583500887.103,33.203,44.434,42.969,22.949,49.316,0
1583500887.107,32.227,41.504,41.504,23.438,87.402,0
1583500887.111,32.715,43.945,40.039,32.715,123.535,0
1583500887.115,28.809,46.875,39.551,25.391,21.973,0
1583500887.119,26.855,41.992,35.156,13.184,-41.992,0
1583500887.123,28.809,42.480,37.598,18.555,15.137,0
1583500887.126,28.320,41.504,38.086,26.855,47.852,0
1583500887.130,26.855,38.086,34.668,26.367,6.836,0
1583500887.134,26.855,39.551,35.156,23.438,-28.809,0
1583500887.138,18.555,38.086,36.133,12.207,19.043,0
1583500887.142,15.137,35.156,34.668,12.207,100.586,0
1583500887.146,17.578,32.227,36.133,22.949,75.195,0
1583500887.164,20.996,33.691,39.062,20.508,6.348,0
1583500887.168,27.344,36.133,38.574,17.578,-20.020,0
1583500887.172,26.855,34.180,38.574,16.602,-14.160,0
1583500887.176,24.902,34.668,38.574,22.461,18.066,0
1583500887.180,25.879,37.109,36.133,29.297,66.406,0
1583500887.184,28.809,40.527,37.598,26.855,66.406,0
1583500887.187,25.879,41.504,37.109,25.391,30.762,0
1583500887.191,22.949,40.527,35.645,22.949,28.320,0
1583500887.195,22.949,42.480,38.086,22.949,38.574,0
1583500887.199,22.461,42.480,37.109,21.484,82.031,0
1583500887.203,18.066,39.062,34.668,14.160,35.645,0
1583500887.207,20.020,41.504,38.574,21.484,42.480,0
1583500887.203,22.461,42.480,40.039,19.043,34.180,0
1583500887.207,21.973,40.527,36.621,9.766,-25.879,0
1583500887.211,23.926,42.969,37.109,14.160,-6.348,0
1583500887.215,26.855,44.434,38.574,21.484,41.504,0
1583500887.219,32.227,47.852,41.016,30.273,-1.953,0
1583500887.223,34.180,51.270,44.434,27.344,-22.461,0
1583500887.226,30.273,52.246,45.898,20.996,43.457,0
1583500887.230,24.902,52.246,46.875,24.902,-20.996,0
1583500887.234,21.484,48.828,47.852,31.738,-9.277,0
1583500887.238,26.855,51.758,53.711,35.156,15.625,0
1583500887.242,28.809,50.293,54.199,22.949,18.555,0
1583500887.246,26.367,44.922,48.340,19.531,20.996,0
1583500887.244,29.785,45.410,48.828,34.180,-10.742,0
1583500887.248,29.297,45.898,50.781,38.086,38.574,0
1583500887.252,28.320,48.340,51.758,34.180,53.711,0
1583500887.256,31.250,49.805,51.270,26.367,73.242,0
1583500887.260,31.738,47.852,49.316,30.762,68.848,0
1583500887.264,30.273,47.852,52.246,44.922,53.711,0
1583500887.267,30.273,50.293,54.199,39.551,21.973,0
1583500887.271,28.320,50.293,53.711,32.715,-2.930,0
1583500887.275,29.785,47.363,56.152,33.691,-7.812,0
1583500887.279,30.762,48.828,55.664,36.133,-33.203,0
1583500887.283,28.809,52.246,53.711,36.621,-30.762,0
1583500887.287,32.227,55.664,55.664,35.645,-34.668,0
1583500887.303,35.156,60.547,59.570,40.039,8.301,0
1583500887.307,28.809,57.129,56.641,37.598,111.328,0
1583500887.311,25.879,52.246,57.129,38.086,103.027,0
1583500887.315,29.297,54.199,58.594,37.598,6.836,0
1583500887.319,29.785,58.105,57.617,34.180,62.988,0
1583500887.323,32.227,59.570,61.035,42.969,110.840,0
1583500887.326,33.203,62.012,64.453,41.016,46.875,0
1583500887.330,36.621,63.477,62.500,30.273,2.441,0
1583500887.334,35.156,59.570,60.547,31.250,58.105,0
1583500887.338,32.227,62.012,62.988,38.574,55.664,0
1583500887.342,36.133,65.430,64.453,48.340,30.273,0
1583500887.346,37.109,64.941,63.477,41.992,83.984,0
1583500887.344,36.133,67.871,65.430,38.086,70.312,0
1583500887.348,35.645,68.848,65.918,47.363,59.570,0
1583500887.352,32.227,64.453,63.477,50.293,35.156,0
1583500887.356,32.227,63.477,63.477,46.875,19.531,0
1583500887.360,34.180,67.871,65.918,39.551,58.105,0
1583500887.364,32.227,69.336,67.383,40.039,56.152,0
1583500887.367,32.715,68.359,68.359,45.410,4.883,0
1583500887.371,35.156,68.848,67.383,43.945,-14.648,0
1583500887.375,36.133,70.312,64.941,41.016,50.781,0
1583500887.379,40.039,76.172,71.777,38.574,27.344,0
1583500887.383,37.598,77.148,72.266,41.992,-7.812,0
1583500887.387,35.156,68.848,62.988,41.504,0.000,0
1583500887.384,39.551,71.289,63.965,37.598,13.184,0
1583500887.388,41.504,73.730,65.430,35.645,18.555,0
1583500887.392,44.434,71.777,66.895,39.062,21.484,0
1583500887.396,47.852,71.777,67.383,44.922,-0.977,0
1583500887.400,47.852,68.848,67.383,44.434,-15.625,0
1583500887.404,44.434,67.871,68.848,41.504,15.625,0
1583500887.407,41.992,65.918,67.383,42.480,33.691,0
1583500887.411,44.922,65.918,68.848,47.852,23.926,0
1583500887.415,45.410,66.406,70.312,46.387,63.965,0
1583500887.419,44.434,63.965,68.359,34.668,60.547,0
1583500887.423,43.945,67.383,70.801,34.668,59.082,0
1583500887.427,38.086,70.801,69.824,40.039,28.320,0
1583500887.444,32.227,69.824,67.383,32.715,29.297,0
1583500887.448,23.438,67.383,69.336,16.113,45.410,0
1583500887.452,16.113,70.801,70.312,4.395,24.902,0
1583500887.456,8.301,76.172,72.754,4.395,23.438,0
1583500887.460,-8.789,79.590,77.148,-11.230,-13.672,0
1583500887.464,-27.832,84.473,78.125,-38.086,9.277,0
1583500887.467,-46.387,84.961,78.125,-63.965,-28.320,0
1583500887.471,-65.918,83.008,74.219,-80.078,-26.855,0
1583500887.475,-82.520,84.961,81.055,-86.426,15.137,0
1583500887.479,-102.539,83.984,91.797,-106.445,26.855,0
1583500887.483,-123.047,77.637,85.449,-133.301,82.520,0
1583500887.487,-132.812,78.613,80.566,-142.090,56.152,0
1583500887.484,-140.137,83.984,79.590,-145.020,30.273,0
1583500887.488,-145.020,86.426,79.102,-150.391,23.438,0
1583500887.492,-156.738,83.984,75.195,-161.133,68.359,0
1583500887.496,-163.574,85.449,77.637,-161.621,59.570,0
1583500887.500,-166.504,82.520,82.520,-153.320,4.883,0
1583500887.504,-166.016,74.219,80.078,-148.926,31.250,0
1583500887.507,-151.855,73.730,82.031,-140.625,15.625,0
1583500887.511,-146.484,70.801,81.543,-136.719,13.184,0
1583500887.515,-142.090,68.848,76.172,-129.883,43.457,0
1583500887.519,-127.930,71.289,76.660,-115.234,-12.695,0
1583500887.523,-111.328,68.848,73.730,-101.074,-56.152,0
1583500887.527,-97.656,60.059,65.918,-87.402,8.789,0
1583500887.524,-83.496,55.176,62.012,-66.895,66.895,0
1583500887.528,-62.988,50.781,56.641,-46.387,28.320,0
1583500887.532,-39.062,49.316,51.758,-28.320,-18.555,0
1583500887.536,-21.484,44.922,46.387,-17.090,58.105,0
1583500887.540,-1.953,38.086,41.992,6.348,109.375,0
1583500887.544,17.578,40.039,44.922,37.598,19.043,0
1583500887.547,31.250,38.574,42.969,50.293,-41.504,0
1583500887.551,47.363,35.645,42.969,58.105,1.953,0
1583500887.555,63.965,37.598,45.898,66.406,51.758,0
1583500887.559,70.312,31.738,37.109,80.566,-5.371,0
1583500887.563,76.172,27.344,32.227,95.703,-2.930,0
1583500887.567,84.473,27.832,32.715,101.074,-5.859,0
1583500887.584,88.867,28.320,32.227,106.934,-18.555,0
1583500887.588,95.703,24.902,29.785,112.793,52.246,0
1583500887.592,103.027,24.902,29.297,118.652,36.133,0
1583500887.596,103.516,26.367,30.762,118.652,25.879,0
1583500887.600,108.887,24.414,28.320,112.305,49.805,0
1583500887.604,110.352,28.320,32.715,121.582,20.020,0
1583500887.607,106.934,30.273,35.156,127.441,38.086,0
1583500887.611,113.281,29.297,31.738,125.000,26.855,0
1583500887.615,111.816,28.809,31.250,115.234,22.949,0
1583500887.619,104.004,25.879,28.320,107.422,70.801,0
1583500887.623,102.051,26.855,30.762,114.746,18.555,0
1583500887.627,94.727,23.438,30.273,111.328,13.672,0
1583500887.643,87.402,21.484,27.832,104.492,27.344,0
1583500887.647,81.543,23.438,29.297,100.586,76.172,0
1583500887.651,73.242,21.973,30.762,100.586,92.773,0
1583500887.655,69.824,20.508,31.738,102.051,29.297,0
1583500887.659,67.871,21.973,30.762,93.262,27.344,0
1583500887.663,60.059,21.973,29.785,84.961,-16.602,0
1583500887.666,55.176,22.949,31.738,82.031,-2.441,0
1583500887.670,53.711,25.879,32.227,82.031,-30.762,0
1583500887.674,52.734,29.785,31.250,87.891,-47.363,0
1583500887.678,50.293,30.273,31.250,79.102,15.625,0
1583500887.682,45.898,22.949,27.344,71.777,42.480,0
1583500887.686,46.387,21.973,25.879,77.637,84.473,0
1583500887.665,45.410,25.391,30.273,75.684,46.387,0
1583500887.669,41.992,21.973,30.273,68.359,24.902,0
1583500887.673,45.898,23.926,29.785,68.359,47.852,0
1583500887.677,50.293,26.855,31.250,77.148,24.414,0
1583500887.681,49.316,27.832,31.250,72.266,47.363,0
1583500887.685,49.805,26.855,29.785,60.547,60.547,0
1583500887.688,47.852,23.438,30.273,59.570,40.039,0
1583500887.692,49.316,22.949,29.297,60.059,18.555,0
1583500887.696,52.734,23.926,25.879,57.129,-9.277,0
1583500887.700,49.316,20.996,24.902,48.340,36.133,0
1583500887.704,47.363,22.461,25.391,41.992,111.328,0
1583500887.708,47.852,28.809,27.832,48.340,79.102,0
1583500887.723,45.898,29.297,28.809,51.270,40.527,0
1583500887.727,41.992,27.832,26.367,42.969,34.668,0
1583500887.731,38.086,26.367,24.414,27.344,27.832,0
1583500887.735,35.645,26.367,24.414,26.855,93.262,0
1583500887.739,34.668,26.855,25.391,35.645,44.434,0
1583500887.743,35.645,27.344,25.391,31.738,-1.953,0
1583500887.746,40.039,29.785,28.809,20.020,13.184,0
1583500887.750,41.016,27.832,27.344,11.230,35.156,0
1583500887.754,42.480,31.250,23.926,20.996,82.031,0
1583500887.758,43.945,36.133,27.344,33.691,15.137,0
1583500887.762,48.828,40.039,29.785,31.250,-55.664,0
1583500887.766,52.734,40.527,26.855,27.832,-23.926,0
1583500887.763,48.340,32.715,20.996,26.367,28.320,0
1583500887.767,47.363,27.832,20.996,31.250,51.758,0
1583500887.771,57.617,28.809,21.484,36.621,64.941,0
1583500887.775,60.059,38.574,20.996,26.855,44.434,0
1583500887.779,44.434,41.016,20.508,16.602,-10.742,0
1583500887.783,37.598,36.133,20.508,12.695,-0.977,0
1583500887.786,34.180,36.133,20.020,7.812,-8.301,0
1583500887.790,26.367,33.203,19.043,0.977,-32.227,0
1583500887.794,27.832,33.203,20.996,-0.488,9.766,0
1583500887.798,33.691,34.668,23.926,14.160,-7.812,0
1583500887.802,36.133,32.227,24.902,17.578,10.742,0
1583500887.806,39.551,32.227,26.367,14.160,47.852,0
1583500887.804,37.598,26.367,21.484,11.230,28.320,0
1583500887.808,35.645,25.391,18.066,12.695,64.941,0
1583500887.812,40.527,28.809,20.996,18.555,66.895,0
1583500887.816,44.922,26.367,21.484,13.184,68.848,0
1583500887.820,45.898,28.320,22.949,12.207,107.910,0
1583500887.824,45.410,32.715,24.414,18.066,74.707,0
1583500887.827,44.922,31.738,22.461,20.996,17.578,0
1583500887.831,44.922,31.250,24.902,21.484,50.781,0
1583500887.835,44.922,32.715,24.902,12.207,73.242,0
1583500887.839,49.805,33.691,26.855,16.113,19.531,0
1583500887.843,50.781,31.738,28.809,27.344,-14.160,0
1583500887.847,43.457,29.785,26.855,21.484,-5.371,0
1583500887.864,41.992,32.227,26.855,13.672,29.297,0
1583500887.868,41.504,32.715,27.344,5.859,57.617,0
1583500887.872,42.969,33.691,29.785,11.230,9.766,0
1583500887.876,47.852,32.227,29.297,20.020,-75.684,0
1583500887.880,48.340,30.273,28.320,13.672,-47.852,0
1583500887.884,48.828,31.738,29.785,13.672,56.152,0
1583500887.887,49.805,30.762,28.809,16.113,83.008,0
1583500887.891,52.246,30.762,30.762,23.438,61.035,0
1583500887.895,56.641,33.691,35.645,26.855,47.852,0
1583500887.899,56.152,31.738,34.668,22.949,46.875,0
1583500887.903,55.664,29.785,35.156,22.949,44.922,0
1583500887.907,54.199,36.133,38.574,22.461,30.273,0
1583500887.903,48.340,34.668,37.109,20.996,18.066,0
1583500887.907,46.875,29.785,33.691,16.602,4.395,0
1583500887.911,44.434,31.738,34.668,15.137,-0.488,0
1583500887.915,41.504,33.691,37.598,15.137,18.555,0
1583500887.919,45.898,34.668,37.109,15.137,49.805,0
1583500887.923,48.340,33.691,37.109,11.719,85.449,0
1583500887.926,48.340,32.227,38.574,9.766,35.645,0
1583500887.930,43.945,30.762,37.109,14.648,8.301,0
1583500887.934,45.898,31.250,38.574,19.531,11.230,0
1583500887.938,47.363,31.250,37.598,11.230,11.719,0
1583500887.942,41.992,28.809,33.203,5.371,8.301,0
1583500887.946,43.945,30.273,33.691,16.602,1.465,0
1583500887.943,50.293,31.250,34.668,27.832,43.457,0
1583500887.947,50.293,30.762,34.180,21.973,15.137,0
1583500887.951,48.340,31.250,36.133,14.648,-42.480,0
1583500887.955,49.316,28.320,35.156,19.531,-12.207,0
1583500887.959,47.363,29.297,33.691,25.391,22.949,0
1583500887.963,42.480,33.691,35.156,26.367,32.715,0
1583500887.966,40.039,34.668,33.691,22.461,45.898,0
1583500887.970,40.527,36.621,34.180,14.648,14.648,0
1583500887.974,35.156,35.156,30.762,18.066,66.406,0
1583500887.978,32.715,33.691,29.297,20.508,43.457,0
1583500887.982,36.621,34.668,34.180,14.160,18.555,0
1583500887.986,36.621,36.133,37.598,14.160,36.621,0
1583500888.003,32.715,35.645,38.574,16.602,-15.137,0
1583500888.007,31.738,35.156,36.621,18.066,19.531,0
1583500888.011,35.156,37.598,39.062,20.508,82.520,0
1583500888.015,32.227,37.598,37.109,-8.789,27.344,0
1583500888.019,27.832,33.203,33.203,-5.859,26.367,0
1583500888.023,31.250,38.086,35.156,29.785,33.691,0
1583500888.026,29.297,38.086,35.645,21.973,36.621,0
1583500888.030,25.879,34.180,34.668,16.113,48.340,0
1583500888.034,26.367,38.574,34.668,20.020,24.902,0
1583500888.038,28.809,38.086,34.180,28.809,74.219,0
1583500888.042,28.809,40.527,37.598,27.832,76.172,0
1583500888.046,24.902,41.992,36.621,19.043,1.953,0
1583500888.043,27.344,39.551,33.203,22.949,-21.973,0
1583500888.047,29.297,41.016,36.621,33.203,-10.254,0
1583500888.051,23.926,37.598,36.133,29.785,4.883,0
1583500888.055,22.949,36.133,35.156,21.484,53.711,0
1583500888.059,25.879,38.086,36.133,21.484,68.359,0
1583500888.063,24.902,38.574,36.133,27.832,29.785,0
1583500888.066,21.484,36.621,33.691,28.320,26.855,0
1583500888.070,20.508,36.133,32.227,20.508,21.973,0
1583500888.074,19.531,38.574,32.227,14.648,40.039,0
1583500888.078,17.578,34.668,34.668,16.113,11.230,0
1583500888.082,16.113,25.879,31.738,20.996,-6.836,0
1583500888.086,20.020,27.832,26.855,20.996,21.484,0
1583500888.083,31.738,33.203,29.297,20.020,12.207,0
1583500888.087,35.156,30.762,32.715,25.391,61.523,0
1583500888.091,20.020,23.926,32.715,20.996,63.965,0
1583500888.095,8.301,23.438,31.250,11.230,39.062,0
1583500888.099,11.719,26.855,30.762,4.883,29.297,0
1583500888.103,10.742,29.297,35.645,2.930,43.457,0
1583500888.106,6.836,28.809,36.133,5.371,84.961,0
1583500888.110,8.301,29.297,32.715,8.301,71.777,0
1583500888.114,5.859,30.762,33.691,3.418,40.039,0
1583500888.118,8.301,33.691,39.062,3.418,20.996,0
1583500888.122,15.625,34.668,41.016,12.695,52.734,0
1583500888.126,19.531,33.691,40.527,17.578,71.289,0
1583500888.143,20.508,36.621,41.992,12.695,-7.324,0
1583500888.147,16.602,35.156,39.551,6.836,16.602,0
1583500888.151,12.695,31.250,37.109,9.277,-5.859,0
1583500888.155,15.625,29.785,38.086,9.277,-19.043,0
1583500888.159,18.555,29.297,39.551,8.789,35.645,0
1583500888.163,18.555,31.250,39.062,9.277,18.555,0
1583500888.166,17.090,28.809,34.180,10.254,28.320,0
1583500888.170,17.090,24.902,32.227,16.113,50.293,0
1583500888.174,21.484,23.926,32.227,13.184,44.922,0
1583500888.178,21.973,23.926,31.250,3.418,29.297,0
1583500888.182,18.066,27.344,35.156,1.953,-8.301,0
1583500888.186,17.090,26.367,32.715,4.395,20.996,0
1583500888.183,19.043,23.926,22.461,6.836,30.273,0
1583500888.187,20.996,25.391,20.020,0.977,32.227,0
1583500888.191,24.414,28.320,23.926,0.977,51.270,0
1583500888.195,23.438,24.414,24.902,11.230,17.578,0
1583500888.199,16.602,19.531,19.531,13.672,-6.348,0
1583500888.203,16.602,20.020,17.578,12.695,16.113,0
1583500888.206,19.043,17.090,18.066,2.930,78.613,0
1583500888.210,17.090,13.184,15.137,4.395,43.945,0
1583500888.214,14.160,15.137,17.578,13.184,27.344,0
1583500888.218,9.766,16.602,18.555,-1.465,47.852,0
1583500888.222,8.301,15.137,12.695,-6.348,22.461,0
1583500888.226,7.812,17.578,12.695,-2.441,59.570,0
1583500888.244,5.371,17.090,12.207,1.953,35.645,0
1583500888.248,3.906,19.531,10.742,8.301,8.301,0
1583500888.252,0.488,18.555,10.742,-3.418,39.062,0
1583500888.256,-3.418,14.648,10.254,-8.301,20.508,0
1583500888.260,-3.418,17.578,14.160,-4.883,9.766,0
1583500888.264,-5.371,15.137,12.695,-6.836,50.293,0
1583500888.267,-10.254,12.207,10.742,-8.789,70.312,0
1583500888.271,-10.742,14.648,12.695,-14.648,28.320,0
1583500888.275,-9.277,14.160,11.719,-5.859,36.621,0
1583500888.279,-8.789,15.625,14.648,-2.930,27.832,0
1583500888.283,-5.859,17.578,15.137,-8.789,53.223,0
1583500888.287,-0.977,19.531,15.625,-6.348,88.379,0
1583500888.283,-1.953,20.020,16.113,-8.789,34.668,0
1583500888.287,-3.906,19.043,15.137,-6.348,10.254,0
1583500888.291,2.930,24.902,20.020,-2.930,65.918,0
1583500888.295,10.742,26.367,21.484,-4.395,53.223,0
1583500888.299,3.906,20.996,17.578,-1.465,29.297,0
1583500888.303,-1.465,20.508,14.648,-0.977,24.414,0
1583500888.306,0.977,20.508,13.672,0.000,33.691,0
1583500888.310,2.930,19.043,16.602,-9.766,62.500,0
1583500888.314,4.395,20.020,19.531,-15.625,2.441,0
1583500888.318,6.836,20.996,19.043,-6.348,-1.465,0
1583500888.322,10.742,20.020,20.508,-3.418,34.180,0
1583500888.326,7.324,18.066,21.973,-8.301,18.555,0
1583500888.324,4.883,17.090,19.531,-12.207,22.461,0
1583500888.328,6.348,17.090,18.066,-4.395,36.133,0
1583500888.332,7.324,21.973,20.508,4.883,89.844,0
1583500888.336,8.301,24.414,21.973,2.930,74.219,0
1583500888.340,5.859,21.484,19.531,-0.488,8.301,0
1583500888.344,6.348,20.508,20.996,-0.977,25.391,0
1583500888.347,5.859,18.555,20.508,0.488,55.176,0
1583500888.351,5.371,20.020,19.531,3.418,41.504,0
1583500888.355,4.395,22.949,20.020,-0.488,8.301,0
1583500888.359,5.371,20.020,16.602,-4.883,35.645,0
1583500888.363,4.395,18.555,16.602,-3.418,55.176,0
1583500888.367,3.906,18.555,21.484,1.953,15.625,0
1583500888.384,7.324,16.602,19.531,0.000,33.691,0
1583500888.388,9.277,18.555,21.484,-0.977,71.777,0
1583500888.392,10.742,22.461,24.414,7.812,12.207,0
1583500888.396,8.789,19.531,19.043,6.836,38.086,0
1583500888.400,10.742,19.043,16.602,3.418,81.543,0
1583500888.404,13.184,19.531,16.602,0.488,57.617,0
1583500888.407,18.555,21.973,21.484,2.930,-2.930,0
1583500888.411,22.461,24.414,21.973,4.883,-29.785,0
1583500888.415,20.996,21.973,16.602,0.000,11.719,0
1583500888.419,21.484,22.461,17.578,-2.441,41.016,0
1583500888.423,23.438,21.973,20.020,0.977,19.531,0
1583500888.427,24.414,22.949,18.555,9.766,6.836,0
1583500888.424,25.879,23.926,18.066,8.301,45.898,0
1583500888.428,27.832,23.926,19.531,-1.953,22.949,0
1583500888.432,24.902,26.367,21.484,0.977,-16.113,0
1583500888.436,17.578,22.461,20.508,8.301,40.039,0
1583500888.440,15.625,20.508,20.508,7.324,46.387,0
1583500888.444,19.043,24.414,23.438,5.859,22.949,0
1583500888.447,15.137,21.973,22.461,-1.465,24.414,0
1583500888.451,8.301,18.555,20.020,0.000,28.809,0
1583500888.455,6.348,18.066,19.531,6.836,65.918,0
1583500888.459,8.789,19.531,20.020,3.906,15.625,0
1583500888.463,13.184,24.902,22.461,4.883,0.488,0
1583500888.467,12.207,24.414,20.508,5.859,75.195,0
1583500888.464,10.742,20.996,14.648,7.812,68.848,0
1583500888.468,11.719,20.508,15.625,5.859,50.293,0
1583500888.472,8.301,20.996,14.648,1.465,45.898,0
1583500888.476,5.371,18.066,14.160,-1.465,17.090,0
1583500888.480,6.836,19.043,18.066,0.488,-22.949,0
1583500888.484,5.371,20.508,19.043,3.906,-40.527,0
1583500888.487,3.906,18.066,17.578,-4.395,10.254,0
1583500888.491,4.395,19.043,17.090,-5.371,71.777,0
1583500888.495,7.812,20.996,19.043,-2.441,50.293,0
1583500888.499,11.230,24.414,20.508,-4.395,0.488,0
1583500888.503,16.113,28.809,18.555,-4.395,1.953,0
1583500888.507,18.066,27.344,18.066,-2.441,37.598,0
1583500888.524,19.043,26.855,18.066,0.977,26.367,0
1583500888.528,16.113,24.902,15.625,2.930,11.719,0
1583500888.532,17.578,21.973,14.648,-1.953,15.137,0
1583500888.536,19.531,24.902,14.648,-4.395,2.930,0
1583500888.540,18.555,24.902,13.672,1.953,51.270,0
1583500888.544,20.508,24.902,16.602,8.789,71.289,0
1583500888.547,22.949,26.855,21.973,11.230,44.434,0
1583500888.551,23.438,25.391,21.484,3.418,33.691,0
1583500888.555,26.367,26.855,18.066,2.930,22.461,0
1583500888.559,27.344,28.320,18.555,13.672,6.836,0
1583500888.563,20.508,24.414,19.043,9.766,-16.113,0
1583500888.567,22.949,23.438,21.973,5.371,-0.488,0
1583500888.564,24.414,23.438,23.438,1.953,35.645,0
1583500888.568,21.973,23.926,22.461,7.812,79.102,0
1583500888.572,25.391,23.926,21.973,11.719,89.844,0
1583500888.576,26.855,23.926,22.949,3.418,48.828,0
1583500888.580,22.461,27.832,22.949,-1.465,-26.367,0
1583500888.584,21.973,31.250,22.461,3.906,-21.484,0
1583500888.587,22.461,30.273,23.926,10.742,78.125,0
1583500888.591,19.531,26.367,18.555,1.953,96.680,0
1583500888.595,21.484,24.902,15.625,-6.348,29.785,0
1583500888.599,22.949,24.414,19.531,-1.465,25.879,0
1583500888.603,21.973,26.855,23.438,3.906,22.461,0
1583500888.607,23.438,25.879,20.020,7.812,-15.625,0
1583500888.604,27.344,24.414,18.555,11.719,14.160,0
1583500888.608,29.297,28.320,14.160,11.230,37.598,0
1583500888.612,24.414,32.715,14.160,10.254,29.785,0
1583500888.616,13.672,32.227,17.090,1.465,33.203,0
1583500888.620,12.695,27.344,14.648,-5.371,2.441,0
1583500888.624,20.996,30.762,18.555,-0.977,20.020,0
1583500888.627,25.879,36.133,21.484,2.930,64.453,0
1583500888.631,24.902,33.203,19.531,2.441,53.223,0
1583500888.635,24.902,34.180,23.438,-7.324,52.246,0
1583500888.639,23.438,30.273,23.438,-7.324,31.250,0
1583500888.643,21.484,26.855,20.020,-2.930,20.508,0
1583500888.647,22.949,27.832,22.461,0.977,11.230,0
1583500888.664,23.926,27.832,23.438,3.906,26.367,0
1583500888.668,22.949,29.785,21.484,-3.906,47.852,0
1583500888.672,24.414,31.738,18.555,3.906,44.434,0
1583500888.676,23.438,31.738,19.531,13.672,7.812,0
1583500888.680,25.391,30.762,23.438,13.672,-65.430,0
1583500888.684,24.902,30.762,24.414,11.230,16.113,0
1583500888.687,19.043,29.297,24.902,4.883,44.434,0
1583500888.691,19.043,29.785,25.391,6.348,-15.137,0
1583500888.695,16.113,30.762,24.414,11.230,-9.766,0
1583500888.699,14.160,30.273,25.391,7.324,-20.508,0
1583500888.703,14.648,31.250,24.902,0.488,19.531,0
1583500888.707,10.742,33.203,25.879,3.418,57.129,0
1583500888.704,10.742,29.297,25.391,6.348,17.578,0
1583500888.708,14.160,29.785,27.344,6.836,23.438,0
1583500888.712,14.648,31.738,28.320,4.395,61.523,0
1583500888.716,13.184,25.391,23.926,-3.906,19.043,0
1583500888.720,14.160,25.391,24.902,1.465,10.742,0
1583500888.724,19.043,27.832,23.438,10.254,46.875,0
1583500888.727,20.996,26.367,20.996,2.930,0.000,0
1583500888.731,16.113,25.391,24.414,-0.488,-20.996,0
1583500888.735,16.113,26.855,22.949,3.906,5.371,0
1583500888.739,17.578,29.297,22.461,3.418,78.125,0
1583500888.743,16.113,26.367,23.438,-1.953,64.453,0
1583500888.747,14.648,26.367,20.996,-4.395,49.805,0
1583500888.744,11.719,32.715,22.949,4.395,43.457,0
1583500888.748,2.441,30.273,22.949,-1.953,21.973,0
1583500888.752,-1.465,25.391,20.996,-11.719,43.457,0
1583500888.756,0.488,22.461,21.973,-10.254,-1.465,0
1583500888.760,-3.418,20.508,20.020,-2.441,31.738,0
1583500888.764,-3.906,23.438,20.996,5.371,54.688,0
1583500888.767,-4.395,25.391,21.973,-3.906,15.137,0
1583500888.771,-5.859,27.344,24.902,-7.324,16.113,0
1583500888.775,-7.324,28.320,25.879,-1.465,8.789,0
1583500888.779,-12.207,24.902,19.043,1.465,37.598,0
1583500888.783,-15.625,24.414,19.043,3.418,67.871,0
1583500888.787,-14.648,25.391,21.484,-9.277,15.625,0
1583500888.803,-6.836,26.367,20.996,-6.836,-2.930,0
1583500888.807,1.465,27.832,25.391,8.301,23.926,0
1583500888.811,0.000,25.879,25.879,2.441,34.180,0
1583500888.815,0.488,24.902,20.996,-2.930,57.129,0
1583500888.819,7.812,24.414,21.484,-1.953,49.805,0
1583500888.823,13.672,23.438,25.391,5.859,30.273,0
1583500888.826,16.602,24.414,26.855,9.277,34.668,0
1583500888.830,16.602,22.949,22.949,2.441,38.574,0
1583500888.834,15.137,23.926,18.555,-1.465,20.996,0
1583500888.838,26.367,30.273,18.066,1.465,15.137,0
1583500888.842,38.086,30.762,20.508,13.672,67.383,0
1583500888.846,26.367,24.414,24.902,7.324,97.168,0
1583500888.843,13.672,15.625,24.414,-11.230,43.945,0
1583500888.847,12.207,7.812,24.902,-3.906,60.059,0
1583500888.851,12.695,6.348,28.320,1.953,50.293,0
1583500888.855,15.137,6.836,29.297,-4.883,39.062,0
1583500888.859,13.672,6.348,33.203,-9.277,76.172,0
1583500888.863,8.789,6.836,33.691,-9.766,78.613,0
1583500888.866,9.277,7.812,32.227,-4.883,46.875,0
1583500888.870,15.625,6.348,31.250,-2.930,31.738,0
1583500888.874,22.461,5.859,26.367,-4.883,-10.742,0
1583500888.878,28.320,14.160,31.250,-1.465,13.672,0
1583500888.882,31.738,20.996,35.645,2.441,28.320,0
1583500888.886,27.832,16.113,26.855,1.953,-18.066,0
1583500888.883,22.949,12.695,22.949,-7.812,-6.348,0
1583500888.887,21.973,17.090,24.414,-8.789,-10.742,0
1583500888.891,21.973,19.531,24.902,1.953,11.719,0
1583500888.895,23.926,19.043,23.926,7.324,42.480,0
1583500888.899,27.344,20.508,26.367,5.371,53.711,0
1583500888.903,27.832,22.949,31.250,-0.977,66.406,0
1583500888.906,29.297,21.973,29.297,2.441,56.641,0
1583500888.910,31.250,22.949,29.297,13.184,57.129,0
1583500888.914,31.250,24.414,29.785,8.789,1.953,0
1583500888.918,32.227,25.391,27.832,0.977,-17.090,0
1583500888.922,30.273,28.809,27.344,3.906,36.133,0
1583500888.926,26.855,25.391,22.461,8.301,10.742,0
1583500888.943,27.832,24.414,21.484,11.230,-10.742,0
1583500888.947,27.832,24.414,21.973,7.324,36.133,0
1583500888.951,28.320,23.926,22.461,4.883,37.598,0
1583500888.955,27.832,24.902,23.926,3.418,41.504,0
1583500888.959,28.809,23.926,23.926,4.395,82.520,0
1583500888.963,31.250,25.391,24.414,6.348,36.133,0
1583500888.966,30.273,27.832,27.344,0.000,79.102,0
1583500888.970,27.344,25.879,25.391,0.488,99.121,0
1583500888.974,28.809,24.902,24.902,12.207,31.250,0
1583500888.978,34.180,26.855,29.785,16.113,34.180,0
1583500888.982,28.809,23.438,27.344,9.766,32.715,0
1583500888.986,21.973,19.043,21.484,4.883,-5.371,0
1583500888.983,23.926,19.531,21.484,10.254,-6.348,0
1583500888.987,27.344,19.531,25.879,13.672,0.000,0
1583500888.991,25.391,19.531,27.832,6.836,0.977,0
1583500888.995,22.949,16.602,25.879,3.906,45.898,1
1583500888.999,20.996,15.137,23.438,5.859,46.875,0
1583500889.003,16.113,14.648,22.949,2.930,33.203,0
1583500889.006,16.602,17.090,21.484,-3.418,-11.230,0
1583500889.010,19.043,23.438,26.367,-1.465,-2.441,0
1583500889.014,14.648,21.973,26.855,6.836,51.270,0
1583500889.018,7.324,16.113,24.414,10.742,19.531,0
1583500889.022,10.742,16.113,22.949,9.277,17.090,0
1583500889.026,10.254,21.484,16.113,-4.395,23.438,0
1583500889.023,1.953,26.367,14.160,-10.742,0.488,0
1583500889.027,-0.977,25.879,13.672,-9.766,-75.195,0
1583500889.031,-7.812,25.391,14.160,-18.066,-81.055,0
1583500889.035,-11.230,27.832,14.648,-24.414,18.555,0
1583500889.039,-10.742,28.320,14.160,-21.973,60.059,0
1583500889.043,-13.184,26.855,14.160,-13.184,20.508,0
1583500889.046,-12.695,25.391,14.648,-7.812,-0.488,0
1583500889.050,-8.789,25.879,16.602,-11.719,40.039,0
1583500889.054,-6.836,25.879,15.625,-15.137,58.594,0
1583500889.058,-4.395,26.855,17.090,-6.836,42.480,0
1583500889.062,-5.371,28.320,18.066,-0.977,47.852,0
1583500889.066,-1.953,29.297,15.625,-5.371,7.812,0
1583500889.083,5.371,30.762,18.066,-7.812,-10.742,0
1583500889.087,2.441,29.297,16.602,-6.348,22.461,0
1583500889.091,1.953,28.320,14.648,-5.859,17.090,0
1583500889.095,7.324,30.762,19.531,-5.859,70.312,0
1583500889.099,11.719,31.250,19.531,-6.348,77.148,0
1583500889.103,9.277,27.832,16.602,-4.883,27.344,0
1583500889.106,5.371,23.926,16.113,-5.371,48.828,0
1583500889.110,5.371,22.949,13.184,-7.324,112.305,0
1583500889.114,9.277,23.926,12.695,-4.883,54.688,0
1583500889.118,9.766,23.926,14.648,-5.859,18.066,0
1583500889.122,8.789,25.391,13.672,-1.953,74.707,0
1583500889.126,11.230,24.902,15.137,-1.465,75.684,0
1583500889.123,11.719,22.949,16.602,-10.254,54.688,0
1583500889.127,9.277,22.949,14.648,-9.277,-3.418,0
1583500889.131,9.766,22.949,12.207,-0.488,-15.137,0
1583500889.135,13.672,26.855,15.137,5.859,12.695,0
1583500889.139,14.160,27.344,14.648,-4.883,2.441,0
1583500889.143,12.207,24.902,12.207,-12.207,17.090,0
1583500889.146,13.184,23.926,13.184,-4.883,-2.930,0
1583500889.150,14.160,23.438,12.207,-0.488,34.668,0
1583500889.154,15.625,22.461,10.254,-0.488,51.758,0
1583500889.158,16.602,25.879,15.137,-4.395,43.945,0
1583500889.162,12.695,22.949,14.648,-5.371,23.926,0
1583500889.166,13.184,17.578,12.207,4.395,23.926,0
1583500889.163,21.484,21.973,18.555,8.301,33.203,0
1583500889.167,18.066,20.508,18.066,2.441,41.504,0
1583500889.171,13.672,17.578,16.602,-3.906,63.477,0
1583500889.175,14.648,18.066,17.090,2.441,63.965,0
1583500889.179,13.184,18.555,17.578,8.789,0.977,0
1583500889.183,16.113,19.043,19.043,0.977,-45.898,0
1583500889.186,14.160,19.043,18.066,-3.418,-16.113,0
1583500889.190,10.254,19.531,20.508,-1.465,38.086,0
1583500889.194,6.836,17.578,21.973,-3.418,95.215,0
1583500889.198,6.348,18.066,21.484,-5.859,97.656,0
1583500889.202,6.836,20.020,21.973,-11.719,45.410,0
1583500889.206,5.859,18.555,22.949,-7.324,42.480,0
1583500889.223,14.648,23.926,27.832,-0.977,101.562,0
1583500889.227,18.066,23.438,27.344,-9.277,33.691,0
1583500889.231,17.578,20.508,23.926,-6.348,20.996,0
1583500889.235,22.461,21.484,24.414,-0.977,-2.441,0
1583500889.239,21.484,20.020,23.438,-0.488,-76.660,0
1583500889.243,23.926,24.902,23.438,-2.930,-1.953,0
1583500889.246,30.273,26.855,23.926,-9.277,36.133,0
1583500889.250,31.250,22.461,22.949,-6.836,43.457,0
1583500889.254,34.668,23.438,22.461,1.953,28.809,0
1583500889.258,37.598,25.879,24.414,8.789,-3.906,0
1583500889.262,35.156,23.926,23.926,1.953,22.949,0
1583500889.266,32.715,21.484,21.484,-8.789,29.785,0
1583500889.263,35.645,22.461,19.531,-2.930,-45.410,0
1583500889.267,38.574,21.484,17.090,3.906,24.414,0
1583500889.271,35.156,22.949,18.555,6.348,72.754,0
1583500889.275,28.320,23.926,21.973,-1.465,29.785,0
1583500889.279,23.926,21.973,21.484,-1.953,66.895,0
1583500889.283,21.973,22.949,21.973,5.371,42.480,0
1583500889.286,25.879,24.414,22.461,4.395,41.992,0
1583500889.290,29.785,22.461,19.531,4.395,88.867,0
1583500889.294,23.438,19.531,18.555,-2.441,40.039,0
1583500889.298,19.531,17.578,19.531,0.000,-5.371,0
1583500889.302,19.531,14.648,20.996,5.859,41.016,0
1583500889.306,23.926,15.625,23.926,1.953,-2.930,0
1583500889.303,25.879,16.113,21.973,1.953,4.883,0
1583500889.307,29.785,19.531,23.438,12.207,34.180,0
1583500889.311,31.738,20.996,30.273,17.578,10.742,0
1583500889.315,15.625,15.137,31.738,2.441,28.320,0
1583500889.319,7.324,13.184,32.715,-3.906,75.195,0
1583500889.323,13.184,14.160,36.621,9.766,93.262,0
1583500889.326,8.301,14.160,34.180,4.395,74.707,0
1583500889.330,2.441,12.695,31.250,-10.742,65.918,0
1583500889.334,4.395,10.742,27.832,-13.184,35.645,0
1583500889.338,7.812,10.254,25.391,-6.836,-9.277,0
1583500889.342,9.277,10.254,25.391,2.441,-42.969,0
1583500889.346,6.348,9.277,21.484,-2.930,19.043,0
1583500889.363,8.301,12.695,22.949,-9.766,74.707,0
1583500889.367,6.836,11.230,22.949,-11.719,47.363,0
1583500889.371,3.418,9.277,21.484,-10.742,36.621,0
1583500889.375,5.859,10.742,21.973,-9.766,21.973,0
1583500889.379,3.906,8.301,21.484,-15.625,29.297,0
1583500889.383,6.836,12.207,25.391,-14.648,84.961,0
1583500889.386,11.230,16.113,24.414,-4.395,34.668,0
1583500889.390,7.812,10.254,17.578,-2.441,-4.395,0
1583500889.394,7.812,11.719,18.555,-3.418,39.551,0
1583500889.398,8.301,12.695,20.508,-6.348,38.574,0
1583500889.402,8.789,15.137,20.996,-4.395,42.969,0
1583500889.406,9.277,19.531,17.578,1.465,30.273,0
1583500889.404,10.254,17.090,15.625,-1.465,78.125,0
1583500889.408,19.531,19.531,18.066,0.000,71.289,0
1583500889.412,20.508,23.926,21.973,0.000,-20.996,0
1583500889.416,17.578,24.414,21.973,4.395,26.855,0
1583500889.420,18.555,22.461,19.531,3.418,30.762,0
1583500889.424,11.719,20.996,20.996,-3.418,9.277,0
1583500889.427,13.672,23.926,20.996,-0.977,33.691,0
1583500889.431,15.625,21.484,19.043,2.441,48.828,0
1583500889.435,10.742,19.043,21.484,5.371,13.184,0
1583500889.439,12.207,21.973,24.414,2.441,41.992,0
1583500889.443,12.207,19.531,21.973,-3.418,63.477,0
1583500889.447,9.766,20.508,21.484,1.465,45.410,0
1583500889.443,8.789,22.461,20.996,1.953,15.137,0
1583500889.447,9.766,21.973,21.973,-1.953,-5.371,0
1583500889.451,14.648,21.973,23.926,-4.883,71.777,0
1583500889.455,13.184,22.461,20.508,-1.953,52.246,0
1583500889.459,8.789,24.414,19.531,4.883,4.883,0
1583500889.463,11.719,24.902,19.043,-3.906,51.270,0
1583500889.466,16.602,26.855,20.508,-3.906,18.066,0
1583500889.470,19.531,30.762,23.438,0.977,-3.418,0
1583500889.474,14.648,25.391,17.090,-4.395,46.387,0
1583500889.478,15.137,20.996,14.648,2.441,41.504,0
1583500889.482,18.555,23.438,18.555,1.465,25.391,0
1583500889.486,19.043,22.461,18.066,-2.441,52.246,0
1583500889.504,19.043,20.508,19.531,2.930,-4.883,0
1583500889.508,16.113,18.066,19.531,5.859,32.227,0
1583500889.512,12.695,16.602,19.043,1.953,93.750,0
1583500889.516,13.184,16.113,20.508,-6.836,65.430,0
1583500889.520,14.648,16.113,22.949,0.000,2.930,0
1583500889.524,11.719,17.578,25.879,7.324,9.277,0
1583500889.527,14.160,17.578,27.344,4.395,41.016,0
1583500889.531,13.184,15.137,27.344,1.953,24.414,0
1583500889.535,10.254,15.137,27.344,0.977,22.949,0
1583500889.539,10.254,15.625,26.855,4.883,45.898,0
1583500889.543,8.789,17.090,26.367,1.953,47.363,0
1583500889.547,8.789,17.578,25.391,-5.371,53.711,0
1583500889.544,8.301,17.090,24.902,-1.465,69.824,0
1583500889.548,9.277,21.973,24.902,3.906,5.859,0
1583500889.552,10.254,23.926,26.855,7.324,-13.184,0
1583500889.556,11.230,23.926,32.227,8.301,17.090,0
1583500889.560,11.719,23.438,35.156,0.977,6.348,0
1583500889.564,9.277,21.973,34.668,2.930,38.086,0
1583500889.567,10.254,25.391,34.668,8.789,98.633,0
1583500889.571,14.648,28.320,35.645,7.812,41.504,0
1583500889.575,15.137,25.879,35.645,3.418,24.902,0
1583500889.579,11.230,20.996,35.156,-2.441,42.969,0
1583500889.583,9.766,19.531,33.691,1.953,26.855,0
1583500889.587,15.137,22.949,33.203,3.906,-0.488,0
1583500889.584,17.578,21.484,32.227,0.488,27.832,0
1583500889.588,16.602,20.020,33.203,3.418,66.895,0
1583500889.592,16.113,21.484,32.715,8.301,3.906,0
1583500889.596,17.090,20.996,30.273,7.324,36.621,0
1583500889.600,19.531,21.484,29.785,0.488,68.848,0
1583500889.604,21.484,24.902,31.250,2.441,-4.395,0
1583500889.607,22.949,24.902,29.297,7.812,-11.719,0
1583500889.611,20.020,24.414,28.809,3.906,10.254,0
1583500889.615,17.090,24.414,29.297,-2.441,1.953,0
1583500889.619,18.555,24.902,28.320,-2.930,-6.348,0
1583500889.623,16.113,22.949,24.414,0.488,-4.883,0
1583500889.627,14.648,22.461,20.508,3.906,-12.695,0
1583500889.644,19.531,22.461,21.484,1.953,-25.391,0
1583500889.648,20.996,19.531,19.531,-3.906,1.465,0
1583500889.652,20.508,20.020,21.484,1.953,13.184,0
1583500889.656,25.879,19.043,20.996,11.719,36.133,0
1583500889.660,25.879,19.531,21.484,4.883,6.836,0
1583500889.664,24.902,22.949,26.855,0.000,46.875,0
1583500889.667,28.809,22.949,26.367,6.836,104.492,0
1583500889.671,24.902,19.043,25.391,7.812,103.516,0
1583500889.675,20.996,18.555,25.879,2.441,66.406,0
1583500889.679,20.508,19.531,26.367,-1.953,-7.812,0
1583500889.683,22.949,25.879,33.691,0.488,-20.996,0
1583500889.687,20.996,25.391,31.250,2.930,-10.254,0
1583500889.683,20.020,20.020,24.902,0.488,6.348,0
1583500889.687,23.438,24.414,26.855,2.930,12.207,0
1583500889.691,20.996,24.414,25.879,-0.488,15.625,0
1583500889.695,21.973,25.879,26.367,-2.930,-20.020,0
1583500889.699,25.879,25.879,25.391,-0.977,-4.883,0
1583500889.703,26.367,25.391,22.461,-4.395,74.707,0
1583500889.706,24.902,26.367,22.949,-7.812,35.156,0
1583500889.710,21.973,24.902,20.996,-1.953,24.902,0
1583500889.714,20.508,28.809,23.438,5.371,54.688,0
1583500889.718,20.508,27.344,26.855,-3.906,-9.766,0
1583500889.722,18.066,20.996,21.973,-10.254,-26.367,0
1583500889.726,15.625,23.438,20.020,-0.977,-1.465,0
1583500889.744,12.695,23.438,18.555,5.371,37.598,0
1583500889.748,14.160,23.438,18.555,7.812,42.969,0
1583500889.752,12.695,23.926,19.043,0.488,58.105,0
1583500889.756,13.672,25.391,19.531,0.000,41.504,0
1583500889.760,19.043,28.320,20.508,12.207,9.766,0
1583500889.764,14.648,26.367,18.555,11.719,83.008,0
1583500889.767,12.207,26.855,19.043,6.348,87.891,0
1583500889.771,14.160,29.785,22.461,2.441,62.500,0
1583500889.775,8.301,24.902,20.996,4.883,45.898,0
1583500889.779,0.000,20.996,17.090,8.301,46.387,0
1583500889.783,0.977,24.902,19.043,6.348,-16.113,0
1583500889.787,1.465,25.879,21.484,5.859,-20.996,0
1583500889.784,-2.930,23.926,22.949,2.930,55.664,0
1583500889.788,-7.324,22.949,19.531,3.906,4.883,0
1583500889.792,-7.812,22.949,19.043,8.789,20.996,0
1583500889.796,-9.277,23.926,20.508,1.465,59.082,0
1583500889.800,-13.184,24.414,20.508,-0.488,19.531,0
1583500889.804,-13.672,25.391,25.391,4.883,15.137,0
1583500889.807,-16.113,24.902,25.391,0.977,13.184,0
1583500889.811,-15.625,21.484,21.484,-1.465,12.695,0
1583500889.815,-13.184,19.531,19.043,-1.465,-5.859,0
1583500889.819,-11.719,21.484,17.578,7.324,28.320,0
1583500889.823,-9.277,25.391,24.414,5.859,57.617,0
1583500889.827,-10.742,23.438,21.973,-5.859,29.785,0
1583500889.824,-15.137,20.996,14.648,-4.883,65.430,0
1583500889.828,-18.555,21.973,18.555,-0.488,64.941,0
1583500889.832,-19.043,23.438,22.461,6.836,41.016,0
1583500889.836,-16.113,24.902,23.438,0.000,58.594,0
1583500889.840,-13.672,25.879,23.926,-10.742,26.855,0
1583500889.844,-10.254,24.902,24.414,-2.441,-5.371,0
1583500889.847,-5.859,24.414,22.949,2.441,12.695,0
1583500889.851,-2.930,22.949,17.578,-2.930,18.066,0
1583500889.855,5.371,23.438,19.531,-6.836,33.203,0
1583500889.859,14.160,28.809,25.391,-1.953,56.641,0
1583500889.863,16.602,26.855,26.855,6.348,21.973,0
1583500889.867,17.090,21.484,25.391,5.371,51.270,0
1583500889.883,18.555,21.484,21.973,-0.488,61.035,0
1583500889.887,17.578,22.949,22.949,-5.859,14.160,0
1583500889.891,20.996,24.414,23.926,-0.488,-3.418,0
1583500889.895,24.414,25.391,21.973,5.371,-1.953,0
1583500889.899,23.926,24.902,21.973,3.418,27.832,0
1583500889.903,21.973,23.926,22.949,0.000,67.871,0
1583500889.906,23.438,25.391,26.855,1.465,61.523,0
1583500889.910,27.832,25.391,25.879,3.418,-5.859,0
1583500889.914,24.902,20.508,22.461,2.930,-2.441,0
1583500889.918,22.461,19.043,21.973,0.977,37.598,0
1583500889.922,24.902,20.996,21.973,5.859,52.734,0
1583500889.926,22.949,22.461,28.809,10.742,53.223,0
1583500889.943,16.113,19.043,27.832,2.441,11.230,0
1583500889.947,15.137,18.066,20.508,-11.719,-38.574,0
1583500889.951,18.066,22.949,22.461,-10.742,-59.082,0
1583500889.955,17.578,23.926,28.320,-1.465,-18.555,0
1583500889.959,17.090,24.902,31.738,-0.977,34.180,0
1583500889.963,17.578,24.902,32.227,-3.418,38.086,0
1583500889.966,15.625,23.438,32.715,-6.836,39.062,0
1583500889.970,18.066,25.391,32.227,-0.488,40.527,0
1583500889.974,18.066,22.949,28.809,2.441,42.480,0
1583500889.978,20.996,24.902,32.227,-0.488,-4.395,0
1583500889.982,24.902,30.762,34.668,-4.395,8.301,0
1583500889.986,16.113,23.926,27.344,-7.324,72.754,0
1583500889.963,16.113,19.531,23.438,0.488,58.594,0
1583500889.967,20.996,21.484,24.902,4.395,24.902,0
1583500889.971,23.926,21.484,24.902,3.906,59.082,0
1583500889.975,28.320,21.973,24.902,5.371,61.523,0
1583500889.979,20.020,19.531,23.438,4.395,96.680,0
1583500889.983,19.531,18.555,22.949,0.977,38.574,0
1583500889.986,20.508,16.602,21.484,-3.906,-28.320,0
1583500889.990,14.160,17.090,24.414,-7.324,38.574,0
1583500889.994,14.648,19.531,28.320,0.977,22.949,0
1583500889.998,14.160,20.508,26.855,2.930,8.789,0
1583500890.002,13.184,22.949,26.367,-4.883,42.969,0
1583500890.006,9.766,24.414,28.320,-6.348,39.551,0
1583500890.023,11.719,24.902,31.738,-1.465,-53.223,0
1583500890.027,12.695,25.391,33.203,-1.465,-37.109,0
1583500890.031,10.254,20.020,28.809,-9.277,16.602,0
1583500890.035,16.113,13.184,26.367,-16.113,0.488,0
1583500890.039,8.789,16.602,28.809,-9.277,19.531,0
1583500890.043,6.348,21.484,31.738,-4.395,22.461,0
1583500890.046,17.578,24.414,32.715,-7.324,49.316,0
1583500890.050,15.625,25.879,31.738,-9.766,79.102,0
1583500890.054,6.348,21.484,27.832,-5.859,65.430,0
1583500890.058,8.301,21.973,28.320,1.465,-18.066,0
1583500890.062,12.695,23.438,29.785,2.930,-46.875,0
1583500890.066,9.766,23.926,31.250,-1.465,-35.645,0
1583500890.065,5.371,21.484,28.320,-7.324,-36.133,0
1583500890.069,8.789,20.508,27.832,1.953,13.184,0
1583500890.073,15.137,23.926,30.762,10.254,46.875,0
1583500890.077,10.254,21.484,27.832,-4.395,46.875,0
1583500890.081,3.418,20.020,26.367,-11.719,55.176,0
1583500890.085,6.836,21.484,25.879,-3.906,29.297,0
1583500890.088,5.859,17.090,21.484,1.465,18.066,0
1583500890.092,1.953,17.090,22.949,4.395,51.758,0
1583500890.096,3.906,22.949,22.949,-2.930,-20.508,0
1583500890.100,4.395,25.879,23.438,-1.465,-5.859,0
1583500890.104,4.395,23.926,27.344,9.277,43.457,0
1583500890.108,1.465,20.020,22.461,-1.953,-14.648,3
1583500890.103,-4.395,21.484,21.973,-10.742,-22.949,0
1583500890.107,-4.883,19.531,26.367,-4.395,48.340,0
1583500890.111,0.488,16.602,28.320,2.930,55.176,0
1583500890.115,2.441,20.020,27.344,2.930,42.480,0
1583500890.119,4.395,22.949,28.320,-2.441,29.785,0
1583500890.123,3.418,24.414,27.344,-1.953,40.039,0
1583500890.126,2.441,21.484,22.461,-0.488,53.711,0
1583500890.130,10.254,20.996,22.461,1.953,83.496,0
1583500890.134,14.648,23.438,23.438,-7.812,53.711,0
1583500890.138,15.137,22.461,21.484,-12.695,-41.504,0
1583500890.142,13.184,21.484,21.973,-2.441,-3.906,0
1583500890.146,4.395,17.578,23.438,-0.488,3.906,0
1583500890.163,3.906,18.555,25.879,2.930,10.254,0
1583500890.167,7.324,20.996,28.809,0.000,32.227,0
1583500890.171,2.930,19.043,25.879,-0.977,58.105,0
1583500890.175,3.906,18.066,25.879,7.324,61.035,0
1583500890.179,8.301,21.484,25.391,-0.488,40.527,0
1583500890.183,7.812,23.926,25.879,-3.906,48.340,0
1583500890.186,7.324,25.391,31.738,2.930,49.316,0
1583500890.190,2.441,26.855,30.273,3.906,91.797,0
1583500890.194,-5.371,23.926,26.855,1.465,110.840,0
1583500890.198,-3.906,25.879,30.762,-3.906,52.246,0
1583500890.202,-6.836,25.391,31.738,-5.371,33.203,0
1583500890.206,-12.207,24.902,28.809,-1.953,61.523,0
1583500890.203,-11.230,27.832,27.344,2.930,68.359,0
1583500890.207,-10.742,27.344,27.832,0.488,92.285,0
1583500890.211,-11.230,27.344,31.250,-4.395,118.164,0
1583500890.215,-16.602,29.297,34.180,1.953,70.312,0
1583500890.219,-16.113,33.203,35.156,7.324,25.879,0
1583500890.223,-19.043,31.250,32.715,3.418,-1.953,0
1583500890.226,-25.391,25.879,29.785,-8.789,26.367,0
1583500890.230,-20.508,26.855,30.762,-8.789,18.555,0
1583500890.234,-20.508,25.391,28.320,5.371,14.160,0
1583500890.238,-21.484,23.438,28.320,-12.695,62.012,0
1583500890.242,-19.531,21.973,31.738,-14.648,64.453,0
1583500890.246,-19.043,19.043,30.762,1.953,42.480,0
1583500890.243,-17.090,20.996,32.227,2.930,61.523,0
1583500890.247,-20.020,21.973,29.785,6.348,54.199,0
1583500890.251,-20.508,25.879,30.762,3.418,30.762,0
1583500890.255,-23.438,24.414,33.203,2.930,11.230,0
1583500890.259,-20.996,19.531,31.250,3.906,17.578,0
1583500890.263,-15.625,24.414,33.691,13.672,1.953,0
1583500890.266,-19.531,22.461,28.809,11.719,31.250,0
1583500890.270,-19.531,18.555,27.344,1.953,78.613,0
1583500890.274,-13.672,23.438,29.297,3.906,22.461,0
1583500890.278,-9.766,24.414,26.855,6.836,26.855,0
1583500890.282,-8.301,23.926,26.367,10.254,43.945,0
1583500890.286,-10.254,24.414,26.855,4.883,19.043,0
1583500890.303,-15.137,25.391,28.809,4.395,-15.625,0
1583500890.307,-14.648,27.832,28.809,14.648,10.254,0
1583500890.311,-6.348,27.832,28.809,11.230,55.664,0
1583500890.315,0.488,27.832,31.250,7.324,73.242,0
1583500890.319,1.953,27.832,30.762,13.184,44.922,0
1583500890.323,4.883,28.320,31.250,17.578,-19.043,0
1583500890.326,4.883,27.344,29.785,15.137,12.207,0
1583500890.330,1.465,24.414,27.344,3.906,0.488,0
1583500890.334,4.883,24.902,30.762,6.348,-22.461,0
1583500890.338,7.812,22.461,30.762,8.789,22.461,0
1583500890.342,7.324,20.508,26.855,0.000,-28.809,0
1583500890.346,13.184,21.973,24.414,-0.977,-12.695,0
1583500890.343,13.672,21.484,24.902,-5.859,42.480,0
1583500890.347,12.695,20.996,24.902,-3.418,60.059,0
1583500890.351,14.160,22.461,24.902,9.766,74.219,0
1583500890.355,16.602,25.391,25.391,5.371,36.133,0
1583500890.359,15.137,23.926,25.879,-4.395,25.391,0
1583500890.363,17.090,23.926,27.832,-5.859,49.805,0
1583500890.366,20.996,29.785,27.344,-1.465,0.488,0
1583500890.370,20.996,29.785,26.367,6.836,-2.930,0
1583500890.374,20.508,25.391,24.414,3.906,35.645,0
1583500890.378,24.902,27.344,25.391,0.488,19.043,0
1583500890.382,25.879,28.320,26.367,1.953,12.695,0
1583500890.386,25.879,26.855,28.809,7.812,19.531,0
1583500890.383,30.273,27.832,30.762,10.254,40.039,0
1583500890.387,22.461,23.926,24.902,0.000,95.703,0
1583500890.391,20.020,26.855,24.902,4.883,100.098,0
1583500890.395,25.391,29.785,26.855,12.695,93.262,0
1583500890.399,27.344,32.715,30.762,9.277,38.574,0
1583500890.403,23.926,34.180,33.691,1.465,-33.203,0
1583500890.406,17.090,31.738,30.762,-1.465,-8.789,0
1583500890.410,16.113,31.738,26.855,9.277,14.648,0
1583500890.414,20.020,29.297,28.320,8.301,12.695,0
1583500890.418,19.043,21.973,26.367,-4.883,2.930,0
1583500890.422,19.531,20.996,25.879,0.488,47.363,0
1583500890.426,22.949,24.414,30.762,12.207,55.664,0
1583500890.444,21.484,22.949,32.227,13.184,-40.039,0
1583500890.448,19.043,24.414,29.297,6.348,13.672,0
1583500890.452,14.160,25.391,27.832,5.859,102.051,0
1583500890.456,14.160,23.438,29.297,8.301,49.316,0
1583500890.460,17.578,26.855,31.250,13.184,40.039,0
1583500890.464,16.113,30.762,32.715,12.207,73.730,0
1583500890.467,9.766,29.297,32.227,-1.953,41.016,0
1583500890.471,3.906,26.855,28.809,-0.977,32.715,0
1583500890.475,-0.488,24.902,29.785,8.789,38.574,0
1583500890.479,-7.324,24.414,29.785,4.883,86.914,0
1583500890.483,-12.695,27.344,30.273,-0.977,125.000,0
1583500890.487,-16.602,29.297,33.691,-0.977,53.223,0
1583500890.483,-18.066,27.344,29.297,4.883,-3.418,0
1583500890.487,-21.973,27.344,26.367,8.789,20.996,0
1583500890.491,-26.855,26.855,26.855,5.859,37.598,0
1583500890.495,-29.297,28.320,26.855,4.883,28.320,0
1583500890.499,-28.320,27.344,24.414,7.324,30.762,0
1583500890.503,-27.344,25.391,25.391,8.789,39.062,0
1583500890.506,-28.320,26.367,29.785,5.859,62.012,0
1583500890.510,-26.855,26.855,29.785,3.418,98.145,0
1583500890.514,-28.320,26.367,26.855,2.441,-2.930,0
1583500890.518,-36.133,24.902,27.832,-2.930,-34.180,0
1583500890.522,-41.992,22.461,30.273,-9.277,10.742,0
1583500890.526,-41.992,19.531,25.391,-8.789,-3.906,0
1583500890.523,-33.691,21.973,23.926,-1.465,-28.809,0
1583500890.527,-30.762,22.461,26.367,6.348,-9.766,0
1583500890.531,-30.762,23.926,25.391,4.395,10.254,0
1583500890.535,-31.250,23.926,22.949,2.441,7.324,0
1583500890.539,-35.156,22.461,25.391,1.465,0.488,0
1583500890.543,-34.180,23.438,25.879,5.371,5.859,0
1583500890.546,-31.250,21.973,22.461,7.324,0.977,0
1583500890.550,-29.297,22.461,23.926,-0.488,-15.137,0
1583500890.554,-25.391,24.902,27.344,-2.441,37.598,0
1583500890.558,-17.578,23.438,27.832,6.836,35.645,0
1583500890.562,-3.906,27.344,30.762,15.625,5.859,0
1583500890.566,2.930,29.785,31.738,7.324,20.996,0
1583500890.604,-1.465,28.320,30.762,0.000,36.133,0
1583500890.608,-3.418,28.320,28.809,5.371,31.250,0
1583500890.612,-0.488,25.879,26.367,12.207,13.184,0
1583500890.616,0.000,25.391,26.367,5.371,28.320,0
1583500890.620,-11.230,24.902,24.902,-7.324,19.531,0
1583500890.624,-18.066,28.320,25.879,-2.930,-13.184,0
1583500890.627,-17.090,28.809,25.879,6.836,8.301,0
1583500890.631,-23.438,24.902,21.973,1.465,42.480,0
1583500890.635,-25.879,24.414,23.438,-3.418,55.176,0
1583500890.639,-23.438,22.461,25.879,0.000,34.668,0
1583500890.643,-21.973,26.367,25.879,9.277,45.898,0
1583500890.647,-15.625,29.785,25.879,13.672,51.758,0
1583500890.623,-9.766,25.391,22.461,7.812,60.547,0
1583500890.627,-11.719,23.438,21.973,2.441,76.172,0
1583500890.631,-12.695,27.344,27.832,6.836,97.168,0
1583500890.635,-5.859,28.320,28.809,14.160,94.727,0
1583500890.639,-1.953,22.949,25.391,11.719,7.812,0
1583500890.643,-15.625,16.602,27.344,-0.977,-31.738,0
1583500890.646,-21.973,16.602,27.832,-2.441,7.812,0
1583500890.650,-19.531,17.578,25.879,1.465,23.438,0
1583500890.654,-18.066,16.113,26.855,-2.930,26.855,0
1583500890.658,-14.160,18.555,28.320,-5.859,46.875,0
1583500890.662,-14.648,19.531,28.320,-6.836,46.875,0
1583500890.666,-14.648,20.020,31.738,0.488,35.645,0
1583500890.683,-12.695,19.531,34.180,6.348,0.488,0
1583500890.687,-8.789,20.508,31.250,3.906,-75.195,0
1583500890.691,-9.766,23.438,33.691,8.301,-27.344,0
1583500890.695,-16.113,21.484,31.250,10.742,39.551,0
1583500890.699,-14.648,21.484,27.832,10.742,44.434,0
1583500890.703,-8.789,27.832,32.227,12.695,52.246,0
1583500890.706,-8.789,24.902,28.320,7.324,10.254,0
1583500890.710,-11.719,21.973,27.832,4.883,36.133,0
1583500890.714,-7.812,22.949,29.785,3.906,73.730,0
1583500890.718,-1.465,20.996,25.879,5.859,6.836,0
1583500890.722,0.000,20.020,26.855,0.488,28.809,0
1583500890.726,-0.977,20.508,30.762,-0.977,-11.719,0
1583500890.723,3.418,22.949,31.738,-1.953,-26.855,0
1583500890.727,-1.953,24.414,32.227,5.859,29.297,0
1583500890.731,-9.277,23.926,31.738,12.695,55.176,0
1583500890.735,-8.789,25.879,29.297,6.836,42.480,0
1583500890.739,-13.672,25.879,28.320,9.766,21.484,0
1583500890.743,-14.648,27.344,30.762,9.766,25.879,0
1583500890.746,-5.371,30.762,32.715,3.418,6.836,0
1583500890.750,-10.742,28.320,28.809,0.000,13.184,0
1583500890.754,-24.414,24.414,25.391,4.395,57.129,0
1583500890.758,-20.508,22.949,25.391,8.789,125.000,0
1583500890.762,-5.859,25.391,27.344,10.742,41.504,0
1583500890.766,4.883,28.320,29.785,10.254,10.254,0
1583500890.764,12.207,26.855,28.320,11.230,63.965,0
1583500890.768,23.438,24.902,25.391,6.836,43.457,0
1583500890.772,32.227,25.879,24.902,1.465,-21.484,0
1583500890.776,35.156,26.855,26.855,3.906,-28.809,0
1583500890.780,41.504,26.367,26.855,6.836,20.996,0
1583500890.784,47.852,26.855,26.367,11.230,-8.301,0
1583500890.787,48.340,26.855,24.902,5.859,-2.441,0
1583500890.791,51.758,25.879,24.902,-3.906,-4.395,0
1583500890.795,56.641,24.902,25.879,6.836,17.578,0
1583500890.799,56.152,29.297,28.320,-5.859,12.207,0
1583500890.803,55.176,25.391,25.879,-12.695,-1.953,0
1583500890.807,56.641,19.043,25.391,5.371,106.445,0
1583500890.805,59.570,20.508,27.344,1.953,120.605,0
1583500890.809,61.523,19.531,28.320,9.766,39.551,0
1583500890.813,59.082,19.531,27.832,9.766,59.082,0
1583500890.817,57.617,20.020,25.391,3.906,85.938,0
1583500890.821,62.988,20.508,26.367,2.930,57.129,0
1583500890.825,63.477,21.973,29.297,10.742,17.090,0
1583500890.828,64.453,23.926,30.762,14.160,-8.301,0
1583500890.832,65.430,24.902,28.809,4.883,65.918,0
1583500890.836,56.641,20.508,24.902,-3.906,59.570,0
1583500890.840,55.176,19.531,24.902,-5.371,28.809,0
1583500890.844,60.059,21.484,24.414,4.883,94.727,0
1583500890.848,59.082,21.484,21.973,6.836,34.180,0
1583500890.864,54.688,22.949,24.414,0.488,-7.812,0
