timestamps,TP9,AF7,AF8,TP10,Right AUX,Marker0
1583424848.719,6.348,38.086,25.879,10.254,38.086,0
1583424848.723,14.160,36.621,29.785,10.742,77.148,0
1583424848.727,19.043,35.645,31.738,13.184,54.199,0
1583424848.731,19.531,35.156,29.785,15.625,21.484,0
1583424848.735,28.809,36.133,26.855,17.578,58.594,0
1583424848.739,32.715,37.598,25.879,27.832,48.828,0
1583424848.743,35.156,40.039,28.809,34.180,35.645,0
1583424848.746,32.227,38.574,29.785,30.762,17.090,0
1583424848.750,23.438,35.645,28.809,30.273,-3.906,0
1583424848.754,21.484,36.133,27.832,35.645,19.531,0
1583424848.758,23.926,38.086,28.320,36.133,89.355,0
1583424848.762,26.367,39.551,28.320,35.156,62.988,0
1583424848.760,24.902,39.551,28.809,30.273,-33.203,0
1583424848.764,21.973,39.062,28.320,28.809,-66.406,0
1583424848.768,26.855,39.551,28.809,34.180,-8.789,0
1583424848.772,30.273,42.969,25.879,29.785,52.246,0
1583424848.776,26.367,43.945,21.484,24.414,-27.344,0
1583424848.780,20.020,43.457,21.484,21.484,-26.855,0
1583424848.784,26.367,43.945,22.461,19.531,8.789,0
1583424848.787,28.809,42.480,23.926,19.043,13.672,0
1583424848.791,20.508,41.504,26.855,22.461,42.480,0
1583424848.795,20.996,41.016,27.344,26.855,4.395,0
1583424848.799,17.578,36.621,28.809,26.367,15.625,0
1583424848.803,16.113,34.180,28.809,24.902,8.789,0
1583424848.800,21.484,35.645,28.320,19.043,-0.977,0
1583424848.804,15.137,36.133,29.785,14.160,6.348,0
1583424848.808,13.672,37.109,29.785,21.973,-41.016,0
1583424848.812,17.578,38.086,31.738,21.973,-14.160,0
1583424848.816,13.184,38.574,30.762,16.113,60.547,0
1583424848.820,11.230,39.062,29.785,7.324,67.871,0
1583424848.824,12.695,37.109,33.203,0.977,54.688,0
1583424848.827,11.719,34.668,34.180,1.953,64.453,0
1583424848.831,11.719,32.715,32.227,0.977,45.410,0
1583424848.835,15.137,30.762,31.250,0.488,36.133,0
1583424848.839,23.438,31.738,31.250,5.371,109.375,0
1583424848.843,26.367,31.250,28.809,15.137,76.172,0
1583424848.859,24.414,32.715,26.367,20.020,16.602,0
1583424848.863,23.438,36.133,27.832,15.625,35.645,0
1583424848.867,15.625,32.227,29.785,16.602,28.320,0
1583424848.871,9.277,31.738,31.250,21.973,62.012,0
1583424848.875,8.301,32.715,33.203,21.484,80.078,0
1583424848.879,13.672,31.250,34.180,21.484,28.809,0
1583424848.883,18.555,31.250,35.645,18.555,20.996,0
1583424848.886,17.090,30.762,38.086,19.043,57.129,0
1583424848.890,19.531,29.785,35.645,24.414,67.383,0
1583424848.894,25.391,31.738,32.715,26.855,56.152,0
1583424848.898,27.344,35.156,29.785,25.391,30.762,0
1583424848.902,30.762,35.156,30.273,23.926,-13.672,0
1583424848.900,35.156,36.621,32.715,28.809,42.969,0
1583424848.904,34.668,37.598,29.785,23.438,40.039,0
1583424848.908,31.250,39.551,29.297,16.602,17.578,0
1583424848.912,27.344,39.551,32.227,20.996,26.367,0
1583424848.916,21.973,38.086,32.715,17.090,66.895,0
1583424848.920,21.484,36.621,32.715,9.766,87.402,0
1583424848.924,23.926,36.133,33.691,5.371,66.895,0
1583424848.927,24.902,39.062,36.133,3.906,27.344,0
1583424848.931,23.926,41.504,31.738,7.324,1.465,0
1583424848.935,33.691,43.945,28.809,5.859,7.812,0
1583424848.939,35.645,41.504,34.180,6.836,4.395,0
1583424848.943,21.484,39.551,36.621,11.719,75.684,0
1583424848.939,20.020,38.574,37.109,20.996,73.242,0
1583424848.943,23.438,36.621,38.086,26.367,56.641,0
1583424848.947,21.484,35.645,39.062,20.508,49.805,0
1583424848.951,18.066,37.109,40.039,18.066,8.301,0
1583424848.955,16.602,36.621,41.504,22.949,10.254,0
1583424848.959,17.090,37.109,40.527,23.926,46.875,0
1583424848.963,15.137,41.016,37.598,23.438,47.852,0
1583424848.966,17.090,39.062,36.621,17.090,20.508,0
1583424848.970,19.531,36.133,38.086,13.672,26.367,0
1583424848.974,22.949,37.598,39.551,21.484,72.266,0
1583424848.978,26.367,38.574,33.203,27.344,76.172,0
1583424848.982,29.785,38.574,28.320,26.855,45.898,0
1583424848.999,27.832,37.598,28.809,26.367,0.488,0
1583424849.003,18.066,39.551,28.809,25.391,-3.418,0
1583424849.007,19.043,42.969,28.320,17.578,39.551,0
1583424849.011,19.531,44.922,27.832,14.160,33.203,0
1583424849.015,11.230,46.387,27.832,12.207,11.719,0
1583424849.019,11.230,47.852,26.367,13.672,8.789,0
1583424849.023,18.066,45.898,27.344,20.508,43.457,0
1583424849.026,20.508,43.457,32.227,21.484,56.152,0
1583424849.030,22.949,41.504,34.668,23.926,17.090,0
1583424849.034,20.996,39.551,34.180,29.785,-11.719,0
1583424849.038,17.578,42.480,31.250,35.645,-33.203,0
1583424849.042,18.555,44.434,31.250,33.203,-66.895,0
1583424849.039,20.996,44.434,29.297,23.438,-24.414,0
1583424849.043,20.020,46.875,30.762,17.090,40.527,0
1583424849.047,11.719,46.387,35.645,17.578,28.320,0
1583424849.051,4.883,43.457,35.645,12.695,22.461,0
1583424849.055,6.836,42.480,35.156,6.836,53.711,0
1583424849.059,14.648,41.016,35.156,6.836,48.340,0
1583424849.063,14.648,41.016,37.109,5.371,2.441,0
1583424849.066,13.184,41.504,42.480,12.207,27.344,0
1583424849.070,20.020,41.016,42.480,21.484,71.777,0
1583424849.074,23.438,42.480,41.992,25.879,30.273,0
1583424849.078,24.414,42.480,47.852,30.273,-3.418,0
1583424849.082,29.297,44.434,47.363,30.762,7.324,0
1583424849.079,30.762,42.969,43.945,26.855,24.414,0
1583424849.083,29.297,43.457,43.457,26.367,58.594,0
1583424849.087,33.691,44.434,45.410,29.297,102.539,0
1583424849.091,39.062,42.969,43.457,22.949,24.414,0
1583424849.095,36.133,43.945,40.039,19.043,-5.371,0
1583424849.099,30.762,45.898,39.062,19.531,53.711,0
1583424849.103,30.762,44.434,38.086,20.020,50.293,0
1583424849.106,28.320,40.527,35.156,19.531,60.547,0
1583424849.110,22.949,38.086,33.691,16.602,54.688,0
1583424849.114,17.578,36.133,32.227,15.625,24.902,0
1583424849.118,13.184,36.621,32.227,17.090,61.035,0
1583424849.122,16.113,38.086,37.598,24.902,65.918,0
1583424849.140,8.301,32.715,39.551,24.902,81.055,0
1583424849.144,1.953,28.320,40.039,20.020,36.133,0
1583424849.148,2.441,28.809,38.574,19.043,25.879,0
1583424849.152,5.859,31.738,37.109,22.949,93.262,0
1583424849.156,8.301,32.715,37.109,26.367,53.711,0
1583424849.160,10.254,34.668,38.574,26.855,41.016,0
1583424849.164,17.578,37.109,40.527,24.414,41.992,0
1583424849.167,20.020,37.109,41.016,27.344,38.086,0
1583424849.171,21.973,37.598,38.574,28.320,72.754,0
1583424849.175,28.809,38.574,35.156,29.297,53.223,0
1583424849.179,35.645,41.992,30.762,28.320,31.738,0
1583424849.183,30.273,43.945,33.203,30.762,-17.090,0
1583424849.179,24.902,40.527,39.551,40.039,-7.324,0
1583424849.183,29.785,39.062,39.062,44.434,50.781,0
1583424849.187,29.297,41.016,36.133,40.527,62.988,0
1583424849.191,28.809,41.992,34.668,38.086,77.637,0
1583424849.195,27.344,41.016,38.086,34.180,52.734,0
1583424849.199,20.508,38.086,40.039,26.855,38.086,0
1583424849.203,15.137,38.086,38.086,21.484,71.777,0
1583424849.206,10.254,37.598,41.992,16.113,41.016,0
1583424849.210,10.254,36.621,44.922,19.043,37.598,0
1583424849.214,15.137,36.621,42.969,20.508,45.410,0
1583424849.218,15.625,35.645,42.969,10.254,26.367,0
1583424849.222,17.578,36.133,40.527,6.348,37.109,0
1583424849.239,17.578,35.645,38.574,8.789,53.223,0
1583424849.243,8.301,35.156,39.062,10.254,27.344,0
1583424849.247,4.395,37.109,41.016,10.742,2.930,0
1583424849.251,9.766,38.574,41.016,6.836,22.461,0
1583424849.255,14.160,38.086,39.551,6.836,40.527,0
1583424849.259,14.160,36.621,38.086,13.184,22.949,0
1583424849.263,14.160,36.621,37.598,14.648,-24.902,0
1583424849.266,15.137,36.621,39.062,10.742,4.395,0
1583424849.270,16.602,37.109,39.062,15.137,37.109,0
1583424849.274,21.973,36.133,37.109,25.391,25.879,0
1583424849.278,22.461,34.668,38.086,33.691,49.805,0
1583424849.282,17.578,35.156,37.598,35.156,77.637,0
1583424849.279,18.066,39.062,38.086,28.320,89.355,0
1583424849.283,18.555,41.992,44.922,30.273,52.734,0
1583424849.287,13.184,39.551,42.480,35.156,34.180,0
1583424849.291,14.648,40.527,41.016,33.203,62.988,0
1583424849.295,20.508,42.480,40.527,27.832,74.707,0
1583424849.299,21.484,42.480,38.086,27.832,30.762,0
1583424849.303,20.996,39.551,38.086,28.809,-14.648,0
1583424849.306,24.414,40.527,41.504,26.367,-3.418,0
1583424849.310,23.438,42.480,41.016,24.902,2.441,0
1583424849.314,21.484,38.086,37.598,20.020,-19.043,0
1583424849.318,27.832,40.039,37.109,17.578,-8.789,0
1583424849.322,34.180,43.945,41.992,21.973,-17.578,0
1583424849.319,33.203,41.992,40.527,20.996,-41.992,0
1583424849.323,25.391,38.574,32.227,12.207,-12.207,0
1583424849.327,20.508,39.551,34.668,11.230,12.695,0
1583424849.331,26.367,38.574,40.039,14.160,-0.977,0
1583424849.335,30.273,38.574,41.504,10.742,5.371,0
1583424849.339,23.926,40.527,41.016,7.812,47.363,0
1583424849.343,16.113,40.039,37.598,12.207,27.344,0
1583424849.346,14.160,40.527,36.621,10.254,22.949,0
1583424849.350,20.508,42.480,35.645,7.812,50.781,0
1583424849.354,22.461,42.969,30.762,5.371,57.129,0
1583424849.358,21.484,43.457,30.273,6.348,27.832,0
1583424849.362,19.531,43.945,30.273,17.578,1.465,0
1583424849.379,19.043,41.992,30.273,24.902,15.625,0
1583424849.383,22.949,39.062,29.785,24.414,11.230,0
1583424849.387,24.902,37.598,34.180,24.414,-20.996,0
1583424849.391,25.879,34.180,38.574,26.367,8.789,0
1583424849.395,25.879,33.203,37.109,26.855,29.785,0
1583424849.399,29.785,36.133,37.598,25.879,66.406,0
1583424849.403,32.227,35.645,38.086,23.926,106.934,0
1583424849.406,33.691,40.527,36.133,20.508,63.477,0
1583424849.410,33.691,41.504,37.109,19.531,32.715,0
1583424849.414,30.762,38.574,36.133,18.066,54.688,0
1583424849.418,27.832,37.598,36.133,11.719,81.055,0
1583424849.422,24.902,35.645,33.691,13.184,56.152,0
1583424849.419,25.391,35.156,28.809,18.066,27.832,0
1583424849.423,23.926,36.133,28.320,14.648,53.711,0
1583424849.427,18.555,36.133,28.809,7.324,83.984,0
1583424849.431,20.508,38.574,28.320,3.906,60.547,0
1583424849.435,17.578,39.551,28.320,9.766,5.371,0
1583424849.439,11.230,40.039,32.227,15.137,43.457,0
1583424849.443,14.648,41.504,35.645,11.230,93.750,0
1583424849.446,14.160,42.969,37.598,14.648,58.105,0
1583424849.450,17.090,43.457,38.086,21.484,61.523,0
1583424849.454,20.020,42.969,34.180,21.973,64.941,0
1583424849.458,18.066,44.434,32.227,24.902,22.461,0
1583424849.462,20.996,43.945,37.109,29.297,32.715,0
1583424849.459,28.320,41.504,34.180,27.832,-26.855,0
1583424849.463,31.738,41.016,27.344,22.461,-41.504,0
1583424849.467,27.832,41.016,25.391,21.484,41.016,0
1583424849.471,23.926,41.992,27.832,26.855,2.930,0
1583424849.475,24.414,41.504,33.203,25.391,5.371,0
1583424849.479,26.855,40.527,31.738,22.461,32.227,0
1583424849.483,30.762,43.457,31.250,23.926,48.828,0
1583424849.486,32.227,41.504,33.691,20.508,56.152,0
1583424849.490,29.297,38.574,30.762,20.020,-36.133,0
1583424849.494,26.367,38.086,33.203,21.973,-8.789,0
1583424849.498,22.949,37.598,37.598,24.414,33.691,0
1583424849.502,16.113,37.109,35.645,21.973,44.434,0
1583424849.520,7.812,36.621,35.645,16.602,55.176,0
1583424849.524,11.230,36.133,35.645,19.043,21.973,0
1583424849.528,20.020,37.109,34.668,19.531,11.230,0
1583424849.532,23.926,35.645,38.086,21.973,2.441,0
1583424849.536,18.066,32.715,43.945,26.367,11.719,0
1583424849.540,19.531,32.715,45.410,30.762,25.879,0
1583424849.544,24.902,34.668,41.016,36.621,78.125,0
1583424849.547,22.461,35.156,40.527,33.691,46.387,0
1583424849.551,23.926,33.203,40.039,25.879,-63.965,0
1583424849.555,25.879,33.203,38.574,22.949,-51.758,0
1583424849.559,13.184,33.691,41.016,24.414,-22.949,0
1583424849.563,0.000,35.645,37.598,23.438,6.348,0
1583424849.559,0.000,36.621,34.668,15.137,18.066,0
1583424849.563,4.395,35.156,37.109,14.160,24.414,0
1583424849.567,8.789,34.668,35.156,20.996,88.379,0
1583424849.571,13.184,34.180,29.785,24.902,62.500,0
1583424849.575,15.625,32.227,26.855,20.996,62.012,0
1583424849.579,5.371,28.809,23.438,18.066,47.852,0
1583424849.583,8.789,29.297,21.973,20.508,-29.297,0
1583424849.586,19.043,30.273,22.949,18.066,-63.477,0
1583424849.590,17.578,29.785,22.461,14.160,-13.184,0
1583424849.594,18.555,30.762,22.461,15.137,20.020,0
1583424849.598,15.137,32.227,22.949,13.184,15.137,0
1583424849.602,10.742,31.738,26.855,4.883,37.109,0
1583424849.599,18.555,33.203,28.809,5.371,23.926,0
1583424849.603,25.391,34.668,29.297,11.719,-1.465,0
1583424849.607,23.926,34.180,29.297,14.160,11.230,0
1583424849.611,21.484,35.645,26.367,18.555,49.316,0
1583424849.615,24.414,35.156,26.367,18.555,69.824,0
1583424849.619,22.949,34.180,22.461,15.137,37.598,0
1583424849.623,15.625,35.645,22.949,20.996,52.246,0
1583424849.626,19.043,36.621,28.809,31.250,69.824,0
1583424849.630,19.043,38.086,28.320,37.598,72.754,0
1583424849.634,17.090,37.598,26.855,33.203,144.043,0
1583424849.638,15.625,36.133,29.785,26.367,125.000,0
1583424849.642,8.789,34.668,28.320,24.414,35.645,0
1583424849.659,0.977,32.715,27.344,20.508,3.418,0
1583424849.663,-1.465,31.250,30.273,15.137,17.090,0
1583424849.667,-1.953,32.715,30.273,10.254,48.340,0
1583424849.671,-4.883,34.180,26.367,9.277,51.758,0
1583424849.675,-5.371,35.645,27.344,11.719,50.293,0
1583424849.679,0.977,37.109,29.297,10.254,-4.883,0
1583424849.683,2.441,39.062,27.344,6.836,-27.344,0
1583424849.686,2.441,38.086,28.809,8.301,20.996,0
1583424849.690,20.020,41.016,33.203,10.742,31.738,0
1583424849.694,28.320,47.363,34.668,9.277,-6.348,0
1583424849.698,21.484,44.922,32.715,9.766,-20.020,0
1583424849.702,14.160,42.480,33.691,14.160,16.113,0
1583424849.699,17.090,40.527,37.598,17.578,14.648,0
1583424849.703,30.762,38.086,36.133,17.090,38.574,0
1583424849.707,33.691,37.109,36.621,19.043,41.504,0
1583424849.711,29.297,37.109,36.621,19.043,43.457,0
1583424849.715,29.785,42.480,34.180,21.973,62.012,0
1583424849.719,30.762,42.480,34.180,25.391,83.008,0
1583424849.723,29.785,38.086,32.715,21.484,94.727,0
1583424849.726,22.461,38.574,34.180,23.438,28.809,0
1583424849.730,22.461,37.598,37.598,24.902,20.020,0
1583424849.734,21.973,36.621,34.180,27.344,41.016,0
1583424849.738,14.648,39.062,31.250,22.461,16.113,0
1583424849.742,15.625,41.016,29.785,20.508,-5.859,0
1583424849.739,13.672,39.551,29.785,17.578,28.320,0
1583424849.743,9.277,35.645,30.762,16.113,86.426,0
1583424849.747,9.766,35.156,28.809,19.531,68.848,0
1583424849.751,3.418,36.621,28.809,14.160,86.426,0
1583424849.755,-1.465,36.133,28.320,14.160,63.477,0
1583424849.759,10.254,34.180,26.367,21.484,4.883,0
1583424849.763,13.672,32.715,27.344,24.414,11.230,0
1583424849.766,15.625,32.715,26.855,28.320,71.289,0
1583424849.770,20.996,33.203,22.949,29.297,76.660,0
1583424849.774,20.996,34.180,23.926,22.461,-7.324,0
1583424849.778,21.484,37.109,27.344,23.926,-2.930,0
1583424849.782,24.414,37.109,28.320,20.508,61.035,0
1583424849.800,25.879,37.598,30.273,13.184,29.297,0
1583424849.804,18.555,39.062,31.250,8.789,29.785,0
1583424849.808,16.602,36.133,33.203,11.719,71.289,0
1583424849.812,18.555,33.691,34.668,20.020,2.441,0
1583424849.816,26.367,36.133,36.133,14.648,-36.133,0
1583424849.820,33.691,38.086,38.574,12.695,-10.254,0
1583424849.824,30.273,39.062,37.109,19.531,-63.477,0
1583424849.827,24.902,39.062,34.180,20.020,8.301,0
1583424849.831,19.531,37.109,32.227,19.043,70.312,0
1583424849.835,16.602,37.109,29.785,19.043,24.902,0
1583424849.839,19.043,38.086,30.762,21.484,23.438,0
1583424849.843,7.812,37.598,31.738,23.926,24.414,0
1583424849.839,8.301,37.109,30.762,18.555,-25.879,0
1583424849.843,21.484,38.086,31.738,13.672,-4.395,0
1583424849.847,28.320,37.598,30.762,18.066,36.621,0
1583424849.851,31.250,36.133,33.203,23.926,17.578,0
1583424849.855,28.320,36.621,36.133,25.879,27.344,0
1583424849.859,24.414,34.180,36.621,23.438,71.289,0
1583424849.863,13.672,31.250,36.133,22.949,66.406,0
1583424849.866,9.766,29.785,37.109,27.344,33.691,0
1583424849.870,11.230,30.273,40.039,29.297,48.828,0
1583424849.874,10.254,34.180,34.668,20.996,75.684,0
1583424849.878,9.766,36.133,33.691,12.695,74.219,0
1583424849.882,5.859,33.203,35.156,20.508,17.090,0
1583424849.879,8.789,32.227,32.715,23.926,1.953,0
1583424849.883,13.672,32.227,33.691,22.461,95.215,0
1583424849.887,17.090,31.250,31.250,20.996,60.547,0
1583424849.891,15.137,30.273,29.785,20.020,-23.926,0
1583424849.895,18.066,27.344,32.227,21.973,15.625,0
1583424849.899,26.367,28.809,30.762,18.066,13.672,0
1583424849.903,23.926,31.738,32.227,13.184,30.762,0
1583424849.906,22.461,33.203,31.250,12.207,50.293,0
1583424849.910,20.996,33.691,28.320,13.184,-6.836,0
1583424849.914,16.602,33.203,33.203,12.207,-27.832,0
1583424849.918,14.160,31.738,34.668,11.719,-20.020,0
1583424849.922,15.137,32.715,32.715,16.113,-20.996,0
1583424849.939,14.648,37.109,30.762,21.484,20.508,0
1583424849.943,14.648,36.621,27.832,16.602,42.480,0
1583424849.947,13.184,34.180,27.832,13.184,40.527,0
1583424849.951,14.648,36.133,28.809,12.695,60.059,0
1583424849.955,19.531,40.039,29.297,16.113,11.719,0
1583424849.959,22.949,41.992,32.227,21.484,91.309,0
1583424849.963,27.832,41.504,33.203,18.066,133.789,0
1583424849.966,30.762,39.551,33.203,16.113,22.461,0
1583424849.970,33.203,37.598,34.180,22.949,27.344,0
1583424849.974,25.391,37.109,34.668,30.273,23.926,0
1583424849.978,23.926,36.621,37.109,29.297,37.109,0
1583424849.982,29.785,38.086,35.645,22.461,48.828,0
1583424849.980,27.832,36.621,36.133,23.438,38.086,0
1583424849.984,20.996,34.180,39.551,29.785,76.660,0
1583424849.988,12.695,35.645,35.156,34.180,75.195,0
1583424849.992,12.695,39.551,32.227,31.738,86.426,0
1583424849.996,20.508,39.062,30.273,27.832,63.477,0
1583424850.000,23.438,41.016,30.273,28.320,31.738,0
1583424850.004,23.438,43.945,31.738,24.414,9.766,0
1583424850.007,27.344,42.969,33.203,22.461,35.645,0
1583424850.011,25.391,42.969,34.180,25.879,55.176,0
1583424850.015,25.879,44.434,31.250,30.273,33.203,0
1583424850.019,24.414,41.016,30.762,31.738,19.531,0
1583424850.023,28.320,39.062,33.203,27.344,27.344,0
1583424850.019,28.320,41.016,36.133,22.949,59.570,0
1583424850.023,23.438,40.039,37.109,21.484,41.992,0
1583424850.027,22.461,39.551,33.691,20.020,-12.695,0
1583424850.031,18.555,37.598,33.691,17.090,16.602,0
1583424850.035,19.043,38.086,35.156,12.695,43.945,0
1583424850.039,21.484,39.062,36.621,19.043,8.789,0
1583424850.043,21.484,39.062,41.504,21.973,12.207,0
1583424850.046,22.949,41.504,43.457,15.137,7.812,0
1583424850.050,21.973,41.016,41.992,13.672,67.383,0
1583424850.054,13.672,36.621,43.945,13.672,43.945,0
1583424850.058,15.137,37.598,42.480,9.277,4.883,0
1583424850.062,22.461,37.598,38.086,6.836,22.461,0
1583424850.079,20.996,31.250,38.574,11.230,41.504,0
1583424850.083,16.113,28.809,44.922,11.719,21.973,0
1583424850.087,8.301,26.367,46.875,16.113,-17.578,0
1583424850.091,8.789,24.414,41.016,23.926,-2.930,0
1583424850.095,18.555,26.855,41.016,29.297,31.250,0
1583424850.099,22.461,28.320,46.387,31.738,49.805,0
1583424850.103,13.184,26.855,51.758,28.809,40.527,0
1583424850.106,13.672,28.320,54.688,33.691,62.500,0
1583424850.110,21.973,32.715,54.199,39.062,45.410,0
1583424850.114,29.297,32.227,52.246,35.645,58.594,0
1583424850.118,30.273,32.227,54.199,35.645,40.527,0
1583424850.122,26.367,34.180,56.641,37.109,22.949,0
1583424850.119,27.832,33.203,56.641,34.668,45.898,0
1583424850.123,24.414,33.691,54.688,35.156,44.434,0
1583424850.127,19.043,35.156,53.223,34.668,91.797,0
1583424850.131,18.066,35.156,51.758,33.691,47.852,0
1583424850.135,20.996,34.668,49.316,36.133,27.344,0
1583424850.139,27.344,34.668,45.410,34.180,2.930,0
1583424850.143,28.320,35.156,45.410,29.297,-44.922,0
1583424850.146,18.555,35.645,47.363,30.273,-16.602,0
1583424850.150,13.184,35.645,44.434,30.762,30.762,0
1583424850.154,8.301,36.621,39.551,22.461,39.551,0
1583424850.158,3.418,38.574,38.086,15.625,46.387,0
1583424850.162,3.418,34.668,39.062,16.602,66.895,0
1583424850.179,0.000,31.250,38.086,20.020,49.316,0
1583424850.183,4.883,33.691,35.156,10.742,69.824,0
1583424850.187,8.789,32.227,37.109,1.465,47.363,0
1583424850.191,6.836,31.250,40.527,-0.488,-0.488,0
1583424850.195,9.766,34.180,38.574,2.441,-24.414,0
1583424850.199,16.602,34.180,34.668,7.812,-44.922,0
1583424850.203,22.949,30.762,33.691,5.859,-32.227,0
1583424850.206,18.555,31.250,30.273,3.906,87.891,0
1583424850.210,17.578,33.203,28.320,4.395,124.023,0
1583424850.214,22.949,34.180,33.691,5.859,58.105,0
1583424850.218,20.508,35.645,36.621,10.742,21.973,0
1583424850.222,20.508,35.156,38.086,11.719,3.906,0
1583424850.219,20.508,36.133,40.039,13.184,-43.945,0
1583424850.223,20.508,36.133,38.574,13.184,-29.785,0
1583424850.227,31.250,39.062,39.551,13.672,27.344,0
1583424850.231,41.992,42.969,39.062,20.996,62.988,0
1583424850.235,38.086,41.504,34.180,26.855,20.508,0
1583424850.239,31.738,40.527,31.738,33.203,9.766,0
1583424850.243,35.156,41.992,32.227,35.645,13.672,0
1583424850.246,39.062,39.062,36.133,34.668,43.457,0
1583424850.250,28.809,35.645,37.109,35.156,59.570,0
1583424850.254,20.996,35.645,35.156,36.621,15.625,0
1583424850.258,18.066,35.156,34.180,36.621,33.691,0
1583424850.262,9.277,35.645,32.227,29.785,50.781,0
1583424850.259,5.371,34.668,31.250,22.949,74.219,0
1583424850.263,7.812,35.645,27.832,18.555,51.758,0
1583424850.267,6.348,36.621,27.344,18.066,7.324,0
1583424850.271,2.930,36.621,28.809,18.555,46.875,0
1583424850.275,2.441,36.621,28.809,10.254,62.012,0
1583424850.279,4.395,34.180,33.203,3.418,36.621,0
1583424850.283,12.207,35.156,33.691,6.836,34.180,0
1583424850.286,13.184,36.621,35.645,8.301,24.414,0
1583424850.290,16.602,39.551,38.086,6.836,41.992,0
1583424850.294,22.949,40.527,35.156,6.836,54.688,0
1583424850.298,24.414,41.016,37.598,9.766,55.664,0
1583424850.302,25.879,41.016,41.016,15.137,84.961,0
1583424850.300,22.949,39.062,37.598,13.672,29.297,0
1583424850.304,23.438,39.062,36.133,6.836,-1.465,0
1583424850.308,17.578,35.156,40.039,1.953,62.500,0
1583424850.312,9.766,29.785,41.504,1.953,128.906,0
1583424850.316,10.254,30.273,40.527,4.395,77.148,0
1583424850.320,11.719,32.715,38.574,7.324,43.457,0
1583424850.324,10.254,34.180,39.062,12.207,30.762,0
1583424850.327,10.254,35.645,38.086,17.578,-4.883,0
1583424850.331,11.719,34.668,39.062,17.090,14.648,0
1583424850.335,14.160,34.180,40.039,15.137,35.645,0
1583424850.339,10.254,35.645,38.574,20.020,62.988,0
1583424850.343,6.836,36.133,37.598,25.879,38.086,0
1583424850.359,9.277,38.086,31.738,21.484,-9.277,0
1583424850.363,10.254,37.109,27.832,12.695,31.250,0
1583424850.367,13.672,38.086,28.809,9.766,-29.297,0
1583424850.371,20.020,41.504,29.297,14.160,-20.020,0
1583424850.375,17.090,37.598,29.785,19.043,55.176,0
1583424850.379,11.719,37.109,27.344,21.484,50.293,0
1583424850.383,11.230,41.016,31.250,20.508,68.359,0
1583424850.386,12.207,39.062,35.645,25.879,109.863,0
1583424850.390,15.137,37.598,34.668,32.715,67.383,0
1583424850.394,24.902,38.086,36.133,30.273,24.414,0
1583424850.398,26.855,37.598,35.156,31.250,-13.672,0
1583424850.402,30.273,37.598,36.133,31.250,-19.531,0
1583424850.419,33.203,37.109,36.133,33.691,6.348,0
1583424850.423,27.344,34.180,38.086,34.668,21.973,0
1583424850.427,29.297,37.109,41.016,29.785,62.988,0
1583424850.431,33.203,41.504,41.504,27.344,92.285,0
1583424850.435,33.203,41.016,40.039,24.414,55.664,0
1583424850.439,31.250,40.527,37.598,19.531,60.059,0
1583424850.443,35.156,42.969,38.574,15.625,43.457,0
1583424850.446,37.109,41.016,40.527,15.625,2.441,0
1583424850.450,29.297,37.598,41.504,20.020,45.410,0
1583424850.454,22.949,38.574,39.551,18.555,52.734,0
1583424850.458,20.996,38.086,39.062,7.324,39.062,0
1583424850.462,25.879,36.621,41.504,1.465,27.832,0
1583424850.442,22.949,37.598,41.504,7.324,9.766,0
1583424850.446,12.207,39.551,41.016,10.254,1.465,0
1583424850.450,11.230,42.480,39.062,4.395,4.883,0
1583424850.454,17.090,42.969,38.086,5.859,24.902,0
1583424850.458,17.578,42.969,35.645,10.742,16.602,0
1583424850.462,17.090,43.945,38.086,11.230,-4.883,0
1583424850.466,20.996,44.434,44.922,20.020,45.410,0
1583424850.469,22.461,42.969,48.340,24.902,68.359,0
1583424850.473,27.344,43.457,49.805,26.855,21.484,0
1583424850.477,30.273,43.945,49.805,37.109,-9.766,0
1583424850.481,30.273,44.922,48.340,37.109,-52.734,0
1583424850.485,35.645,44.922,46.387,34.180,-10.742,0
1583424850.499,35.156,44.922,43.457,33.203,48.828,0
1583424850.503,33.691,44.922,42.480,32.227,38.574,0
1583424850.507,29.785,42.969,41.016,33.691,15.137,0
1583424850.511,25.391,40.527,39.551,25.879,16.113,0
1583424850.515,26.855,38.574,39.062,18.555,61.523,0
1583424850.519,24.414,37.109,36.621,20.508,24.414,0
1583424850.523,25.391,39.062,35.156,21.484,-28.809,0
1583424850.526,23.438,37.598,35.645,21.973,35.156,0
1583424850.530,20.508,36.621,35.156,22.461,27.344,0
1583424850.534,28.320,40.039,35.156,20.020,-7.812,0
1583424850.538,30.273,41.504,34.668,20.020,15.625,0
1583424850.542,19.043,41.016,37.598,17.578,-13.184,0
1583424850.539,11.719,39.062,42.969,13.184,57.129,0
1583424850.543,7.812,37.109,40.039,13.184,74.219,0
1583424850.547,8.301,37.109,41.504,18.555,30.273,0
1583424850.551,13.184,38.086,42.969,12.207,40.039,0
1583424850.555,16.602,37.109,39.551,9.766,65.918,0
1583424850.559,15.625,33.691,40.527,17.578,61.035,0
1583424850.563,14.160,32.715,39.551,22.461,37.598,0
1583424850.566,13.184,34.180,38.574,27.832,25.879,0
1583424850.570,7.324,33.691,37.109,22.949,18.066,0
1583424850.574,7.324,33.203,35.156,18.555,46.387,0
1583424850.578,10.254,34.180,34.180,24.414,57.617,0
1583424850.582,13.184,36.621,33.203,28.809,61.035,0
1583424850.579,17.090,38.574,35.156,28.320,48.828,0
1583424850.583,20.020,41.016,34.180,26.367,30.762,0
1583424850.587,20.020,41.504,34.180,25.879,18.555,0
1583424850.591,21.973,41.992,39.551,26.855,0.977,0
1583424850.595,29.297,43.457,41.016,23.926,-28.320,0
1583424850.599,31.250,40.527,38.574,25.879,-37.109,0
1583424850.603,24.414,38.086,38.086,27.344,-28.320,0
1583424850.606,20.020,40.527,39.551,26.367,-36.133,0
1583424850.610,14.648,39.551,43.457,26.367,17.578,0
1583424850.614,12.207,37.598,42.969,23.926,40.527,0
1583424850.618,10.742,38.086,37.109,17.578,-3.418,0
1583424850.622,9.766,38.086,38.574,13.184,12.695,0
1583424850.639,12.207,39.062,38.574,13.184,54.688,0
1583424850.643,12.207,40.527,34.180,9.766,21.973,0
1583424850.647,9.766,41.504,31.250,8.301,-10.254,0
1583424850.651,9.277,41.992,31.738,10.742,15.137,0
1583424850.655,15.625,44.434,31.250,11.719,42.969,0
1583424850.659,21.484,43.457,29.297,9.766,6.836,0
1583424850.663,22.949,38.574,29.785,2.441,52.246,0
1583424850.666,17.090,38.086,32.715,0.977,26.855,0
1583424850.670,7.812,40.527,33.203,11.719,-13.184,0
1583424850.674,6.836,39.551,30.273,14.648,41.992,0
1583424850.678,11.719,39.062,25.391,12.695,20.508,0
1583424850.682,13.184,40.527,26.367,16.113,36.133,0
1583424850.680,10.742,40.039,30.273,22.949,39.062,0
1583424850.684,14.160,40.527,31.738,28.809,30.762,0
1583424850.688,20.996,40.527,35.645,26.367,36.621,0
1583424850.692,25.391,38.086,37.109,26.367,16.113,0
1583424850.696,31.250,40.527,35.645,31.738,36.133,0
1583424850.700,32.715,41.992,33.203,33.691,49.316,0
1583424850.704,24.414,37.598,29.785,28.320,72.266,0
1583424850.707,15.137,36.133,31.738,22.949,19.531,0
1583424850.711,15.625,39.551,31.738,22.461,9.766,0
1583424850.715,19.043,39.551,27.344,20.996,32.227,0
1583424850.719,17.090,38.574,27.344,20.020,21.973,0
1583424850.723,14.160,39.551,29.785,18.555,62.012,0
1583424850.739,11.719,37.109,27.344,18.066,73.730,0
1583424850.743,8.301,34.668,24.902,23.926,71.777,0
1583424850.747,8.301,34.668,28.809,22.461,62.500,0
1583424850.751,6.836,30.762,31.738,18.066,41.504,0
1583424850.755,5.371,30.273,30.273,14.160,31.738,0
1583424850.759,3.906,33.691,32.227,8.789,17.578,0
1583424850.763,4.883,33.203,36.621,9.277,34.180,0
1583424850.766,9.277,36.133,41.504,11.719,22.949,0
1583424850.770,11.230,36.621,44.434,7.324,38.086,0
1583424850.774,12.207,33.691,40.527,3.906,44.922,0
1583424850.778,14.160,33.691,36.133,7.812,21.973,0
1583424850.782,16.113,32.715,37.109,13.184,41.992,0
1583424850.779,19.531,32.227,40.527,11.719,63.477,0
1583424850.783,24.414,34.180,43.945,12.695,71.289,0
1583424850.787,28.809,36.133,46.387,24.414,35.645,0
1583424850.791,25.391,37.598,47.363,26.367,-17.090,0
1583424850.795,25.391,39.551,47.852,27.344,-16.602,0
1583424850.799,21.973,38.574,46.875,30.273,1.465,0
1583424850.803,11.719,36.133,45.898,32.227,-5.859,0
1583424850.806,14.648,38.086,43.457,32.715,44.922,0
1583424850.810,20.020,39.062,41.016,32.715,53.223,0
1583424850.814,22.949,37.109,41.016,32.227,50.781,0
1583424850.818,26.855,39.551,34.180,36.133,70.801,0
1583424850.822,23.926,38.086,38.086,39.062,54.199,0
1583424850.839,24.414,35.645,42.969,32.715,83.008,0
1583424850.843,33.691,38.574,37.598,29.785,35.156,0
1583424850.847,38.574,40.039,37.598,33.691,27.832,0
1583424850.851,36.133,41.992,39.062,38.574,67.383,0
1583424850.855,29.785,43.945,38.086,38.574,45.898,0
1583424850.859,25.391,42.969,32.715,24.414,30.273,0
1583424850.863,20.996,42.969,28.320,11.719,44.434,0
1583424850.866,17.090,47.363,29.785,11.230,37.598,0
1583424850.870,15.137,48.828,31.250,11.230,25.391,0
1583424850.874,19.043,44.922,30.762,2.930,32.227,0
1583424850.878,25.391,44.434,31.738,3.418,31.738,0
1583424850.882,23.438,44.434,32.715,10.742,46.387,0
1583424850.879,20.508,40.039,36.133,13.184,55.664,0
1583424850.883,26.855,39.062,34.668,10.742,35.645,0
1583424850.887,25.879,38.574,30.273,7.812,21.484,0
1583424850.891,16.602,37.598,30.762,5.859,13.184,0
1583424850.895,16.113,40.039,32.227,6.836,18.555,0
1583424850.899,11.230,41.016,29.785,8.301,60.059,0
1583424850.903,8.789,39.551,28.809,9.277,68.848,0
1583424850.906,16.113,38.574,30.273,11.230,62.988,0
1583424850.910,18.066,39.062,30.762,11.230,44.922,0
1583424850.914,23.926,40.039,29.785,16.113,28.320,0
1583424850.918,30.762,39.062,31.738,18.555,52.734,0
1583424850.922,26.855,41.016,29.785,25.879,55.664,0
1583424850.920,20.020,40.039,24.414,30.762,9.277,0
1583424850.924,19.043,36.133,24.902,20.020,-2.930,0
1583424850.928,21.973,34.180,27.832,16.113,3.418,0
1583424850.932,19.531,31.738,34.180,19.531,70.801,0
1583424850.936,10.254,29.785,33.203,19.043,58.594,0
1583424850.940,8.301,30.273,29.785,20.020,16.602,0
1583424850.944,14.160,33.691,32.715,16.113,10.742,0
1583424850.947,11.719,35.645,32.715,8.301,63.477,0
1583424850.951,8.301,35.645,29.297,9.766,81.543,0
1583424850.955,18.555,36.621,27.344,18.066,37.598,0
1583424850.959,24.902,41.992,26.367,23.438,20.996,0
1583424850.963,25.391,42.969,25.391,17.578,15.137,0
1583424850.959,22.949,39.062,21.484,21.484,19.043,0
1583424850.963,15.137,36.133,22.949,25.391,-0.488,0
1583424850.967,12.695,34.180,25.879,23.438,95.215,0
1583424850.971,10.742,31.738,27.832,23.438,66.895,0
1583424850.975,12.207,31.738,35.156,14.160,6.836,0
1583424850.979,12.695,34.180,35.156,8.301,8.789,0
1583424850.983,17.578,35.156,31.738,9.277,13.184,0
1583424850.986,26.367,33.203,34.668,6.836,8.301,0
1583424850.990,19.531,33.691,34.180,6.836,9.766,0
1583424850.994,3.418,34.180,35.156,4.883,38.574,0
1583424850.998,-3.906,30.273,38.574,6.836,14.648,0
1583424851.002,3.418,30.762,37.598,9.277,-11.230,0
1583424851.019,8.301,35.156,37.109,7.812,23.438,0
1583424851.023,8.789,36.621,37.109,11.719,11.230,0
1583424851.027,9.766,36.133,37.598,14.648,-15.625,0
1583424851.031,12.207,37.109,38.086,15.625,8.301,0
1583424851.035,19.043,37.109,35.645,14.160,44.922,0
1583424851.039,21.973,36.133,35.156,13.672,17.090,0
1583424851.043,18.555,37.109,36.621,17.090,12.207,0
1583424851.046,13.184,39.551,38.086,14.648,31.738,0
1583424851.050,16.602,40.039,37.109,10.742,49.805,0
1583424851.054,21.484,43.457,33.691,14.160,46.875,0
1583424851.058,21.484,44.922,33.691,21.484,-9.766,0
1583424851.062,27.344,41.992,29.785,22.949,-4.883,0
1583424851.059,31.738,42.480,29.785,22.949,31.250,0
1583424851.063,29.297,41.504,34.180,24.902,-2.441,0
1583424851.067,26.367,37.109,32.715,27.832,3.906,0
1583424851.071,22.949,34.180,30.762,30.762,31.738,0
1583424851.075,22.949,35.156,28.320,32.227,42.969,0
1583424851.079,26.367,38.574,26.855,30.762,81.055,0
1583424851.083,26.855,38.574,27.344,26.367,62.500,0
1583424851.086,24.414,36.133,27.832,26.855,19.043,0
1583424851.090,19.531,33.691,27.344,23.438,36.133,0
1583424851.094,17.578,33.691,27.344,17.090,21.973,0
1583424851.098,13.184,36.133,29.785,16.602,39.551,0
1583424851.102,7.812,38.086,34.180,20.508,38.574,0
1583424851.099,8.301,36.133,34.668,20.996,-8.301,0
1583424851.103,18.555,36.621,35.645,15.625,17.578,0
1583424851.107,17.090,40.527,37.598,20.020,13.184,0
1583424851.111,16.602,44.434,40.527,23.438,-20.508,0
1583424851.115,23.926,45.898,41.016,18.555,-26.855,0
1583424851.119,20.508,45.898,36.133,14.648,11.230,0
1583424851.123,15.137,42.969,31.738,10.254,71.777,0
1583424851.126,19.531,40.527,26.855,9.277,84.961,0
1583424851.130,23.438,40.527,20.020,6.836,59.570,0
1583424851.134,26.367,39.551,21.484,7.812,10.254,0
1583424851.138,29.785,40.039,21.973,10.742,-26.367,0
1583424851.142,31.738,41.016,20.996,13.184,-59.082,0
1583424851.159,32.715,41.504,26.855,21.484,-38.086,0
1583424851.163,32.227,42.969,29.785,22.949,9.766,0
1583424851.167,31.250,46.875,27.344,24.902,0.000,0
1583424851.171,24.902,44.434,26.855,30.273,40.039,0
1583424851.175,20.996,41.016,25.391,30.762,84.473,0
1583424851.179,22.461,43.457,24.414,31.738,95.215,0
1583424851.183,22.461,41.992,25.879,29.785,61.035,0
1583424851.186,18.555,39.062,33.691,27.344,84.961,0
1583424851.190,20.508,39.062,38.086,29.297,89.844,0
1583424851.194,26.855,39.551,36.621,29.785,26.367,0
1583424851.198,26.855,37.109,35.156,27.344,55.664,0
1583424851.202,19.043,35.156,32.715,23.438,56.641,0
1583424851.199,12.207,34.180,33.691,21.973,55.664,0
1583424851.203,9.277,34.180,33.691,21.973,78.613,0
1583424851.207,4.883,35.645,26.855,17.090,22.461,0
1583424851.211,3.906,33.691,24.902,10.254,44.434,0
1583424851.215,9.766,33.203,26.367,11.719,72.266,0
1583424851.219,14.648,36.133,28.809,14.648,17.090,0
1583424851.223,13.672,36.621,32.715,13.184,17.090,0
1583424851.226,18.066,34.668,33.691,15.625,46.875,0
1583424851.230,22.949,36.133,33.203,20.020,-2.441,0
1583424851.234,24.414,39.062,33.203,24.902,-22.949,0
1583424851.238,20.508,39.062,35.645,26.367,48.828,0
1583424851.242,20.996,39.551,38.086,25.391,38.574,0
1583424851.239,26.367,40.039,36.621,28.809,23.926,0
1583424851.243,27.832,39.551,37.109,27.344,42.969,0
1583424851.247,28.320,39.551,36.133,21.484,40.039,0
1583424851.251,22.949,37.598,38.086,20.020,19.531,0
1583424851.255,15.625,36.133,40.527,18.555,18.066,0
1583424851.259,8.789,37.598,38.086,21.484,23.926,0
1583424851.263,6.348,37.109,39.062,23.926,0.488,0
1583424851.266,10.742,32.227,38.086,20.508,-6.348,0
1583424851.270,20.508,33.203,36.133,20.996,-26.855,0
1583424851.274,28.809,31.738,41.504,20.508,24.414,0
1583424851.278,30.273,29.785,43.457,25.391,20.508,0
1583424851.282,29.297,31.250,41.992,32.715,-2.441,0
1583424851.299,31.250,35.156,42.969,32.715,47.363,0
1583424851.303,24.902,39.551,40.527,33.203,48.340,0
1583424851.307,24.414,40.039,38.574,34.180,37.109,0
1583424851.311,29.785,39.062,39.551,37.109,25.879,0
1583424851.315,23.438,38.574,38.574,38.086,47.363,0
1583424851.319,20.020,39.551,36.621,35.645,49.805,0
1583424851.323,28.809,40.527,36.621,35.645,-10.742,0
1583424851.326,35.645,39.551,38.574,33.203,-21.973,0
1583424851.330,28.809,39.551,37.598,29.785,-24.414,0
1583424851.334,25.391,38.574,34.180,27.344,41.504,0
1583424851.338,24.902,41.016,30.762,22.461,104.004,0
1583424851.342,19.531,41.992,31.738,19.531,47.852,0
1583424851.339,19.043,41.016,38.574,17.578,69.824,0
1583424851.343,15.137,40.039,40.039,14.648,94.238,0
1583424851.347,8.301,37.598,39.551,14.648,-14.648,0
1583424851.351,4.395,37.109,38.574,19.531,-69.336,0
1583424851.355,3.906,36.621,38.086,22.949,-14.648,0
1583424851.359,-0.488,36.133,43.457,23.926,83.984,0
1583424851.363,-3.418,37.598,41.504,24.902,66.406,0
1583424851.366,0.977,37.109,40.527,20.996,25.879,0
1583424851.370,8.301,40.039,40.039,20.508,4.883,0
1583424851.374,12.207,42.480,37.598,15.625,40.527,0
1583424851.378,12.695,41.016,38.574,1.465,110.840,0
1583424851.382,12.695,39.062,41.992,6.348,63.965,0
1583424851.379,16.113,39.551,41.016,7.812,67.871,0
1583424851.383,20.996,40.527,37.598,-0.977,70.312,0
1583424851.387,18.066,40.039,33.691,2.441,61.035,0
1583424851.391,17.090,38.086,34.668,12.207,29.785,0
1583424851.395,20.508,38.086,39.551,20.508,28.320,0
1583424851.399,28.809,41.504,37.598,23.926,89.844,0
1583424851.403,37.109,41.504,36.133,25.391,77.148,0
1583424851.406,36.621,39.551,31.738,30.762,64.453,0
1583424851.410,33.203,39.062,26.855,34.180,107.422,0
1583424851.414,37.109,39.551,28.809,30.273,19.531,0
1583424851.418,39.551,40.039,29.297,23.926,-33.691,0
1583424851.422,29.297,39.062,27.832,23.438,5.371,0
1583424851.439,22.461,38.086,29.297,28.320,67.383,0
1583424851.443,19.043,39.062,32.227,27.832,11.719,0
1583424851.447,15.625,38.086,37.109,24.414,-22.949,0
1583424851.451,17.578,37.598,41.504,18.555,39.062,0
1583424851.455,18.066,38.086,41.504,17.090,16.602,0
1583424851.459,15.625,37.109,38.574,25.391,9.277,0
1583424851.463,15.625,36.621,37.598,27.344,11.230,0
1583424851.466,18.555,37.598,38.086,22.461,3.906,0
1583424851.470,24.902,36.621,34.668,20.996,23.926,0
1583424851.474,27.832,37.598,32.227,26.367,21.484,0
1583424851.478,24.902,40.039,32.715,28.320,-7.812,0
1583424851.482,27.832,41.016,32.715,24.414,54.688,0
1583424851.480,30.273,41.504,33.691,24.414,82.520,0
1583424851.484,26.367,39.551,31.738,24.902,25.391,0
1583424851.488,25.879,41.016,32.227,26.855,38.086,0
1583424851.492,35.645,41.992,35.645,26.367,28.809,0
1583424851.496,38.086,40.527,36.133,25.879,43.945,0
1583424851.500,36.133,41.504,38.574,30.762,87.402,0
1583424851.504,44.922,43.457,38.086,36.133,54.688,0
1583424851.507,38.574,41.992,36.133,37.598,59.570,0
1583424851.511,31.250,42.480,33.691,37.598,65.430,0
1583424851.515,37.598,47.852,25.879,39.062,-25.879,0
1583424851.519,34.668,48.828,24.414,34.668,-1.465,0
1583424851.523,24.902,44.922,26.855,23.438,28.809,0
1583424851.519,19.531,42.969,26.367,19.043,25.391,0
1583424851.523,20.508,44.922,26.367,18.066,65.918,0
1583424851.527,19.531,48.340,23.926,16.602,22.949,0
1583424851.531,24.414,48.340,25.391,19.043,12.695,0
1583424851.535,32.715,49.316,30.273,16.113,14.648,0
1583424851.539,35.645,49.316,28.809,12.695,51.758,0
1583424851.543,33.203,47.852,26.367,20.508,94.727,0
1583424851.546,32.715,49.805,28.320,27.832,80.078,0
1583424851.550,38.086,50.781,31.250,25.879,62.012,0
1583424851.554,35.645,48.828,34.180,19.043,24.414,0
1583424851.558,32.227,44.434,29.785,18.555,-16.113,0
1583424851.562,34.180,43.457,26.855,20.020,20.996,0
1583424851.579,37.109,45.898,24.902,13.184,82.520,0
1583424851.583,33.691,45.898,22.461,10.742,51.270,0
1583424851.587,33.203,46.875,23.438,12.207,62.988,0
1583424851.591,32.227,47.852,20.508,21.484,26.367,0
1583424851.595,23.926,47.852,20.508,26.855,-31.738,0
1583424851.599,24.414,48.828,21.973,25.879,-6.836,0
1583424851.603,29.297,49.316,20.508,32.227,22.461,0
1583424851.606,24.414,44.922,23.926,33.691,53.711,0
1583424851.610,23.438,42.480,25.391,31.250,-7.324,0
1583424851.614,27.344,44.434,25.879,29.297,-28.809,0
1583424851.618,28.320,42.969,25.879,25.391,33.203,0
1583424851.622,28.320,40.039,22.461,24.414,39.551,0
1583424851.620,35.156,41.016,19.531,23.926,14.160,0
1583424851.624,36.621,41.016,16.113,23.438,-2.930,0
1583424851.628,34.180,41.016,15.625,20.508,-1.953,0
1583424851.632,38.574,43.945,15.137,25.879,-9.277,0
1583424851.636,38.574,46.387,16.113,31.250,12.207,0
1583424851.640,36.621,45.410,18.555,24.414,47.363,0
1583424851.644,35.645,42.969,25.391,17.578,44.434,0
1583424851.647,29.297,42.969,28.809,14.648,23.438,0
1583424851.651,24.902,43.457,25.391,17.578,8.789,0
1583424851.655,28.320,41.992,26.367,18.555,27.832,0
1583424851.659,23.438,42.480,28.809,12.207,31.250,0
1583424851.663,18.555,42.969,32.227,16.113,9.277,0
1583424851.659,20.020,40.527,31.738,21.484,39.062,0
1583424851.663,20.020,41.016,32.715,22.949,34.668,0
1583424851.667,25.391,41.992,35.156,21.973,-4.883,0
1583424851.671,30.273,43.457,37.109,18.555,26.367,0
1583424851.675,20.996,42.969,38.574,26.855,58.105,0
1583424851.679,13.184,41.992,35.645,30.273,12.695,0
1583424851.683,11.230,39.551,38.086,24.414,49.805,0
1583424851.686,7.324,39.551,35.645,24.902,81.055,0
1583424851.690,2.441,41.992,32.715,21.973,52.734,0
1583424851.694,-3.906,41.992,37.109,16.113,61.523,0
1583424851.698,2.441,42.969,38.086,16.113,53.711,0
1583424851.702,11.230,41.992,38.574,16.602,37.109,0
1583424851.719,12.695,39.062,39.062,20.508,60.059,0
1583424851.723,13.672,41.504,39.551,22.949,74.707,0
1583424851.727,20.020,43.945,45.410,20.020,32.227,0
1583424851.731,21.484,41.992,45.898,15.137,9.766,0
1583424851.735,20.996,43.945,44.434,16.602,34.180,0
1583424851.739,19.531,47.363,44.434,23.926,70.312,0
1583424851.743,12.207,48.340,42.480,23.926,-12.207,0
1583424851.746,16.113,46.875,43.945,20.020,-33.691,0
1583424851.750,23.926,47.363,42.480,22.949,62.988,0
1583424851.754,20.508,48.828,38.574,19.531,66.895,0
1583424851.758,21.484,48.828,33.691,17.090,7.324,0
1583424851.762,26.855,49.316,32.227,16.113,-10.254,0
1583424851.759,25.391,48.340,35.156,15.625,9.277,0
1583424851.763,26.367,48.340,33.691,19.531,-13.184,0
1583424851.767,28.809,50.293,34.668,22.949,11.230,0
1583424851.771,26.367,51.758,35.645,22.461,79.102,0
1583424851.775,21.973,52.246,33.691,20.508,41.016,0
1583424851.779,11.719,47.852,33.203,20.508,50.293,0
1583424851.783,6.836,45.898,30.762,21.484,81.055,0
1583424851.786,11.230,46.387,28.320,14.160,56.641,0
1583424851.790,9.766,44.922,30.762,7.812,44.922,0
1583424851.794,9.277,44.434,29.785,9.766,11.230,0
1583424851.798,8.301,44.922,31.250,17.578,9.277,0
1583424851.802,12.695,45.410,31.738,20.020,-4.395,0
1583424851.800,22.461,44.922,28.320,10.254,-14.648,0
1583424851.804,23.438,42.969,31.250,10.254,70.312,0
1583424851.808,29.785,44.434,32.227,19.531,62.500,0
1583424851.812,32.715,43.945,31.250,21.484,41.504,0
1583424851.816,20.996,41.992,31.250,21.484,20.996,0
1583424851.820,18.066,43.945,29.785,21.484,14.648,0
1583424851.824,24.414,43.945,28.809,22.461,70.312,0
1583424851.827,30.273,45.898,25.879,21.973,21.484,0
1583424851.831,39.062,47.852,26.855,15.625,-32.227,0
1583424851.835,31.250,42.969,30.762,10.254,5.371,0
1583424851.839,17.090,41.504,28.809,18.555,89.844,0
1583424851.843,22.949,43.945,25.879,26.855,121.094,0
1583424851.859,33.203,45.410,26.855,21.973,-16.602,0
1583424851.863,31.250,47.852,31.250,18.555,-37.109,0
1583424851.867,27.832,47.363,34.180,18.555,13.184,0
1583424851.871,25.391,45.410,36.621,18.066,11.230,0
1583424851.875,26.367,45.410,36.133,21.973,48.828,0
1583424851.879,24.414,46.875,32.715,22.461,26.855,0
1583424851.883,22.461,45.898,33.203,19.043,10.254,0
1583424851.886,19.531,39.551,36.621,20.996,34.668,0
1583424851.890,13.184,34.668,35.156,24.414,24.902,0
1583424851.894,15.137,33.203,34.180,28.320,60.547,0
1583424851.898,15.625,33.691,34.668,29.785,71.289,0
1583424851.902,17.578,34.180,35.156,28.320,75.684,0
1583424851.899,18.066,33.691,32.227,32.715,52.246,0
1583424851.903,18.555,34.180,32.227,33.203,28.809,0
1583424851.907,21.484,34.668,35.156,25.879,32.715,0
1583424851.911,20.020,34.668,34.668,25.879,52.734,0
1583424851.915,20.508,37.598,35.156,31.738,52.246,0
1583424851.919,24.902,37.598,33.691,26.855,12.695,0
1583424851.923,26.367,39.062,30.273,24.902,10.254,0
1583424851.926,17.090,39.551,29.297,26.367,54.688,0
1583424851.930,13.184,37.598,32.227,29.297,13.672,0
1583424851.934,17.090,39.551,33.203,33.203,-35.156,0
1583424851.938,24.902,40.039,35.645,27.832,12.695,0
1583424851.942,30.273,41.016,38.086,23.438,33.691,0
1583424851.939,31.738,44.922,38.574,25.391,-1.465,0
1583424851.943,27.344,43.945,39.551,27.832,12.695,0
1583424851.947,26.367,44.434,37.598,20.020,10.742,0
1583424851.951,24.902,47.852,38.574,13.184,17.578,0
1583424851.955,16.602,46.875,38.574,12.695,33.691,0
1583424851.959,13.672,43.457,35.156,10.742,22.949,0
1583424851.963,17.090,42.480,38.574,8.301,17.090,0
1583424851.966,15.625,42.480,40.039,5.371,58.105,0
1583424851.970,15.625,41.016,37.598,6.836,36.133,0
1583424851.974,12.207,39.551,41.504,15.137,-4.395,0
1583424851.978,8.789,40.039,44.434,17.578,3.418,0
1583424851.982,13.184,38.086,46.387,17.578,25.879,0
1583424851.999,13.184,34.668,43.945,18.555,90.820,0
1583424852.003,12.695,35.156,40.527,18.066,62.988,0
1583424852.007,18.555,36.621,41.992,17.090,83.984,0
1583424852.011,18.555,37.598,40.039,12.207,90.820,0
1583424852.015,14.160,39.062,37.109,13.672,7.324,0
1583424852.019,19.043,41.504,40.039,18.066,3.906,0
1583424852.023,22.461,40.039,40.527,19.531,41.016,0
1583424852.026,18.555,37.109,41.016,23.926,-18.555,0
1583424852.030,23.438,38.086,41.016,23.926,-32.715,0
1583424852.034,27.832,39.551,38.574,27.832,19.043,0
1583424852.038,31.738,41.504,36.621,36.133,16.113,0
1583424852.042,35.156,44.434,39.062,33.203,16.602,0
1583424852.040,34.668,43.945,43.457,32.715,24.414,0
1583424852.044,35.156,43.945,44.922,33.203,8.301,0
1583424852.048,35.645,45.898,46.875,32.227,29.785,0
1583424852.052,39.062,48.340,44.434,36.621,51.758,0
1583424852.056,37.598,48.828,42.480,34.180,26.367,0
1583424852.060,36.621,49.316,41.992,31.738,-13.184,0
1583424852.064,30.273,48.340,40.527,29.785,19.043,0
1583424852.067,26.367,46.387,41.016,27.344,62.500,0
1583424852.071,29.785,46.387,40.527,30.273,37.598,0
1583424852.075,23.926,46.387,40.039,25.391,67.871,0
1583424852.079,20.508,43.457,42.969,17.090,22.461,0
1583424852.083,20.020,41.016,42.480,18.555,-0.977,0
1583424852.080,16.602,41.504,39.551,18.555,41.016,0
1583424852.084,22.949,41.992,35.645,20.996,57.129,0
1583424852.088,30.273,44.434,33.691,28.809,51.758,0
1583424852.092,33.203,46.875,36.621,33.203,16.602,0
1583424852.096,27.832,44.434,38.574,32.715,26.855,0
1583424852.100,23.926,44.434,36.621,23.926,20.020,0
1583424852.104,24.414,46.875,34.668,18.555,67.383,0
1583424852.107,21.973,47.852,34.668,12.695,62.500,0
1583424852.111,23.926,46.387,34.180,5.371,-8.301,0
1583424852.115,20.020,44.922,31.250,6.836,45.898,0
1583424852.119,17.090,45.410,29.785,9.766,68.359,0
1583424852.123,18.555,45.410,34.668,12.695,43.457,0
1583424852.139,16.602,47.852,37.109,20.996,29.297,0
1583424852.143,23.438,49.805,37.109,29.297,42.480,0
1583424852.147,24.414,46.875,37.109,30.273,31.738,0
1583424852.151,21.484,42.969,39.551,32.227,45.410,0
1583424852.155,23.926,42.480,38.574,35.645,7.324,0
1583424852.159,26.855,41.504,38.086,37.109,-33.691,0
1583424852.163,21.484,36.621,43.457,35.156,18.066,0
1583424852.166,13.672,34.180,44.922,26.855,26.367,0
1583424852.170,12.695,32.227,44.434,27.832,101.562,0
1583424852.174,20.996,33.203,44.922,31.250,122.070,0
1583424852.178,21.973,35.645,44.922,25.391,59.082,0
1583424852.182,16.113,35.645,43.457,16.113,9.766,0
1583424852.180,22.949,38.574,43.457,18.066,-43.457,0
1583424852.184,28.809,44.922,44.434,27.832,0.488,0
1583424852.188,31.738,44.922,43.945,26.855,15.137,0
1583424852.192,37.109,43.945,41.504,27.344,-0.488,0
1583424852.196,40.527,47.363,40.527,33.203,31.250,0
1583424852.200,39.551,47.852,40.039,33.203,37.598,0
1583424852.204,36.133,45.898,40.039,27.344,7.812,0
1583424852.207,33.203,44.434,40.527,20.508,-11.719,0
1583424852.211,28.809,41.992,38.086,20.996,8.301,0
1583424852.215,21.484,42.480,38.574,17.090,20.996,0
1583424852.219,17.578,41.504,41.992,5.859,30.273,0
1583424852.223,9.766,40.039,41.504,-4.395,32.227,0
1583424852.220,3.418,41.504,40.039,-4.883,46.875,0
1583424852.224,7.812,41.504,36.133,3.418,39.551,0
1583424852.228,7.812,41.504,35.156,3.906,-1.465,0
1583424852.232,8.789,40.527,33.203,9.766,28.320,0
1583424852.236,17.090,41.504,29.785,22.949,59.082,0
1583424852.240,22.949,40.039,29.785,30.273,26.855,0
1583424852.244,25.391,37.598,30.762,32.715,67.871,0
1583424852.247,25.391,38.574,30.273,27.832,48.828,0
1583424852.251,21.973,37.109,29.785,27.344,18.555,0
1583424852.255,20.020,36.621,29.297,29.297,86.914,0
1583424852.259,26.367,41.504,30.762,28.809,22.949,0
1583424852.263,30.273,43.457,30.762,28.320,-32.715,0
1583424852.279,25.391,41.016,27.344,24.902,-0.488,0
1583424852.283,25.391,40.039,30.273,27.344,19.531,0
1583424852.287,27.344,39.062,35.156,30.762,21.973,0
1583424852.291,30.762,40.039,37.109,24.414,16.113,0
1583424852.295,35.156,41.016,36.621,14.648,-2.441,0
1583424852.299,32.715,42.480,33.203,10.742,1.953,0
1583424852.303,27.832,42.969,33.691,15.137,64.941,0
1583424852.306,26.855,41.992,37.598,16.602,58.105,0
1583424852.310,27.344,39.062,37.109,13.672,60.059,0
1583424852.314,31.738,40.039,35.156,10.254,56.152,0
1583424852.318,32.227,40.527,32.715,7.324,6.836,0
1583424852.322,27.832,38.574,35.645,-0.488,21.484,0
1583424852.319,23.926,39.551,39.551,-2.930,31.738,0
1583424852.323,20.508,41.016,34.668,0.000,12.207,0
1583424852.327,19.531,41.992,33.691,9.277,62.500,0
1583424852.331,15.625,41.504,33.691,18.066,50.781,0
1583424852.335,13.184,36.133,30.273,19.531,10.254,0
1583424852.339,9.277,34.668,29.785,23.438,40.527,0
1583424852.343,5.859,34.180,29.785,26.367,49.316,0
1583424852.346,4.395,28.809,29.297,27.344,61.035,0
1583424852.350,1.465,30.762,24.902,29.785,40.527,0
1583424852.354,4.883,36.621,27.832,27.344,25.879,0
1583424852.358,7.324,32.227,35.156,24.902,-5.371,0
1583424852.362,0.977,31.250,33.203,26.367,4.883,0
1583424852.379,3.906,33.691,27.832,26.855,76.172,0
1583424852.383,16.602,35.645,20.508,26.367,95.703,0
1583424852.387,21.484,37.109,21.484,26.855,77.148,0
1583424852.391,13.672,37.598,27.344,26.855,52.734,0
1583424852.395,6.836,36.621,27.832,28.320,63.965,0
1583424852.399,12.695,33.691,27.344,21.484,45.410,0
1583424852.403,15.625,31.738,30.273,9.277,66.406,0
1583424852.406,8.301,29.297,35.645,5.859,23.926,0
1583424852.410,0.488,23.926,41.016,4.883,-25.391,0
1583424852.414,-1.465,24.414,41.992,6.836,60.547,0
1583424852.418,2.441,27.832,41.504,5.859,17.578,0
1583424852.422,5.859,26.855,42.480,8.789,-35.645,0
1583424852.419,13.184,29.297,43.457,16.602,-6.836,0
1583424852.423,20.020,31.250,44.434,21.973,-11.719,0
1583424852.427,25.879,30.273,46.387,22.949,-3.906,0
1583424852.431,30.273,32.227,48.340,24.902,22.461,0
1583424852.435,32.227,35.156,44.434,24.902,19.531,0
1583424852.439,32.227,38.086,40.039,25.879,8.789,0
1583424852.443,30.762,40.527,39.062,31.738,-3.906,0
1583424852.446,34.668,44.434,39.551,35.156,13.184,0
1583424852.450,36.621,45.410,38.574,32.227,74.219,0
1583424852.454,28.320,42.969,31.738,28.320,149.414,0
1583424852.458,21.973,42.969,25.879,26.855,115.723,0
1583424852.462,19.531,44.922,26.855,23.926,34.668,0
1583424852.479,11.230,43.457,25.879,27.832,49.805,0
1583424852.483,10.254,40.039,23.926,32.715,4.395,0
1583424852.487,15.137,36.621,28.809,28.809,-6.836,0
1583424852.491,9.766,33.203,32.227,22.949,94.238,0
1583424852.495,4.883,34.180,38.086,24.902,68.848,0
1583424852.499,4.395,33.203,40.527,26.855,-3.418,0
1583424852.503,-3.418,33.203,42.969,26.367,2.930,0
1583424852.506,1.953,37.109,45.898,20.996,52.246,0
1583424852.510,14.648,38.086,46.875,20.508,80.078,0
1583424852.514,16.602,39.062,47.852,29.297,62.500,0
1583424852.518,20.508,40.039,46.387,30.762,34.668,0
1583424852.522,25.879,39.062,45.410,28.320,3.906,0
1583424852.520,24.902,40.039,44.434,28.809,1.953,0
1583424852.524,25.391,40.039,40.527,30.762,-6.836,0
1583424852.528,22.461,37.109,41.016,30.762,37.109,0
1583424852.532,17.578,35.645,43.457,21.973,76.660,0
1583424852.536,16.602,37.598,40.527,15.625,74.707,0
1583424852.540,18.555,36.621,36.133,17.578,52.734,0
1583424852.544,23.926,37.598,32.715,19.043,70.312,0
1583424852.547,30.762,41.504,35.645,19.531,94.238,0
1583424852.551,35.645,42.480,39.551,18.555,75.684,0
1583424852.555,32.227,42.480,41.504,18.066,59.082,0
1583424852.559,28.320,44.434,41.016,19.531,53.711,0
1583424852.563,24.902,43.945,37.598,21.484,82.031,0
1583424852.559,23.926,42.969,35.645,16.602,34.180,0
1583424852.563,19.531,41.016,37.598,13.672,-57.617,0
1583424852.567,12.695,37.598,40.527,20.996,-93.262,0
1583424852.571,10.742,35.156,40.527,20.996,-70.312,0
1583424852.575,12.695,32.715,41.504,16.602,-6.836,0
1583424852.579,19.531,32.715,43.457,15.137,38.574,0
1583424852.583,23.926,31.738,45.410,11.719,90.820,0
1583424852.586,18.555,32.227,44.434,12.695,91.797,0
1583424852.590,17.578,36.133,42.969,15.137,72.754,0
1583424852.594,24.902,39.062,41.992,14.648,61.523,0
1583424852.598,28.809,40.527,40.527,11.230,70.312,0
1583424852.602,29.297,41.016,41.504,14.160,94.238,0
1583424852.599,33.203,41.992,40.039,23.438,62.012,0
1583424852.603,32.227,40.527,40.039,22.949,15.625,0
1583424852.607,30.762,41.016,40.527,23.926,29.297,0
1583424852.611,36.133,41.992,40.039,25.391,43.457,0
1583424852.615,41.992,42.480,39.062,20.020,29.785,0
1583424852.619,39.551,42.969,36.621,22.461,41.016,0
1583424852.623,37.109,41.504,35.645,21.973,48.828,0
1583424852.626,40.039,41.504,36.133,19.531,63.477,0
1583424852.630,35.156,41.992,32.227,21.973,27.344,0
1583424852.634,28.809,41.016,31.738,20.020,18.066,0
1583424852.638,27.832,39.551,30.762,18.066,16.113,0
1583424852.642,28.809,39.062,27.832,14.160,8.301,0
1583424852.659,28.320,39.062,28.809,14.160,56.641,0
1583424852.663,24.902,38.086,26.855,14.160,41.992,0
1583424852.667,24.902,35.645,24.414,9.277,16.602,0
1583424852.671,23.438,37.109,26.367,8.789,-24.902,0
1583424852.675,21.973,37.109,26.367,8.301,34.668,0
1583424852.679,23.926,33.203,27.832,12.695,52.734,0
1583424852.683,28.320,33.203,28.320,16.602,13.672,0
1583424852.686,24.414,35.156,29.785,13.672,21.484,0
1583424852.690,18.066,34.668,36.133,17.090,-2.441,0
1583424852.694,15.625,33.203,37.109,20.996,-15.625,0
1583424852.698,14.648,35.156,36.621,17.578,-3.418,0
1583424852.702,21.484,37.109,37.598,12.695,27.832,0
1583424852.699,19.531,37.109,36.621,10.254,37.109,0
1583424852.703,17.090,40.039,36.133,10.254,50.781,0
1583424852.707,22.461,41.504,37.109,9.277,79.102,0
1583424852.711,18.066,40.039,39.551,12.207,39.062,0
1583424852.715,8.789,41.016,37.109,16.113,-48.828,0
1583424852.719,12.695,41.016,35.156,19.043,-47.852,0
1583424852.723,17.090,39.062,33.691,18.066,46.387,0
1583424852.726,16.113,36.621,30.762,14.160,86.426,0
1583424852.730,18.066,37.598,31.250,16.602,-16.602,0
1583424852.734,24.414,41.016,28.809,22.949,-0.488,0
1583424852.738,25.879,39.062,29.785,23.438,47.363,0
1583424852.742,20.996,37.598,34.180,19.531,41.504,0
1583424852.741,16.113,38.086,35.156,18.066,88.379,0
1583424852.745,14.160,37.109,33.203,14.648,56.641,0
1583424852.749,12.695,35.156,29.297,16.113,76.660,0
1583424852.753,10.742,34.180,31.250,17.090,80.078,0
1583424852.757,13.184,35.645,38.574,19.043,30.762,0
1583424852.761,17.578,34.668,38.574,22.949,69.824,0
1583424852.765,20.996,31.250,39.062,23.926,88.379,0
1583424852.768,22.461,31.250,39.551,22.949,40.527,0
1583424852.772,19.531,33.691,38.086,17.578,-10.742,0
1583424852.776,18.066,36.133,36.133,20.508,-34.668,0
1583424852.780,16.602,35.156,31.250,22.461,-0.488,0
1583424852.784,18.066,32.227,30.762,19.531,56.152,0
1583424852.800,20.996,32.227,30.762,19.043,-19.043,0
1583424852.804,15.137,33.691,28.320,19.043,-26.855,0
1583424852.808,8.301,33.203,29.785,21.973,57.129,0
1583424852.812,6.348,31.250,31.250,20.996,-10.254,0
1583424852.816,0.000,30.762,32.227,20.020,-80.078,0
1583424852.820,3.418,34.180,33.203,19.531,-31.738,0
1583424852.824,11.719,38.086,30.273,17.090,-32.227,0
1583424852.827,13.184,37.598,31.738,16.602,15.625,0
1583424852.831,16.602,36.621,34.180,18.555,83.984,0
1583424852.835,18.555,40.039,34.668,19.531,-1.465,0
1583424852.839,16.113,37.109,36.621,19.043,-17.578,0
1583424852.843,17.090,35.645,38.086,20.508,21.484,0
1583424852.839,20.996,36.621,40.527,21.484,37.598,0
1583424852.843,22.461,36.133,38.574,22.949,118.652,0
1583424852.847,21.973,39.062,36.621,26.855,89.355,0
1583424852.851,22.949,38.086,37.598,25.391,65.918,0
1583424852.855,19.043,35.645,35.156,23.438,77.637,0
1583424852.859,15.137,36.133,34.180,26.367,74.219,0
1583424852.863,16.113,36.133,35.645,21.484,86.914,0
1583424852.866,17.578,35.156,36.133,20.508,15.625,0
1583424852.870,23.438,36.133,39.062,21.973,-11.230,0
1583424852.874,28.320,38.086,38.574,20.996,37.109,0
1583424852.878,26.855,38.574,41.016,19.043,34.668,0
1583424852.882,22.949,41.016,43.945,20.508,11.230,0
1583424852.879,18.555,40.039,44.434,29.785,-26.367,0
1583424852.883,20.508,38.574,49.316,33.691,-8.789,0
1583424852.887,21.973,40.527,47.852,21.484,-25.879,0
1583424852.891,21.484,41.016,47.363,14.160,38.086,0
1583424852.895,23.926,41.992,51.270,24.414,30.762,0
1583424852.899,24.414,41.504,53.223,29.785,-21.973,0
1583424852.903,19.043,39.551,51.758,28.320,4.395,0
1583424852.906,21.973,39.062,47.363,24.902,4.395,0
1583424852.910,30.762,37.598,44.434,24.414,79.590,0
1583424852.914,30.273,34.668,48.828,25.879,93.262,0
1583424852.918,23.926,32.715,48.340,23.438,19.043,0
1583424852.922,20.020,33.203,45.898,22.949,19.531,0
1583424852.939,13.184,34.668,46.875,26.367,70.312,0
1583424852.943,14.160,35.645,44.434,24.414,76.660,0
1583424852.947,20.996,35.156,43.457,19.043,64.453,0
1583424852.951,15.137,34.668,41.016,18.555,39.551,0
1583424852.955,16.113,33.691,39.062,23.926,47.852,0
1583424852.959,20.996,33.691,42.480,29.785,79.590,0
1583424852.963,19.531,33.691,46.875,25.879,93.750,0
1583424852.966,13.184,31.738,46.875,21.484,45.898,0
1583424852.970,5.859,28.809,45.898,29.785,22.949,0
1583424852.974,6.348,26.855,46.875,30.762,21.973,0
1583424852.978,14.160,28.809,46.875,27.832,-1.953,0
1583424852.982,20.020,33.203,44.922,22.949,55.176,0
1583424852.979,22.461,33.691,42.969,15.137,47.852,0
1583424852.983,25.879,36.133,44.434,25.879,19.531,0
1583424852.987,26.855,39.551,41.992,28.320,14.648,0
1583424852.991,23.438,37.109,36.621,18.555,68.848,0
1583424852.995,21.484,38.086,35.645,15.137,81.055,0
1583424852.999,23.926,38.086,40.039,19.043,36.621,0
1583424853.003,24.902,35.156,41.504,26.367,24.414,0
1583424853.006,28.320,35.645,40.527,25.391,45.898,0
1583424853.010,25.391,34.668,42.480,20.996,33.691,0
1583424853.014,22.461,33.691,38.574,22.461,48.340,0
1583424853.018,20.996,34.180,36.133,24.414,44.434,0
1583424853.022,23.926,35.156,38.574,20.996,-14.160,0
1583424853.019,31.250,36.133,41.992,19.531,30.762,0
1583424853.023,28.809,36.621,43.457,25.879,41.504,0
1583424853.027,22.461,37.598,39.062,23.926,13.184,0
1583424853.031,17.090,35.645,34.668,17.578,16.602,0
1583424853.035,17.578,36.133,32.227,13.672,18.066,0
1583424853.039,14.160,36.621,32.715,16.602,-14.160,0
1583424853.043,10.254,35.645,34.668,20.508,14.160,0
1583424853.046,16.113,36.621,31.250,19.043,38.574,0
1583424853.050,17.578,40.527,28.809,19.043,0.000,0
1583424853.054,22.461,41.016,33.691,19.043,11.230,0
1583424853.058,24.902,41.504,36.621,21.484,51.270,0
1583424853.062,21.484,41.504,34.668,23.926,30.273,0
1583424853.080,24.414,39.551,37.598,23.926,13.672,0
1583424853.084,25.879,37.598,42.969,21.484,60.059,0
1583424853.088,24.414,38.086,41.992,22.949,50.293,0
1583424853.092,23.926,38.574,40.527,25.391,41.504,0
1583424853.096,20.996,38.574,41.504,24.414,46.387,0
1583424853.100,16.113,40.039,36.133,13.672,58.594,0
1583424853.104,19.043,41.992,35.156,10.254,70.312,0
1583424853.107,23.926,43.945,41.504,25.391,35.156,0
1583424853.111,23.438,44.434,39.551,28.320,-44.922,0
1583424853.115,23.438,39.062,36.621,24.902,-32.227,0
1583424853.119,23.926,35.156,37.598,24.902,50.781,0
1583424853.123,21.484,37.109,37.598,27.344,73.730,0
1583424853.139,21.484,37.598,39.551,24.902,36.133,0
1583424853.143,26.855,37.598,43.457,20.020,25.879,0
1583424853.147,29.297,39.551,43.457,17.090,53.223,0
1583424853.151,22.461,40.527,40.527,18.555,27.344,0
1583424853.155,16.113,39.551,39.062,24.414,25.879,0
1583424853.159,18.555,40.527,40.039,21.973,23.438,0
1583424853.163,25.879,41.992,42.480,19.531,15.625,0
1583424853.166,29.297,39.551,40.527,19.043,4.883,0
1583424853.170,24.414,37.598,42.969,19.043,8.789,0
1583424853.174,22.461,39.062,44.434,22.949,41.504,0
1583424853.178,22.949,38.574,44.434,23.926,19.531,0
1583424853.182,25.879,35.156,46.875,22.949,7.324,0
1583424853.159,27.832,34.180,45.898,26.855,50.781,0
1583424853.163,27.832,33.691,42.969,22.949,59.082,0
1583424853.167,30.273,35.645,40.527,19.531,84.961,0
1583424853.171,22.949,34.668,40.527,21.973,38.574,0
1583424853.175,13.184,33.203,40.527,24.902,47.852,0
1583424853.179,14.160,37.109,37.109,27.832,70.801,0
1583424853.183,16.602,37.598,36.133,21.973,77.637,0
1583424853.186,18.555,37.109,34.668,16.602,42.969,0
1583424853.190,23.438,40.039,38.086,18.555,-11.230,0
1583424853.194,24.414,38.086,44.922,22.461,32.715,0
1583424853.198,19.043,33.691,43.945,19.043,20.020,0
1583424853.202,11.719,31.250,43.945,12.207,33.691,0
1583424853.219,8.301,32.227,39.551,12.207,26.367,0
1583424853.223,13.184,37.109,37.109,12.695,43.945,0
1583424853.227,16.113,35.645,41.504,13.672,71.289,0
1583424853.231,13.672,36.133,38.086,12.207,45.898,0
1583424853.235,12.207,41.992,31.250,13.184,52.734,0
1583424853.239,16.602,42.480,27.344,24.414,62.012,0
1583424853.243,18.555,38.086,33.203,22.949,50.781,0
1583424853.246,17.578,38.574,41.016,11.230,26.367,0
1583424853.250,20.508,41.992,41.016,11.719,17.578,0
1583424853.254,22.949,37.109,39.551,18.555,-35.645,0
1583424853.258,20.020,34.180,41.016,26.855,-3.418,0
1583424853.262,18.066,37.109,40.039,25.879,23.438,0
1583424853.260,18.066,37.109,41.992,20.020,4.883,0
1583424853.264,20.508,37.109,46.875,22.949,21.484,0
1583424853.268,21.484,38.086,45.898,24.414,35.156,0
1583424853.272,21.973,40.527,41.992,23.438,11.230,0
1583424853.276,24.902,41.992,39.551,21.484,-1.953,0
1583424853.280,24.414,42.480,42.969,23.926,53.711,0
1583424853.284,20.508,42.480,45.410,26.367,46.387,0
1583424853.287,17.578,39.551,41.992,24.902,36.133,0
1583424853.291,21.484,38.574,41.504,19.531,17.090,0
1583424853.295,24.414,39.062,39.551,17.090,0.000,0
1583424853.299,23.438,39.062,39.062,20.020,13.184,0
1583424853.303,23.926,39.062,44.434,23.926,-20.020,0
1583424853.300,22.461,37.109,44.922,22.461,-20.996,0
1583424853.304,20.996,34.668,42.969,19.043,22.461,0
1583424853.308,26.855,36.133,41.992,22.461,24.902,0
1583424853.312,26.367,39.062,40.527,25.879,40.527,0
1583424853.316,23.926,38.574,39.062,22.949,34.180,0
1583424853.320,23.438,36.621,35.156,20.508,65.430,0
1583424853.324,22.949,35.645,33.691,25.879,87.402,0
1583424853.327,20.508,38.086,32.715,24.414,0.000,0
1583424853.331,20.508,37.109,31.738,20.020,6.836,0
1583424853.335,21.484,35.156,36.133,20.996,24.414,0
1583424853.339,23.438,39.551,36.621,23.438,20.508,0
1583424853.343,30.762,40.527,36.133,25.391,24.414,0
1583424853.379,36.621,40.039,38.086,22.949,16.602,0
1583424853.383,35.156,42.480,38.086,24.902,63.477,0
1583424853.387,26.367,40.039,37.598,29.297,49.316,0
1583424853.391,20.508,39.062,36.621,29.785,37.109,0
1583424853.395,22.949,41.992,35.645,27.344,99.121,0
1583424853.399,23.926,40.527,32.715,26.855,48.828,0
1583424853.403,24.414,39.062,33.203,24.902,42.969,0
1583424853.406,19.531,38.574,34.180,28.320,27.832,0
1583424853.410,14.160,39.062,33.203,30.273,27.344,0
1583424853.414,19.043,39.062,31.738,26.367,88.379,0
1583424853.418,24.414,39.551,27.832,23.438,57.129,0
1583424853.422,30.762,42.969,28.320,24.902,11.230,0
1583424853.400,28.809,43.457,29.297,30.762,48.340,0
1583424853.404,27.832,40.527,25.879,31.738,58.105,0
1583424853.408,25.879,41.016,25.879,25.879,22.461,0
1583424853.412,16.113,40.039,31.250,24.414,0.977,0
1583424853.416,19.043,40.039,34.180,29.785,18.066,0
1583424853.420,20.996,41.016,30.762,26.367,-18.066,0
1583424853.424,18.555,41.016,30.762,18.066,-10.254,0
1583424853.427,14.648,40.527,34.668,18.555,96.191,0
1583424853.431,12.207,36.621,34.180,22.949,87.891,0
1583424853.435,17.578,36.621,34.180,22.461,41.016,0
1583424853.439,22.461,38.086,35.645,20.996,5.859,0
1583424853.443,23.438,36.621,35.156,18.555,15.137,0
1583424853.441,20.508,34.668,34.180,15.137,24.414,0
1583424853.445,15.137,34.180,33.203,17.578,-9.277,0
1583424853.449,14.648,36.621,30.273,18.066,-7.324,0
1583424853.453,20.996,37.598,33.691,16.113,54.688,0
1583424853.457,29.785,40.039,39.062,20.996,81.055,0
1583424853.461,20.996,39.551,37.109,27.344,47.363,0
1583424853.465,18.066,39.062,34.668,25.391,6.836,0
1583424853.468,27.344,41.992,32.227,18.555,-42.969,0
1583424853.472,26.855,40.039,35.156,16.602,0.488,0
1583424853.476,16.602,35.645,38.574,20.508,20.020,0
1583424853.480,11.719,32.227,38.086,20.508,-17.578,0
1583424853.484,15.137,32.715,39.062,18.066,22.461,0
1583424853.499,19.531,38.086,36.133,15.625,104.980,0
1583424853.503,22.949,40.527,35.156,18.066,64.941,0
1583424853.507,25.879,40.039,34.180,19.531,14.648,0
1583424853.511,27.344,40.527,31.738,18.555,72.754,0
1583424853.515,25.879,41.504,28.320,21.484,58.105,0
1583424853.519,26.367,42.480,21.973,20.996,7.324,0
1583424853.523,25.879,41.992,22.461,18.555,-0.488,0
1583424853.526,20.996,39.551,27.344,16.602,70.312,0
1583424853.530,20.020,37.598,27.344,9.277,67.383,0
1583424853.534,21.973,37.598,28.320,6.348,31.250,0
1583424853.538,24.902,38.086,30.273,10.742,75.195,0
1583424853.542,32.227,38.086,32.715,10.254,58.594,0
1583424853.539,40.527,41.992,33.203,9.277,64.941,0
1583424853.543,37.598,43.945,31.250,10.742,70.312,0
1583424853.547,34.180,41.992,30.762,17.090,17.578,0
1583424853.551,34.668,41.992,32.227,27.344,19.531,0
1583424853.555,32.715,39.551,37.109,27.832,14.648,0
1583424853.559,27.832,36.621,38.574,23.926,46.387,0
1583424853.563,22.461,38.086,38.086,28.809,4.883,0
1583424853.566,17.090,36.621,42.480,31.738,-41.504,0
1583424853.570,17.578,34.668,43.457,24.414,-22.461,0
1583424853.574,19.531,36.133,45.410,19.531,36.133,0
1583424853.578,14.648,37.109,50.781,20.508,92.285,0
1583424853.582,18.555,37.598,48.340,19.043,40.527,0
1583424853.579,28.809,39.551,45.898,14.648,20.996,0
1583424853.583,24.414,41.992,46.387,17.578,68.359,0
1583424853.587,18.555,44.434,41.016,20.996,55.176,0
1583424853.591,21.484,43.945,41.016,22.949,51.758,0
1583424853.595,24.902,41.992,42.969,23.926,73.730,0
1583424853.599,21.484,41.504,41.992,20.996,54.688,0
1583424853.603,14.648,41.016,44.434,17.090,30.273,0
1583424853.606,16.113,41.016,40.039,17.578,13.184,0
1583424853.610,20.508,41.504,35.645,20.508,33.203,0
1583424853.614,25.391,40.039,35.156,20.996,37.598,0
1583424853.618,30.762,41.992,32.715,18.555,27.344,0
1583424853.622,28.809,42.480,29.297,21.484,58.594,0
1583424853.639,23.438,41.016,28.809,26.855,44.922,0
1583424853.643,21.484,40.039,31.738,32.227,46.875,0
1583424853.647,27.832,41.504,33.203,27.832,34.180,0
1583424853.651,32.715,40.527,31.738,20.508,23.438,0
1583424853.655,28.320,40.039,32.715,24.902,-9.277,0
1583424853.659,25.391,41.992,34.180,21.973,-34.668,0
1583424853.663,23.926,40.039,36.621,14.648,3.906,0
1583424853.666,22.949,40.039,37.598,18.066,49.805,0
1583424853.670,25.879,42.480,37.598,20.508,48.340,0
1583424853.674,16.602,42.969,36.133,22.949,20.996,0
1583424853.678,13.184,45.898,36.133,24.902,22.949,0
1583424853.682,18.555,45.898,40.527,24.414,-8.789,0
1583424853.679,19.043,44.434,39.551,29.297,-7.812,0
1583424853.683,24.902,47.363,37.598,28.809,3.906,0
1583424853.687,30.273,45.898,36.621,27.344,-8.301,0
1583424853.691,29.785,43.457,34.180,25.391,49.805,0
1583424853.695,26.855,42.969,30.273,23.926,73.242,0
1583424853.699,26.367,41.992,30.273,26.367,44.434,0
1583424853.703,23.926,41.504,32.715,27.344,61.035,0
1583424853.706,19.043,40.039,32.227,23.926,69.336,0
1583424853.710,20.020,41.016,30.273,25.879,84.473,0
1583424853.714,24.414,42.480,32.715,30.273,52.246,0
1583424853.718,24.902,41.992,37.598,29.785,10.254,0
1583424853.722,29.785,41.504,39.062,26.855,-6.836,0
1583424853.719,29.785,41.504,42.969,28.809,-19.043,0
1583424853.723,30.273,41.504,44.434,34.668,51.758,0
1583424853.727,35.645,42.480,43.945,35.156,73.242,0
1583424853.731,38.086,41.016,42.480,27.832,33.691,0
1583424853.735,35.645,40.527,38.086,25.879,10.254,0
1583424853.739,31.250,41.016,35.645,29.297,14.648,0
1583424853.743,33.691,41.016,32.227,28.320,3.418,0
1583424853.746,30.762,41.992,30.762,25.391,-13.184,0
1583424853.750,22.461,42.480,33.203,20.996,-14.648,0
1583424853.754,21.973,41.504,34.668,22.461,-5.371,0
1583424853.758,23.438,41.992,35.156,23.926,2.441,0
1583424853.762,24.902,43.945,37.109,15.137,63.965,0
1583424853.779,22.461,41.992,35.645,8.301,80.078,0
1583424853.783,18.555,38.574,35.156,14.160,73.242,0
1583424853.787,21.484,39.062,34.668,19.531,80.566,0
1583424853.791,21.484,39.062,30.273,19.043,43.945,0
1583424853.795,23.438,36.621,29.297,19.043,33.691,0
1583424853.799,21.973,35.645,29.785,22.461,1.465,0
1583424853.803,18.066,36.133,27.832,26.855,26.855,0
1583424853.806,20.508,37.109,24.414,20.508,51.758,0
1583424853.810,19.043,38.086,23.438,12.207,59.570,0
1583424853.814,12.207,37.109,23.438,10.254,85.449,0
1583424853.818,10.254,38.086,21.973,11.230,77.148,0
1583424853.822,13.672,38.574,25.391,12.695,30.273,0
1583424853.820,14.160,36.621,29.785,9.766,29.785,0
1583424853.824,12.695,35.156,31.738,9.766,14.648,0
1583424853.828,17.090,33.203,32.715,10.742,48.340,0
1583424853.832,20.508,34.668,32.715,12.695,46.387,0
1583424853.836,15.625,33.203,32.715,16.602,-18.066,0
1583424853.840,18.555,34.180,31.738,10.254,-13.184,0
1583424853.844,23.438,37.598,33.203,10.742,24.414,0
1583424853.847,16.602,36.621,33.691,17.090,32.715,0
1583424853.851,10.742,36.621,30.762,17.090,-6.836,0
1583424853.855,18.066,38.086,32.715,18.555,-28.809,0
1583424853.859,20.020,39.062,36.133,20.508,-7.324,0
1583424853.863,15.625,40.527,34.180,21.973,-8.301,0
1583424853.879,16.602,40.527,36.133,20.996,37.109,0
1583424853.883,19.531,41.016,32.227,14.648,62.988,0
1583424853.887,18.555,42.480,33.203,5.859,14.160,0
1583424853.891,19.043,41.504,39.551,6.836,39.551,0
1583424853.895,24.414,38.574,39.551,8.789,71.777,0
1583424853.899,23.926,36.133,35.645,10.254,73.730,0
1583424853.903,13.184,35.645,31.250,10.254,53.711,0
1583424853.906,10.254,36.133,30.762,9.766,-37.598,0
1583424853.910,13.672,36.133,36.133,11.719,-41.504,0
1583424853.914,12.207,37.109,38.086,17.090,61.523,0
1583424853.918,14.160,39.062,35.645,17.090,56.641,0
1583424853.922,15.625,36.621,31.250,15.625,16.602,0
1583424853.919,14.648,39.062,26.855,23.438,68.359,0
1583424853.923,16.602,42.480,25.391,21.973,46.875,0
1583424853.927,22.949,41.016,24.414,15.137,27.832,0
1583424853.931,20.508,36.621,27.344,20.020,45.898,0
1583424853.935,11.719,33.203,26.367,23.926,-11.230,0
1583424853.939,14.648,36.133,23.438,21.484,-49.316,0
1583424853.943,15.137,36.621,26.367,18.555,3.418,0
1583424853.946,11.719,36.621,31.250,16.602,101.562,0
1583424853.950,14.648,37.109,32.715,13.672,98.145,0
1583424853.954,15.625,36.621,29.785,14.648,27.344,0
1583424853.958,14.160,39.551,25.391,18.066,67.383,0
1583424853.962,13.672,38.574,26.855,11.230,89.355,0
1583424853.959,16.602,40.527,31.738,9.766,62.500,0
1583424853.963,27.832,43.945,28.320,18.555,52.246,0
1583424853.967,28.320,40.527,26.367,20.020,-0.977,0
1583424853.971,12.207,35.645,29.785,16.602,-1.953,0
1583424853.975,4.395,33.203,33.691,14.160,38.086,0
1583424853.979,11.719,34.668,34.668,14.648,25.391,0
1583424853.983,20.020,35.156,35.645,18.066,7.324,0
1583424853.986,21.484,34.668,41.992,18.555,-1.465,0
1583424853.990,18.555,35.156,45.410,17.578,24.414,0
1583424853.994,16.113,33.691,47.852,20.020,39.062,0
1583424853.998,15.625,33.691,52.246,22.461,66.406,0
1583424854.002,19.531,33.203,47.852,18.066,34.668,0
1583424854.019,26.367,31.738,46.387,17.090,-15.625,0
1583424854.023,24.902,30.762,46.875,19.531,43.945,0
1583424854.027,22.949,29.785,49.805,25.879,39.551,0
1583424854.031,27.344,35.156,48.828,27.344,11.230,0
1583424854.035,24.414,34.668,42.480,23.926,11.230,0
1583424854.039,21.484,33.691,42.969,26.855,-4.395,0
1583424854.043,24.902,38.086,42.480,29.785,53.711,0
1583424854.046,27.832,37.598,41.016,26.855,138.184,0
1583424854.050,30.762,35.645,42.480,21.484,132.812,0
1583424854.054,27.344,34.668,44.434,25.391,91.797,0
1583424854.058,24.414,34.180,47.363,33.203,60.547,0
1583424854.062,25.391,36.133,45.898,29.785,95.703,0
1583424854.060,26.855,36.621,41.016,24.414,101.562,0
1583424854.064,27.344,36.133,41.504,23.438,50.293,0
1583424854.068,26.367,36.621,43.945,27.832,30.762,0
1583424854.072,25.879,37.598,42.969,32.715,4.883,0
1583424854.076,20.020,36.621,41.504,33.203,47.363,0
1583424854.080,19.043,38.086,39.551,31.738,3.906,0
1583424854.084,25.391,38.574,39.062,31.250,-20.996,0
1583424854.087,31.738,35.156,41.992,32.715,45.410,0
1583424854.091,32.227,35.156,46.387,28.320,-2.441,0
1583424854.095,22.949,32.227,45.898,23.926,23.926,0
1583424854.099,16.602,30.762,43.457,23.926,20.020,0
1583424854.103,20.020,31.738,44.922,24.902,0.000,0
1583424854.122,21.973,28.320,46.875,27.344,36.133,0
1583424854.126,20.996,27.832,49.805,20.508,77.148,0
1583424854.130,21.973,31.250,48.340,19.531,36.621,0
1583424854.134,20.996,33.203,44.922,20.996,-12.207,0
1583424854.138,18.555,33.691,43.457,16.602,18.555,0
1583424854.142,17.578,33.203,41.504,21.973,25.391,0
1583424854.146,21.484,35.645,39.551,19.531,7.812,0
1583424854.149,28.809,35.645,40.039,17.578,-9.766,0
1583424854.153,27.832,33.691,37.109,25.391,30.273,0
1583424854.157,23.438,34.668,36.133,21.973,64.941,0
1583424854.161,23.926,37.109,40.039,20.996,82.031,0
1583424854.165,29.297,38.574,41.992,26.367,83.008,0
1583424854.159,29.297,37.598,40.527,27.344,62.012,0
1583424854.163,23.438,40.527,41.504,27.344,38.086,0
1583424854.167,19.531,38.574,44.434,20.508,26.855,0
1583424854.171,18.555,36.133,45.898,20.996,31.250,0
1583424854.175,19.531,39.062,44.434,25.879,22.461,0
1583424854.179,24.902,39.062,42.480,22.461,31.250,0
1583424854.183,23.438,40.039,42.969,18.555,45.410,0
1583424854.186,13.184,38.574,44.434,15.137,91.797,0
1583424854.190,14.648,36.621,44.434,16.602,137.207,0
1583424854.194,26.855,36.621,40.039,18.066,27.344,0
1583424854.198,29.297,37.598,42.480,18.555,-5.371,0
1583424854.202,24.902,36.621,44.434,22.949,65.430,0
1583424854.199,27.832,37.598,40.527,23.438,53.711,0
1583424854.203,31.250,39.062,43.457,24.414,-7.812,0
1583424854.207,30.273,38.086,45.410,26.855,-15.137,0
1583424854.211,28.320,36.621,42.969,25.391,48.340,0
1583424854.215,25.879,37.598,42.969,25.391,34.180,0
1583424854.219,24.414,37.109,42.480,18.066,18.555,0
1583424854.223,22.949,37.109,41.504,16.113,9.766,0
1583424854.226,23.926,39.551,40.039,20.508,-13.184,0
1583424854.230,24.902,40.039,37.598,20.996,-23.926,0
1583424854.234,26.367,39.062,34.668,26.367,-20.020,0
1583424854.238,32.227,39.551,36.621,24.414,37.598,0
1583424854.242,29.785,39.062,41.504,17.578,55.664,0
1583424854.239,19.531,36.621,42.969,16.602,22.949,0
1583424854.243,12.695,35.156,45.410,19.043,-11.719,0
1583424854.247,10.742,37.598,45.410,20.996,17.090,0
1583424854.251,12.207,39.062,43.945,16.113,40.039,0
1583424854.255,9.277,35.645,46.875,8.789,46.875,0
1583424854.259,13.184,33.691,48.828,9.277,28.320,0
1583424854.263,25.391,36.621,48.340,11.719,-22.949,0
1583424854.266,24.902,36.621,47.852,13.672,-12.207,0
1583424854.270,18.555,36.621,46.875,15.625,22.461,0
1583424854.274,13.184,37.109,46.387,17.578,51.270,0
1583424854.278,16.113,37.109,50.781,19.531,18.066,0
1583424854.282,16.113,37.109,55.176,20.996,-3.906,0
1583424854.299,12.207,36.133,56.152,21.484,13.672,0
1583424854.303,15.625,40.039,49.805,22.949,2.930,0
1583424854.307,18.066,39.062,46.875,29.297,2.930,0
1583424854.311,16.602,35.156,44.922,28.320,103.516,0
1583424854.315,16.602,35.156,36.621,22.461,133.789,0
1583424854.319,15.137,35.645,31.738,19.531,79.590,0
1583424854.323,12.207,38.574,30.273,19.531,54.688,0
1583424854.326,12.207,40.039,31.738,19.531,101.562,0
1583424854.330,14.160,41.016,34.180,18.066,78.613,0
1583424854.334,21.973,42.480,32.227,16.113,6.836,0
1583424854.338,22.461,41.992,33.691,21.484,52.246,0
1583424854.342,19.043,42.969,29.785,26.855,46.875,0
1583424854.339,22.949,41.504,29.297,22.461,21.484,0
1583424854.343,23.438,36.621,34.180,16.113,35.645,0
1583424854.347,15.137,35.645,36.621,14.648,28.809,0
1583424854.351,12.207,38.086,37.598,16.113,38.574,0
1583424854.355,17.578,39.062,36.133,16.602,9.766,0
1583424854.359,15.137,41.504,40.527,13.672,-1.465,0
1583424854.363,13.184,44.922,40.527,12.207,2.441,0
1583424854.366,14.648,44.922,36.621,16.602,22.461,0
1583424854.370,20.508,43.945,38.574,20.996,62.988,0
1583424854.374,28.320,44.922,37.109,24.414,90.820,0
1583424854.378,26.367,42.969,35.645,23.926,57.129,0
1583424854.382,16.602,38.574,40.039,25.879,43.945,0
1583424854.379,17.090,40.527,38.086,32.227,43.945,0
1583424854.383,23.438,44.922,35.645,28.320,67.871,0
1583424854.387,23.926,43.945,32.227,23.438,77.637,0
1583424854.391,28.809,42.969,28.320,22.949,12.207,0
1583424854.395,32.227,43.457,25.391,21.973,2.441,0
1583424854.399,20.996,41.504,19.043,20.996,-3.418,0
1583424854.403,13.672,37.109,14.160,17.090,-13.672,0
1583424854.406,19.531,38.086,13.184,14.160,20.508,0
1583424854.410,20.020,41.992,14.160,18.555,58.105,0
1583424854.414,19.531,41.016,17.090,20.508,55.664,0
1583424854.418,21.484,39.551,19.531,14.160,-5.371,0
1583424854.422,16.602,38.574,21.484,13.184,25.879,0
1583424854.439,12.695,39.062,20.996,15.625,24.414,0
1583424854.443,13.184,39.551,18.555,14.648,-8.301,0
1583424854.447,12.695,36.133,21.484,11.719,21.973,0
1583424854.451,13.672,36.133,26.855,9.766,27.832,0
1583424854.455,12.207,36.133,26.367,15.137,36.133,0
1583424854.459,14.648,34.668,24.902,19.043,46.387,0
1583424854.463,24.902,39.062,23.438,17.090,54.688,0
1583424854.466,28.809,40.527,23.438,17.090,20.020,0
1583424854.470,24.414,38.086,25.879,22.461,-13.184,0
1583424854.474,22.949,37.598,25.391,24.414,-12.207,0
1583424854.478,25.391,39.551,26.367,20.996,6.836,0
1583424854.482,27.344,36.621,25.879,19.043,58.594,0
1583424854.479,29.785,39.062,29.297,20.508,71.777,0
1583424854.483,27.344,43.945,34.180,23.926,-3.418,0
1583424854.487,24.414,42.480,30.273,23.438,-7.324,0
1583424854.491,36.133,45.898,26.367,19.043,35.645,0
1583424854.495,36.133,47.852,25.879,19.043,34.668,0
1583424854.499,23.926,45.410,26.855,25.391,20.508,0
1583424854.503,26.367,46.387,31.250,28.320,9.277,0
1583424854.506,26.367,47.363,33.691,19.043,2.441,0
1583424854.510,18.555,44.434,35.156,10.254,19.043,0
1583424854.514,13.184,43.457,31.738,12.207,25.391,0
1583424854.518,12.695,42.969,31.738,11.719,16.113,0
1583424854.522,14.160,39.551,39.062,11.230,123.535,0
1583424854.519,18.066,37.598,40.527,11.719,122.070,0
1583424854.523,17.578,37.598,41.504,16.113,44.434,0
1583424854.527,20.996,37.598,41.992,28.320,7.324,0
1583424854.531,25.879,38.574,41.504,30.762,-7.324,0
1583424854.535,24.414,38.086,42.969,27.832,55.664,0
1583424854.539,21.973,36.621,41.016,26.367,68.359,0
1583424854.543,19.043,38.086,39.551,23.926,-31.738,0
1583424854.546,15.137,38.086,38.574,25.879,-73.242,0
1583424854.550,14.648,35.156,37.598,21.973,-1.465,0
1583424854.554,17.578,36.133,42.969,20.996,19.531,0
1583424854.558,16.113,34.668,43.457,26.855,34.180,0
1583424854.562,22.949,34.668,38.086,23.438,-6.348,0
1583424854.579,23.438,37.109,37.109,19.043,13.672,0
1583424854.583,18.555,34.180,36.621,19.043,60.059,0
1583424854.587,18.555,35.645,39.062,15.137,16.602,0
1583424854.591,19.043,41.504,39.062,15.137,1.465,0
1583424854.595,16.602,43.457,33.203,20.508,17.090,0
1583424854.599,17.578,41.992,31.250,20.508,-0.488,0
1583424854.603,18.555,41.992,28.809,12.695,-3.906,0
1583424854.606,19.531,40.527,26.855,10.254,-5.371,0
1583424854.610,26.855,40.039,30.273,14.648,8.301,0
1583424854.614,33.691,41.992,32.227,13.184,35.645,0
1583424854.618,28.320,41.016,36.621,15.137,44.922,0
1583424854.622,20.508,39.062,39.062,21.973,30.273,0
1583424854.619,29.785,41.504,39.062,24.902,0.977,0
1583424854.623,30.762,41.016,36.133,16.113,37.598,0
1583424854.627,24.902,40.039,33.203,10.254,103.516,0
1583424854.631,23.926,39.551,33.691,10.742,60.547,0
1583424854.635,16.602,39.062,32.227,11.230,23.438,0
1583424854.639,9.766,38.086,31.738,16.113,44.922,0
1583424854.643,7.812,35.645,32.715,16.602,28.809,0
1583424854.646,6.836,35.156,32.715,17.090,15.625,0
1583424854.650,4.883,35.645,36.621,25.879,28.320,0
1583424854.654,6.836,35.645,39.062,24.902,9.766,0
1583424854.658,9.277,33.691,38.574,20.508,-24.902,0
1583424854.662,10.742,32.227,36.621,15.625,41.016,0
1583424854.659,12.207,33.203,34.180,16.113,94.727,0
1583424854.663,11.230,33.691,35.645,22.949,62.500,0
1583424854.667,7.324,34.180,33.691,24.414,40.527,0
1583424854.671,8.789,35.645,29.785,14.160,31.738,0
1583424854.675,17.090,36.621,30.762,8.301,79.102,0
1583424854.679,21.484,34.180,30.762,18.555,89.355,0
1583424854.683,22.461,34.180,32.715,21.484,-18.066,0
1583424854.686,22.461,39.551,33.203,20.020,-15.625,0
1583424854.690,22.461,38.086,34.180,25.391,111.816,0
1583424854.694,20.996,34.668,34.668,21.484,120.117,0
1583424854.698,24.902,35.645,33.203,12.695,47.363,0
1583424854.702,23.438,37.109,31.738,7.812,-10.742,0
1583424854.719,22.461,39.551,29.297,7.324,0.000,0
1583424854.723,26.367,41.016,30.762,10.254,7.812,0
1583424854.727,25.391,41.016,33.203,10.254,15.625,0
1583424854.731,22.949,41.504,34.668,13.672,18.066,0
1583424854.735,22.949,44.922,35.156,20.508,-2.930,0
1583424854.739,24.902,46.875,35.156,27.344,-2.441,0
1583424854.743,22.949,43.945,36.133,25.879,62.500,0
1583424854.746,22.949,41.992,36.133,16.113,83.984,0
1583424854.750,25.879,43.945,33.203,21.973,27.832,0
1583424854.754,33.203,41.504,35.156,33.691,5.859,0
1583424854.758,31.250,39.551,38.574,32.715,34.668,0
1583424854.762,22.949,37.109,38.086,27.832,64.453,0
1583424854.759,22.461,34.180,41.016,22.949,71.777,0
1583424854.763,25.879,33.203,41.992,23.438,37.109,0
1583424854.767,24.414,32.715,41.992,27.832,38.574,0
1583424854.771,11.719,32.715,44.434,20.508,8.789,0
1583424854.775,3.906,34.668,41.992,11.719,-6.836,0
1583424854.779,4.395,37.109,39.062,8.301,9.766,0
1583424854.783,7.812,37.598,37.109,7.812,30.762,0
1583424854.786,14.648,37.598,33.691,6.348,14.160,0
1583424854.790,16.113,39.062,34.668,6.836,12.695,0
1583424854.794,16.113,40.527,33.691,12.695,83.984,0
1583424854.798,21.973,40.039,35.645,17.578,52.734,0
1583424854.802,29.785,38.574,41.992,20.508,24.414,0
1583424854.799,31.738,35.645,42.969,19.043,72.266,0
1583424854.803,29.785,34.668,42.480,20.020,50.293,0
1583424854.807,35.645,34.180,36.621,26.855,-9.766,0
1583424854.811,38.086,32.227,33.691,27.832,30.762,0
1583424854.815,35.156,33.203,34.180,23.438,28.809,0
1583424854.819,36.133,35.156,30.762,20.508,-29.785,0
1583424854.823,31.250,34.180,30.762,21.484,5.371,0
1583424854.826,23.438,34.668,32.227,25.391,78.613,0
1583424854.830,23.926,38.574,32.227,18.066,58.105,0
1583424854.834,24.414,38.574,37.598,12.207,7.812,0
1583424854.838,22.949,36.621,39.551,18.555,5.859,0
1583424854.842,20.996,36.133,39.062,23.926,6.348,0
1583424854.859,25.879,36.133,37.598,24.414,-3.906,0
1583424854.863,29.785,36.621,35.645,19.531,46.387,0
1583424854.867,23.438,33.203,31.738,17.578,45.898,0
1583424854.871,22.461,33.203,28.809,19.043,9.277,0
1583424854.875,23.926,37.109,27.344,15.625,28.809,0
1583424854.879,22.949,38.574,25.391,16.113,-0.977,0
1583424854.883,18.066,37.598,26.855,20.996,19.043,0
1583424854.886,15.625,37.598,30.762,20.020,76.660,0
1583424854.890,18.555,38.574,31.738,19.043,29.297,0
1583424854.894,23.926,38.574,32.227,20.508,1.953,0
1583424854.898,23.438,38.086,33.691,23.438,20.020,0
1583424854.902,30.273,38.086,37.109,25.391,-20.020,0
1583424854.899,31.250,38.574,40.527,28.809,22.949,0
1583424854.903,24.414,37.109,38.086,28.320,93.750,0
1583424854.907,23.438,38.574,34.668,23.926,4.395,0
1583424854.911,20.996,37.598,29.785,26.855,-3.906,0
1583424854.915,24.902,34.668,27.832,25.879,43.945,0
1583424854.919,29.785,37.598,34.180,17.090,33.203,0
1583424854.923,24.902,41.992,40.527,17.090,35.645,0
1583424854.926,20.508,42.480,44.922,18.555,26.367,0
1583424854.930,18.066,41.504,45.410,16.602,63.965,0
1583424854.934,15.625,39.551,39.551,12.695,62.500,0
1583424854.938,17.578,38.086,36.621,12.207,40.527,0
1583424854.942,20.508,38.574,35.645,11.230,30.273,0
1583424854.940,14.160,37.598,34.180,11.719,59.570,0
1583424854.944,7.812,38.086,36.133,19.531,94.238,0
1583424854.948,17.090,40.039,36.621,21.973,13.184,0
1583424854.952,22.461,40.527,37.598,16.602,-2.930,0
1583424854.956,18.066,40.039,37.598,20.020,16.113,0
1583424854.960,11.719,38.086,34.668,25.391,-7.812,0
1583424854.964,8.301,36.133,33.691,25.391,38.574,0
1583424854.967,7.812,34.668,36.133,26.367,32.227,0
1583424854.971,11.230,32.715,40.039,27.344,19.531,0
1583424854.975,13.672,31.738,41.016,28.320,81.543,0
1583424854.979,17.578,34.668,39.551,22.949,59.570,0
1583424854.983,21.484,37.109,38.574,19.531,50.781,0
1583424854.999,18.555,37.598,34.180,20.996,64.941,0
1583424855.003,16.113,39.062,36.133,21.484,58.594,0
1583424855.007,19.531,38.574,39.062,17.578,45.410,0
1583424855.011,22.461,39.062,39.062,14.648,54.199,0
1583424855.015,22.461,41.016,38.574,19.043,65.918,0
1583424855.019,21.484,41.504,35.645,20.020,30.273,0
1583424855.023,19.531,41.504,40.039,20.996,27.832,0
1583424855.026,16.602,38.574,46.875,18.066,44.434,0
1583424855.030,16.602,38.086,48.340,14.648,61.523,0
1583424855.034,20.996,41.504,49.316,20.508,45.898,0
1583424855.038,21.484,39.551,46.387,24.902,24.414,0
1583424855.042,16.113,36.133,43.457,25.391,46.875,0
1583424855.040,18.555,36.621,41.992,16.602,36.133,0
1583424855.044,20.020,39.551,41.016,16.602,4.395,0
1583424855.048,12.207,38.574,40.527,27.832,-10.254,0
1583424855.052,9.277,37.109,41.016,28.809,23.438,0
1583424855.056,11.230,39.062,42.480,24.902,72.266,0
1583424855.060,13.672,40.039,39.551,22.461,39.062,0
1583424855.064,10.254,41.504,35.645,25.391,6.836,0
1583424855.067,13.672,40.527,34.668,26.855,37.598,0
1583424855.071,15.137,36.621,38.086,23.438,48.828,0
1583424855.075,11.230,37.109,38.086,21.484,22.461,0
1583424855.079,13.672,36.621,36.621,24.414,-37.598,0
1583424855.083,20.508,38.086,38.574,25.879,-31.250,0
1583424855.079,18.555,38.086,41.504,20.020,45.898,0
1583424855.083,14.160,36.621,43.457,18.066,62.012,0
1583424855.087,16.113,37.109,43.945,21.973,90.332,0
1583424855.091,20.508,36.133,41.504,21.484,58.594,0
1583424855.095,20.508,35.156,36.621,22.461,8.301,0
1583424855.099,21.484,37.109,36.133,22.461,25.391,0
1583424855.103,26.367,39.062,38.086,21.973,9.766,0
1583424855.106,26.367,41.016,37.598,25.391,17.090,0
1583424855.110,28.320,42.480,40.039,24.902,50.293,0
1583424855.114,29.297,40.527,41.016,22.949,59.570,0
1583424855.118,22.949,39.062,37.109,20.508,39.551,0
1583424855.122,24.902,39.062,38.574,24.902,11.230,0
1583424855.139,32.715,41.016,40.527,31.250,41.504,0
1583424855.143,38.574,38.574,39.551,29.297,-6.836,0
1583424855.147,42.969,37.109,41.504,25.391,-2.441,0
1583424855.151,36.621,39.551,43.945,26.367,78.125,0
1583424855.155,27.832,38.574,43.457,31.738,51.270,0
1583424855.159,22.949,38.574,42.969,28.809,46.387,0
1583424855.163,17.090,41.992,44.434,19.531,0.977,0
1583424855.166,15.137,39.062,48.828,20.996,30.273,0
1583424855.170,23.438,39.551,50.293,24.902,71.289,0
1583424855.174,22.461,43.457,48.828,30.762,69.336,0
1583424855.178,15.625,43.457,48.340,30.762,41.504,0
1583424855.182,14.648,42.480,47.852,18.555,-3.418,0
1583424855.180,16.113,42.480,47.852,18.066,25.391,0
1583424855.184,14.648,41.016,46.387,19.531,58.105,0
1583424855.188,14.160,39.551,44.922,19.531,74.219,0
1583424855.192,11.230,40.039,48.340,19.531,59.082,0
1583424855.196,1.465,38.574,48.340,18.066,49.316,0
1583424855.200,6.348,37.109,41.992,18.555,-7.812,0
1583424855.204,13.672,38.086,42.969,13.672,-17.090,0
1583424855.207,17.578,39.062,46.875,10.254,20.020,0
1583424855.211,18.066,39.551,41.016,10.254,1.953,0
1583424855.215,19.531,40.039,33.203,8.301,-36.621,0
1583424855.219,21.484,41.992,35.645,11.719,18.066,0
1583424855.223,22.949,44.922,38.574,14.160,47.852,0
1583424855.219,27.344,45.410,38.574,13.184,51.270,0
1583424855.223,27.832,44.922,36.133,13.672,10.254,0
1583424855.227,25.879,44.922,36.133,11.719,46.875,0
1583424855.231,22.949,41.992,37.598,11.230,55.664,0
1583424855.235,17.578,40.039,41.016,10.254,58.105,0
1583424855.239,20.996,37.598,47.363,14.648,65.430,0
1583424855.243,24.414,33.203,47.852,21.484,52.734,0
1583424855.246,30.273,32.715,43.945,21.973,50.781,0
1583424855.250,32.715,31.250,47.852,22.461,72.266,0
1583424855.254,32.715,28.809,50.781,25.391,102.051,0
1583424855.258,31.738,27.832,48.828,28.809,78.125,0
1583424855.262,23.438,26.367,47.363,30.273,37.109,0
1583424855.280,23.926,31.738,41.992,24.902,-2.441,0
1583424855.284,24.902,32.715,40.039,20.996,-34.180,0
1583424855.288,17.090,30.762,38.574,20.996,-49.316,0
1583424855.292,11.719,35.645,35.645,22.949,-7.812,0
1583424855.296,15.137,37.109,35.645,25.879,56.152,0
1583424855.300,11.230,36.133,31.250,21.484,42.969,0
1583424855.304,4.395,35.645,27.344,21.973,-9.766,0
1583424855.307,5.859,34.668,26.367,19.531,46.387,0
1583424855.311,9.277,36.133,27.344,16.113,87.891,0
1583424855.315,11.230,37.109,25.879,15.137,73.730,0
1583424855.319,13.672,39.551,23.926,12.207,70.312,0
1583424855.323,17.578,42.480,30.273,13.184,50.293,0
1583424855.320,20.996,42.969,30.762,14.648,35.156,0
1583424855.324,23.438,40.039,25.879,15.137,40.039,0
1583424855.328,27.344,37.598,26.855,18.555,47.363,0
1583424855.332,25.391,36.133,27.344,20.508,50.781,0
1583424855.336,24.414,35.156,30.273,20.996,91.309,0
1583424855.340,28.809,36.133,31.738,20.508,85.449,0
1583424855.344,29.785,35.645,31.738,20.996,-4.883,0
1583424855.347,30.273,32.715,34.668,23.926,0.488,0
1583424855.351,32.227,32.715,31.738,25.879,48.828,0
1583424855.355,26.367,30.273,33.203,24.414,28.320,0
1583424855.359,20.020,23.438,36.621,20.508,25.879,0
1583424855.363,22.949,24.414,39.062,21.973,41.992,0
1583424855.380,16.113,28.809,42.969,19.531,25.879,0
1583424855.384,11.719,31.250,38.574,14.648,51.270,0
1583424855.388,11.719,38.086,34.668,9.766,77.148,0
1583424855.392,4.395,41.992,35.156,5.371,64.453,0
1583424855.396,0.000,42.480,29.785,4.883,101.074,0
1583424855.400,2.930,42.480,27.344,4.395,104.980,0
1583424855.404,4.883,42.480,29.297,6.348,85.449,0
1583424855.407,4.883,44.434,32.715,12.207,89.844,0
1583424855.411,11.719,44.434,33.203,15.137,26.855,0
1583424855.415,17.578,43.945,29.785,18.555,-17.090,0
1583424855.419,15.625,41.016,29.785,21.484,-0.977,0
1583424855.423,14.648,38.086,30.762,25.391,25.879,0
1583424855.419,15.137,41.504,32.715,24.414,27.832,0
1583424855.423,14.648,42.969,39.551,23.438,41.992,0
1583424855.427,16.602,43.457,41.992,25.391,66.406,0
1583424855.431,16.602,43.457,39.551,21.973,25.391,0
1583424855.435,17.090,41.504,38.574,25.879,3.418,0
1583424855.439,19.531,41.016,37.598,30.762,51.270,0
1583424855.443,18.555,41.504,40.039,32.227,40.039,0
1583424855.446,20.020,39.062,38.574,28.809,17.578,0
1583424855.450,27.832,38.574,35.645,26.367,27.344,0
1583424855.454,33.203,39.551,36.133,22.949,8.301,0
1583424855.458,30.762,41.992,29.785,17.578,10.254,0
1583424855.462,27.344,41.504,29.297,14.160,-30.273,0
1583424855.459,27.344,38.574,35.645,17.090,-1.465,0
1583424855.463,29.297,41.992,32.715,21.484,67.383,0
1583424855.467,34.180,43.457,30.762,18.555,50.293,0
1583424855.471,31.250,42.480,26.367,12.695,46.875,0
1583424855.475,22.461,42.969,23.438,15.625,19.043,0
1583424855.479,19.531,43.945,24.902,20.508,-5.371,0
1583424855.483,20.508,44.434,25.879,17.090,34.180,0
1583424855.486,20.996,44.922,26.367,13.672,-7.812,0
1583424855.490,21.484,44.434,24.414,14.160,9.277,0
1583424855.494,23.438,42.480,23.438,19.531,71.777,0
1583424855.498,25.879,39.551,25.391,23.438,39.551,0
1583424855.502,28.320,38.086,23.926,22.461,44.922,0
1583424855.519,21.973,37.598,26.367,19.531,6.836,0
1583424855.523,12.207,35.156,29.785,27.344,17.578,0
1583424855.527,15.137,36.621,28.809,32.227,77.637,0
1583424855.531,17.578,42.480,29.297,25.879,24.414,0
1583424855.535,11.719,49.316,28.320,20.996,5.859,0
1583424855.539,9.766,53.711,28.320,20.996,55.176,0
1583424855.543,15.137,56.152,22.949,19.531,27.344,0
1583424855.546,14.160,57.129,19.043,11.719,35.156,0
1583424855.550,12.695,57.617,22.461,7.324,58.105,0
1583424855.554,18.555,57.617,21.973,6.836,96.680,0
1583424855.558,23.926,57.617,20.996,6.348,138.184,0
1583424855.562,28.809,57.129,18.066,7.812,91.309,0
1583424855.559,29.297,53.711,16.113,10.254,38.574,0
1583424855.563,24.902,50.781,17.578,16.113,46.875,0
1583424855.567,26.855,49.805,18.066,20.508,-17.090,0
1583424855.571,37.109,49.805,19.043,15.625,-6.348,0
1583424855.575,43.457,49.316,25.391,13.672,26.855,0
1583424855.579,40.039,48.340,27.344,15.137,57.129,0
1583424855.583,31.738,47.852,26.855,18.555,61.523,0
1583424855.586,24.902,48.340,29.785,24.414,67.871,0
1583424855.590,30.273,51.758,28.320,21.484,77.637,0
1583424855.594,35.645,51.758,26.855,15.625,76.660,0
1583424855.598,32.227,49.805,25.391,15.137,62.500,0
1583424855.602,31.250,47.852,26.367,23.438,26.367,0
1583424855.599,30.273,48.340,27.832,28.320,50.293,0
1583424855.603,27.832,50.781,25.391,24.414,49.316,0
1583424855.607,23.926,50.293,24.414,23.926,58.594,0
1583424855.611,27.832,46.875,21.484,21.973,39.551,0
1583424855.615,24.414,45.898,24.414,18.555,46.875,0
1583424855.619,15.625,46.387,25.879,18.066,74.219,0
1583424855.623,14.160,45.898,27.832,14.160,33.203,0
1583424855.626,19.043,46.875,31.738,11.719,42.480,0
1583424855.630,25.391,45.898,31.250,13.184,31.738,0
1583424855.634,24.414,44.922,28.809,10.254,10.254,0
1583424855.638,20.020,42.480,28.320,6.836,-14.160,0
1583424855.642,15.625,41.504,31.738,13.672,19.043,0
1583424855.659,14.160,42.969,33.203,20.020,8.301,0
1583424855.663,16.602,42.480,32.227,24.414,6.836,0
1583424855.667,17.578,41.016,36.133,20.996,29.785,0
1583424855.671,19.531,40.527,38.574,17.578,41.992,0
1583424855.675,20.996,38.574,38.574,23.438,80.566,0
1583424855.679,21.484,42.969,40.039,25.879,130.371,0
1583424855.683,20.508,47.363,37.598,26.855,59.570,0
1583424855.686,18.066,45.410,37.598,29.297,0.488,0
1583424855.690,20.508,44.434,40.039,29.297,25.879,0
1583424855.694,24.414,44.434,36.133,23.438,-19.043,0
1583424855.698,26.367,44.434,36.133,19.043,-23.926,0
1583424855.702,27.832,42.480,35.645,19.531,14.648,0
1583424855.699,26.367,39.062,36.133,14.648,49.316,0
1583424855.703,22.949,39.551,35.156,10.254,34.668,0
1583424855.707,24.414,39.062,35.156,9.277,-25.879,0
1583424855.711,26.855,36.621,35.645,7.812,42.480,0
1583424855.715,25.391,34.180,34.180,13.672,56.152,0
1583424855.719,23.438,36.133,34.180,19.531,50.781,0
1583424855.723,20.996,35.645,36.133,21.973,57.617,0
1583424855.726,10.254,32.715,40.527,22.949,33.691,0
1583424855.730,14.648,32.715,39.551,19.531,4.883,0
1583424855.734,21.973,33.691,35.645,20.996,-14.648,0
1583424855.738,17.090,34.668,33.203,22.461,19.531,0
1583424855.742,15.137,33.691,38.574,18.555,57.129,0
1583424855.739,12.695,32.227,40.039,20.508,60.547,0
1583424855.743,13.672,36.133,38.574,23.926,26.367,0
1583424855.747,19.043,40.527,38.574,25.879,27.344,0
1583424855.751,25.879,43.945,38.574,23.926,-10.254,0
1583424855.755,29.297,42.480,38.086,17.090,-25.879,0
1583424855.759,25.879,38.086,31.738,12.207,2.441,0
1583424855.763,18.555,37.109,36.621,14.648,7.812,0
1583424855.766,9.766,36.621,42.480,19.531,50.781,0
1583424855.770,4.883,36.133,39.062,23.438,67.871,0
1583424855.774,9.766,34.668,35.645,22.461,42.969,0
1583424855.778,11.719,33.203,31.250,20.508,30.762,0
1583424855.782,12.695,32.227,29.785,19.043,28.809,0
1583424855.799,20.996,32.715,31.250,13.184,-35.156,0
1583424855.803,26.367,36.133,31.250,15.625,-39.062,0
1583424855.807,25.391,39.062,31.250,24.902,21.484,0
1583424855.811,27.344,40.039,33.203,31.738,41.992,0
1583424855.815,30.762,38.574,32.715,30.273,28.320,0
1583424855.819,28.809,39.551,33.203,30.762,-2.441,0
1583424855.823,28.320,40.039,29.297,30.273,66.895,0
1583424855.826,26.367,37.598,27.832,26.367,71.289,0
1583424855.830,26.367,33.203,33.203,25.879,13.184,0
1583424855.834,29.785,31.738,32.715,28.809,52.734,0
1583424855.838,33.203,32.715,28.320,33.691,24.902,0
1583424855.842,34.668,33.203,26.367,35.645,12.207,0
1583424855.840,33.691,32.715,29.785,28.320,38.574,0
1583424855.844,31.250,34.668,31.738,23.438,41.992,0
1583424855.848,26.367,37.598,32.715,24.902,34.668,0
1583424855.852,27.344,38.086,36.133,21.973,30.762,0
1583424855.856,25.391,39.551,36.133,20.508,60.547,0
1583424855.860,19.531,40.527,36.133,19.531,40.039,0
1583424855.864,19.043,36.621,37.598,17.090,31.250,0
1583424855.867,19.043,37.109,37.109,12.695,23.926,0
1583424855.871,19.043,38.574,36.621,10.742,63.477,0
1583424855.875,19.531,36.621,36.133,9.766,61.035,0
1583424855.879,14.648,40.527,35.645,8.301,-22.949,0
1583424855.883,12.695,42.969,35.156,7.324,6.348,0
1583424855.879,18.066,41.504,37.109,11.719,53.711,0
1583424855.883,23.926,42.480,37.598,19.531,-11.719,0
1583424855.887,28.809,41.992,35.156,16.602,10.742,0
1583424855.891,36.621,41.016,35.645,12.207,15.137,0
1583424855.895,38.086,40.039,38.086,19.531,6.836,0
1583424855.899,36.133,37.109,35.156,21.973,56.641,0
1583424855.903,40.039,35.645,37.109,19.531,15.625,0
1583424855.906,35.156,37.109,43.945,23.926,60.547,0
1583424855.910,30.273,39.551,41.504,27.832,83.984,0
1583424855.914,30.762,39.062,39.551,27.344,30.762,0
1583424855.918,30.273,38.574,41.504,25.879,69.824,0
1583424855.922,28.320,41.016,37.598,20.508,94.238,0
1583424855.939,29.785,43.457,34.668,19.043,6.348,0
1583424855.943,25.879,44.922,30.273,18.555,26.367,0
1583424855.947,14.160,45.410,27.832,12.695,53.711,0
1583424855.951,11.230,45.898,30.273,13.672,90.332,0
1583424855.955,13.672,45.898,27.344,17.578,86.914,0
1583424855.959,18.066,44.434,26.855,19.043,21.484,0
1583424855.963,26.367,42.480,28.320,16.602,46.875,0
1583424855.966,29.297,40.039,31.738,9.766,52.734,0
1583424855.970,26.855,37.109,34.668,12.695,27.344,0
1583424855.974,25.391,35.645,35.156,18.066,56.152,0
1583424855.978,27.832,38.086,36.133,16.113,38.086,0
1583424855.982,27.344,39.062,35.156,12.695,-6.836,0
1583424855.980,22.461,38.086,34.668,12.695,16.113,0
1583424855.984,23.438,36.133,33.203,12.695,80.566,0
1583424855.988,22.461,35.645,30.273,12.207,38.086,0
1583424855.992,18.555,35.156,26.367,13.672,-10.254,0
1583424855.996,22.461,36.133,27.344,18.555,-26.855,0
1583424856.000,28.320,37.598,26.367,21.484,-37.598,0
1583424856.004,33.203,38.086,27.832,19.043,5.859,0
1583424856.007,31.738,36.133,32.227,21.484,55.176,0
1583424856.011,28.809,34.180,35.156,20.996,41.016,0
1583424856.015,24.902,33.203,36.133,23.438,68.848,0
1583424856.019,18.066,32.715,35.156,21.973,111.816,0
1583424856.023,15.137,35.156,33.691,18.555,90.332,0
1583424856.019,17.578,38.574,34.180,21.484,13.672,0
1583424856.023,21.484,39.551,38.574,22.949,35.156,0
1583424856.027,19.043,42.480,33.203,24.902,25.879,0
1583424856.031,17.578,44.434,33.203,23.438,-21.484,0
1583424856.035,13.184,41.992,36.133,17.578,-35.156,0
1583424856.039,7.324,41.016,33.203,19.043,-12.695,0
1583424856.043,4.883,41.016,34.668,22.949,19.531,0
1583424856.046,5.371,41.016,34.668,21.484,-11.230,0
1583424856.050,9.766,41.504,30.762,15.625,-26.367,0
1583424856.054,12.207,40.039,29.785,9.766,-2.930,0
1583424856.058,10.254,38.574,30.273,16.113,-0.977,0
1583424856.062,9.277,36.621,28.320,20.508,11.230,0
1583424856.099,13.184,35.156,26.367,17.090,49.316,0
1583424856.103,14.160,35.645,25.391,18.066,36.133,0
1583424856.107,9.277,36.133,27.344,16.113,66.406,0
1583424856.111,5.371,37.598,31.738,16.602,64.453,0
1583424856.115,2.441,36.621,34.180,14.160,-23.926,0
1583424856.119,3.418,35.645,33.691,11.230,-8.301,0
1583424856.123,5.859,37.109,34.180,11.230,36.133,0
1583424856.126,8.301,37.109,36.133,12.695,56.152,0
1583424856.130,14.648,35.156,36.133,17.578,41.992,0
1583424856.134,21.973,37.598,36.621,20.996,20.996,0
1583424856.138,26.367,36.621,36.133,20.020,36.621,0
1583424856.142,26.367,33.203,35.156,18.066,40.527,0
1583424856.119,28.809,34.668,35.156,15.625,21.484,0
1583424856.123,32.227,36.621,36.133,15.625,49.805,0
1583424856.127,29.297,38.086,37.598,15.137,93.750,0
1583424856.131,27.832,40.039,37.598,19.043,108.887,0
1583424856.135,35.156,41.016,35.156,18.555,46.875,0
1583424856.139,35.156,38.574,33.691,16.602,11.230,0
1583424856.143,33.691,37.598,36.133,19.043,83.008,0
1583424856.146,35.156,41.504,37.598,18.555,70.801,0
1583424856.150,31.738,41.992,37.598,22.949,11.719,0
1583424856.154,25.391,39.062,34.180,27.344,58.594,0
1583424856.158,26.855,39.551,34.180,29.297,104.980,1
1583424856.162,30.762,40.527,34.180,35.156,9.766,0
1583424856.179,25.391,39.062,30.762,31.250,-18.555,0
1583424856.183,19.531,39.062,30.273,18.555,31.738,0
1583424856.187,23.926,41.016,26.855,15.625,71.289,0
1583424856.191,25.391,43.945,27.344,16.113,108.398,0
1583424856.195,23.438,41.504,29.785,21.484,35.156,0
1583424856.199,23.438,41.016,27.832,29.785,-5.859,0
1583424856.203,24.414,43.457,33.691,28.809,15.137,0
1583424856.206,26.855,42.480,35.645,23.438,24.414,0
1583424856.210,23.438,44.922,34.668,28.320,29.785,0
1583424856.214,18.555,44.434,36.621,35.645,31.250,0
1583424856.218,17.578,42.969,36.133,35.645,62.988,0
1583424856.222,14.648,43.945,38.574,34.668,36.133,0
1583424856.219,14.648,42.480,40.527,35.156,17.578,0
1583424856.223,13.672,42.969,40.527,29.785,23.438,0
1583424856.227,17.578,42.969,37.109,16.602,62.012,0
1583424856.231,19.043,40.527,35.156,9.277,104.004,0
1583424856.235,14.160,41.504,37.598,10.742,40.039,0
1583424856.239,16.113,42.480,36.133,17.578,24.902,0
1583424856.243,10.742,39.062,35.156,19.531,20.996,0
1583424856.246,5.371,36.621,41.016,22.461,-27.344,0
1583424856.250,7.812,37.109,43.457,27.832,20.020,0
1583424856.254,5.371,39.062,42.480,26.367,45.898,0
1583424856.258,1.953,39.551,42.969,25.391,60.059,0
1583424856.262,2.441,39.551,41.992,21.973,63.477,0
1583424856.260,7.812,39.062,43.945,18.555,-1.953,0
1583424856.264,8.301,37.109,44.922,20.996,-6.348,0
1583424856.268,3.418,38.574,39.062,16.602,16.113,0
1583424856.272,0.488,41.016,31.250,7.324,36.133,0
1583424856.276,-7.812,41.992,29.297,2.930,17.090,0
1583424856.280,-2.930,44.922,28.809,1.465,56.152,0
1583424856.284,6.836,47.363,26.367,2.441,82.520,0
1583424856.287,2.930,46.387,24.902,3.418,42.480,0
1583424856.291,-0.977,43.457,26.367,-1.953,43.945,0
1583424856.295,7.324,42.969,25.879,-5.371,40.527,0
1583424856.299,12.207,40.039,25.879,-2.441,33.691,0
1583424856.303,6.348,38.574,29.785,4.395,14.648,0
1583424856.299,4.883,40.039,30.273,14.160,20.508,0
1583424856.303,10.742,36.621,32.227,18.066,-12.207,0
1583424856.307,20.996,37.598,33.691,24.414,-9.766,0
1583424856.311,24.414,38.086,35.156,32.715,22.461,0
1583424856.315,32.715,37.109,36.621,32.227,81.543,0
1583424856.319,32.715,37.109,37.109,31.250,109.863,0
1583424856.323,27.344,33.691,37.109,26.367,31.738,0
1583424856.326,29.785,32.227,33.203,24.414,18.066,0
1583424856.330,28.320,31.250,32.715,24.414,3.418,0
1583424856.334,27.832,29.297,37.598,18.555,5.371,0
1583424856.338,27.344,31.250,37.598,15.625,82.520,0
1583424856.342,20.508,32.715,33.691,15.625,22.461,0
1583424856.359,16.113,33.691,31.250,14.648,-42.480,0
1583424856.363,12.695,35.156,32.715,8.301,-11.719,0
1583424856.367,9.277,38.086,35.156,4.883,41.504,0
1583424856.371,4.395,41.016,33.203,5.371,27.832,0
1583424856.375,0.977,39.551,27.832,2.441,21.484,0
1583424856.379,-2.441,39.551,22.949,0.977,40.527,0
1583424856.383,-11.230,39.551,23.926,-5.859,71.289,0
1583424856.386,-14.648,38.086,30.273,-8.301,100.586,0
1583424856.390,-12.695,37.109,32.715,-1.465,36.621,0
1583424856.394,-5.371,39.062,37.109,-1.953,28.809,0
1583424856.398,1.953,41.016,36.133,-0.488,26.855,0
1583424856.402,6.348,39.551,39.551,7.812,-45.898,0
1583424856.399,18.066,36.133,49.316,9.766,-42.480,0
1583424856.403,32.227,37.598,49.316,8.789,6.836,0
1583424856.407,40.527,41.016,45.410,8.301,27.832,0
1583424856.411,49.316,42.969,43.457,15.625,63.477,0
1583424856.415,50.781,41.992,43.457,23.438,79.590,0
1583424856.419,52.246,41.992,38.574,26.367,49.805,0
1583424856.423,51.270,42.969,34.180,17.578,2.930,0
1583424856.426,48.828,43.457,36.621,12.695,5.371,0
1583424856.430,47.363,43.945,34.180,27.344,41.504,0
1583424856.434,40.039,41.016,31.250,29.785,-19.531,0
1583424856.438,37.109,41.016,30.762,19.531,-47.363,0
1583424856.442,34.180,43.457,34.180,15.625,15.625,0
1583424856.439,26.367,39.551,39.062,22.949,52.246,0
1583424856.443,24.902,36.621,37.598,33.203,54.199,0
1583424856.447,28.809,37.598,32.715,35.156,53.223,0
1583424856.451,25.879,35.156,34.180,24.902,14.648,0
1583424856.455,18.066,32.227,36.621,20.020,38.574,0
1583424856.459,5.859,32.715,33.203,20.508,49.805,0
1583424856.463,11.230,34.668,34.668,15.137,-11.230,0
1583424856.466,18.066,40.039,33.691,9.277,-16.602,0
1583424856.470,5.859,44.434,30.762,8.789,32.715,0
1583424856.474,4.883,42.480,33.691,12.695,48.828,0
1583424856.478,15.137,38.574,33.691,21.484,78.613,0
1583424856.482,20.020,39.062,30.273,25.391,94.727,0
1583424856.499,19.043,40.039,28.320,25.391,40.527,0
1583424856.503,18.066,38.574,27.344,23.926,14.648,0
1583424856.507,21.973,37.598,26.855,22.461,19.531,0
1583424856.511,22.461,37.109,28.809,21.973,8.301,0
1583424856.515,26.367,37.109,31.250,22.461,11.719,0
1583424856.519,30.273,40.527,30.762,27.344,23.926,0
1583424856.523,26.367,42.480,34.180,27.832,39.062,0
1583424856.526,27.832,39.062,39.551,25.879,70.312,0
1583424856.530,26.367,37.109,41.016,26.367,50.293,0
1583424856.534,21.484,37.109,41.016,30.273,0.488,0
1583424856.538,22.461,37.598,37.109,32.715,-20.508,0
1583424856.542,30.273,39.062,36.621,29.297,42.480,0
1583424856.539,30.762,38.574,37.109,20.996,75.684,0
1583424856.543,23.438,37.598,33.691,10.254,-3.418,0
1583424856.547,23.926,39.062,33.203,10.742,11.719,0
1583424856.551,26.367,41.992,28.809,6.348,96.191,0
1583424856.555,23.926,41.992,19.043,-0.977,55.176,0
1583424856.559,22.949,42.969,13.672,-1.465,23.438,0
1583424856.563,14.648,46.387,12.695,-0.488,73.730,0
1583424856.566,12.695,46.387,14.648,-0.977,21.484,0
1583424856.570,15.625,44.922,19.043,-2.930,15.625,0
1583424856.574,3.418,45.410,19.531,3.906,92.285,0
1583424856.578,-3.906,44.434,20.996,13.184,29.297,0
1583424856.582,-3.906,41.504,25.879,16.602,-13.184,0
1583424856.580,13.672,41.992,27.832,23.438,8.301,0
1583424856.584,35.645,44.922,32.227,26.367,13.672,0
1583424856.588,43.945,43.945,39.062,29.297,28.809,0
1583424856.592,41.992,41.504,42.480,39.551,45.410,0
1583424856.596,44.922,42.480,40.039,38.574,-13.184,0
1583424856.600,42.480,41.016,41.504,33.691,6.348,0
1583424856.604,33.691,41.504,42.969,29.785,27.344,0
1583424856.607,32.227,44.434,40.039,27.344,-4.395,0
1583424856.611,34.180,42.969,40.527,22.949,38.574,0
1583424856.615,26.367,42.480,41.504,17.090,45.410,0
1583424856.619,16.113,41.504,40.527,16.113,35.645,0
1583424856.623,12.695,40.527,39.551,15.137,55.664,0
1583424856.639,9.277,42.969,36.621,14.160,61.035,0
1583424856.643,6.348,42.969,35.156,12.207,71.289,0
1583424856.647,9.277,40.527,35.156,7.324,43.945,0
1583424856.651,5.859,39.551,34.668,9.766,71.289,0
1583424856.655,3.906,40.527,33.203,19.043,94.727,0
1583424856.659,7.812,41.016,29.785,20.996,77.637,0
1583424856.663,10.742,39.551,33.203,19.043,-6.836,0
1583424856.666,12.207,40.039,33.691,20.508,-20.996,0
1583424856.670,15.137,41.016,30.273,18.555,35.645,0
1583424856.674,14.648,39.062,33.203,17.090,8.789,0
1583424856.678,13.672,38.086,33.203,22.461,7.812,0
1583424856.682,18.066,36.621,35.645,20.020,19.531,0
1583424856.679,20.020,35.645,39.551,18.066,-0.488,0
1583424856.683,11.719,38.086,37.109,23.438,18.555,0
1583424856.687,3.906,35.645,36.621,25.391,37.109,0
1583424856.691,4.883,38.086,38.086,26.855,24.414,0
1583424856.695,10.254,41.016,37.109,31.250,32.715,0
1583424856.699,13.672,39.551,35.156,34.668,57.617,0
1583424856.703,15.137,38.574,34.180,33.691,0.000,0
1583424856.706,19.531,38.086,36.621,29.785,15.137,0
1583424856.710,16.602,38.574,39.551,26.367,85.938,0
1583424856.714,14.648,38.086,38.086,18.066,36.133,0
1583424856.718,21.484,37.109,37.598,13.184,-0.488,0
1583424856.722,18.555,35.156,39.062,11.230,35.156,0
1583424856.719,8.789,33.691,42.480,11.230,21.484,0
1583424856.723,3.906,31.250,41.016,15.625,-17.578,0
1583424856.727,11.230,32.227,37.109,14.160,46.387,0
1583424856.731,16.602,37.109,38.574,7.324,42.480,0
1583424856.735,16.113,37.109,36.621,2.930,3.906,0
1583424856.739,20.020,36.621,32.715,9.277,30.762,0
1583424856.743,27.344,37.109,35.156,19.531,44.922,0
1583424856.746,36.133,37.109,33.691,18.066,0.977,0
1583424856.750,43.945,37.109,30.762,14.648,-3.418,0
1583424856.754,45.898,35.645,29.297,22.461,26.855,0
1583424856.758,42.480,38.574,27.344,21.973,26.855,0
1583424856.762,32.715,39.551,25.879,17.090,20.020,0
1583424856.779,26.367,39.062,24.902,9.766,37.598,0
1583424856.783,31.250,41.016,28.320,6.348,14.648,0
1583424856.787,38.574,41.504,31.250,10.742,22.461,0
1583424856.791,41.992,41.504,29.785,11.719,55.664,0
1583424856.795,34.180,42.969,28.809,18.066,24.414,0
1583424856.799,27.344,42.969,28.809,20.996,30.273,0
1583424856.803,23.438,39.551,28.320,24.414,32.227,0
1583424856.806,16.113,38.574,30.273,27.832,6.836,0
1583424856.810,9.277,36.133,34.180,27.344,39.551,0
1583424856.814,2.441,32.715,40.039,28.809,100.586,0
1583424856.818,-3.418,31.738,42.969,28.320,103.027,0
1583424856.822,-0.488,31.738,44.434,22.461,88.379,0
1583424856.820,1.953,34.180,47.363,20.508,72.754,0
1583424856.824,-4.883,33.691,47.852,16.113,65.918,0
1583424856.828,-5.371,32.227,46.387,10.742,72.754,0
1583424856.832,-2.930,36.621,44.434,14.160,52.246,0
1583424856.836,-3.418,39.551,41.992,17.090,-10.742,0
1583424856.840,-4.395,40.039,46.387,16.602,0.000,0
1583424856.844,-7.812,41.992,45.410,9.277,20.996,0
1583424856.847,-6.348,41.504,40.527,4.395,56.152,0
1583424856.851,-7.324,40.527,36.133,7.812,66.406,0
1583424856.855,-6.348,42.480,31.250,10.254,60.547,0
1583424856.859,0.000,43.457,27.344,10.742,43.457,0
1583424856.863,4.395,42.969,25.879,15.137,65.430,0
1583424856.879,4.395,42.969,23.438,21.973,59.082,0
1583424856.883,2.930,45.410,18.555,20.020,31.738,0
1583424856.887,8.789,46.875,18.555,17.578,35.156,0
1583424856.891,15.625,45.898,22.949,19.531,35.156,0
1583424856.895,18.066,47.363,25.391,24.902,47.852,0
1583424856.899,24.414,47.852,24.902,22.949,39.551,0
1583424856.903,30.762,49.805,22.461,14.648,53.223,0
1583424856.906,35.156,49.316,22.949,14.160,73.730,0
1583424856.910,36.133,44.434,27.344,14.160,20.020,0
1583424856.914,33.691,45.898,30.273,17.578,35.645,0
1583424856.918,37.109,46.875,33.203,15.137,47.852,0
1583424856.922,35.645,42.480,37.109,10.254,0.977,0
1583424856.919,26.855,41.992,40.039,12.207,-8.789,0
1583424856.923,21.484,41.504,41.504,13.672,-38.574,0
1583424856.927,24.414,39.062,41.504,12.207,-22.461,0
1583424856.931,23.438,34.668,38.574,9.766,-17.090,0
1583424856.935,18.066,34.668,35.645,10.742,-43.457,0
1583424856.939,21.484,37.598,33.691,15.625,-32.227,0
1583424856.943,27.832,38.574,31.250,16.602,25.879,0
1583424856.946,32.715,42.480,29.785,10.742,78.125,0
1583424856.950,33.691,42.480,32.227,15.137,75.195,0
1583424856.954,37.598,40.527,33.203,22.949,93.750,0
1583424856.958,42.969,43.457,31.250,22.461,122.070,0
1583424856.962,31.738,42.969,35.645,24.902,72.754,0
1583424856.959,22.461,37.598,38.574,31.738,54.688,0
1583424856.963,20.996,36.133,37.109,33.691,43.945,0
1583424856.967,19.531,37.109,38.574,34.668,44.922,0
1583424856.971,22.949,39.551,39.062,35.645,3.906,0
1583424856.975,30.273,37.598,39.062,32.227,-5.859,0
1583424856.979,34.180,37.109,33.691,33.691,24.902,0
1583424856.983,31.738,36.621,31.250,31.738,32.715,0
1583424856.986,38.086,35.156,31.738,27.344,44.434,0
1583424856.990,41.992,39.551,28.320,33.203,43.457,0
1583424856.994,41.016,41.504,28.809,35.645,27.344,0
1583424856.998,41.992,40.039,31.250,34.180,-13.672,0
1583424857.002,39.062,40.039,28.809,33.691,-15.625,0
1583424857.019,30.762,39.062,25.879,28.320,51.758,0
1583424857.023,27.344,40.039,23.438,26.855,36.133,0
1583424857.027,28.320,40.039,28.320,28.809,-17.578,0
1583424857.031,20.020,39.551,33.203,28.320,20.508,0
1583424857.035,18.066,40.039,31.738,28.809,15.625,0
1583424857.039,20.020,39.551,26.367,26.367,13.184,0
1583424857.043,17.090,39.062,23.926,23.926,7.812,0
1583424857.046,16.113,40.527,26.367,21.484,20.996,0
1583424857.050,9.277,41.016,32.715,19.531,28.809,0
1583424857.054,2.441,38.574,37.598,23.438,20.508,0
1583424857.058,8.789,38.574,40.039,21.484,-0.977,0
1583424857.062,14.160,41.016,41.016,17.090,3.906,0
1583424857.060,11.230,38.574,40.039,15.625,-15.625,0
1583424857.064,10.742,35.645,41.504,13.672,-17.578,0
1583424857.068,13.184,36.133,42.480,14.648,26.855,0
1583424857.072,11.719,35.156,42.969,19.043,64.941,0
1583424857.076,12.207,35.645,41.992,20.020,57.129,0
1583424857.080,16.602,33.691,39.062,18.066,46.387,0
1583424857.084,16.113,33.691,41.504,21.973,51.270,0
1583424857.087,16.602,38.086,42.969,26.367,46.387,0
1583424857.091,27.344,37.109,39.551,25.879,0.977,0
1583424857.095,32.715,37.598,38.574,26.855,-3.906,0
1583424857.099,28.809,39.551,38.086,25.879,38.086,0
1583424857.103,26.855,36.621,37.598,24.414,14.160,0
1583424857.099,23.438,36.133,37.109,25.879,33.691,0
1583424857.103,25.391,34.668,37.109,20.020,66.406,0
1583424857.107,24.414,31.738,32.227,15.625,62.988,0
1583424857.111,19.043,33.691,28.809,19.531,68.848,0
1583424857.115,20.020,33.203,31.738,22.461,58.105,0
1583424857.119,25.391,32.715,29.785,19.043,65.918,0
1583424857.123,25.391,35.156,28.809,16.602,40.527,0
1583424857.126,25.391,35.156,30.762,19.043,37.598,0
1583424857.130,26.855,37.109,31.738,22.461,83.984,0
1583424857.134,29.785,38.574,32.227,22.461,28.809,0
1583424857.138,33.203,35.645,36.133,19.531,-23.438,0
1583424857.142,23.926,34.668,37.598,20.996,40.039,0
1583424857.159,10.742,34.668,33.691,23.926,47.852,0
1583424857.163,5.859,33.691,26.367,19.531,49.805,0
1583424857.167,4.883,31.738,21.973,12.695,49.316,0
1583424857.171,5.371,35.156,20.996,11.230,53.223,0
1583424857.175,4.395,39.062,18.555,17.090,8.301,0
1583424857.179,9.766,41.016,22.461,18.066,19.043,0
1583424857.183,17.090,42.480,23.438,14.160,68.359,0
1583424857.186,17.090,42.480,26.855,17.090,35.645,0
1583424857.190,16.113,41.504,34.668,18.066,32.715,0
1583424857.194,17.578,41.016,36.133,21.484,6.836,0
1583424857.198,17.578,39.551,38.574,21.973,13.184,0
1583424857.202,14.160,37.598,40.527,19.531,49.316,0
1583424857.199,14.648,34.668,41.504,19.043,49.805,0
1583424857.203,15.137,34.180,41.016,17.090,30.762,0
1583424857.207,7.324,35.645,41.504,16.113,-2.441,0
1583424857.211,10.254,35.156,41.016,13.184,39.551,0
1583424857.215,17.090,35.645,36.621,9.277,-5.859,0
1583424857.219,18.066,38.574,39.062,16.113,-13.672,0
1583424857.223,17.090,36.621,38.574,20.996,105.957,0
1583424857.226,14.648,35.645,33.203,19.531,63.477,0
1583424857.230,14.648,36.133,34.668,21.484,4.395,0
1583424857.234,9.277,33.203,36.133,23.926,34.668,0
1583424857.238,11.230,31.250,32.715,17.578,44.434,0
1583424857.242,14.160,31.738,33.203,5.859,42.480,0
1583424857.239,12.695,31.250,33.691,7.324,3.906,0
1583424857.243,17.090,31.250,33.203,18.066,-25.879,0
1583424857.247,14.160,31.250,33.203,19.043,-20.996,0
1583424857.251,8.789,29.785,33.203,13.672,-20.996,0
1583424857.255,5.859,27.832,30.273,10.742,-18.555,0
1583424857.259,2.441,27.832,27.344,11.719,-30.273,0
1583424857.263,0.488,28.320,28.809,8.789,19.531,0
1583424857.266,0.000,27.832,28.809,6.348,100.586,0
1583424857.270,-0.977,30.762,24.902,6.348,64.453,0
1583424857.274,-4.395,32.227,27.832,0.977,42.969,0
1583424857.278,-6.348,30.273,31.738,9.277,62.500,0
1583424857.282,-0.488,32.227,30.762,15.625,11.719,0
1583424857.299,5.371,33.691,32.715,13.184,9.766,0
1583424857.303,9.766,35.645,34.180,17.578,7.324,0
1583424857.307,11.719,38.086,35.645,19.043,-31.250,0
1583424857.311,11.230,40.527,37.109,21.973,-36.621,0
1583424857.315,8.301,40.039,34.180,26.855,-10.254,0
1583424857.319,3.418,36.621,33.691,25.879,24.414,0
1583424857.323,12.207,35.645,33.203,25.879,49.805,0
1583424857.326,23.438,38.086,30.762,23.438,23.438,0
1583424857.330,21.484,36.621,34.180,24.414,23.926,0
1583424857.334,23.926,37.598,38.574,28.809,65.430,0
1583424857.338,25.391,39.551,39.551,30.273,26.855,0
1583424857.342,28.320,41.992,39.551,31.738,30.273,0
1583424857.339,33.691,42.969,41.016,27.832,81.543,0
1583424857.343,35.156,41.992,41.992,29.297,59.082,0
1583424857.347,35.156,43.457,41.016,33.203,50.293,0
1583424857.351,31.738,40.527,37.598,27.344,28.809,0
1583424857.355,33.203,40.039,33.691,20.996,19.531,3
1583424857.359,34.180,38.574,32.227,16.113,48.340,0
1583424857.363,33.203,36.133,33.203,14.648,76.660,0
1583424857.366,27.832,35.645,33.203,14.648,41.504,0
1583424857.370,15.625,31.738,30.273,11.719,21.484,0
1583424857.374,15.137,32.227,25.391,14.160,32.227,0
1583424857.378,22.949,33.203,25.391,14.160,46.875,0
1583424857.382,30.762,32.715,30.273,11.719,86.426,0
1583424857.379,39.062,33.691,31.738,11.719,23.926,0
1583424857.383,44.922,33.691,34.668,7.324,-12.695,0
1583424857.387,41.016,34.668,35.156,8.301,31.250,0
1583424857.391,36.133,34.668,34.180,15.137,44.434,0
1583424857.395,40.527,33.203,34.668,23.926,65.918,0
1583424857.399,47.363,30.762,31.738,27.344,32.227,0
1583424857.403,48.340,30.762,28.809,26.855,35.645,0
1583424857.406,51.758,35.645,27.344,32.715,52.734,0
1583424857.410,52.246,37.598,27.832,36.133,-3.906,0
1583424857.414,47.852,39.062,34.668,40.039,9.277,0
1583424857.418,44.434,40.527,39.551,41.504,24.902,0
1583424857.422,41.016,40.039,36.133,37.598,28.320,0
1583424857.439,42.969,41.016,35.156,29.785,32.227,0
1583424857.443,40.039,41.992,34.668,25.879,69.336,0
1583424857.447,27.344,40.039,32.715,26.855,95.215,0
1583424857.451,25.879,38.574,32.227,26.367,36.621,0
1583424857.455,25.879,38.574,33.691,25.391,63.477,0
1583424857.459,28.320,37.598,34.668,23.438,67.383,0
1583424857.463,29.297,35.645,38.574,17.578,28.809,0
1583424857.466,29.297,38.086,40.527,16.602,44.434,0
1583424857.470,30.273,40.039,37.109,20.508,57.129,0
1583424857.474,28.320,36.621,35.156,19.531,55.664,0
1583424857.478,29.297,36.133,34.180,15.625,15.137,0
1583424857.482,30.762,36.621,29.297,9.277,19.043,0
1583424857.499,31.738,35.156,29.297,5.859,37.598,0
1583424857.503,30.762,36.621,33.203,5.859,29.785,0
1583424857.507,31.250,38.086,33.691,12.695,0.488,0
1583424857.511,36.133,40.527,33.203,19.531,10.254,0
1583424857.515,35.645,41.504,30.273,20.020,23.926,0
1583424857.519,32.227,40.527,30.762,26.855,18.555,0
1583424857.523,33.691,39.551,33.203,34.180,20.996,0
1583424857.526,34.180,40.039,34.668,35.645,20.508,0
1583424857.530,31.738,40.039,36.621,38.574,64.941,0
1583424857.534,29.785,39.551,32.227,39.062,76.660,0
1583424857.538,30.762,40.527,29.785,34.668,72.754,0
1583424857.542,27.832,39.062,33.691,33.691,45.898,0
1583424857.540,21.973,36.133,33.203,32.227,20.996,0
1583424857.544,19.043,34.668,31.738,30.273,58.105,0
1583424857.548,14.160,36.133,29.297,32.227,58.594,0
1583424857.552,9.766,36.621,30.762,31.250,26.367,0
1583424857.556,9.277,36.621,35.156,25.879,55.176,0
1583424857.560,9.766,37.598,33.203,23.926,62.012,0
1583424857.564,12.695,38.574,29.785,25.391,39.062,0
1583424857.567,9.277,38.086,26.855,23.438,26.367,0
1583424857.571,6.348,38.574,29.785,19.531,23.438,0
1583424857.575,9.766,41.504,34.668,14.648,58.105,0
1583424857.579,8.301,42.969,36.133,16.113,75.684,0
1583424857.583,9.766,41.504,37.109,16.113,52.734,0
1583424857.579,10.254,39.062,36.621,9.766,60.547,0
