timestamps,TP9,AF7,AF8,TP10,Right AUX,Marker0
1583425165.780,33.203,33.203,29.785,26.367,83.984,0
1583425165.784,15.625,33.691,27.344,16.602,31.250,0
1583425165.788,14.648,34.668,25.391,12.207,7.324,0
1583425165.792,21.484,33.203,26.367,13.672,12.695,0
1583425165.796,20.508,34.668,29.785,15.137,-33.691,0
1583425165.800,23.438,36.133,33.691,15.137,-24.414,0
1583425165.804,24.902,35.645,32.715,18.066,-6.348,0
1583425165.807,26.367,34.668,31.250,21.484,26.855,0
1583425165.811,26.855,33.203,34.180,21.484,73.730,0
1583425165.815,29.785,32.715,31.738,22.461,64.453,0
1583425165.819,33.203,31.250,28.809,26.855,52.246,0
1583425165.823,33.203,29.785,29.785,29.785,23.926,0
1583425165.840,38.086,30.762,30.762,32.715,68.359,0
1583425165.844,39.062,32.227,30.273,29.785,71.777,0
1583425165.848,38.086,34.668,29.297,27.344,-25.879,0
1583425165.852,35.156,34.668,31.250,23.438,-17.578,0
1583425165.856,35.645,37.598,30.273,21.484,18.555,0
1583425165.860,36.133,37.109,27.344,23.438,57.617,0
1583425165.864,31.738,36.133,30.762,20.020,48.828,0
1583425165.867,34.668,39.551,33.203,21.973,33.691,0
1583425165.871,40.527,41.016,34.668,26.855,43.945,0
1583425165.875,32.715,39.062,34.180,28.320,84.961,0
1583425165.879,19.531,37.109,33.203,27.832,86.914,0
1583425165.883,26.367,36.133,37.109,31.738,51.758,0
1583425165.880,32.227,36.133,36.133,35.156,69.336,0
1583425165.884,26.855,32.227,34.668,29.785,20.508,0
1583425165.888,24.414,30.273,35.645,25.391,-11.719,0
1583425165.892,28.320,35.156,37.598,30.273,29.785,0
1583425165.896,26.367,33.203,37.598,31.738,10.254,0
1583425165.900,24.902,31.250,36.621,27.832,-25.879,0
1583425165.904,31.250,36.621,34.180,26.855,15.137,0
1583425165.907,36.133,39.062,32.227,27.832,19.531,0
1583425165.911,40.527,40.527,32.715,28.809,14.648,0
1583425165.915,42.480,39.062,31.738,25.391,70.801,0
1583425165.919,38.574,35.645,31.250,22.461,72.266,0
1583425165.923,39.062,39.062,30.762,27.832,83.008,0
1583425165.920,38.086,38.086,31.738,27.344,48.828,0
1583425165.924,35.156,32.715,33.691,24.902,34.180,0
1583425165.928,36.133,32.715,29.785,24.902,80.566,0
1583425165.932,35.156,35.156,27.832,16.602,60.059,0
1583425165.936,36.133,37.598,29.785,15.625,3.906,0
1583425165.940,36.621,39.551,31.250,19.531,25.391,0
1583425165.944,37.598,40.039,30.273,16.602,89.355,0
1583425165.947,39.062,39.551,27.832,18.066,77.637,0
1583425165.951,38.086,40.039,32.227,20.996,23.438,0
1583425165.955,32.715,36.133,38.086,22.461,16.113,0
1583425165.959,28.320,33.203,39.062,25.391,38.086,0
1583425165.963,27.832,33.691,36.621,25.391,8.301,0
1583425165.979,27.344,34.180,36.621,29.785,23.438,0
1583425165.983,28.320,37.598,40.039,37.598,109.375,0
1583425165.987,26.367,33.203,37.109,36.133,87.402,0
1583425165.991,22.949,33.203,35.156,30.273,19.043,0
1583425165.995,20.996,33.691,35.645,27.344,36.133,0
1583425165.999,26.855,35.645,34.668,29.297,20.508,0
1583425166.003,23.438,37.109,33.203,26.367,-7.812,0
1583425166.006,12.207,34.668,29.297,21.484,44.434,0
1583425166.010,18.555,34.668,27.832,25.879,54.199,0
1583425166.014,21.484,34.668,24.902,26.367,-4.883,0
1583425166.018,21.484,34.668,20.508,23.926,20.020,0
1583425166.022,20.508,33.691,20.996,15.137,90.820,0
1583425166.020,15.625,33.691,21.973,3.418,50.781,0
1583425166.024,15.625,32.227,23.926,3.906,37.109,0
1583425166.028,17.578,32.715,27.344,7.324,47.363,0
1583425166.032,16.602,32.715,27.344,6.836,33.691,0
1583425166.036,13.672,32.227,29.297,5.859,54.688,0
1583425166.040,14.160,30.273,33.691,9.766,60.059,0
1583425166.044,16.602,30.762,31.250,17.578,19.043,0
1583425166.047,20.020,35.645,27.832,19.043,-18.555,0
1583425166.051,24.414,36.133,30.273,16.602,6.348,0
1583425166.055,27.344,37.598,28.320,18.555,47.363,0
1583425166.059,25.879,39.551,27.344,17.090,-0.488,0
1583425166.063,24.414,37.598,25.879,18.066,-1.953,0
1583425166.060,26.367,36.133,21.484,22.461,48.340,0
1583425166.064,23.438,35.645,24.414,19.531,35.156,0
1583425166.068,24.902,36.133,27.344,27.344,62.012,0
1583425166.072,27.344,34.180,25.391,35.156,85.449,0
1583425166.076,26.855,32.715,25.391,36.621,-6.348,0
1583425166.080,23.926,31.738,29.785,38.574,-46.875,0
1583425166.084,22.461,30.273,33.691,41.016,4.395,0
1583425166.087,30.273,30.273,32.715,42.480,58.594,0
1583425166.091,28.809,29.785,32.715,42.969,57.129,0
1583425166.095,27.344,30.762,34.180,40.039,32.227,0
1583425166.099,31.738,33.203,31.250,37.109,7.324,0
1583425166.103,23.926,33.691,30.762,31.250,-19.531,0
1583425166.120,17.578,36.133,32.227,26.367,-46.387,0
1583425166.124,18.066,38.574,31.250,20.508,21.484,0
1583425166.128,17.578,38.574,28.809,13.184,92.285,0
1583425166.132,10.742,37.109,25.879,6.348,94.727,0
1583425166.136,10.254,37.109,24.902,0.977,75.684,0
1583425166.140,14.648,37.598,25.391,-1.465,41.992,0
1583425166.144,15.625,37.109,23.926,-9.277,72.266,0
1583425166.147,23.926,38.086,21.973,-3.418,61.035,0
1583425166.151,29.297,40.527,24.902,6.348,29.297,0
1583425166.155,30.273,41.992,26.855,7.324,35.645,0
1583425166.159,35.645,41.016,25.879,13.184,-11.719,0
1583425166.163,37.109,39.062,29.297,23.438,19.043,0
1583425166.159,41.016,39.062,33.203,35.645,23.926,0
1583425166.163,48.340,40.039,36.621,42.969,-0.977,0
1583425166.167,49.316,39.062,41.016,44.434,78.613,0
1583425166.171,46.875,36.133,41.016,45.410,86.914,0
1583425166.175,42.480,34.180,38.086,46.875,35.645,0
1583425166.179,42.480,32.715,36.621,49.316,46.875,0
1583425166.183,42.969,31.738,36.133,45.410,59.082,0
1583425166.186,45.410,34.180,35.156,46.875,37.109,0
1583425166.190,52.246,38.574,34.668,54.199,26.367,0
1583425166.194,50.781,40.039,34.180,48.828,18.066,0
1583425166.198,44.434,37.109,33.691,45.898,-6.348,0
1583425166.202,39.551,35.645,38.086,43.945,17.578,0
1583425166.200,35.645,35.156,42.969,39.062,57.617,0
1583425166.204,28.809,32.227,42.969,36.133,60.547,0
1583425166.208,24.414,32.227,38.086,30.273,50.781,0
1583425166.212,17.090,30.762,39.551,25.391,68.359,0
1583425166.216,13.672,30.762,43.457,23.926,97.656,0
1583425166.220,19.531,35.156,39.062,25.879,100.586,0
1583425166.224,19.043,36.133,38.574,24.414,135.254,0
1583425166.227,19.043,36.133,41.504,17.578,73.242,0
1583425166.231,21.973,38.574,40.527,12.207,-25.391,0
1583425166.235,20.020,40.039,40.039,7.812,-29.785,0
1583425166.239,22.461,37.598,39.551,3.906,6.348,0
1583425166.243,26.367,34.668,39.551,-0.488,46.387,0
1583425166.260,24.414,37.598,36.621,0.000,23.926,0
1583425166.264,25.879,40.527,35.645,9.277,26.367,0
1583425166.268,32.715,40.039,34.668,17.578,10.742,0
1583425166.272,37.598,39.551,31.250,21.484,16.113,0
1583425166.276,43.945,41.016,32.227,26.855,58.105,0
1583425166.280,45.410,37.109,34.180,34.180,5.859,0
1583425166.284,41.016,35.156,38.086,40.039,-8.301,0
1583425166.287,41.016,36.621,37.109,45.898,-27.832,0
1583425166.291,44.434,35.645,34.668,49.805,-27.344,0
1583425166.295,43.457,34.668,37.109,51.270,9.277,0
1583425166.299,38.574,35.156,39.062,50.293,-5.371,0
1583425166.303,33.203,36.621,39.062,41.992,40.039,0
1583425166.300,24.414,33.691,40.039,35.645,69.824,0
1583425166.304,18.066,32.715,38.574,37.109,47.363,0
1583425166.308,13.672,33.203,36.133,35.645,-8.301,0
1583425166.312,13.184,32.715,35.156,33.203,-2.930,0
1583425166.316,19.043,33.203,32.715,34.180,1.953,0
1583425166.320,19.043,31.738,31.738,29.297,-11.230,0
1583425166.324,14.648,34.180,33.203,25.391,17.578,0
1583425166.327,14.160,35.156,35.156,25.391,50.781,0
1583425166.331,17.090,35.645,37.598,20.996,80.566,0
1583425166.335,19.043,40.039,37.598,17.578,129.395,0
1583425166.339,20.996,37.598,34.668,17.090,115.723,0
1583425166.343,21.973,33.691,32.715,14.648,-5.371,0
1583425166.340,20.996,35.156,33.203,8.301,-14.648,0
1583425166.344,25.391,39.062,30.762,10.742,47.852,0
1583425166.348,27.832,40.527,32.227,13.184,69.336,0
1583425166.352,25.391,37.598,32.715,6.348,54.199,0
1583425166.356,25.391,37.598,29.785,0.488,28.320,0
1583425166.360,26.855,38.574,30.762,1.953,21.973,0
1583425166.364,27.832,39.062,33.691,8.789,36.133,0
1583425166.367,29.785,39.551,32.227,11.719,62.500,0
1583425166.371,31.250,38.086,35.645,19.531,52.734,0
1583425166.375,31.250,36.621,39.062,25.879,46.875,0
1583425166.379,34.180,34.668,39.062,29.297,41.504,0
1583425166.383,35.156,32.715,39.062,35.645,57.129,0
1583425166.400,31.738,33.691,38.574,35.156,57.129,0
1583425166.404,35.645,33.691,39.062,39.551,10.254,0
1583425166.408,33.203,31.738,39.062,41.504,71.289,0
1583425166.412,28.320,33.203,38.574,37.109,101.074,0
1583425166.416,22.461,31.250,35.645,32.715,29.297,0
1583425166.420,14.648,28.809,30.273,27.344,18.555,0
1583425166.424,15.137,32.227,25.391,20.996,85.449,0
1583425166.427,19.043,32.227,27.832,18.555,52.246,0
1583425166.431,23.926,32.227,32.227,20.020,4.395,0
1583425166.435,24.414,33.203,32.715,20.020,9.277,0
1583425166.439,25.391,35.156,34.668,21.973,11.719,0
1583425166.443,27.832,34.668,35.156,18.555,-20.996,0
1583425166.440,25.391,33.203,34.668,18.066,-40.039,0
1583425166.444,24.902,34.180,34.668,20.996,17.578,0
1583425166.448,22.949,33.203,34.668,18.555,54.688,0
1583425166.452,20.996,34.180,31.250,14.648,36.621,0
1583425166.456,24.414,34.668,27.832,11.719,0.977,0
1583425166.460,33.203,34.668,27.832,18.066,6.348,0
1583425166.464,37.598,34.668,27.832,18.066,13.672,0
1583425166.467,36.621,30.762,26.855,16.602,55.664,0
1583425166.471,35.645,32.715,26.367,23.438,50.293,0
1583425166.475,38.086,37.109,26.855,26.855,3.418,0
1583425166.479,31.250,35.156,30.273,19.531,2.930,0
1583425166.483,28.320,34.180,30.273,19.531,-11.230,0
1583425166.480,30.762,38.086,30.762,28.320,9.277,0
1583425166.484,28.809,36.621,34.180,34.668,37.109,0
1583425166.488,28.809,34.180,31.738,29.785,6.348,0
1583425166.492,25.879,34.180,30.762,29.785,-27.344,0
1583425166.496,29.297,36.621,30.273,39.062,18.066,0
1583425166.500,29.785,34.668,31.738,39.062,25.879,0
1583425166.504,27.832,31.250,34.668,41.992,-12.207,0
1583425166.507,26.367,32.227,37.598,41.016,20.996,0
1583425166.511,25.879,32.227,40.527,37.598,46.875,0
1583425166.515,31.250,32.227,39.551,40.039,32.227,0
1583425166.519,33.691,37.109,38.574,39.551,6.348,0
1583425166.523,29.785,39.551,41.992,35.156,31.738,0
1583425166.540,20.996,35.645,40.527,26.855,75.195,0
1583425166.544,15.625,32.715,37.109,20.020,66.406,0
1583425166.548,13.672,30.762,32.227,15.137,59.570,0
1583425166.552,9.277,30.273,31.738,12.695,80.566,0
1583425166.556,5.859,27.832,35.645,10.254,77.637,0
1583425166.560,8.301,27.832,31.738,9.766,63.477,0
1583425166.564,10.742,28.809,28.320,10.254,52.734,0
1583425166.567,12.207,28.320,25.391,14.160,71.777,0
1583425166.571,19.043,30.762,25.391,15.625,56.152,0
1583425166.575,20.020,31.250,27.344,10.254,3.906,0
1583425166.579,20.996,32.715,24.414,5.371,23.438,0
1583425166.583,21.484,33.203,24.414,2.441,53.711,0
1583425166.580,24.902,33.203,25.391,6.348,32.227,0
1583425166.584,30.273,35.645,28.809,13.672,62.500,0
1583425166.588,28.809,34.180,31.250,16.113,84.961,0
1583425166.592,26.855,33.203,32.715,15.137,15.625,0
1583425166.596,26.855,32.715,34.668,16.113,-11.719,0
1583425166.600,27.832,32.715,29.785,17.578,57.129,0
1583425166.604,26.855,31.738,30.762,18.555,44.922,0
1583425166.607,27.344,33.203,35.156,21.973,11.719,0
1583425166.611,27.344,35.645,33.691,23.438,82.520,0
1583425166.615,26.367,33.691,28.809,19.043,66.895,0
1583425166.619,23.438,33.203,26.855,20.020,12.207,0
1583425166.623,23.438,35.156,27.832,28.809,11.230,0
1583425166.620,27.344,35.156,31.250,29.785,37.109,0
1583425166.624,31.250,36.621,34.180,32.715,50.293,0
1583425166.628,31.738,40.039,31.250,32.227,44.922,0
1583425166.632,27.832,35.156,30.273,32.715,30.273,0
1583425166.636,29.785,30.762,32.715,37.109,28.320,0
1583425166.640,34.668,32.715,33.691,37.109,15.625,0
1583425166.644,33.203,33.691,33.203,38.086,-5.859,0
1583425166.647,30.762,34.180,34.180,40.039,24.902,0
1583425166.651,27.832,35.156,36.621,38.086,12.207,0
1583425166.655,23.438,32.227,36.133,31.250,-16.113,0
1583425166.659,17.578,32.227,34.668,26.855,25.879,0
1583425166.663,12.695,34.668,38.086,29.297,8.789,0
1583425166.680,13.184,36.133,36.133,33.203,-29.297,0
1583425166.684,6.348,40.039,32.715,27.344,48.340,0
1583425166.688,0.977,41.016,33.691,18.066,53.711,0
1583425166.692,-1.465,41.504,30.762,10.742,67.871,0
1583425166.696,-3.418,43.457,31.250,4.883,58.594,0
1583425166.700,-10.742,48.340,32.227,-9.766,28.320,0
1583425166.704,-19.043,50.781,35.156,-28.320,2.441,0
1583425166.707,-26.855,49.316,35.645,-42.480,0.000,0
1583425166.711,-41.504,51.758,34.180,-53.711,33.203,0
1583425166.715,-46.875,63.965,43.945,-61.523,59.570,0
1583425166.719,-63.477,68.359,50.781,-81.055,56.641,0
1583425166.723,-70.312,66.406,50.293,-87.891,-9.766,0
1583425166.720,-79.102,65.918,52.246,-98.145,5.859,0
1583425166.724,-95.215,63.965,55.176,-112.793,36.133,0
1583425166.728,-97.168,67.383,57.129,-116.211,28.809,0
1583425166.732,-104.004,71.289,58.105,-124.512,87.891,0
1583425166.736,-113.770,68.359,66.895,-126.953,107.910,0
1583425166.740,-120.605,60.547,70.801,-122.559,37.598,0
1583425166.744,-127.930,66.406,65.918,-127.441,12.695,0
1583425166.747,-133.301,66.406,64.941,-132.324,6.348,0
1583425166.751,-127.930,63.965,63.965,-130.371,7.324,0
1583425166.755,-125.488,67.383,64.941,-125.488,36.133,0
1583425166.759,-124.512,64.941,66.895,-120.117,70.312,0
1583425166.763,-115.723,62.988,63.477,-112.793,83.984,0
1583425166.760,-115.234,57.129,62.500,-111.328,42.969,0
1583425166.764,-109.375,51.270,61.523,-107.910,41.016,0
1583425166.768,-99.609,50.781,58.105,-100.098,56.641,0
1583425166.772,-89.844,47.363,57.617,-87.402,37.109,0
1583425166.776,-74.219,44.922,56.152,-77.637,0.488,0
1583425166.780,-54.199,42.480,53.223,-62.988,1.465,0
1583425166.784,-38.086,40.039,49.316,-43.945,13.672,0
1583425166.787,-24.902,37.598,45.410,-35.156,9.766,0
1583425166.791,-4.883,35.645,43.945,-22.949,31.250,0
1583425166.795,8.789,35.156,40.039,-2.441,0.977,0
1583425166.799,16.602,32.715,34.180,4.883,-14.648,0
1583425166.803,30.273,29.297,30.762,11.719,47.363,0
1583425166.819,43.457,28.320,21.484,28.809,40.039,0
1583425166.823,55.664,27.832,20.020,47.363,-2.441,0
1583425166.827,61.035,25.391,27.344,55.176,7.324,0
1583425166.831,73.730,24.902,24.414,66.406,56.641,0
1583425166.835,89.355,25.391,24.902,81.543,49.805,0
1583425166.839,93.262,20.020,24.414,85.938,32.227,0
1583425166.843,100.586,15.625,20.508,94.238,19.043,0
1583425166.846,100.586,17.090,21.484,99.121,86.914,0
1583425166.850,98.633,14.160,21.484,97.168,93.262,0
1583425166.854,100.586,13.184,19.531,99.609,-1.953,0
1583425166.858,96.191,19.043,21.484,99.121,1.465,0
1583425166.862,88.379,18.066,20.996,96.191,34.180,0
1583425166.860,93.262,19.043,17.090,99.609,61.035,0
1583425166.864,91.309,20.508,13.672,97.656,65.430,0
1583425166.868,82.520,16.602,13.672,93.262,37.598,0
1583425166.872,86.914,16.602,17.090,94.238,53.711,0
1583425166.876,90.332,19.531,19.531,93.262,71.289,0
1583425166.880,89.844,20.508,19.043,95.215,16.602,0
1583425166.884,98.145,20.508,19.043,100.098,27.832,0
1583425166.887,94.727,17.090,17.090,94.238,20.996,0
1583425166.891,93.262,17.578,14.648,92.285,-15.625,0
1583425166.895,96.680,19.043,17.090,96.680,43.457,0
1583425166.899,90.332,19.043,16.602,94.727,51.270,0
1583425166.903,90.820,20.020,16.113,96.680,-4.883,0
1583425166.920,94.727,20.508,16.113,96.191,-7.812,0
1583425166.924,100.586,24.902,16.602,96.680,25.391,0
1583425166.928,102.051,24.414,20.020,96.191,-24.902,0
1583425166.932,103.027,24.414,19.531,94.727,-20.508,0
1583425166.936,109.375,25.879,17.578,101.074,72.266,0
1583425166.940,102.051,24.902,16.113,98.145,87.402,0
1583425166.944,99.609,23.926,18.066,95.703,51.270,0
1583425166.947,105.957,25.391,19.531,97.168,31.738,0
1583425166.951,102.539,25.391,19.043,93.750,30.273,0
1583425166.955,86.426,22.461,24.414,84.961,56.641,0
1583425166.959,76.660,22.461,28.320,77.637,7.324,0
1583425166.963,75.684,22.949,24.902,77.637,-19.531,0
1583425166.960,72.266,20.020,25.391,77.148,33.691,0
1583425166.964,72.754,20.996,23.926,77.637,47.363,0
1583425166.968,69.824,26.367,21.973,70.801,64.453,0
1583425166.972,58.105,24.414,20.508,63.477,96.680,0
1583425166.976,51.270,25.391,19.043,62.012,25.391,0
1583425166.980,53.223,28.809,20.020,62.500,31.738,0
1583425166.984,52.246,27.344,17.090,57.617,78.125,0
1583425166.987,46.875,26.855,17.578,47.852,52.246,0
1583425166.991,42.480,31.250,20.020,41.992,63.965,0
1583425166.995,48.828,33.691,20.996,46.875,-3.906,0
1583425166.999,52.734,34.180,20.508,53.711,-4.883,0
1583425167.003,48.828,35.156,22.461,49.805,87.402,0
1583425166.999,49.316,35.156,18.066,45.898,35.645,0
1583425167.003,51.758,32.227,18.555,47.363,20.508,0
1583425167.007,55.664,30.762,29.297,55.664,19.043,0
1583425167.011,60.547,36.621,28.809,60.059,44.922,0
1583425167.015,60.059,36.621,27.344,51.270,52.246,0
1583425167.019,58.594,33.691,31.250,56.152,39.551,0
1583425167.023,62.988,35.156,34.668,68.848,45.898,0
1583425167.026,67.383,36.621,32.227,70.801,11.230,0
1583425167.030,64.941,37.598,33.691,62.988,32.227,0
1583425167.034,55.664,35.156,41.016,56.641,50.781,0
1583425167.038,44.434,30.273,41.504,58.105,36.133,0
1583425167.042,50.781,28.320,41.016,60.059,79.102,0
1583425167.059,58.105,31.250,38.086,63.965,39.062,0
1583425167.063,56.152,32.715,36.621,60.059,-23.438,0
1583425167.067,50.293,30.762,38.086,57.617,-20.508,0
1583425167.071,38.574,28.809,38.086,55.664,49.316,0
1583425167.075,40.039,30.273,34.668,52.246,59.082,0
1583425167.079,38.086,33.691,33.691,44.434,38.574,0
1583425167.083,27.832,33.203,33.203,30.273,-1.465,0
1583425167.086,28.809,33.691,25.879,29.785,40.039,0
1583425167.090,29.297,31.250,25.391,32.715,92.285,0
1583425167.094,30.762,27.832,28.809,33.203,102.539,0
1583425167.098,26.855,26.855,31.738,31.250,77.148,0
1583425167.102,25.879,30.762,30.273,36.621,55.176,0
1583425167.099,26.855,29.297,29.785,33.691,76.172,0
1583425167.103,21.484,24.902,26.367,24.414,15.137,0
1583425167.107,20.996,27.832,25.391,22.461,7.324,0
1583425167.111,25.391,29.297,27.344,23.926,37.598,0
1583425167.115,22.949,27.344,28.320,27.344,12.695,0
1583425167.119,26.367,27.832,30.762,35.156,0.488,0
1583425167.123,30.762,29.785,28.320,38.086,39.551,0
1583425167.126,22.461,30.762,25.391,27.832,67.383,0
1583425167.130,21.973,35.156,27.344,36.133,90.820,0
1583425167.134,24.902,35.645,28.320,40.527,96.680,0
1583425167.138,25.879,31.738,26.367,30.762,40.527,0
1583425167.142,18.555,30.273,27.832,25.391,10.254,0
1583425167.139,16.602,26.367,29.297,23.438,71.777,0
1583425167.143,20.996,25.391,32.227,22.949,54.199,0
1583425167.147,17.578,27.344,32.715,12.207,4.883,0
1583425167.151,19.043,34.180,30.762,16.113,5.859,0
1583425167.155,16.113,36.621,30.762,13.672,54.199,0
1583425167.159,19.043,35.645,21.484,8.789,26.855,0
1583425167.163,16.602,34.180,25.391,12.207,-29.785,0
1583425167.166,12.695,33.691,30.762,7.812,6.348,0
1583425167.170,20.020,35.156,27.344,7.324,84.961,0
1583425167.174,21.973,35.156,29.297,12.207,117.676,0
1583425167.178,23.926,34.668,32.715,12.695,69.336,0
1583425167.182,21.973,33.203,33.203,14.160,10.742,0
1583425167.199,20.508,32.227,30.762,12.695,31.738,0
1583425167.203,32.715,35.156,27.344,20.996,69.824,0
1583425167.207,32.715,33.691,28.809,23.926,52.734,0
1583425167.211,25.391,34.668,30.273,20.020,83.496,0
1583425167.215,33.691,37.598,30.762,30.762,39.551,0
1583425167.219,33.203,34.668,32.715,31.738,36.621,0
1583425167.223,31.738,34.668,29.297,36.133,58.594,0
1583425167.226,36.621,33.203,28.809,30.762,39.062,0
1583425167.230,34.180,28.809,30.762,31.250,13.672,0
1583425167.234,30.273,26.855,30.273,42.969,30.762,0
1583425167.238,28.809,29.297,29.785,40.527,57.617,0
1583425167.242,37.109,31.738,29.297,39.551,28.320,0
1583425167.240,40.527,33.203,29.785,40.527,44.922,0
1583425167.244,38.086,35.156,27.832,39.551,54.199,0
1583425167.248,36.133,33.691,30.273,39.062,19.531,0
1583425167.252,29.297,32.715,28.809,31.250,-20.996,0
1583425167.256,21.973,31.250,23.438,23.926,21.484,0
1583425167.260,17.090,29.297,29.297,16.602,66.895,0
1583425167.264,17.578,30.762,28.320,20.020,26.855,0
1583425167.267,21.973,32.715,22.461,20.996,0.977,0
1583425167.271,29.785,33.691,23.926,21.973,-0.488,0
1583425167.275,36.133,35.156,28.320,34.668,14.160,0
1583425167.279,43.457,38.574,27.832,34.668,1.953,0
1583425167.283,41.504,37.598,24.902,28.809,-4.395,0
1583425167.280,32.715,36.621,22.949,33.203,7.812,0
1583425167.284,33.203,37.598,23.438,32.715,52.246,0
1583425167.288,37.109,35.645,27.832,35.156,67.871,0
1583425167.292,41.992,37.598,25.879,39.062,7.812,0
1583425167.296,41.016,35.156,26.855,35.156,45.898,0
1583425167.300,31.250,28.809,29.297,33.691,72.266,0
1583425167.304,28.809,28.320,27.832,34.180,31.738,0
1583425167.307,34.668,31.250,29.297,36.133,16.113,0
1583425167.311,28.809,32.715,25.391,32.227,5.859,0
1583425167.315,20.508,32.227,25.391,26.367,5.371,0
1583425167.319,27.344,30.273,28.320,33.203,11.719,0
1583425167.323,27.344,28.809,26.367,28.320,35.645,0
1583425167.339,30.273,28.809,26.855,29.785,55.664,0
1583425167.343,27.832,27.832,30.273,27.344,78.613,0
1583425167.347,21.484,30.762,28.320,20.020,75.195,0
1583425167.351,20.020,35.645,23.926,24.902,25.391,0
1583425167.355,19.531,33.691,27.344,23.438,21.484,0
1583425167.359,25.879,31.250,32.227,18.555,67.871,0
1583425167.363,25.391,31.738,34.668,17.090,93.262,0
1583425167.366,18.555,32.227,32.227,15.625,14.160,0
1583425167.370,13.184,33.203,28.320,18.066,-13.672,0
1583425167.374,10.742,32.227,30.762,15.137,14.648,0
1583425167.378,16.602,32.715,26.855,13.184,20.020,0
1583425167.382,10.254,33.203,25.391,17.578,61.035,0
1583425167.379,10.742,33.691,30.762,14.648,47.852,0
1583425167.383,22.949,34.668,33.203,14.648,17.578,0
1583425167.387,19.531,34.180,32.715,15.625,41.992,0
1583425167.391,17.090,33.203,33.691,18.555,95.703,0
1583425167.395,20.508,32.227,33.203,18.066,71.289,0
1583425167.399,19.531,29.785,34.180,14.160,11.719,0
1583425167.403,19.531,30.762,35.156,14.648,47.852,0
1583425167.406,27.344,35.645,33.691,20.508,42.969,0
1583425167.410,28.320,36.621,34.180,28.320,-25.879,0
1583425167.414,27.344,38.574,31.738,25.391,-20.996,0
1583425167.418,28.320,38.574,32.715,22.949,34.668,0
1583425167.422,24.902,35.156,37.598,25.391,-41.992,0
1583425167.420,26.855,37.109,37.598,25.879,-8.301,0
1583425167.424,22.461,38.086,38.086,23.926,80.566,0
1583425167.428,22.949,35.645,35.645,25.391,67.871,0
1583425167.432,29.785,33.203,35.156,24.414,71.289,0
1583425167.436,30.273,32.227,32.715,21.484,61.035,0
1583425167.440,31.250,32.227,31.738,23.926,13.184,0
1583425167.444,25.879,30.762,33.203,21.973,-5.371,0
1583425167.447,28.809,32.227,30.273,21.484,44.434,0
1583425167.451,28.809,33.691,33.203,23.438,59.082,0
1583425167.455,20.508,31.738,39.062,18.066,76.172,0
1583425167.459,20.508,32.715,39.551,18.066,79.102,0
1583425167.463,20.020,32.715,38.574,20.996,32.715,0
1583425167.479,15.625,31.738,36.621,22.949,13.672,0
1583425167.483,22.461,34.180,34.180,21.484,-33.203,0
1583425167.487,25.879,33.203,33.203,19.531,20.020,0
1583425167.491,15.625,31.250,27.832,20.996,76.660,0
1583425167.495,19.531,34.180,28.320,20.996,47.852,0
1583425167.499,26.367,37.598,36.133,22.461,80.078,0
1583425167.503,21.484,39.551,39.062,20.996,84.473,0
1583425167.506,20.508,38.574,40.527,19.531,31.250,0
1583425167.510,19.531,37.109,39.062,20.996,-46.875,0
1583425167.514,14.648,34.668,32.715,16.113,-67.871,0
1583425167.518,19.531,34.668,32.715,14.160,-0.488,0
1583425167.522,22.461,38.086,36.621,11.230,50.293,0
1583425167.519,20.508,36.133,36.621,14.648,81.055,0
1583425167.523,24.902,34.668,34.668,21.484,42.480,0
1583425167.527,25.879,36.621,35.645,23.926,12.695,0
1583425167.531,27.344,39.062,34.668,24.902,66.895,0
1583425167.535,33.691,38.574,30.273,27.344,57.129,0
1583425167.539,35.156,37.109,30.762,32.715,34.180,0
1583425167.543,39.062,41.504,33.691,39.062,47.363,0
1583425167.546,40.527,41.016,28.320,36.621,7.812,0
1583425167.550,34.668,38.086,23.926,32.715,10.254,0
1583425167.554,35.156,41.016,23.926,36.133,36.133,0
1583425167.558,33.203,40.527,27.344,33.203,69.824,0
1583425167.562,29.297,37.598,28.809,31.738,83.984,0
1583425167.560,27.344,38.086,30.762,26.367,29.297,0
1583425167.564,26.855,39.062,32.227,21.484,41.504,0
1583425167.568,27.344,34.668,33.691,25.879,81.543,0
1583425167.572,24.902,34.180,36.621,29.297,56.152,0
1583425167.576,22.461,34.180,39.551,26.367,36.133,0
1583425167.580,29.785,34.668,43.457,31.738,29.785,0
1583425167.584,34.668,34.668,43.457,35.156,38.574,0
1583425167.587,33.203,33.203,41.992,31.250,63.477,0
1583425167.591,30.273,34.668,41.504,23.926,47.852,0
1583425167.595,27.344,34.668,41.504,18.066,-23.926,0
1583425167.599,27.344,36.621,41.504,22.949,36.133,0
1583425167.603,26.367,37.598,40.039,25.391,74.707,0
1583425167.620,24.902,39.551,41.504,17.090,1.465,0
1583425167.624,21.973,39.551,42.969,10.742,4.395,0
1583425167.628,18.555,38.086,42.969,13.184,18.555,0
1583425167.632,19.531,39.551,43.945,14.648,-49.805,0
1583425167.636,20.020,41.016,42.480,11.719,-3.418,0
1583425167.640,25.879,41.016,41.504,15.625,68.848,0
1583425167.644,32.227,42.969,41.504,21.484,-31.738,0
1583425167.647,34.668,41.504,41.504,23.438,-25.879,0
1583425167.651,31.250,36.133,38.086,29.297,-4.395,0
1583425167.655,26.367,32.227,31.738,27.832,78.613,0
1583425167.659,29.785,30.762,30.273,29.785,68.359,0
1583425167.663,32.227,34.180,36.621,39.062,-21.973,0
1583425167.660,30.762,35.645,41.504,43.945,30.273,0
1583425167.664,32.715,35.645,41.504,45.410,48.828,0
1583425167.668,35.645,33.203,43.945,41.016,32.715,0
1583425167.672,39.062,38.086,41.504,38.574,76.172,0
1583425167.676,38.086,41.016,37.109,35.156,82.031,0
1583425167.680,39.062,34.180,38.574,30.762,63.965,0
1583425167.684,40.527,32.227,33.203,29.297,57.617,0
1583425167.687,37.598,35.156,30.273,30.762,9.766,0
1583425167.691,38.086,35.645,32.715,27.832,15.137,0
1583425167.695,41.504,36.621,32.227,23.926,-21.973,0
1583425167.699,37.598,35.645,34.668,23.926,-30.273,0
1583425167.703,29.297,35.645,35.156,19.531,14.648,0
1583425167.699,22.949,34.180,37.109,23.926,18.555,0
1583425167.703,16.602,29.297,36.621,29.297,51.758,0
1583425167.707,15.137,30.273,28.320,27.832,4.395,0
1583425167.711,16.602,31.250,27.832,23.438,1.465,0
1583425167.715,15.625,31.250,30.762,21.484,68.848,0
1583425167.719,18.066,34.180,29.785,23.926,62.012,0
1583425167.723,23.926,36.621,25.879,27.344,64.453,0
1583425167.726,28.809,35.156,22.461,27.832,86.914,0
1583425167.730,22.949,36.133,30.273,20.508,80.078,0
1583425167.734,21.973,36.133,33.691,20.020,72.266,0
1583425167.738,25.391,32.227,31.250,25.391,77.637,0
1583425167.742,22.461,30.273,34.668,24.902,8.301,0
1583425167.760,20.020,31.250,31.250,21.973,28.320,0
1583425167.764,17.578,33.691,27.832,19.043,76.660,0
1583425167.768,17.090,34.668,30.762,18.066,30.762,0
1583425167.772,17.578,34.180,28.320,21.484,32.227,0
1583425167.776,17.578,34.668,27.344,21.973,31.250,0
1583425167.780,25.391,39.062,25.879,22.949,59.570,0
1583425167.784,29.297,40.039,28.320,25.879,90.332,0
1583425167.787,26.855,39.062,31.738,24.414,83.008,0
1583425167.791,28.320,41.016,30.762,19.531,94.238,0
1583425167.795,29.297,41.016,30.273,21.484,66.895,0
1583425167.799,26.367,37.109,32.227,24.414,10.742,0
1583425167.803,25.391,39.062,31.738,23.438,42.969,0
1583425167.800,22.949,41.016,29.785,24.414,110.352,0
1583425167.804,21.973,38.574,34.180,27.344,79.590,0
1583425167.808,25.879,35.645,36.621,28.320,36.133,0
1583425167.812,22.949,36.621,36.621,25.391,28.809,0
1583425167.816,22.461,37.598,34.668,24.902,45.410,0
1583425167.820,25.879,34.668,33.203,24.414,66.406,0
1583425167.824,19.043,33.203,31.738,22.461,23.438,0
1583425167.827,18.066,33.203,31.250,21.973,-17.578,0
1583425167.831,26.855,33.203,30.273,20.996,-48.340,0
1583425167.835,32.715,33.691,30.762,27.832,-39.551,0
1583425167.839,39.062,37.109,33.203,35.645,18.555,0
1583425167.843,41.016,37.598,33.203,34.668,0.488,0
1583425167.839,38.574,33.691,32.715,34.668,-46.875,0
1583425167.843,36.133,34.180,31.738,31.738,-0.977,0
1583425167.847,31.250,34.668,32.227,23.438,46.387,0
1583425167.851,31.250,37.598,33.203,18.066,23.438,0
1583425167.855,30.762,41.016,32.715,11.719,-4.395,0
1583425167.859,26.367,40.527,31.738,12.207,24.902,0
1583425167.863,28.809,39.062,31.250,13.672,52.246,0
1583425167.866,27.832,36.621,33.691,13.672,95.703,0
1583425167.870,25.879,36.621,37.109,12.695,82.520,0
1583425167.874,30.762,36.621,39.062,18.066,91.309,0
1583425167.878,30.273,35.645,40.039,20.996,85.449,0
1583425167.882,21.973,33.203,42.480,14.160,52.246,0
1583425167.899,19.043,32.715,42.480,16.602,40.039,0
1583425167.903,17.090,34.180,41.992,19.043,13.672,0
1583425167.907,20.996,33.691,41.504,16.602,20.996,0
1583425167.911,30.762,37.598,38.086,23.438,36.133,0
1583425167.915,31.250,40.527,35.645,25.391,21.484,0
1583425167.919,27.832,37.598,31.738,22.949,34.668,0
1583425167.923,19.531,35.645,31.250,20.508,36.621,0
1583425167.926,15.625,35.645,37.598,20.996,-23.926,0
1583425167.930,19.531,38.574,41.992,30.273,-61.035,0
1583425167.934,19.531,38.086,43.457,29.297,0.000,0
1583425167.938,19.043,33.691,40.527,22.949,28.320,0
1583425167.942,22.949,35.156,37.109,20.996,2.930,0
1583425167.939,25.879,35.645,33.691,20.508,32.227,0
1583425167.943,27.832,36.621,29.297,20.508,21.973,0
1583425167.947,34.180,41.504,28.809,21.973,20.508,0
1583425167.951,38.574,44.434,20.996,24.414,36.621,0
1583425167.955,38.086,42.480,13.672,27.832,-1.465,0
1583425167.959,33.203,38.574,23.926,22.949,-2.930,0
1583425167.963,30.273,35.645,33.203,18.066,52.734,0
1583425167.966,34.180,36.133,32.715,20.508,36.621,0
1583425167.970,31.250,32.715,30.762,21.484,7.812,0
1583425167.974,36.133,33.203,30.273,22.949,1.953,0
1583425167.978,39.551,36.133,32.715,19.531,31.738,0
1583425167.982,30.762,34.180,34.180,18.066,70.801,0
1583425167.979,34.668,35.645,33.203,19.531,68.848,0
1583425167.983,34.668,34.668,28.320,16.602,70.801,0
1583425167.987,27.832,31.250,23.926,13.184,30.762,0
1583425167.991,23.438,31.738,22.949,8.301,16.602,0
1583425167.995,18.066,32.227,22.461,2.930,51.758,0
1583425167.999,16.602,31.738,22.461,7.812,14.648,0
1583425168.003,17.090,35.156,26.855,15.625,0.977,0
1583425168.006,19.531,37.109,28.320,20.020,64.453,0
1583425168.010,15.625,32.715,25.879,21.484,21.973,0
1583425168.014,8.789,28.809,26.855,20.996,-2.441,0
1583425168.018,10.254,30.762,28.320,22.461,38.574,0
1583425168.022,11.719,33.203,32.715,25.879,60.059,0
1583425168.039,8.301,31.250,36.621,27.344,49.316,0
1583425168.043,8.301,30.273,32.227,29.297,0.977,0
1583425168.047,9.766,27.832,28.320,31.250,20.508,0
1583425168.051,12.695,26.367,29.297,32.715,60.059,0
1583425168.055,18.555,24.902,29.785,34.668,59.570,0
1583425168.059,20.508,27.344,30.762,34.668,53.711,0
1583425168.063,25.879,34.180,29.785,34.180,28.320,0
1583425168.066,31.738,30.273,32.715,33.203,25.879,0
1583425168.070,33.691,28.320,38.574,33.691,61.523,0
1583425168.074,34.180,35.156,37.598,32.227,94.238,0
1583425168.078,37.598,35.645,36.133,28.320,51.758,0
1583425168.082,38.086,33.691,31.738,26.367,-3.906,0
1583425168.079,36.621,35.645,28.320,16.602,44.922,0
1583425168.083,41.504,38.574,27.344,16.602,63.477,0
1583425168.087,36.133,38.574,24.902,24.414,68.359,0
1583425168.091,26.855,35.645,23.926,21.973,42.969,0
1583425168.095,24.414,34.180,26.855,18.066,26.367,0
1583425168.099,20.996,31.738,27.344,15.625,27.832,0
1583425168.103,18.555,30.273,23.438,17.090,-20.508,0
1583425168.106,18.066,29.785,22.949,21.484,-8.789,0
1583425168.110,17.090,29.785,27.832,24.902,-45.410,0
1583425168.114,14.160,29.297,33.691,21.973,-32.227,0
1583425168.118,14.160,30.273,36.133,18.066,7.812,0
1583425168.122,17.090,28.809,37.598,25.391,8.301,0
1583425168.120,14.160,29.785,40.039,31.738,22.949,0
1583425168.124,9.766,31.738,36.621,31.738,38.086,0
1583425168.128,12.695,31.250,34.180,32.227,71.777,0
1583425168.132,14.160,29.785,32.715,32.227,34.668,0
1583425168.136,18.066,31.250,29.297,33.691,20.508,0
1583425168.140,25.879,35.645,28.320,36.621,0.977,0
1583425168.144,29.297,34.668,26.855,31.738,-2.441,0
1583425168.147,27.832,31.738,31.250,31.738,59.570,0
1583425168.151,25.879,31.250,32.715,34.180,85.449,0
1583425168.155,25.391,29.297,33.691,33.691,38.574,0
1583425168.159,22.461,29.297,37.109,28.320,5.859,0
1583425168.163,21.484,30.762,37.598,26.367,33.691,0
1583425168.179,25.391,31.250,36.133,21.973,57.617,0
1583425168.183,24.414,31.250,31.250,20.996,49.805,0
1583425168.187,24.414,30.762,28.320,25.391,33.203,0
1583425168.191,26.855,30.762,30.273,25.879,2.930,0
1583425168.195,26.855,29.785,36.133,25.391,7.812,0
1583425168.199,25.879,29.785,38.086,20.020,65.430,0
1583425168.203,25.879,34.668,41.992,17.578,89.355,0
1583425168.206,25.879,34.668,39.551,21.973,21.484,0
1583425168.210,26.367,34.180,33.691,23.926,-0.488,0
1583425168.214,21.973,36.621,39.551,24.902,91.797,0
1583425168.218,22.949,38.086,39.062,23.926,43.457,0
1583425168.222,22.461,35.645,34.668,14.160,4.395,0
1583425168.219,13.184,31.250,34.180,11.230,37.109,0
1583425168.223,3.418,28.809,31.738,11.719,89.355,0
1583425168.227,-1.953,28.809,31.250,16.113,74.707,0
1583425168.231,-0.488,30.273,28.809,22.949,60.059,0
1583425168.235,1.465,32.227,25.879,23.438,88.867,0
1583425168.239,-4.883,27.832,27.344,24.902,22.461,0
1583425168.243,-7.324,24.902,27.344,31.250,18.066,0
1583425168.246,-0.977,26.367,33.691,34.668,45.898,0
1583425168.250,5.371,25.391,35.156,37.109,34.668,0
1583425168.254,12.695,24.414,35.645,43.457,26.367,0
1583425168.258,21.973,21.484,43.945,48.340,9.277,0
1583425168.262,31.738,20.020,48.828,47.852,71.289,0
1583425168.260,38.086,21.973,47.852,48.340,52.246,0
1583425168.264,37.598,23.438,44.434,51.758,-2.930,0
1583425168.268,42.969,25.391,40.039,52.734,13.672,0
1583425168.272,46.875,28.320,41.504,49.316,32.227,0
1583425168.276,42.969,31.738,41.992,36.621,24.414,0
1583425168.280,38.086,34.668,39.551,28.809,44.434,0
1583425168.284,38.574,36.133,38.574,24.414,91.797,0
1583425168.287,34.180,38.086,38.086,11.719,68.359,0
1583425168.291,25.879,38.086,37.109,-1.953,41.504,0
1583425168.295,20.996,35.645,37.109,-3.418,45.898,0
1583425168.299,10.254,34.668,40.039,-2.930,77.148,0
1583425168.303,8.789,34.668,41.016,-0.488,59.082,0
1583425168.320,13.184,32.715,42.969,3.418,37.598,0
1583425168.324,21.484,31.250,46.875,8.789,18.555,0
1583425168.328,34.180,31.738,45.898,18.066,55.664,0
1583425168.332,34.180,33.203,44.922,27.832,56.641,0
1583425168.336,32.227,32.715,43.945,36.133,26.855,0
1583425168.340,32.227,28.320,41.992,39.551,19.531,0
1583425168.344,28.320,28.809,42.480,44.922,43.945,0
1583425168.347,27.832,29.785,42.480,51.270,89.844,0
1583425168.351,26.367,27.344,45.410,51.758,33.691,0
1583425168.355,21.484,26.367,44.922,50.781,2.930,0
1583425168.359,15.137,23.926,41.504,45.410,35.156,0
1583425168.363,14.648,24.902,43.945,45.898,45.410,0
1583425168.381,18.066,25.391,42.969,48.828,51.270,0
1583425168.385,20.508,23.926,41.992,50.781,25.391,0
1583425168.389,26.367,26.367,42.480,57.129,11.230,0
1583425168.393,27.344,27.344,42.480,57.617,37.109,0
1583425168.397,22.949,28.320,42.480,53.711,59.570,0
1583425168.401,19.043,28.320,41.016,42.969,38.574,0
1583425168.405,16.113,27.344,38.086,32.715,38.574,0
1583425168.408,14.648,27.832,31.250,27.344,-8.789,0
1583425168.412,17.090,33.203,26.367,20.020,-9.766,0
1583425168.416,21.484,37.598,26.855,13.184,30.762,0
1583425168.420,21.973,37.109,23.926,6.836,62.988,0
1583425168.424,24.902,36.621,23.438,10.254,102.539,0
1583425168.400,33.203,39.551,27.832,18.066,60.547,0
1583425168.404,44.434,43.457,29.785,26.367,8.301,0
1583425168.408,51.270,40.039,33.203,33.691,16.113,0
1583425168.412,52.734,35.645,39.062,36.133,65.918,0
1583425168.416,50.781,33.691,38.086,39.062,62.500,0
1583425168.420,52.734,30.273,37.109,45.898,79.590,0
1583425168.424,55.176,32.227,38.086,47.363,72.266,0
1583425168.427,56.152,33.203,35.156,46.875,48.828,0
1583425168.431,47.852,29.297,34.180,41.992,41.504,0
1583425168.435,35.156,30.762,35.156,37.109,11.719,0
1583425168.439,24.414,30.762,33.203,32.715,-12.695,0
1583425168.443,11.230,30.273,33.691,27.832,-4.883,0
1583425168.459,6.348,34.180,38.086,26.367,47.852,0
1583425168.463,3.906,33.203,38.086,22.461,76.660,0
1583425168.467,0.977,29.297,36.621,20.020,75.684,0
1583425168.471,0.000,31.738,38.574,21.973,50.293,0
1583425168.475,1.953,32.227,38.574,29.297,-18.555,0
1583425168.479,12.695,33.203,38.086,36.133,-19.043,0
1583425168.483,17.090,34.180,42.969,37.109,21.973,0
1583425168.486,14.648,31.738,41.504,34.668,60.547,0
1583425168.490,17.578,34.180,39.062,33.203,52.246,0
1583425168.494,20.508,38.086,35.156,34.668,-4.883,0
1583425168.498,17.090,41.504,29.297,30.273,24.902,0
1583425168.502,21.484,46.875,22.949,22.949,32.227,0
1583425168.499,23.926,52.246,20.508,18.066,12.207,0
1583425168.503,26.855,52.734,21.973,22.949,38.574,0
1583425168.507,30.273,50.781,23.438,28.320,23.926,0
1583425168.511,34.180,50.781,19.531,25.391,44.434,0
1583425168.515,34.180,51.758,16.113,18.066,29.297,0
1583425168.519,32.227,48.828,19.043,14.648,-27.832,0
1583425168.523,33.203,47.852,20.996,19.043,-13.672,0
1583425168.526,30.273,48.340,20.020,15.137,58.594,0
1583425168.530,27.344,46.875,20.508,14.648,84.473,0
1583425168.534,24.902,41.992,24.414,16.113,75.684,0
1583425168.538,26.855,38.086,29.785,20.508,44.434,0
1583425168.542,27.344,38.086,33.203,24.414,-0.977,0
1583425168.559,25.391,33.203,32.715,27.344,20.508,0
1583425168.563,28.320,27.344,31.738,26.367,28.809,0
1583425168.567,33.691,29.297,30.273,23.926,10.742,0
1583425168.571,33.691,35.645,25.879,27.832,-16.113,0
1583425168.575,30.762,35.645,23.926,23.438,11.719,0
1583425168.579,31.250,34.668,25.391,23.438,60.547,0
1583425168.583,25.391,36.133,20.508,24.414,79.590,0
1583425168.586,23.438,39.062,18.555,21.484,87.891,0
1583425168.590,30.273,43.457,20.508,25.879,59.082,0
1583425168.594,34.668,48.828,20.996,29.785,51.758,0
1583425168.598,35.156,51.758,22.461,28.809,37.598,0
1583425168.602,35.156,56.641,22.461,31.250,7.324,0
1583425168.600,37.109,58.594,21.484,35.156,-2.930,0
1583425168.604,33.691,54.688,24.414,34.180,52.246,0
1583425168.608,37.598,53.223,27.344,35.645,56.152,0
1583425168.612,41.992,48.828,26.855,34.180,-3.906,0
1583425168.616,40.527,46.387,26.855,33.691,60.547,0
1583425168.620,41.016,46.875,30.273,37.109,34.668,0
1583425168.624,40.527,41.016,31.250,33.203,-25.879,0
1583425168.627,41.016,40.039,32.715,34.180,15.137,0
1583425168.631,47.852,40.039,34.668,35.156,62.012,0
1583425168.635,58.105,38.086,38.574,29.297,62.988,0
1583425168.639,60.059,38.574,35.156,26.855,41.016,0
1583425168.643,57.129,35.645,29.785,27.344,85.449,0
1583425168.639,63.477,37.109,27.832,31.738,53.223,0
1583425168.643,64.453,39.062,23.926,27.344,2.441,0
1583425168.647,55.176,34.668,29.785,19.043,6.348,0
1583425168.651,57.617,36.133,34.180,24.902,-34.180,0
1583425168.655,50.781,38.574,29.785,29.785,-38.574,0
1583425168.659,38.086,39.062,27.344,33.203,21.484,0
1583425168.663,34.180,39.551,28.320,35.645,61.523,0
1583425168.666,32.227,41.016,29.785,35.645,53.223,0
1583425168.670,32.715,42.480,30.762,38.574,44.434,0
1583425168.674,35.156,40.039,31.738,41.504,17.578,0
1583425168.678,31.250,38.086,34.180,44.434,21.484,0
1583425168.682,30.762,42.480,34.180,41.504,24.414,0
1583425168.699,32.227,41.992,35.156,39.062,16.113,0
1583425168.703,29.785,37.109,35.156,41.504,50.293,0
1583425168.707,28.809,35.156,36.133,41.016,36.133,0
1583425168.711,28.320,32.227,42.480,34.668,26.367,0
1583425168.715,26.855,34.668,43.457,30.762,28.809,0
1583425168.719,19.531,31.250,44.434,23.926,22.949,0
1583425168.723,5.859,26.367,45.410,11.719,26.855,0
1583425168.726,0.977,25.391,45.410,5.859,41.504,0
1583425168.730,-1.953,23.438,50.293,1.465,47.852,0
1583425168.734,-1.953,28.809,51.758,1.465,43.945,0
1583425168.738,8.301,27.344,49.316,5.371,-14.160,0
1583425168.742,6.348,27.832,50.293,6.348,-50.293,0
1583425168.739,-5.859,31.250,55.176,2.930,-13.184,0
1583425168.743,-15.137,32.227,54.199,0.000,20.020,0
1583425168.747,-18.066,38.574,54.199,0.977,46.875,0
1583425168.751,-19.043,39.062,61.523,-3.418,62.012,0
1583425168.755,-29.297,41.992,67.871,-15.137,45.410,0
1583425168.759,-45.898,47.852,72.754,-28.809,30.762,0
1583425168.763,-62.500,51.270,74.707,-44.922,53.711,0
1583425168.766,-80.566,53.223,73.730,-70.312,80.078,0
1583425168.770,-92.285,51.758,76.172,-87.891,102.051,0
1583425168.774,-100.586,48.340,74.219,-98.633,78.613,0
1583425168.778,-108.887,48.340,73.730,-109.863,6.348,0
1583425168.782,-114.258,53.223,74.707,-110.840,-0.488,0
1583425168.779,-121.094,47.852,72.754,-112.793,-1.465,0
1583425168.783,-124.512,38.086,73.242,-114.746,26.367,0
1583425168.787,-120.117,36.133,79.590,-110.352,56.641,0
1583425168.791,-110.840,34.180,79.590,-97.168,33.203,0
1583425168.795,-103.027,30.762,79.102,-84.961,44.434,0
1583425168.799,-91.309,25.879,81.543,-76.660,50.781,0
1583425168.803,-76.172,20.020,80.078,-65.918,70.312,0
1583425168.806,-60.059,20.508,78.125,-48.340,91.309,0
1583425168.810,-37.598,25.391,76.660,-27.832,82.520,0
1583425168.814,-22.461,23.438,71.289,-15.137,30.273,0
1583425168.818,-16.113,21.973,66.406,-3.418,-5.371,0
1583425168.822,-3.418,23.926,61.523,7.812,42.969,0
1583425168.839,3.906,25.879,56.152,9.766,48.828,0
1583425168.843,3.906,27.832,48.340,9.766,71.289,0
1583425168.847,5.371,29.785,40.527,10.742,76.660,0
1583425168.851,8.301,31.250,36.621,9.277,89.844,0
1583425168.855,12.695,32.227,30.273,11.719,70.312,0
1583425168.859,20.020,33.691,27.832,18.066,10.742,0
1583425168.863,23.438,32.715,26.855,20.508,30.273,0
1583425168.866,25.879,30.762,25.879,18.555,19.531,0
1583425168.870,36.621,31.738,25.879,26.367,-25.391,0
1583425168.874,51.758,34.668,22.461,34.668,6.348,0
1583425168.878,62.012,31.738,17.578,36.621,34.180,0
1583425168.882,71.289,31.738,15.137,39.551,2.441,0
1583425168.880,80.566,35.156,13.184,38.086,13.184,0
1583425168.884,84.473,31.738,14.160,36.621,16.113,0
1583425168.888,87.402,31.738,15.137,38.574,58.105,0
1583425168.892,89.844,32.227,14.648,45.898,83.984,0
1583425168.896,93.262,32.715,16.113,52.246,59.082,0
1583425168.900,101.562,33.691,16.113,55.176,80.566,0
1583425168.904,105.469,33.691,17.090,59.082,32.715,0
1583425168.907,110.352,36.621,16.602,66.406,13.672,0
1583425168.911,123.535,40.527,17.578,78.613,45.410,0
1583425168.915,127.930,41.992,20.508,85.449,61.035,0
1583425168.919,127.441,41.992,22.461,84.473,16.602,0
1583425168.923,126.465,41.504,24.414,82.520,1.465,0
1583425168.940,122.070,43.457,20.996,74.219,32.227,0
1583425168.944,113.281,41.992,20.996,69.336,38.086,0
1583425168.948,106.934,39.551,19.043,65.430,33.691,0
1583425168.952,87.891,40.039,14.648,56.152,21.484,0
1583425168.956,78.613,35.645,19.043,50.781,33.203,0
1583425168.960,83.984,36.621,20.996,54.199,20.508,0
1583425168.964,77.148,37.598,22.949,57.617,22.461,0
1583425168.967,72.266,32.715,26.855,63.965,37.598,0
1583425168.971,68.359,32.227,30.273,65.918,-8.789,0
1583425168.975,62.012,27.832,34.180,66.895,6.348,0
1583425168.979,61.035,25.391,31.738,73.242,27.832,0
1583425168.983,58.105,25.879,29.297,69.336,15.137,0
1583425168.979,54.688,25.879,28.320,67.871,-5.371,0
1583425168.983,55.176,28.320,26.367,66.895,-18.555,0
1583425168.987,56.152,27.344,27.832,63.965,5.859,0
1583425168.991,62.988,28.809,26.367,64.941,59.570,0
1583425168.995,66.895,31.250,24.414,59.570,51.758,0
1583425168.999,69.824,31.250,26.855,59.082,64.941,0
1583425169.003,72.754,35.645,30.273,60.547,82.031,0
1583425169.006,73.242,34.668,29.297,56.152,71.289,0
1583425169.010,71.289,26.855,32.715,53.711,81.543,0
1583425169.014,62.012,25.879,35.156,54.199,31.738,0
1583425169.018,60.547,24.902,34.180,55.176,-41.504,0
1583425169.022,71.777,24.902,33.691,60.547,-14.648,0
1583425169.020,70.312,25.879,33.691,59.570,45.898,0
1583425169.024,58.594,22.949,37.109,57.617,69.824,0
1583425169.028,53.223,23.926,37.109,61.523,73.730,0
1583425169.032,47.852,22.461,37.109,61.523,43.457,0
1583425169.036,44.434,21.484,39.062,59.570,33.203,0
1583425169.040,28.809,20.996,41.016,57.617,44.434,0
1583425169.044,14.160,19.043,39.062,54.688,59.570,0
1583425169.047,19.531,17.578,35.156,50.293,75.195,0
1583425169.051,14.160,19.043,32.715,46.875,54.688,0
1583425169.055,5.371,22.461,32.227,47.852,21.973,0
1583425169.059,7.324,22.949,32.715,43.457,39.551,0
1583425169.063,10.254,24.902,30.762,40.039,0.977,0
1583425169.060,10.742,26.367,30.273,42.969,-11.230,0
1583425169.064,11.230,26.367,32.227,42.480,48.828,0
1583425169.068,14.160,27.344,33.691,41.992,65.918,0
1583425169.072,11.230,27.832,34.668,41.992,23.438,0
1583425169.076,12.695,31.250,32.227,44.922,12.695,0
1583425169.080,20.020,30.273,29.785,47.363,53.711,0
1583425169.084,21.484,26.367,28.809,44.922,84.473,0
1583425169.087,25.391,26.855,27.344,47.363,57.617,0
1583425169.091,28.809,27.344,30.762,46.875,67.871,0
1583425169.095,27.344,26.855,34.180,43.457,75.684,0
1583425169.099,32.715,28.809,32.715,41.504,45.410,0
1583425169.103,31.738,30.273,32.715,37.598,44.434,0
1583425169.119,30.762,30.762,34.668,36.621,49.805,0
1583425169.123,38.574,29.785,36.133,36.133,35.645,0
1583425169.127,36.133,26.367,36.621,30.762,-7.324,0
1583425169.131,36.133,26.367,33.691,38.086,41.504,0
1583425169.135,42.969,28.809,30.762,49.805,73.242,0
1583425169.139,46.875,28.320,27.832,46.875,6.348,0
1583425169.143,41.504,27.832,24.902,39.062,0.000,0
1583425169.146,31.250,28.320,23.926,35.156,46.387,0
1583425169.150,25.879,25.391,25.879,30.762,-10.742,0
1583425169.154,17.578,23.438,25.879,26.855,-2.930,0
1583425169.158,8.301,24.414,26.855,24.902,55.176,0
1583425169.162,14.648,27.344,29.785,21.484,58.105,0
1583425169.160,17.578,28.320,31.250,23.926,45.898,0
1583425169.164,7.324,28.320,30.273,23.438,15.137,0
1583425169.168,3.906,30.762,30.762,17.578,40.527,0
1583425169.172,10.254,34.180,31.738,19.531,22.949,0
1583425169.176,11.719,34.668,26.855,21.973,9.277,0
1583425169.180,20.996,37.109,25.879,22.949,11.719,0
1583425169.184,31.250,40.039,27.832,23.438,-36.621,0
1583425169.187,33.203,36.621,28.320,23.926,19.043,0
1583425169.191,34.668,37.598,30.273,29.297,27.344,0
1583425169.195,37.598,41.992,28.320,31.738,35.156,0
1583425169.199,44.434,43.945,26.367,31.250,33.691,0
1583425169.203,51.758,43.457,30.273,35.156,-4.883,0
1583425169.201,49.805,42.969,32.715,37.109,47.852,0
1583425169.205,52.246,42.480,30.273,38.574,44.922,0
1583425169.209,52.734,43.457,28.320,39.551,34.180,0
1583425169.213,49.805,42.480,28.809,36.133,28.320,0
1583425169.217,59.570,41.992,26.855,36.133,18.066,0
1583425169.221,58.105,42.969,24.902,40.527,58.594,0
1583425169.225,53.223,43.457,26.855,41.992,55.664,0
1583425169.228,53.711,45.410,26.855,41.992,27.832,0
1583425169.232,53.223,45.410,28.320,40.527,1.465,0
1583425169.236,46.387,43.457,32.715,39.551,13.672,0
1583425169.240,43.457,39.551,34.668,36.621,54.688,0
1583425169.244,42.480,41.992,32.227,32.227,21.484,0
1583425169.259,31.738,44.922,32.715,28.320,51.758,0
1583425169.263,24.414,40.527,36.133,24.414,55.664,0
1583425169.267,23.926,39.551,37.109,23.438,18.555,0
1583425169.271,20.508,39.551,38.086,20.020,75.195,0
1583425169.275,15.625,38.086,37.598,13.184,89.844,0
1583425169.279,10.742,35.645,34.668,11.719,34.180,0
1583425169.283,16.113,34.668,33.691,17.578,51.270,0
1583425169.286,20.508,31.738,36.133,17.578,36.621,0
1583425169.290,17.578,33.203,36.133,17.090,21.973,0
1583425169.294,21.973,34.668,31.250,21.484,-23.438,0
1583425169.298,33.203,33.203,30.762,28.809,14.160,0
1583425169.302,38.086,31.738,30.762,29.785,70.801,0
1583425169.299,33.691,29.297,30.273,25.391,18.066,0
1583425169.303,40.527,33.203,25.391,31.738,38.574,0
1583425169.307,44.434,31.250,22.461,36.621,71.777,0
1583425169.311,38.574,24.902,26.855,37.598,97.168,0
1583425169.315,41.504,24.902,27.344,41.992,120.117,0
1583425169.319,43.945,27.832,27.832,44.434,21.484,0
1583425169.323,41.504,29.785,30.273,38.574,-34.180,0
1583425169.326,38.086,34.180,30.762,33.203,29.297,0
1583425169.330,35.645,38.086,32.227,28.320,27.832,0
1583425169.334,30.762,39.062,33.203,20.508,-43.945,0
1583425169.338,21.973,37.109,33.691,18.555,-34.668,0
1583425169.342,20.020,35.645,35.645,25.391,10.742,0
1583425169.339,21.484,36.133,37.109,31.738,-39.062,0
1583425169.343,22.949,37.109,35.156,31.738,-45.898,0
1583425169.347,24.414,39.062,35.156,38.086,4.395,0
1583425169.351,24.414,38.574,36.621,42.969,48.828,0
1583425169.355,24.414,38.574,36.133,44.922,54.199,0
1583425169.359,21.484,34.668,37.109,41.016,10.254,0
1583425169.363,14.648,34.668,40.039,33.691,55.664,0
1583425169.366,11.719,39.551,43.457,35.156,125.000,0
1583425169.370,1.465,38.574,43.457,34.668,34.668,0
1583425169.374,-5.859,35.156,43.945,25.879,-10.254,0
1583425169.378,7.324,35.645,41.992,25.879,52.734,0
1583425169.382,12.207,38.574,39.062,28.809,22.949,0
1583425169.399,13.184,37.109,38.086,28.809,81.543,0
1583425169.403,15.137,32.715,34.668,27.832,120.117,0
1583425169.407,15.137,30.762,32.715,31.738,56.152,0
1583425169.411,14.648,31.250,34.180,30.273,50.293,0
1583425169.415,8.789,29.297,33.691,25.391,47.852,0
1583425169.419,12.695,28.809,38.086,29.297,42.969,0
1583425169.423,16.602,28.320,41.992,25.391,40.527,0
1583425169.426,11.719,25.879,42.480,18.555,81.055,0
1583425169.430,13.672,24.414,41.992,15.625,88.379,0
1583425169.434,13.672,27.344,39.062,12.207,72.266,0
1583425169.438,8.301,33.691,36.621,5.859,66.406,0
1583425169.442,18.066,37.598,33.203,5.859,40.039,0
1583425169.439,25.391,39.551,31.738,6.836,48.828,0
1583425169.443,26.367,44.434,29.785,5.371,38.086,0
1583425169.447,25.391,43.457,28.809,5.371,37.598,0
1583425169.451,31.250,39.062,29.297,10.742,66.406,0
1583425169.455,34.668,40.039,25.391,19.531,24.414,0
1583425169.459,40.039,39.062,27.344,23.926,-25.879,0
1583425169.463,37.598,38.574,33.203,22.949,-2.930,0
1583425169.466,29.297,38.086,34.668,20.508,-0.977,0
1583425169.470,27.344,38.086,32.715,22.461,-4.395,0
1583425169.474,5.859,34.668,39.551,12.695,42.480,0
1583425169.478,-7.324,38.574,50.293,-0.977,57.129,0
1583425169.482,-17.090,41.016,51.758,-11.230,79.590,0
1583425169.479,-37.598,37.109,58.105,-26.855,100.586,0
1583425169.483,-55.664,39.551,61.523,-43.945,32.227,0
1583425169.487,-66.895,47.363,62.012,-54.688,0.000,0
1583425169.491,-79.590,53.711,62.500,-72.754,47.852,0
1583425169.495,-93.262,54.688,62.500,-97.656,41.016,0
1583425169.499,-98.633,57.129,62.988,-108.398,24.414,0
1583425169.503,-103.027,59.570,62.012,-111.816,18.555,0
1583425169.506,-99.609,67.871,62.012,-120.117,37.109,0
1583425169.510,-104.980,68.848,66.895,-130.371,-4.883,0
1583425169.514,-115.723,64.453,71.289,-132.812,-3.906,0
1583425169.518,-116.699,65.918,69.336,-133.301,41.992,0
1583425169.522,-111.328,62.988,70.801,-130.859,26.855,0
1583425169.539,-110.352,57.617,73.242,-127.930,24.414,0
1583425169.543,-109.375,55.176,66.895,-120.605,55.176,0
1583425169.547,-99.121,55.664,64.941,-110.352,102.051,0
1583425169.551,-86.914,58.594,63.965,-106.934,85.449,0
1583425169.555,-69.336,60.059,62.012,-95.703,6.836,0
1583425169.559,-62.012,58.594,63.477,-81.543,8.301,0
1583425169.563,-50.293,57.617,65.430,-64.941,29.785,0
1583425169.566,-25.879,52.734,62.988,-44.434,35.645,0
1583425169.570,-15.137,42.480,58.594,-27.344,55.176,0
1583425169.574,-1.465,37.109,55.176,-10.254,99.121,0
1583425169.578,14.648,33.691,52.246,3.906,67.383,0
1583425169.582,25.879,31.250,49.805,15.625,-4.395,0
1583425169.579,40.039,31.250,44.922,26.855,8.789,0
1583425169.583,49.805,29.297,37.598,30.762,-2.441,0
1583425169.587,51.758,24.902,30.762,33.691,-8.789,0
1583425169.591,62.500,23.438,23.926,44.434,-9.766,0
1583425169.595,61.035,25.879,19.043,51.270,-18.555,0
1583425169.599,59.082,23.926,16.602,50.293,16.602,0
1583425169.603,65.918,23.926,16.113,50.781,17.090,0
1583425169.606,68.848,26.367,18.555,58.594,24.902,0
1583425169.610,69.824,25.391,14.648,61.035,54.199,0
1583425169.614,70.312,23.926,9.277,58.594,71.777,0
1583425169.618,71.289,23.926,12.207,60.059,98.145,0
1583425169.622,74.219,24.902,13.184,61.523,65.918,0
1583425169.619,81.055,26.367,11.230,61.523,36.621,0
1583425169.623,79.102,24.414,11.719,69.824,26.367,0
1583425169.627,73.730,20.508,13.672,70.801,-6.836,0
1583425169.631,78.125,19.531,12.695,76.660,-13.672,0
1583425169.635,83.984,21.973,15.625,85.938,47.852,0
1583425169.639,88.867,22.461,16.602,83.496,67.871,0
1583425169.643,93.750,22.949,15.625,83.008,12.207,0
1583425169.646,93.262,24.902,17.090,83.496,18.555,0
1583425169.650,96.191,26.855,18.066,82.031,11.230,0
1583425169.654,93.750,25.879,19.043,83.008,-3.906,0
1583425169.658,91.797,26.855,19.043,85.449,38.574,0
1583425169.662,100.098,28.809,17.090,90.820,9.766,0
1583425169.679,102.051,31.738,20.996,95.703,-9.766,0
1583425169.683,103.027,32.715,21.973,97.656,39.551,0
1583425169.687,106.934,33.203,19.043,96.680,55.664,0
1583425169.691,101.562,32.715,16.602,92.285,67.383,0
1583425169.695,90.332,30.273,15.625,86.426,58.594,0
1583425169.699,80.566,28.809,19.043,79.102,16.113,0
1583425169.703,73.730,26.855,23.926,68.359,30.762,0
1583425169.706,68.848,25.391,24.414,61.523,46.875,0
1583425169.710,68.359,27.344,26.855,61.523,52.246,0
1583425169.714,64.453,28.320,27.832,56.641,58.105,0
1583425169.718,60.547,31.250,22.461,51.270,62.012,0
1583425169.722,57.129,33.691,19.043,49.805,66.895,0
1583425169.719,52.246,29.785,17.578,49.316,30.762,0
1583425169.723,51.758,27.832,16.602,51.270,26.367,0
1583425169.727,48.828,28.320,20.020,51.270,-10.742,0
1583425169.731,49.805,29.297,23.438,48.828,9.277,0
1583425169.735,50.781,31.738,24.902,52.734,94.727,0
1583425169.739,51.758,33.691,24.902,58.594,62.988,0
1583425169.743,59.570,35.156,24.902,55.176,22.949,0
1583425169.746,63.477,34.668,25.879,53.711,46.387,0
1583425169.750,61.523,34.668,22.461,54.688,31.738,0
1583425169.754,51.270,31.738,22.461,52.734,45.410,0
1583425169.758,48.340,28.809,25.879,55.664,69.824,0
1583425169.762,59.082,31.738,25.391,57.129,33.203,0
1583425169.760,48.828,35.645,26.855,47.852,11.230,0
1583425169.764,37.598,36.133,27.344,43.945,39.062,0
1583425169.768,38.574,32.227,24.902,36.621,36.133,0
1583425169.772,33.691,30.762,22.949,30.273,25.391,0
1583425169.776,30.273,30.762,23.438,32.715,48.828,0
1583425169.780,29.785,31.738,24.902,33.203,74.219,0
1583425169.784,33.691,32.715,22.949,28.809,64.453,0
1583425169.787,36.133,34.180,20.996,26.367,24.902,0
1583425169.791,32.227,33.203,23.926,26.367,31.738,0
1583425169.795,31.738,32.715,25.391,30.273,62.500,0
1583425169.799,29.785,33.691,25.879,30.273,74.707,0
1583425169.803,30.762,33.203,25.391,25.391,95.215,0
1583425169.819,33.203,36.133,23.926,24.902,81.055,0
1583425169.823,25.391,35.645,24.902,15.625,29.785,0
1583425169.827,17.578,35.645,21.973,20.020,7.812,0
1583425169.831,22.949,36.621,22.949,30.273,41.504,0
1583425169.835,37.109,32.227,26.367,34.180,41.016,0
1583425169.839,35.156,30.273,26.855,34.180,8.789,0
1583425169.843,36.133,28.809,29.297,33.691,5.859,0
1583425169.846,39.551,24.902,31.250,38.086,-0.488,0
1583425169.850,41.992,25.391,31.250,39.062,-3.906,0
1583425169.854,44.434,28.320,29.297,39.551,1.953,0
1583425169.858,47.363,31.250,30.762,41.992,58.105,0
1583425169.862,45.410,34.668,31.250,40.039,80.566,0
1583425169.859,43.945,33.203,28.320,39.062,43.457,0
1583425169.863,50.781,35.156,29.785,45.898,53.711,0
1583425169.867,49.316,38.086,28.809,43.457,48.340,0
1583425169.871,41.992,38.574,28.320,36.133,21.484,0
1583425169.875,40.527,38.574,26.367,32.715,41.504,0
1583425169.879,39.551,36.621,25.391,28.809,19.043,0
1583425169.883,34.668,36.133,30.273,28.809,-10.742,0
1583425169.886,33.691,36.621,33.203,28.320,5.859,0
1583425169.890,35.156,35.645,31.250,23.438,68.848,0
1583425169.894,34.668,36.133,32.715,20.508,76.660,0
1583425169.898,39.062,36.621,36.621,21.484,26.855,0
1583425169.902,36.133,34.668,35.156,24.414,72.266,0
1583425169.900,27.344,33.691,32.227,20.508,101.562,0
1583425169.904,30.762,35.156,31.250,18.066,55.664,0
1583425169.908,29.297,36.621,31.738,20.996,35.645,0
1583425169.912,25.391,33.203,31.738,20.020,5.859,0
1583425169.916,18.066,30.762,30.273,16.602,8.301,0
1583425169.920,15.137,32.227,27.344,14.160,23.926,0
1583425169.924,19.531,31.250,27.344,15.625,1.465,0
1583425169.927,16.602,28.809,27.344,16.602,-14.160,0
1583425169.931,20.508,29.297,27.832,23.438,35.156,0
1583425169.935,25.879,32.227,31.738,27.344,85.938,0
1583425169.939,20.508,32.227,34.668,23.438,36.133,0
1583425169.943,25.391,33.203,33.691,23.438,43.945,0
1583425169.959,31.250,34.668,32.227,31.738,36.133,0
1583425169.963,27.344,33.203,33.203,33.203,-17.090,0
1583425169.967,23.926,31.738,32.715,28.320,20.508,0
1583425169.971,23.926,33.203,33.203,27.344,21.484,0
1583425169.975,24.902,34.668,36.133,31.738,28.809,0
1583425169.979,24.902,33.691,30.762,27.344,30.273,0
1583425169.983,24.902,34.668,31.250,25.879,7.324,0
1583425169.986,21.973,40.527,33.691,25.391,56.152,0
1583425169.990,17.090,39.062,29.297,21.973,37.109,0
1583425169.994,17.578,35.156,26.855,23.438,19.043,0
1583425169.998,23.438,36.133,23.926,24.902,98.633,0
1583425170.002,23.438,37.598,28.809,24.902,45.898,0
1583425170.000,22.949,37.109,31.738,21.973,18.066,0
1583425170.004,25.879,39.551,28.320,30.273,52.734,0
1583425170.008,25.391,42.480,31.250,35.156,31.250,0
1583425170.012,34.668,42.480,36.621,35.156,20.020,0
1583425170.016,34.668,41.992,40.527,39.062,35.156,0
1583425170.020,29.297,39.062,39.551,41.016,51.758,0
1583425170.024,26.855,35.156,40.039,41.504,77.148,0
1583425170.027,24.414,33.691,38.574,39.062,60.059,0
1583425170.031,23.438,33.203,32.715,37.109,1.465,0
1583425170.035,19.531,34.180,31.738,38.574,-26.367,0
1583425170.039,14.160,37.109,34.180,34.180,7.324,0
1583425170.043,11.230,38.086,33.203,27.344,65.430,0
1583425170.060,17.090,35.156,30.273,26.367,19.531,0
1583425170.064,21.484,33.691,30.762,27.344,-9.277,0
1583425170.068,25.391,35.645,34.180,28.809,39.551,0
1583425170.072,33.691,36.133,36.621,30.762,46.875,0
1583425170.076,33.203,37.109,37.109,30.762,15.625,0
1583425170.080,25.879,37.109,38.574,29.297,6.836,0
1583425170.084,26.855,36.621,34.180,25.391,2.930,0
1583425170.087,29.785,35.156,32.227,22.461,-9.277,0
1583425170.091,27.832,33.203,36.621,23.926,-3.906,0
1583425170.095,29.297,35.156,34.180,19.043,4.395,0
1583425170.099,32.227,34.180,32.227,18.066,6.348,0
1583425170.103,31.250,32.227,32.227,23.926,5.371,0
1583425170.109,30.762,34.180,33.203,24.902,72.266,0
1583425170.113,27.832,34.180,36.133,22.461,82.520,0
1583425170.117,28.809,31.738,36.133,29.297,-20.508,0
1583425170.121,34.668,32.227,38.574,35.156,-5.371,0
1583425170.125,30.762,33.203,39.062,32.715,81.543,0
1583425170.129,26.855,32.715,38.574,33.203,96.191,0
1583425170.133,33.203,33.203,38.574,34.180,62.500,0
1583425170.136,30.273,33.691,36.621,29.297,31.738,0
1583425170.140,20.508,35.156,34.180,21.973,26.367,0
1583425170.144,19.043,34.180,32.227,20.996,14.648,0
1583425170.148,19.531,29.785,29.297,23.438,-19.043,0
1583425170.152,18.066,27.832,31.250,26.367,-6.348,0
1583425170.139,23.926,32.227,33.203,25.879,55.176,0
1583425170.143,31.738,37.109,34.668,25.879,54.688,0
1583425170.147,30.273,33.691,37.109,29.785,33.203,0
1583425170.151,29.297,31.250,36.621,28.809,44.922,0
1583425170.155,32.227,32.227,38.086,24.902,41.992,0
1583425170.159,33.691,35.645,38.574,25.391,-36.133,0
1583425170.163,34.668,36.621,36.133,27.832,-16.113,0
1583425170.166,32.715,35.645,33.691,26.855,86.426,0
1583425170.170,35.645,37.109,33.203,25.879,48.340,0
1583425170.174,34.668,36.133,36.133,19.531,25.391,0
1583425170.178,31.250,36.133,34.180,17.578,51.270,0
1583425170.182,33.691,38.086,31.250,24.414,52.246,0
1583425170.199,32.715,37.598,31.250,21.973,58.105,0
1583425170.203,33.203,39.551,27.344,20.508,41.504,0
1583425170.207,22.949,40.527,29.297,21.484,53.711,0
1583425170.211,22.461,38.574,33.203,23.926,40.039,0
1583425170.215,35.645,41.504,29.785,25.391,53.223,0
1583425170.219,36.133,42.480,27.344,25.391,53.711,0
1583425170.223,36.133,39.551,28.809,27.832,9.277,0
1583425170.226,31.738,39.062,29.785,22.461,32.227,0
1583425170.230,30.762,38.574,28.809,24.902,31.738,0
1583425170.234,35.645,40.039,27.344,33.691,31.738,0
1583425170.238,38.574,39.551,27.344,36.133,85.938,0
1583425170.242,42.480,39.551,25.879,37.109,73.242,0
1583425170.240,42.969,40.039,27.344,38.574,-28.320,0
1583425170.244,40.527,39.551,30.273,41.504,-66.406,0
1583425170.248,36.133,38.086,34.180,39.551,13.184,0
1583425170.252,29.297,35.156,34.180,29.785,-23.438,0
1583425170.256,29.297,36.133,31.250,26.855,-20.508,0
1583425170.260,30.273,41.504,32.227,31.250,23.438,0
1583425170.264,31.738,41.504,32.227,29.297,1.465,0
1583425170.267,39.062,42.480,30.273,29.785,-20.020,0
1583425170.271,38.574,41.992,30.762,26.367,10.742,0
1583425170.275,33.691,38.574,33.691,27.832,64.941,0
1583425170.279,34.180,39.551,36.621,29.785,75.684,0
1583425170.283,37.109,39.062,38.086,26.367,80.078,0
1583425170.279,33.203,36.133,37.109,25.879,67.383,0
1583425170.283,30.762,37.109,36.133,21.484,67.871,0
1583425170.287,28.809,36.621,33.691,20.996,67.383,0
1583425170.291,26.855,37.109,35.645,21.484,18.555,0
1583425170.295,23.438,39.062,37.598,19.043,37.598,0
1583425170.299,18.066,35.156,35.156,17.578,121.094,0
1583425170.303,20.996,31.738,33.691,20.508,39.551,0
1583425170.306,24.902,30.762,34.668,23.926,1.953,0
1583425170.310,25.391,34.668,36.621,20.996,65.430,0
1583425170.314,26.367,39.551,36.621,19.531,62.988,0
1583425170.318,29.785,38.574,35.156,22.461,5.859,0
1583425170.322,30.762,38.086,33.691,22.949,-5.371,0
1583425170.339,26.367,37.109,32.715,22.461,37.598,0
1583425170.343,25.391,36.621,33.203,24.902,52.246,0
1583425170.347,30.762,37.598,32.715,30.762,53.711,0
1583425170.351,30.762,38.086,32.715,32.227,47.852,0
1583425170.355,27.832,36.133,36.133,28.809,20.508,0
1583425170.359,31.738,37.109,37.598,29.297,17.090,0
1583425170.363,41.016,41.504,35.156,35.645,47.852,0
1583425170.366,27.344,34.668,36.133,27.832,46.387,0
1583425170.370,23.438,33.203,39.062,24.414,46.875,0
1583425170.374,38.086,38.574,39.062,33.691,44.922,0
1583425170.378,40.039,40.527,39.551,32.715,56.152,0
1583425170.382,36.133,38.574,39.551,38.574,86.914,0
1583425170.379,28.809,36.133,41.016,39.062,118.164,0
1583425170.383,27.344,36.133,40.039,32.715,91.309,0
1583425170.387,25.391,33.203,34.668,33.203,38.574,0
1583425170.391,21.484,30.273,31.738,32.227,-0.977,0
1583425170.395,18.066,31.250,35.156,29.785,-2.930,0
1583425170.399,14.160,31.738,38.574,23.926,33.691,0
1583425170.403,17.578,33.203,36.621,22.461,-11.230,0
1583425170.406,14.160,33.203,36.621,18.555,-34.180,0
1583425170.410,9.766,32.227,38.086,17.090,-1.465,0
1583425170.414,12.695,32.227,35.156,19.043,2.930,0
1583425170.418,14.648,33.203,36.133,13.184,-5.859,0
1583425170.422,15.137,33.691,37.598,12.207,61.035,0
1583425170.420,12.207,33.691,39.062,18.066,18.555,0
1583425170.424,20.020,38.574,40.039,26.367,-52.246,0
1583425170.428,32.227,40.527,41.016,32.715,8.789,0
1583425170.432,35.156,38.574,42.480,36.133,43.945,0
1583425170.436,38.086,38.574,41.016,39.062,17.578,0
1583425170.440,40.039,39.062,41.504,42.969,16.602,0
1583425170.444,40.039,39.062,41.504,41.504,80.078,0
1583425170.447,39.062,38.086,37.109,36.133,53.711,0
1583425170.451,33.691,35.156,35.156,29.297,25.391,0
1583425170.455,29.785,33.691,36.621,28.320,42.969,0
1583425170.459,28.320,33.203,36.621,25.391,15.625,0
1583425170.463,26.855,30.762,35.156,20.020,-0.977,0
1583425170.479,20.508,33.203,34.180,16.602,-15.625,0
1583425170.483,22.461,33.203,34.668,12.695,58.105,0
1583425170.487,25.391,32.715,33.691,17.090,53.223,0
1583425170.491,21.973,32.715,33.203,19.043,10.742,0
1583425170.495,22.461,29.785,32.715,13.672,9.766,0
1583425170.499,24.414,26.367,30.762,17.578,26.855,0
1583425170.503,23.438,27.832,31.250,22.949,53.223,0
1583425170.506,22.461,31.738,33.203,19.043,22.461,0
1583425170.510,23.438,32.227,31.738,15.625,54.199,0
1583425170.514,24.414,33.691,35.645,22.461,34.180,0
1583425170.518,21.973,33.691,36.133,27.344,-29.297,0
1583425170.522,21.973,37.109,31.250,24.902,-21.973,0
1583425170.519,21.484,39.062,33.691,24.414,29.297,0
1583425170.523,19.531,34.668,34.180,22.949,35.645,0
1583425170.527,22.949,34.180,32.715,25.391,-7.812,0
1583425170.531,31.250,34.180,36.133,32.227,-7.324,0
1583425170.535,34.180,33.203,38.086,35.156,6.836,0
1583425170.539,35.645,30.762,36.133,36.621,52.246,0
1583425170.543,34.180,29.785,36.621,38.086,69.336,0
1583425170.546,31.250,33.203,34.180,30.762,27.832,0
1583425170.550,30.762,31.738,27.832,22.949,33.691,0
1583425170.554,34.180,34.180,27.832,20.996,68.848,0
1583425170.558,33.691,36.133,29.297,13.672,21.484,0
1583425170.562,29.785,35.156,28.809,12.695,30.762,0
1583425170.559,34.668,36.621,28.809,19.531,67.383,0
1583425170.563,35.645,32.715,30.273,23.438,79.102,0
1583425170.567,33.203,33.691,30.273,24.902,45.898,0
1583425170.571,29.785,33.691,31.250,26.855,-14.160,0
1583425170.575,22.949,28.809,33.691,24.414,-4.883,0
1583425170.579,20.508,27.832,32.715,21.484,18.555,0
1583425170.583,14.648,26.367,32.715,24.902,52.734,0
1583425170.586,11.719,26.367,33.691,28.320,45.410,0
1583425170.590,20.508,27.832,32.715,27.832,41.992,0
1583425170.594,23.926,33.691,30.273,22.461,55.664,0
1583425170.598,21.973,35.156,30.273,25.391,45.410,0
1583425170.602,14.160,30.273,37.598,28.809,43.457,0
1583425170.619,14.160,32.715,41.016,29.297,78.125,0
1583425170.623,19.043,32.227,41.992,29.785,69.824,0
1583425170.627,19.531,28.809,42.969,25.879,26.855,0
1583425170.631,22.461,28.809,42.969,28.320,0.977,0
1583425170.635,24.902,30.273,42.969,29.297,21.973,0
1583425170.639,30.762,35.156,43.945,26.367,53.223,0
1583425170.643,30.273,35.156,46.387,26.367,36.621,0
1583425170.646,22.461,31.250,45.898,27.344,58.105,0
1583425170.650,15.625,28.809,43.945,26.367,56.641,0
1583425170.654,12.207,27.832,42.480,29.297,52.246,0
1583425170.658,10.742,28.809,43.945,25.879,34.180,0
1583425170.662,11.230,28.809,44.434,28.809,51.758,0
1583425170.659,5.371,29.297,44.922,28.320,57.129,0
1583425170.663,4.883,30.273,44.922,23.438,3.906,0
1583425170.667,9.766,32.227,42.480,27.344,47.363,0
1583425170.671,12.695,32.715,44.434,31.738,93.750,0
1583425170.675,15.625,34.668,44.434,37.109,78.125,0
1583425170.679,19.531,41.016,44.922,40.039,57.617,0
1583425170.683,26.855,38.574,42.969,36.133,2.441,0
1583425170.686,33.691,35.156,42.480,35.645,11.230,0
1583425170.690,39.062,36.621,40.527,42.480,54.688,0
1583425170.694,41.016,36.621,36.133,45.898,42.969,0
1583425170.698,38.574,37.109,37.109,43.457,45.410,0
1583425170.702,36.621,35.645,35.645,37.109,44.434,0
1583425170.699,36.133,34.668,30.273,33.203,38.086,0
1583425170.703,35.645,35.156,27.344,34.180,-12.695,0
1583425170.707,32.227,35.156,27.832,30.273,-37.598,0
1583425170.711,27.344,33.691,25.879,22.949,95.703,0
1583425170.715,30.273,32.715,24.902,23.438,107.910,0
1583425170.719,30.762,37.109,27.344,24.414,37.598,0
1583425170.723,30.273,39.062,26.855,22.461,54.688,0
1583425170.726,31.738,33.203,28.320,21.484,-9.766,0
1583425170.730,31.250,33.203,30.273,15.625,-52.734,0
1583425170.734,34.668,36.621,32.715,18.555,-11.230,0
1583425170.738,36.621,32.715,32.227,19.043,48.340,0
1583425170.742,33.691,33.691,30.762,12.207,26.367,0
1583425170.759,31.738,37.109,28.809,12.207,-40.527,0
1583425170.763,31.250,37.598,28.320,16.113,-0.977,0
1583425170.767,26.855,37.109,30.273,20.020,49.805,0
1583425170.771,22.461,36.621,29.297,20.020,42.969,0
1583425170.775,21.484,36.621,29.785,20.996,67.871,0
1583425170.779,26.855,36.621,32.715,30.273,91.797,0
1583425170.783,23.926,33.203,33.691,28.809,51.758,0
1583425170.786,19.043,27.832,33.691,22.949,10.742,0
1583425170.790,23.438,25.391,33.203,28.320,21.973,0
1583425170.794,31.250,30.762,32.227,30.762,75.195,0
1583425170.798,27.832,35.645,29.785,25.879,8.789,0
1583425170.802,19.043,34.180,29.297,22.949,-0.977,0
1583425170.799,20.508,33.203,31.738,21.973,70.801,0
1583425170.803,21.973,36.621,30.273,19.531,68.359,0
1583425170.807,27.344,39.062,26.855,21.484,56.152,0
1583425170.811,34.180,37.109,30.762,21.973,51.270,0
1583425170.815,33.691,36.621,29.785,23.438,42.969,0
1583425170.819,39.062,38.086,28.320,25.879,-36.621,0
1583425170.823,46.387,40.039,31.738,32.227,-9.277,0
1583425170.826,44.922,41.016,28.320,36.133,-7.812,0
1583425170.830,42.969,38.574,32.227,27.832,0.000,0
1583425170.834,43.945,39.062,34.180,29.297,78.613,0
1583425170.838,38.086,40.527,31.738,33.691,38.086,0
1583425170.842,26.855,37.109,37.109,28.320,58.105,0
1583425170.839,24.414,35.645,38.086,29.785,57.129,0
1583425170.843,20.020,35.645,34.668,26.855,6.348,0
1583425170.847,10.742,32.715,33.691,17.090,31.250,0
1583425170.851,10.742,30.273,34.668,17.578,52.734,0
1583425170.855,17.090,29.297,30.762,16.602,74.219,0
1583425170.859,24.414,30.762,26.855,14.648,19.043,0
1583425170.863,24.902,34.180,29.297,17.578,27.832,0
1583425170.866,18.555,37.109,30.762,19.043,94.238,0
1583425170.870,20.996,36.133,31.738,17.578,30.273,0
1583425170.874,24.414,32.715,32.715,16.602,5.371,0
1583425170.878,26.855,31.738,33.203,19.531,36.133,0
1583425170.882,31.738,34.180,30.273,23.926,0.000,0
1583425170.899,34.180,33.691,29.297,26.367,-0.977,0
1583425170.903,34.668,35.156,30.762,24.902,19.043,0
1583425170.907,35.645,37.598,30.273,24.902,-3.418,0
1583425170.911,36.133,36.133,31.738,29.785,19.531,0
1583425170.915,36.621,35.645,35.156,34.668,63.965,0
1583425170.919,40.527,38.574,36.133,36.621,45.898,0
1583425170.923,41.992,40.039,39.551,35.156,2.930,0
1583425170.926,38.574,41.504,39.551,34.668,-16.602,0
1583425170.930,35.645,41.016,36.133,39.062,-12.695,0
1583425170.934,36.133,37.598,35.645,42.969,31.250,0
1583425170.938,37.598,38.574,37.598,41.992,60.547,0
1583425170.942,37.598,39.062,39.551,40.039,54.199,0
1583425170.940,32.227,37.598,40.039,39.551,46.387,0
1583425170.944,27.832,40.039,39.062,39.551,30.762,0
1583425170.948,25.391,40.527,38.086,33.691,18.066,0
1583425170.952,18.066,35.645,36.621,26.855,41.504,0
1583425170.956,13.184,39.062,36.133,26.855,30.273,0
1583425170.960,15.625,40.039,36.621,25.879,39.551,0
1583425170.964,13.672,31.738,36.621,17.090,47.852,0
1583425170.967,6.836,31.738,37.109,10.254,4.883,0
1583425170.971,6.348,35.156,35.645,16.602,82.520,0
1583425170.975,15.625,37.598,33.691,22.461,74.707,0
1583425170.979,15.625,37.598,32.227,22.461,2.930,0
1583425170.983,13.184,34.180,33.691,26.855,47.363,0
1583425170.979,21.973,36.133,33.691,34.180,107.422,0
1583425170.983,28.809,39.062,30.273,35.645,54.199,0
1583425170.987,33.691,37.598,28.320,39.062,-23.926,0
1583425170.991,38.086,36.133,31.738,39.551,58.594,0
1583425170.995,38.574,34.668,36.621,38.574,97.656,0
1583425170.999,36.133,36.133,38.574,40.039,47.363,0
1583425171.003,39.551,38.086,37.109,40.039,66.895,0
1583425171.006,35.645,38.086,34.668,37.598,32.715,0
1583425171.010,26.855,37.598,34.668,34.180,33.691,0
1583425171.014,20.996,34.668,34.668,30.762,35.645,0
1583425171.018,23.926,32.227,32.715,31.738,35.645,0
1583425171.022,24.902,32.715,32.715,28.809,11.230,0
1583425171.039,19.531,36.621,29.785,23.438,-11.719,0
1583425171.043,12.695,35.645,27.832,18.066,10.254,0
1583425171.047,10.742,31.738,27.832,17.578,-0.977,0
1583425171.051,19.043,36.621,25.391,16.602,-20.996,0
1583425171.055,23.926,43.457,23.926,10.742,-27.832,0
1583425171.059,26.367,44.922,21.973,12.695,-21.484,0
1583425171.063,28.320,44.922,22.949,15.625,37.109,0
1583425171.066,29.297,43.945,24.902,17.578,69.824,0
1583425171.070,29.785,44.922,21.484,17.578,69.336,0
1583425171.074,27.344,43.945,21.484,17.090,86.914,0
1583425171.078,23.926,41.504,25.391,21.973,73.242,0
1583425171.082,25.879,42.969,27.832,26.367,40.527,0
1583425171.080,31.738,45.410,26.367,30.762,6.348,0
1583425171.084,37.598,46.387,22.461,36.133,23.438,0
1583425171.088,39.062,43.457,20.508,39.062,14.160,0
1583425171.092,38.086,40.039,20.020,39.062,14.648,0
1583425171.096,36.621,38.574,21.973,39.551,40.527,0
1583425171.100,36.621,39.551,27.832,38.574,48.828,0
1583425171.104,34.180,40.039,31.738,34.180,20.020,0
1583425171.107,32.715,36.621,33.691,32.227,18.555,0
1583425171.111,33.691,33.203,35.156,26.367,34.668,0
1583425171.115,31.250,34.180,39.062,20.996,-13.184,0
1583425171.119,30.762,35.645,38.086,21.973,-16.113,0
1583425171.123,31.738,37.109,34.668,22.461,25.391,0
1583425171.120,29.297,37.598,34.180,23.926,36.133,0
1583425171.124,24.902,35.156,30.273,17.578,-0.977,0
1583425171.128,20.020,37.109,30.762,12.695,60.547,0
1583425171.132,18.555,39.062,29.785,16.113,97.656,0
1583425171.136,20.996,36.133,27.344,17.090,29.785,0
1583425171.140,18.555,34.668,28.320,14.648,-10.742,0
1583425171.144,22.461,40.527,31.738,16.602,20.020,0
1583425171.147,32.227,42.480,31.738,20.996,48.340,0
1583425171.151,34.180,39.062,34.668,24.902,54.199,0
1583425171.155,30.273,37.598,37.598,27.832,25.391,0
1583425171.159,32.227,35.645,32.715,30.273,19.043,0
1583425171.163,31.738,36.621,28.809,29.785,48.828,0
1583425171.180,32.715,38.086,26.367,34.180,18.555,0
1583425171.184,38.086,40.039,24.902,40.527,58.594,0
1583425171.188,35.156,40.039,24.414,34.668,98.633,0
1583425171.192,35.645,41.016,24.414,29.785,74.707,0
1583425171.196,37.598,39.551,27.344,33.691,67.383,0
1583425171.200,30.273,40.039,32.715,35.645,68.359,0
1583425171.204,26.367,41.504,37.109,26.855,34.180,0
1583425171.207,21.973,34.668,40.527,19.531,-0.977,0
1583425171.211,19.531,32.227,39.062,25.391,32.227,0
1583425171.215,18.555,33.203,40.527,24.414,45.898,0
1583425171.219,15.137,33.691,39.062,13.672,30.762,0
1583425171.223,18.066,33.691,34.668,12.695,19.043,0
1583425171.220,21.973,31.738,36.621,20.020,42.969,0
1583425171.224,23.438,33.691,37.109,23.438,52.734,0
1583425171.228,28.320,35.645,36.133,24.414,61.523,0
1583425171.232,36.133,35.645,36.621,26.367,44.434,0
1583425171.236,38.086,36.621,34.180,22.461,17.090,0
1583425171.240,39.551,43.457,34.180,21.973,84.961,0
1583425171.244,43.945,45.898,34.180,28.320,79.590,0
1583425171.247,42.480,42.480,36.621,26.855,39.551,0
1583425171.251,46.387,44.434,38.086,28.809,34.180,0
1583425171.255,45.898,44.922,37.598,32.227,35.156,0
1583425171.259,37.109,42.480,38.086,27.832,2.930,0
1583425171.263,36.621,40.527,33.203,27.832,24.414,0
1583425171.260,37.598,40.527,33.203,33.203,79.590,0
1583425171.264,33.203,40.527,33.203,37.598,30.762,0
1583425171.268,31.738,40.039,32.227,41.504,19.531,0
1583425171.272,29.297,37.109,33.691,43.945,28.809,0
1583425171.276,25.879,35.645,33.203,41.016,-9.277,0
1583425171.280,23.926,37.109,35.156,30.762,-35.156,0
1583425171.284,19.043,33.691,40.039,30.762,7.324,0
1583425171.287,13.672,31.250,39.551,28.809,40.527,0
1583425171.291,10.742,32.227,40.527,19.531,22.461,0
1583425171.295,11.230,29.785,41.504,21.484,4.883,0
1583425171.299,11.719,31.250,37.109,23.438,-23.926,0
1583425171.303,13.672,30.762,39.551,23.926,8.789,0
1583425171.319,15.625,27.344,38.574,24.902,66.406,0
1583425171.323,16.113,30.762,32.715,28.320,44.434,0
1583425171.327,19.531,34.668,34.668,33.203,80.078,0
1583425171.331,23.438,36.133,35.645,34.180,99.121,0
1583425171.335,29.785,36.621,33.203,37.598,44.434,0
1583425171.339,31.250,37.109,31.738,38.574,54.199,0
1583425171.343,31.250,38.086,31.738,35.156,63.965,0
1583425171.346,34.668,38.086,29.785,38.574,95.703,0
1583425171.350,34.668,38.574,31.738,38.574,48.828,0
1583425171.354,33.203,43.457,32.715,38.086,40.527,0
1583425171.358,35.645,43.945,27.344,38.086,70.312,0
1583425171.362,35.645,41.016,25.879,38.574,65.918,0
1583425171.359,34.180,39.062,25.391,36.621,61.523,0
1583425171.363,31.738,39.062,26.367,28.320,35.156,0
1583425171.367,27.832,37.109,27.832,26.367,-43.457,0
1583425171.371,25.391,35.645,29.297,22.461,-41.504,0
1583425171.375,20.996,35.156,29.297,16.602,67.871,0
1583425171.379,20.508,32.715,29.297,15.625,61.523,0
1583425171.383,20.508,28.809,31.738,15.625,26.855,0
1583425171.386,19.043,29.785,33.203,20.996,3.418,0
1583425171.390,19.043,34.180,31.250,24.902,11.719,0
1583425171.394,21.973,36.621,30.273,20.996,-1.953,0
1583425171.398,22.949,34.668,31.250,19.531,-23.438,0
1583425171.402,22.461,35.156,26.855,23.926,-6.348,0
1583425171.400,23.438,34.668,22.949,26.367,6.348,0
1583425171.404,22.461,30.273,24.902,27.344,48.340,0
1583425171.408,23.926,30.273,26.367,23.438,41.504,0
1583425171.412,28.320,32.715,23.926,25.879,24.902,0
1583425171.416,31.738,37.598,23.438,28.320,42.480,0
1583425171.420,29.785,39.551,25.391,25.879,35.156,0
1583425171.424,33.203,37.598,24.414,31.738,40.527,0
1583425171.427,36.621,37.598,22.461,29.297,59.570,0
1583425171.431,28.320,36.133,24.902,21.973,62.012,0
1583425171.435,26.367,34.668,26.855,19.043,51.758,0
1583425171.439,32.227,35.156,25.391,18.555,13.184,0
1583425171.443,32.227,33.691,28.320,20.020,9.277,0
1583425171.460,28.320,32.715,33.203,23.438,38.574,0
1583425171.464,28.809,33.691,36.133,25.879,64.941,0
1583425171.468,29.785,34.668,33.203,23.926,67.871,0
1583425171.472,26.367,34.668,27.832,22.461,-21.973,0
1583425171.476,25.391,34.180,25.391,20.508,-72.266,0
1583425171.480,26.367,32.227,24.902,18.066,-65.918,0
1583425171.484,27.832,32.227,27.344,19.531,-7.812,0
1583425171.487,31.250,34.668,29.297,16.113,88.379,0
1583425171.491,33.203,33.691,30.273,16.602,62.012,0
1583425171.495,30.762,32.227,31.738,20.508,15.137,0
1583425171.499,26.855,34.180,29.297,22.949,10.742,0
1583425171.503,26.367,34.668,30.762,26.855,38.574,0
1583425171.500,22.461,34.180,35.156,23.926,58.105,0
1583425171.504,22.949,37.109,33.691,19.531,53.711,0
1583425171.508,25.879,37.598,32.227,18.555,41.992,0
1583425171.512,24.902,40.527,33.203,17.090,53.711,0
1583425171.516,22.461,41.016,36.133,15.625,69.336,0
1583425171.520,22.461,36.621,38.086,20.508,82.520,0
1583425171.524,21.484,36.133,36.133,21.973,70.312,0
1583425171.527,17.578,33.691,35.645,16.113,45.410,0
1583425171.531,18.555,35.645,33.691,10.742,57.617,0
1583425171.535,19.043,38.086,31.250,6.348,8.301,0
1583425171.539,14.648,34.668,35.156,9.766,35.645,0
1583425171.543,12.695,32.227,31.250,16.113,66.895,0
1583425171.560,15.625,32.715,27.344,16.113,34.668,0
1583425171.564,19.043,33.691,28.809,14.648,-1.953,0
1583425171.568,23.926,34.668,27.344,16.602,-43.457,0
1583425171.572,33.691,37.109,26.367,19.531,-11.230,0
1583425171.576,40.527,40.039,29.297,24.902,52.734,0
1583425171.580,37.109,38.574,28.320,25.391,18.555,0
1583425171.584,34.180,38.574,25.879,28.320,-19.043,0
1583425171.587,33.691,39.062,31.250,31.738,15.137,0
1583425171.591,32.715,39.062,33.203,25.391,61.523,0
1583425171.595,32.715,38.574,34.180,24.902,78.125,0
1583425171.599,31.250,34.668,37.109,25.391,71.289,0
1583425171.603,31.250,36.133,34.180,27.832,94.238,0
1583425171.600,32.227,37.598,34.668,27.344,102.051,0
1583425171.604,27.344,39.062,36.133,21.484,20.508,0
1583425171.608,24.414,39.062,36.621,23.926,-20.996,0
1583425171.612,26.367,37.109,37.598,26.367,-10.742,0
1583425171.616,25.391,36.621,33.203,28.809,7.324,0
1583425171.620,25.391,36.621,27.832,29.297,30.273,0
1583425171.624,25.879,36.621,25.879,24.414,37.109,0
1583425171.627,26.855,35.645,26.855,25.879,94.727,0
1583425171.631,28.320,32.715,28.809,25.879,95.703,0
1583425171.635,28.320,33.203,27.344,22.461,17.578,0
1583425171.639,29.785,38.086,24.414,17.578,31.738,0
1583425171.643,33.203,37.109,30.273,18.066,54.688,0
1583425171.639,30.762,33.691,30.762,19.043,47.852,0
1583425171.643,27.832,32.227,29.297,16.602,-15.625,0
1583425171.647,28.809,33.203,33.203,20.508,-41.992,0
1583425171.651,27.832,38.086,33.691,26.367,59.570,0
1583425171.655,22.949,39.551,32.715,32.715,57.617,0
1583425171.659,18.555,36.133,31.250,30.762,38.574,0
1583425171.663,14.160,35.645,33.203,28.809,26.367,0
1583425171.666,11.230,34.668,33.203,25.391,23.926,0
1583425171.670,13.184,38.086,32.715,25.391,96.680,0
1583425171.674,16.602,41.992,35.645,21.484,28.809,0
1583425171.678,20.020,38.574,38.574,20.996,-13.184,0
1583425171.682,19.531,37.598,38.086,30.762,33.691,0
1583425171.699,14.648,40.527,36.621,30.273,72.754,0
1583425171.703,16.602,37.598,38.574,25.391,65.918,0
1583425171.707,17.090,34.668,40.527,23.438,39.062,0
1583425171.711,17.578,35.156,37.109,22.461,6.348,0
1583425171.715,17.578,34.180,36.133,25.879,5.859,0
1583425171.719,15.137,36.621,37.109,26.855,32.715,0
1583425171.723,15.137,35.645,34.668,24.902,41.504,0
1583425171.726,18.066,32.715,36.621,24.414,39.551,0
1583425171.730,20.996,33.691,40.527,22.461,43.945,0
1583425171.734,23.438,34.668,38.574,26.855,45.410,0
1583425171.738,21.484,32.227,36.621,28.320,45.410,0
1583425171.742,19.531,29.297,38.086,29.297,32.227,0
1583425171.739,18.066,28.809,39.551,31.250,32.715,0
1583425171.743,17.090,31.738,41.992,32.715,36.133,0
1583425171.747,19.531,34.668,41.992,35.645,31.250,0
1583425171.751,19.043,33.691,42.480,32.715,33.691,0
1583425171.755,20.508,31.250,41.992,27.832,44.922,0
1583425171.759,24.414,33.203,39.062,30.273,20.996,0
1583425171.763,25.879,34.180,38.086,33.203,17.578,0
1583425171.766,30.273,33.691,35.156,30.762,52.246,0
1583425171.770,34.668,34.180,37.109,26.855,23.438,0
1583425171.774,35.645,32.715,38.574,27.344,34.668,0
1583425171.778,35.645,34.180,37.598,26.855,54.688,0
1583425171.782,28.809,35.156,40.527,22.461,21.973,0
1583425171.780,25.391,31.738,42.969,27.344,19.531,0
1583425171.784,29.785,30.273,42.480,32.227,-24.414,0
1583425171.788,32.227,31.250,41.016,33.691,45.410,0
1583425171.792,31.738,35.156,38.574,35.156,102.051,0
1583425171.796,29.785,37.109,37.109,32.715,15.625,0
1583425171.800,30.273,36.621,36.133,30.762,-7.324,0
1583425171.804,27.344,34.668,34.180,24.414,29.297,0
1583425171.807,26.855,36.133,31.250,25.879,36.621,0
1583425171.811,24.902,34.180,29.785,27.344,23.438,0
1583425171.815,19.531,32.227,31.738,21.973,48.828,0
1583425171.819,19.531,33.203,30.762,26.367,24.902,0
1583425171.823,19.531,33.691,30.762,28.320,20.508,0
1583425171.839,22.461,36.133,30.273,28.809,52.734,0
1583425171.843,28.809,37.109,28.320,27.832,-1.465,0
1583425171.847,32.227,36.133,28.809,29.297,23.438,0
1583425171.851,30.762,34.668,28.809,30.273,79.102,0
1583425171.855,29.785,34.180,29.297,29.297,68.848,0
1583425171.859,29.297,35.156,31.250,26.855,31.250,0
1583425171.863,30.762,37.598,26.367,18.066,45.898,0
1583425171.866,34.180,40.527,22.461,15.137,83.008,0
1583425171.870,31.250,40.039,24.414,16.602,45.410,0
1583425171.874,31.738,38.574,24.902,19.043,12.207,0
1583425171.878,35.645,39.062,25.879,19.531,34.668,0
1583425171.882,35.645,38.574,24.902,21.973,27.832,0
1583425171.879,35.156,36.133,24.414,26.367,46.387,0
1583425171.883,36.133,35.645,24.414,24.414,63.965,0
1583425171.887,38.574,36.133,26.367,22.461,18.066,0
1583425171.891,37.598,35.156,31.250,25.391,28.320,0
1583425171.895,33.203,34.180,34.668,28.809,60.547,0
1583425171.899,36.621,39.551,38.574,31.738,45.410,0
1583425171.903,39.062,39.062,38.574,33.203,35.645,0
1583425171.906,34.180,33.691,36.133,34.668,48.828,0
1583425171.910,30.762,33.691,37.598,32.715,5.371,0
1583425171.914,29.297,34.180,38.574,30.273,-33.691,0
1583425171.918,25.391,33.203,34.668,24.414,21.484,0
1583425171.922,25.879,34.180,32.715,18.066,12.207,0
1583425171.919,22.461,35.645,30.273,17.578,-21.973,0
1583425171.923,19.531,35.645,28.809,17.090,37.598,0
1583425171.927,26.855,36.133,26.855,19.531,56.641,0
1583425171.931,29.785,36.621,25.879,20.020,41.992,0
1583425171.935,25.391,35.156,29.785,20.508,25.391,0
1583425171.939,26.367,35.645,31.250,24.414,41.992,0
1583425171.943,33.691,38.086,32.227,23.438,11.230,0
1583425171.946,33.691,35.156,32.227,21.484,-7.324,0
1583425171.950,32.227,33.691,30.762,26.855,31.250,0
1583425171.954,33.203,34.180,31.738,30.762,60.059,0
1583425171.958,39.551,34.668,34.668,32.715,80.078,0
1583425171.962,42.480,35.645,33.691,36.133,48.340,0
1583425171.980,32.715,32.227,30.762,31.738,52.734,0
1583425171.984,21.973,29.785,31.250,26.855,84.473,0
1583425171.988,16.113,29.785,33.203,29.297,34.180,0
1583425171.992,16.113,28.320,34.668,26.855,32.715,0
1583425171.996,17.578,31.738,33.691,25.391,62.988,0
1583425172.000,19.043,35.156,30.762,28.320,56.641,0
1583425172.004,22.461,36.133,32.715,28.809,47.363,0
1583425172.007,26.855,34.668,36.621,34.668,58.594,0
1583425172.011,29.297,37.109,41.016,39.551,66.406,0
1583425172.015,33.203,38.574,43.457,35.156,31.250,0
1583425172.019,36.621,36.621,41.504,37.598,39.062,0
1583425172.023,29.297,34.668,35.156,37.109,-11.719,0
1583425172.019,23.438,34.668,32.227,23.926,18.066,0
1583425172.023,23.438,33.203,34.668,21.484,85.449,0
1583425172.027,23.438,33.203,33.691,24.414,22.461,0
1583425172.031,23.438,33.203,33.691,23.438,38.574,0
1583425172.035,24.902,35.645,36.133,26.367,79.102,0
1583425172.039,26.855,37.598,35.645,27.832,52.734,0
1583425172.043,29.785,38.574,33.691,28.320,33.691,0
1583425172.046,36.133,44.434,33.203,28.809,13.672,0
1583425172.050,37.109,44.922,35.156,30.762,28.809,0
1583425172.054,35.156,41.504,37.109,34.180,42.969,0
1583425172.058,34.668,41.016,37.598,35.156,27.832,0
1583425172.062,35.645,40.039,36.133,35.156,7.812,0
1583425172.059,35.156,40.527,38.086,33.691,1.953,0
1583425172.063,30.762,39.551,37.598,30.273,37.109,0
1583425172.067,30.273,40.039,36.133,31.250,67.383,0
1583425172.071,31.250,40.039,39.062,33.203,64.453,0
1583425172.075,31.250,38.086,41.504,29.785,-9.277,0
1583425172.079,29.297,37.109,42.969,29.297,-6.836,0
1583425172.083,27.344,39.551,42.969,32.227,73.730,0
1583425172.086,29.785,40.527,40.527,32.227,41.504,0
1583425172.090,33.691,39.062,40.039,31.738,7.324,0
1583425172.094,35.645,41.016,42.480,28.320,-4.883,0
1583425172.098,36.133,41.992,41.992,29.785,-4.883,0
1583425172.102,39.551,42.480,39.062,39.551,25.391,0
1583425172.119,40.039,41.016,35.645,42.480,34.668,0
1583425172.123,38.574,39.551,36.621,40.039,44.922,0
1583425172.127,37.598,40.039,37.109,40.039,4.395,0
1583425172.131,35.645,38.086,36.621,35.156,28.320,0
1583425172.135,34.668,37.109,38.086,32.227,73.242,0
1583425172.139,35.156,38.086,37.109,33.203,54.688,0
1583425172.143,33.203,39.062,35.156,27.344,62.988,0
1583425172.146,30.273,37.109,34.180,22.461,39.551,0
1583425172.150,33.203,40.527,33.203,22.949,1.465,0
1583425172.154,38.574,43.945,32.227,20.996,20.996,0
1583425172.158,37.598,41.016,31.250,20.508,39.062,0
1583425172.162,34.668,41.016,29.297,24.902,32.715,0
1583425172.159,33.691,39.062,28.320,32.715,5.371,0
1583425172.163,30.762,37.109,33.203,31.738,-46.875,0
1583425172.167,28.809,36.133,33.691,29.785,1.953,0
1583425172.171,27.832,34.668,32.715,29.785,74.707,0
1583425172.175,24.414,35.645,30.762,29.785,110.840,0
1583425172.179,23.438,37.109,30.762,28.809,99.121,0
1583425172.183,20.508,38.574,34.180,24.414,41.504,0
1583425172.186,14.648,38.086,33.203,20.020,4.395,0
1583425172.190,17.578,37.598,31.738,20.508,5.859,0
1583425172.194,20.508,39.062,29.297,21.484,32.227,0
1583425172.198,22.949,42.969,30.273,22.461,27.344,0
1583425172.202,24.902,43.457,32.227,23.438,23.926,0
1583425172.199,27.344,39.551,29.785,24.414,90.332,0
1583425172.203,31.738,40.039,31.738,30.273,105.957,0
1583425172.207,32.227,39.551,34.180,30.762,28.809,0
1583425172.211,33.691,37.109,33.691,28.809,40.039,0
1583425172.215,29.785,37.109,32.227,28.320,58.594,0
1583425172.219,26.855,36.621,31.250,26.855,37.598,0
1583425172.223,30.762,36.133,34.180,23.926,20.020,0
1583425172.226,29.785,38.086,33.691,21.973,32.227,0
1583425172.230,27.344,37.598,27.832,21.484,54.688,0
1583425172.234,26.367,35.645,25.879,18.066,33.203,0
1583425172.238,28.320,38.574,29.785,20.996,13.184,0
1583425172.242,27.832,40.039,28.809,21.973,-2.441,0
1583425172.259,28.809,38.574,23.438,21.973,-21.484,0
1583425172.263,31.738,35.645,25.879,27.344,16.113,0
1583425172.267,30.762,35.645,30.273,29.297,54.199,0
1583425172.271,34.668,38.086,28.809,30.273,56.152,0
1583425172.275,27.832,33.203,27.344,33.691,27.344,0
1583425172.279,23.926,33.203,30.273,35.645,31.250,0
1583425172.283,34.668,38.086,32.227,30.762,48.828,0
1583425172.286,34.668,38.086,34.180,27.344,50.293,0
1583425172.290,25.391,34.180,35.156,24.902,77.148,0
1583425172.294,19.531,32.715,34.668,28.809,101.074,0
1583425172.298,24.414,31.250,33.203,33.691,79.590,0
1583425172.302,23.926,30.762,36.621,28.809,68.848,0
1583425172.299,19.531,32.227,38.086,27.832,73.730,0
1583425172.303,22.461,33.203,38.574,30.762,62.988,0
1583425172.307,22.461,38.086,40.527,31.250,-5.371,0
1583425172.311,20.508,38.086,39.062,28.809,-20.996,0
1583425172.315,25.391,38.086,36.621,26.367,68.848,0
1583425172.319,28.320,37.598,35.156,24.414,85.938,0
1583425172.323,25.391,34.668,32.715,24.414,9.277,0
1583425172.326,20.020,32.715,32.715,21.484,-4.883,0
1583425172.330,22.949,32.227,35.645,19.531,48.828,0
1583425172.334,27.832,33.691,33.691,21.484,63.965,0
1583425172.338,26.367,32.227,30.762,20.996,76.172,0
1583425172.342,28.320,32.227,33.691,22.461,41.992,0
1583425172.339,31.738,33.691,37.109,23.926,16.602,0
1583425172.343,36.133,36.133,37.109,26.855,26.367,0
1583425172.347,32.227,39.062,37.598,33.203,27.832,0
1583425172.351,33.203,42.480,39.551,32.227,37.598,0
1583425172.355,33.691,39.551,38.086,29.297,30.273,0
1583425172.359,24.902,35.645,34.180,25.879,43.457,0
1583425172.363,24.902,38.086,32.227,23.438,53.711,0
1583425172.366,24.414,38.086,31.250,28.320,22.949,0
1583425172.370,22.949,35.645,32.227,28.320,70.801,0
1583425172.374,23.438,36.133,29.785,20.508,72.754,0
1583425172.378,28.809,35.645,27.832,21.973,2.930,0
1583425172.382,32.715,37.109,26.855,27.832,-0.488,0
1583425172.400,34.180,41.016,26.855,27.344,87.402,0
1583425172.404,36.621,39.062,29.785,28.809,108.887,0
1583425172.408,35.156,38.574,31.250,31.738,32.715,0
1583425172.412,33.203,44.434,32.227,33.691,27.344,0
1583425172.416,35.156,43.945,33.691,36.133,28.320,0
1583425172.420,37.109,41.504,34.668,35.156,29.297,0
1583425172.424,36.621,41.016,37.109,32.715,53.711,0
1583425172.427,35.645,37.598,36.621,32.715,32.715,0
1583425172.431,33.203,36.621,35.156,31.250,32.227,0
1583425172.435,34.180,38.574,34.180,29.785,10.742,0
1583425172.439,34.668,41.992,31.738,30.273,27.832,0
1583425172.443,34.180,41.016,31.738,25.391,60.547,0
1583425172.440,25.391,40.039,34.668,21.973,-20.508,0
1583425172.444,20.996,41.504,35.156,16.602,-9.766,0
1583425172.448,30.273,41.504,37.109,14.160,51.758,0
1583425172.452,23.926,40.527,35.645,10.742,2.930,0
1583425172.456,20.996,41.016,34.180,12.695,-23.926,0
1583425172.460,21.973,40.039,37.109,16.113,-10.742,0
1583425172.464,18.555,34.180,35.156,18.066,-25.391,0
1583425172.467,20.508,34.180,34.180,20.996,23.926,0
1583425172.471,23.438,35.156,33.203,19.043,69.336,0
1583425172.475,26.855,35.156,29.297,21.973,83.008,0
1583425172.479,28.809,35.156,28.809,27.344,47.852,0
1583425172.483,27.832,31.738,30.762,29.785,34.668,0
1583425172.479,29.297,32.227,31.250,33.203,71.777,0
1583425172.483,31.250,33.691,29.785,33.203,82.520,0
1583425172.487,27.832,35.156,27.344,33.691,9.277,0
1583425172.491,22.461,34.180,24.902,34.180,-27.344,0
1583425172.495,29.297,31.250,25.391,28.320,-15.625,0
1583425172.499,31.250,33.203,24.902,28.809,16.113,0
1583425172.503,28.809,37.598,25.391,28.809,40.039,0
1583425172.506,34.180,39.551,25.391,25.879,24.902,0
1583425172.510,32.227,37.598,27.344,26.855,29.785,0
1583425172.514,29.785,36.133,32.227,30.273,77.148,0
1583425172.518,36.133,39.062,32.227,35.645,85.938,0
1583425172.522,33.203,38.086,30.762,30.762,-0.977,0
1583425172.540,27.344,33.691,31.250,24.414,19.531,0
1583425172.544,26.367,31.738,29.785,22.949,30.273,0
1583425172.548,23.438,30.273,26.367,23.438,-38.574,0
1583425172.552,25.879,31.250,25.391,22.461,-14.648,0
1583425172.556,25.879,32.715,25.879,17.578,50.781,0
1583425172.560,22.949,34.668,26.855,18.555,48.828,0
1583425172.564,24.414,37.109,29.785,23.438,16.113,0
1583425172.567,22.949,36.621,33.691,26.855,39.062,0
1583425172.571,23.438,35.645,32.715,28.320,59.082,0
1583425172.575,27.344,36.133,32.227,29.297,34.180,0
1583425172.579,26.855,35.645,33.691,26.855,24.414,0
1583425172.583,24.414,33.203,31.250,26.855,12.207,0
1583425172.579,22.461,35.156,28.809,29.297,60.059,0
1583425172.583,23.438,37.598,27.344,26.367,71.777,0
1583425172.587,22.461,35.156,29.297,29.297,49.316,0
1583425172.591,18.555,33.691,30.273,32.715,65.918,0
1583425172.595,27.832,34.668,30.762,34.180,17.090,0
1583425172.599,32.227,34.180,34.668,36.133,-1.953,0
1583425172.603,25.391,33.203,36.133,35.645,-10.742,0
1583425172.606,20.996,31.738,33.691,30.762,48.828,0
1583425172.610,22.461,32.227,32.715,29.297,50.781,0
1583425172.614,23.438,36.133,34.180,26.855,46.387,0
1583425172.618,22.949,38.574,34.180,21.973,47.363,0
1583425172.622,24.414,35.645,33.203,23.438,32.715,0
1583425172.620,24.902,32.227,33.203,23.926,79.102,0
1583425172.624,25.391,30.762,33.203,22.461,94.238,0
1583425172.628,23.438,32.227,33.203,22.949,78.613,0
1583425172.632,22.949,32.715,34.180,23.438,24.414,0
1583425172.636,21.973,33.203,36.621,22.949,-17.090,0
1583425172.640,19.043,33.203,40.039,21.973,-7.324,0
1583425172.644,19.043,33.203,40.039,18.555,19.531,0
1583425172.647,18.555,33.691,38.086,18.066,19.531,0
1583425172.651,20.996,34.668,38.086,20.020,26.855,0
1583425172.655,29.785,35.645,37.109,20.020,43.945,0
1583425172.659,33.691,36.621,33.691,17.090,-3.906,0
1583425172.663,26.367,36.133,31.250,21.973,12.695,0
1583425172.679,20.996,34.180,27.832,27.344,24.414,0
1583425172.683,24.902,33.691,27.832,23.438,-20.508,0
1583425172.687,21.973,33.203,29.297,27.832,28.320,0
1583425172.691,18.066,34.180,29.785,29.785,49.805,0
1583425172.695,17.578,37.109,35.156,32.227,88.867,0
1583425172.699,20.020,35.645,36.133,36.133,82.520,0
1583425172.703,20.020,37.598,35.156,28.320,37.109,0
1583425172.706,18.555,39.062,38.086,25.391,22.461,0
1583425172.710,20.020,35.645,37.598,26.367,20.996,0
1583425172.714,18.066,35.156,37.598,27.344,14.160,0
1583425172.718,15.137,36.621,38.574,24.414,11.719,0
1583425172.722,15.137,39.551,37.598,20.508,34.180,0
1583425172.720,14.648,41.992,37.598,20.020,57.129,0
1583425172.724,14.648,42.969,37.598,16.602,43.457,0
1583425172.728,14.648,42.969,37.109,14.648,49.316,0
1583425172.732,15.137,41.504,34.668,14.160,45.410,0
1583425172.736,18.066,41.504,33.691,13.184,46.875,0
1583425172.740,20.508,44.922,32.715,19.043,61.035,0
1583425172.744,22.461,45.410,31.250,26.855,35.645,0
1583425172.747,25.391,42.969,34.668,27.832,26.367,0
1583425172.751,34.668,41.504,35.645,29.785,11.719,0
1583425172.755,35.156,41.016,33.203,33.691,-35.645,0
1583425172.759,26.367,38.574,33.203,33.691,-25.879,0
1583425172.763,32.715,36.621,36.621,33.691,62.988,0
1583425172.759,37.598,39.551,35.156,32.227,95.703,0
1583425172.763,36.133,42.480,33.691,32.227,24.902,0
1583425172.767,34.180,40.527,37.598,33.203,23.438,0
1583425172.771,28.320,38.086,36.621,28.320,19.531,0
1583425172.775,23.438,35.645,32.715,20.020,7.324,0
1583425172.779,18.555,34.668,34.180,12.695,58.105,0
1583425172.783,20.020,35.645,36.621,14.160,37.598,0
1583425172.786,29.785,36.621,36.621,15.625,-9.277,0
1583425172.790,32.227,35.645,41.504,18.066,7.812,0
1583425172.794,22.949,30.762,45.410,20.020,63.965,0
1583425172.798,23.438,30.762,46.875,20.996,56.641,0
1583425172.802,22.949,32.715,46.387,20.508,25.879,0
1583425172.819,17.578,29.297,44.434,18.555,43.945,0
1583425172.823,10.254,26.855,46.875,9.766,39.551,0
1583425172.827,2.441,25.391,45.410,3.906,-18.555,0
1583425172.831,1.465,26.367,47.852,8.301,-10.254,0
1583425172.835,2.930,26.855,52.246,10.742,21.484,0
1583425172.839,2.441,25.391,52.734,9.277,21.484,0
1583425172.843,1.465,27.832,53.711,10.742,44.434,0
1583425172.846,0.488,25.391,53.711,15.137,5.371,0
1583425172.850,-0.977,24.414,54.199,19.531,-4.883,0
1583425172.854,5.859,27.344,56.641,23.926,26.367,0
1583425172.858,7.812,26.855,57.617,23.926,35.156,0
1583425172.862,8.789,25.391,53.711,19.043,47.363,0
1583425172.859,14.648,26.367,49.805,20.996,67.871,0
1583425172.863,19.531,25.879,46.387,21.973,58.105,0
1583425172.867,16.113,24.902,46.387,17.090,18.066,0
1583425172.871,13.184,28.320,44.922,18.066,33.691,0
1583425172.875,16.113,33.691,45.898,22.461,51.758,0
1583425172.879,16.602,37.109,50.293,21.973,33.691,0
1583425172.883,14.648,36.133,47.363,11.719,-14.648,0
1583425172.886,16.113,35.645,52.246,14.160,-19.531,0
1583425172.890,13.184,43.945,55.664,18.066,13.184,0
1583425172.894,-1.953,42.969,52.734,-3.906,84.473,0
1583425172.898,-9.766,40.527,49.805,-19.531,79.102,0
1583425172.902,-16.113,46.875,49.316,-20.508,37.109,0
1583425172.899,-26.855,51.270,53.223,-29.297,71.289,0
1583425172.903,-35.645,55.664,53.711,-38.574,58.594,0
1583425172.907,-54.688,55.176,57.617,-50.293,27.832,0
1583425172.911,-58.105,54.688,62.988,-56.152,25.879,0
1583425172.915,-62.988,60.059,69.824,-63.965,-8.789,0
1583425172.919,-84.473,61.035,66.895,-79.590,5.371,0
1583425172.923,-98.633,60.547,66.895,-87.402,45.898,0
1583425172.926,-106.934,59.570,70.801,-100.098,37.598,0
1583425172.930,-110.840,60.059,72.266,-109.863,35.156,0
1583425172.934,-115.234,59.570,72.754,-107.422,5.371,0
1583425172.938,-119.629,54.688,77.148,-109.863,27.832,0
1583425172.942,-120.117,54.199,74.707,-114.746,73.242,0
1583425172.959,-112.793,54.199,70.801,-114.258,81.055,0
1583425172.963,-103.516,50.293,69.336,-107.422,6.836,0
1583425172.967,-97.656,47.852,68.848,-98.633,11.719,0
1583425172.971,-90.820,49.805,66.406,-93.262,58.105,0
1583425172.975,-79.102,46.875,61.523,-82.520,23.438,0
1583425172.979,-70.801,42.480,60.547,-72.266,9.766,0
1583425172.983,-61.035,39.551,57.129,-67.383,37.109,0
1583425172.986,-50.293,41.016,55.176,-57.617,58.105,0
1583425172.990,-34.180,38.574,52.734,-40.527,50.293,0
1583425172.994,-9.277,36.621,45.898,-25.391,51.758,0
1583425172.998,1.465,38.574,41.504,-12.695,66.895,0
1583425173.002,7.812,35.645,39.551,0.977,43.457,0
1583425172.999,19.531,33.203,32.715,11.719,40.039,0
1583425173.003,30.762,33.203,27.832,22.949,73.242,0
1583425173.007,41.504,32.227,26.855,35.645,62.012,0
1583425173.011,52.246,33.203,23.438,41.016,75.684,0
1583425173.015,58.594,29.785,18.555,48.828,37.598,0
1583425173.019,60.547,24.414,16.113,60.059,14.648,0
1583425173.023,67.383,24.902,14.160,69.336,63.477,0
1583425173.026,76.172,25.391,12.207,70.801,60.059,0
1583425173.030,78.613,25.879,14.160,71.289,22.461,3
1583425173.034,83.008,29.785,13.672,76.660,35.156,0
1583425173.038,83.984,28.320,10.742,78.613,0.977,0
1583425173.042,79.102,25.391,11.230,78.125,-10.742,0
1583425173.059,78.613,23.926,12.695,79.102,32.227,0
1583425173.063,83.008,26.367,10.254,83.984,21.973,0
1583425173.067,78.613,27.832,7.324,84.473,36.133,0
1583425173.071,70.312,28.809,6.836,81.055,11.719,0
1583425173.075,77.148,31.250,6.348,81.055,8.789,0
1583425173.079,82.520,30.762,5.371,79.102,34.668,0
1583425173.083,81.055,31.250,5.859,77.637,62.012,0
1583425173.086,80.566,29.785,6.348,77.148,35.645,0
1583425173.090,80.078,26.855,8.789,71.289,18.555,0
1583425173.094,74.707,23.438,12.207,71.289,9.766,0
1583425173.098,67.871,20.996,13.184,70.801,-24.902,0
1583425173.102,65.918,22.461,13.672,63.965,35.156,0
1583425173.099,70.801,24.414,16.602,69.336,62.012,0
1583425173.103,70.312,21.973,17.578,72.266,20.996,0
1583425173.107,66.406,21.973,15.137,73.242,25.879,0
1583425173.111,67.871,25.879,13.672,78.613,49.316,0
1583425173.115,74.707,28.809,14.160,79.102,50.293,0
1583425173.119,78.613,29.297,15.137,80.566,63.477,0
1583425173.123,77.148,27.344,17.090,81.543,85.938,0
1583425173.126,80.078,27.832,19.043,83.984,83.496,0
1583425173.130,80.078,26.367,17.578,85.449,39.551,0
1583425173.134,81.055,22.949,17.090,81.543,24.902,0
1583425173.138,78.125,29.297,20.996,73.242,15.137,0
1583425173.142,69.336,31.738,22.461,65.430,-4.883,0
1583425173.139,65.918,26.855,15.625,59.570,24.414,0
1583425173.143,64.941,28.320,12.207,56.152,69.824,0
1583425173.147,62.500,28.320,17.578,58.594,103.516,0
1583425173.151,58.105,29.785,21.973,60.547,37.598,0
1583425173.155,56.152,27.832,25.391,60.059,32.227,0
1583425173.159,59.082,26.367,23.926,62.012,82.520,0
1583425173.163,59.570,30.273,21.973,61.035,29.297,0
1583425173.166,62.500,28.809,21.484,57.617,18.066,0
1583425173.170,62.500,30.273,20.996,59.082,17.578,0
1583425173.174,62.500,35.645,21.973,60.547,0.977,0
1583425173.178,63.477,32.715,23.926,63.477,2.930,0
1583425173.182,58.594,28.809,25.879,64.453,26.367,0
1583425173.199,56.152,26.855,23.926,62.988,10.254,0
1583425173.203,53.223,28.320,20.996,63.477,6.348,0
1583425173.207,51.270,28.809,20.508,56.641,82.520,0
1583425173.211,56.641,29.297,21.484,53.223,98.633,0
1583425173.215,54.688,29.297,22.949,51.270,53.711,0
1583425173.219,53.223,31.250,25.391,51.758,19.043,0
1583425173.223,58.105,34.668,27.344,52.246,40.527,0
1583425173.226,60.059,36.133,31.250,44.434,63.965,0
1583425173.230,55.664,33.203,32.227,41.992,32.227,0
1583425173.234,49.316,31.738,28.809,41.016,-14.160,0
1583425173.238,44.434,32.715,27.832,36.133,31.250,0
1583425173.242,42.480,33.203,28.320,35.645,69.336,0
1583425173.239,40.527,30.762,27.832,36.621,60.547,0
1583425173.243,38.086,30.762,28.809,36.621,29.297,0
1583425173.247,36.621,32.715,29.785,36.621,-20.996,0
1583425173.251,34.668,35.156,31.738,41.016,12.207,0
1583425173.255,37.109,35.156,29.297,41.504,83.496,0
1583425173.259,30.762,33.203,28.809,38.574,67.383,0
1583425173.263,26.367,32.227,35.645,40.039,29.785,0
1583425173.266,33.691,32.227,35.645,40.039,38.574,0
1583425173.270,33.203,34.668,36.133,38.086,114.746,0
1583425173.274,29.297,35.645,35.645,36.133,83.496,0
1583425173.278,29.785,34.668,31.250,33.203,-14.160,0
1583425173.282,29.785,35.156,29.785,30.273,-4.395,0
1583425173.279,32.227,35.645,32.715,31.738,4.395,0
1583425173.283,30.762,36.133,32.715,32.715,17.578,0
1583425173.287,33.691,36.133,27.832,33.691,55.176,0
1583425173.291,43.945,37.109,26.855,36.621,48.340,0
1583425173.295,46.387,38.086,30.273,38.574,6.348,0
1583425173.299,42.480,37.598,31.738,38.086,5.859,0
1583425173.303,44.434,36.621,32.715,41.016,49.805,0
1583425173.306,41.016,35.645,32.715,40.527,75.195,0
1583425173.310,41.016,38.574,31.250,36.621,67.871,0
1583425173.314,35.645,36.133,32.227,41.016,61.035,0
1583425173.318,29.297,33.203,33.203,41.016,68.848,0
1583425173.322,38.574,32.715,33.691,38.086,45.898,0
1583425173.340,38.574,28.809,32.715,40.527,31.738,0
1583425173.344,34.668,26.855,30.273,43.945,11.230,0
1583425173.348,33.691,28.320,30.273,38.086,-12.695,0
1583425173.352,29.785,29.297,31.250,35.156,13.184,0
1583425173.356,25.391,30.762,32.227,38.574,7.812,0
1583425173.360,25.391,31.250,35.156,36.621,22.461,0
1583425173.364,19.531,30.273,41.016,32.715,12.695,0
1583425173.367,17.090,28.809,41.504,32.715,38.574,0
1583425173.371,24.414,30.273,38.086,34.180,42.480,0
1583425173.375,21.973,28.320,35.156,25.879,6.836,0
1583425173.379,22.949,25.879,34.668,23.926,12.207,0
1583425173.383,30.762,26.855,36.621,29.297,3.906,0
1583425173.400,29.297,27.832,36.621,27.344,12.207,0
1583425173.404,28.809,26.367,38.086,25.879,66.406,0
1583425173.408,27.832,24.902,39.551,28.809,61.035,0
1583425173.412,25.391,25.391,38.574,33.203,-9.277,0
1583425173.416,23.926,23.438,36.621,30.273,0.000,0
1583425173.420,23.926,27.344,36.133,29.297,33.691,0
1583425173.424,23.926,29.785,35.645,28.320,60.547,0
1583425173.427,21.973,27.832,34.668,31.250,58.594,0
1583425173.431,21.484,31.738,36.133,33.203,71.289,0
1583425173.435,26.367,32.227,35.645,30.273,86.914,0
1583425173.439,27.344,31.738,32.227,30.762,72.266,0
1583425173.443,26.367,32.227,32.227,36.133,81.543,0
1583425173.421,32.715,33.691,31.250,37.598,78.613,0
1583425173.425,35.156,33.203,29.785,33.691,48.828,0
1583425173.429,33.203,30.762,26.367,32.715,37.109,0
1583425173.433,33.691,33.203,25.391,30.273,8.789,0
1583425173.437,36.133,35.645,29.297,28.320,34.668,0
1583425173.441,35.645,35.645,28.320,31.738,51.758,0
1583425173.445,34.668,38.574,30.762,32.715,31.738,0
1583425173.448,35.645,39.551,33.691,27.832,33.203,0
1583425173.452,31.738,36.133,33.203,30.273,69.824,0
1583425173.456,31.738,35.645,32.227,33.691,76.172,0
1583425173.460,37.598,37.598,33.203,29.785,-8.789,0
1583425173.464,39.062,38.574,36.621,32.227,16.602,0
1583425173.479,37.598,39.062,38.574,35.645,58.105,0
1583425173.483,34.668,41.992,37.109,36.133,68.848,0
1583425173.487,29.297,43.457,36.133,28.809,87.891,0
1583425173.491,26.855,39.062,37.109,24.414,41.992,0
1583425173.495,24.902,35.645,38.574,27.832,20.508,0
1583425173.499,22.949,36.133,39.062,29.785,65.430,0
1583425173.503,23.438,33.691,39.551,32.227,75.684,0
1583425173.506,25.879,32.227,36.133,33.203,66.895,0
1583425173.510,25.879,33.203,35.156,30.273,74.219,0
1583425173.514,25.391,31.738,37.109,29.297,49.316,0
1583425173.518,22.949,29.297,35.645,26.855,41.992,0
1583425173.522,27.832,31.738,33.203,22.949,101.074,0
1583425173.519,31.738,33.203,31.738,21.973,37.598,0
1583425173.523,25.391,30.762,31.738,20.996,-9.766,0
1583425173.527,21.484,33.691,32.227,22.461,61.035,0
1583425173.531,21.484,32.715,29.785,24.414,65.430,0
1583425173.535,24.414,32.227,27.832,23.926,26.855,0
1583425173.539,23.438,41.016,27.832,20.020,-11.230,0
1583425173.543,21.973,41.992,27.832,17.578,5.859,0
1583425173.546,18.555,38.086,24.414,18.066,33.203,0
1583425173.550,15.625,35.156,24.902,12.695,88.867,0
1583425173.554,15.137,34.180,27.344,13.184,47.363,0
1583425173.558,14.648,37.598,26.855,18.066,19.043,0
1583425173.562,17.090,37.598,27.832,17.578,27.344,0
1583425173.560,21.973,37.109,32.715,24.902,51.758,0
1583425173.564,27.832,36.133,31.250,29.297,85.449,0
1583425173.568,25.391,35.645,26.855,30.762,54.688,0
1583425173.572,24.902,36.621,24.902,33.203,-18.555,0
1583425173.576,29.297,36.133,22.949,32.715,-48.340,0
1583425173.580,30.273,40.039,27.344,31.738,2.930,0
1583425173.584,31.250,39.551,33.691,31.250,28.320,0
1583425173.587,30.762,37.598,30.273,32.227,19.043,0
1583425173.591,34.180,38.086,26.367,29.297,5.859,0
1583425173.595,35.645,37.598,28.320,25.391,28.320,0
1583425173.599,33.203,37.598,32.715,25.879,30.273,0
1583425173.603,36.621,37.598,33.203,26.855,-9.766,0
1583425173.619,39.062,37.598,31.738,26.367,0.488,0
1583425173.623,40.039,36.621,31.738,25.391,54.199,0
1583425173.627,38.086,38.086,32.715,22.461,66.406,0
1583425173.631,33.203,36.621,35.156,23.438,7.324,0
1583425173.635,30.273,35.645,32.227,24.902,33.203,0
1583425173.639,27.832,34.180,29.297,21.484,86.426,0
1583425173.643,27.344,31.738,27.832,19.043,-12.207,0
1583425173.646,23.926,32.227,26.855,19.043,-56.641,0
1583425173.650,20.020,35.156,28.809,22.949,-28.320,0
1583425173.654,17.090,34.668,29.297,23.438,1.953,0
1583425173.658,15.625,32.227,29.297,24.902,38.086,0
1583425173.662,9.277,29.297,32.227,25.879,4.395,0
1583425173.659,5.371,28.320,33.691,24.902,30.273,0
1583425173.663,12.695,31.250,32.227,23.926,19.043,0
1583425173.667,14.648,33.691,31.250,18.555,5.859,0
1583425173.671,9.766,33.203,30.762,17.578,27.832,0
1583425173.675,12.695,33.203,32.715,22.461,18.555,0
1583425173.679,23.438,39.062,34.668,25.391,13.672,0
1583425173.683,26.367,40.039,34.180,24.902,1.465,0
1583425173.686,31.250,38.086,33.203,23.926,12.207,0
1583425173.690,34.668,37.598,29.785,22.461,28.809,0
1583425173.694,33.691,37.598,23.926,15.625,49.805,0
1583425173.698,37.598,37.598,26.855,13.672,51.758,0
1583425173.702,38.086,37.109,33.691,12.207,44.922,0
1583425173.699,37.109,36.133,32.227,15.137,28.809,0
1583425173.703,35.156,35.156,30.762,20.020,31.250,0
1583425173.707,37.598,36.621,30.762,21.484,7.812,0
1583425173.711,39.062,39.551,30.762,21.484,34.180,0
1583425173.715,30.273,39.551,27.832,23.438,27.832,0
1583425173.719,28.320,40.527,24.414,31.738,10.254,0
1583425173.723,31.250,41.992,24.414,31.738,38.574,0
1583425173.726,31.738,40.527,29.785,29.785,34.668,0
1583425173.730,31.738,43.457,28.320,30.273,0.977,0
1583425173.734,29.785,41.016,24.902,29.297,21.484,0
1583425173.738,25.391,32.715,32.715,31.250,31.738,0
1583425173.742,11.719,30.273,37.598,26.367,-41.504,0
1583425173.759,10.254,32.715,38.086,26.855,15.625,0
1583425173.763,20.020,31.738,40.527,33.691,62.500,0
1583425173.767,19.043,28.809,41.504,31.738,60.547,0
1583425173.771,20.508,30.273,41.016,30.273,32.715,0
1583425173.775,21.973,31.738,37.598,28.809,20.020,0
1583425173.779,17.578,30.273,36.133,25.879,70.312,0
1583425173.783,11.719,33.691,37.109,20.508,47.363,0
1583425173.786,9.766,36.621,35.156,18.555,44.922,0
1583425173.790,8.301,31.738,33.203,13.184,80.078,0
1583425173.794,6.836,29.785,29.297,6.836,52.734,0
1583425173.798,7.812,32.715,29.785,11.230,45.410,0
1583425173.802,12.695,35.156,33.203,12.207,57.617,0
1583425173.800,21.484,35.645,30.762,16.113,94.238,0
1583425173.804,28.809,34.180,29.785,22.949,56.641,0
1583425173.808,33.203,29.297,34.668,25.391,64.941,0
1583425173.812,34.668,28.320,40.039,29.785,72.754,0
1583425173.816,41.504,32.227,41.504,36.133,3.418,0
1583425173.820,44.434,34.180,40.039,38.574,-20.996,0
1583425173.824,41.504,33.691,39.062,38.086,-17.578,0
1583425173.827,41.504,36.133,35.156,40.039,-2.441,0
1583425173.831,41.504,36.133,34.668,41.016,-27.832,0
1583425173.835,41.504,35.156,36.133,37.598,-25.879,0
1583425173.839,38.574,34.180,35.156,33.691,19.531,0
1583425173.843,32.715,32.227,34.668,31.738,20.020,0
1583425173.839,27.832,28.809,36.133,27.832,48.340,0
1583425173.843,25.391,28.320,37.598,24.902,84.473,0
1583425173.847,26.367,33.203,35.645,23.926,92.285,0
1583425173.851,21.484,29.785,34.668,21.973,74.219,0
1583425173.855,14.648,29.785,34.668,25.391,78.613,0
1583425173.859,18.066,33.691,32.715,28.320,112.793,0
1583425173.863,17.578,28.320,33.203,28.320,45.898,0
1583425173.866,18.066,26.855,35.156,28.320,11.230,0
1583425173.870,24.414,28.809,32.715,30.762,45.898,0
1583425173.874,21.973,27.832,34.668,30.273,19.531,0
1583425173.878,22.461,27.832,38.574,23.438,51.758,0
1583425173.882,26.855,31.250,35.645,23.926,76.172,0
1583425173.899,26.367,33.203,32.715,21.973,27.832,0
1583425173.903,24.902,33.691,35.645,18.066,9.277,0
1583425173.907,30.762,39.062,36.621,23.438,26.855,0
1583425173.911,32.715,39.062,34.180,25.391,0.488,0
1583425173.915,33.203,37.598,32.227,29.297,-25.391,0
1583425173.919,37.598,41.504,30.273,32.715,8.789,0
1583425173.923,36.133,41.504,29.297,24.414,51.270,0
1583425173.926,33.691,38.086,29.785,20.996,39.062,0
1583425173.930,29.785,36.133,33.691,26.855,-18.066,0
1583425173.934,31.738,35.156,33.203,30.762,10.742,0
1583425173.938,40.039,36.133,32.227,27.832,82.520,0
1583425173.942,42.480,36.621,33.203,23.438,122.070,0
1583425173.939,36.621,34.668,34.668,23.926,94.727,0
1583425173.943,41.016,37.109,34.668,26.367,76.660,0
1583425173.947,41.504,40.527,32.227,24.902,60.059,0
1583425173.951,29.785,37.109,35.645,20.020,50.781,0
1583425173.955,29.297,38.086,39.551,22.949,41.504,0
1583425173.959,30.273,41.992,37.598,27.832,22.949,0
1583425173.963,23.438,37.598,39.062,22.461,86.426,0
1583425173.966,20.996,36.621,38.574,19.043,143.066,0
1583425173.970,25.879,38.086,36.621,20.508,104.980,0
1583425173.974,24.414,40.527,36.133,20.020,41.504,0
1583425173.978,20.508,41.504,36.133,20.020,-15.625,0
1583425173.982,22.949,39.062,39.551,22.461,59.082,0
1583425173.979,30.762,37.598,37.109,23.926,82.520,0
1583425173.983,32.227,35.156,35.645,24.902,27.344,0
1583425173.987,27.344,33.691,37.598,25.391,26.855,0
1583425173.991,26.855,36.621,35.156,26.855,-26.367,0
1583425173.995,25.391,33.691,33.203,25.391,-22.461,0
1583425173.999,24.902,30.762,33.691,24.414,13.672,0
1583425174.003,24.902,29.785,36.133,25.391,-2.441,0
1583425174.006,28.320,29.785,34.668,25.879,57.617,0
1583425174.010,24.414,31.738,32.227,21.484,120.117,0
1583425174.014,20.508,31.738,33.203,17.578,81.543,0
1583425174.018,21.484,34.180,32.227,15.137,57.129,0
1583425174.022,20.508,33.203,31.250,13.184,45.898,0
1583425174.039,20.996,31.738,32.715,17.090,37.598,0
1583425174.043,18.555,33.691,29.785,17.090,-32.227,0
1583425174.047,15.625,30.273,29.785,14.160,-51.270,0
1583425174.051,15.625,27.344,33.691,15.137,26.367,0
1583425174.055,15.625,30.273,33.691,13.672,41.016,0
1583425174.059,21.484,32.227,35.156,16.602,32.227,0
1583425174.063,20.996,34.668,36.621,20.020,50.781,0
1583425174.066,20.508,34.668,36.133,20.508,35.156,0
1583425174.070,25.391,33.203,37.598,26.855,70.312,0
1583425174.074,28.809,32.227,35.645,32.227,93.750,0
1583425174.078,33.203,30.762,30.273,34.180,20.508,0
1583425174.082,38.574,31.738,32.715,41.016,9.766,0
1583425174.079,40.527,32.227,38.086,44.922,37.598,0
1583425174.083,40.039,36.621,39.062,42.969,57.129,0
1583425174.087,38.086,34.180,35.645,41.504,47.363,0
1583425174.091,34.180,28.809,35.645,41.992,68.359,0
1583425174.095,34.668,30.762,35.645,38.574,50.781,0
1583425174.099,32.715,32.715,32.715,29.297,19.043,0
1583425174.103,33.203,33.203,30.762,29.297,23.438,0
1583425174.106,27.832,32.715,32.715,30.762,35.645,0
1583425174.110,24.414,35.156,34.180,25.879,50.293,0
1583425174.114,28.809,36.133,35.645,21.484,56.641,0
1583425174.118,22.949,35.156,36.621,14.648,99.609,0
1583425174.122,12.207,36.621,41.504,9.277,27.344,0
1583425174.119,12.695,37.598,41.992,8.789,-20.020,0
1583425174.123,17.578,38.086,34.180,9.277,9.766,0
1583425174.127,15.625,36.621,31.250,5.859,66.406,0
1583425174.131,15.625,33.203,33.203,7.324,76.172,0
1583425174.135,16.113,30.762,32.227,10.742,39.062,0
1583425174.139,13.184,30.273,31.738,7.324,32.227,3
1583425174.143,13.672,33.203,31.250,8.789,37.109,0
1583425174.146,11.230,34.668,30.762,7.324,62.500,0
1583425174.150,12.207,32.715,34.668,9.277,54.688,0
1583425174.154,16.113,33.203,38.574,25.391,51.270,0
1583425174.158,15.137,34.180,41.504,30.762,49.805,0
1583425174.162,19.531,33.691,41.992,30.762,48.340,0
1583425174.179,33.203,35.156,41.504,35.156,52.734,0
1583425174.183,41.016,39.062,41.992,38.574,-0.488,0
1583425174.187,37.598,41.016,39.062,36.133,-52.734,0
1583425174.191,40.039,37.598,35.156,33.203,-5.371,0
1583425174.195,41.992,37.109,34.668,38.086,65.918,0
1583425174.199,42.969,39.062,33.691,41.504,24.902,0
1583425174.203,45.898,38.574,34.180,41.504,-28.809,0
1583425174.206,49.316,38.574,37.598,42.480,12.207,0
1583425174.210,47.363,36.621,34.668,43.945,29.297,0
1583425174.214,44.434,37.598,35.645,38.574,-11.230,0
1583425174.218,43.457,40.039,40.527,34.668,-8.301,0
1583425174.222,38.086,38.086,38.086,30.762,35.156,0
1583425174.219,33.691,36.133,34.668,23.926,42.969,0
1583425174.223,30.762,34.180,32.227,18.555,27.344,0
1583425174.227,24.414,33.691,33.203,10.254,40.039,0
1583425174.231,18.066,31.738,34.668,6.348,60.547,0
1583425174.235,15.625,37.109,32.715,8.789,84.961,0
1583425174.239,13.672,40.039,30.762,10.742,54.199,0
1583425174.243,14.648,38.086,31.738,13.672,40.527,0
1583425174.246,12.695,38.574,34.668,11.230,27.344,0
1583425174.250,4.883,36.621,36.133,8.301,2.930,0
1583425174.254,-0.488,37.109,34.668,8.789,39.551,0
1583425174.258,1.465,33.691,36.133,9.766,-1.953,0
1583425174.262,5.371,30.762,37.109,13.672,-9.277,0
1583425174.260,9.766,33.203,38.086,20.996,6.348,0
1583425174.264,16.113,35.156,38.086,29.297,40.527,0
1583425174.268,21.484,34.180,38.086,27.344,88.867,0
1583425174.272,27.832,35.645,37.598,28.320,36.621,0
1583425174.276,35.156,36.621,34.180,35.156,-23.438,0
1583425174.280,39.551,36.621,33.203,35.645,18.066,0
1583425174.284,41.016,36.621,34.180,37.598,8.301,0
1583425174.287,41.992,37.598,35.645,39.062,-17.578,0
1583425174.291,43.457,41.016,38.574,41.504,1.953,0
1583425174.295,48.828,40.039,40.527,40.039,70.801,0
1583425174.299,47.363,38.574,36.133,35.645,47.363,0
1583425174.303,45.410,38.574,33.203,39.551,45.410,0
1583425174.319,45.898,40.039,33.691,37.109,105.957,0
1583425174.323,43.945,38.086,28.809,30.273,76.660,0
1583425174.327,35.645,36.621,25.391,28.809,57.129,0
1583425174.331,36.133,39.062,24.902,26.855,42.969,0
1583425174.335,39.551,39.551,28.809,26.855,33.203,0
1583425174.339,32.715,38.086,31.738,23.926,-8.789,0
1583425174.343,30.762,38.574,34.180,22.461,7.812,0
1583425174.346,28.320,36.621,35.156,21.484,36.133,0
1583425174.350,20.508,33.691,31.250,18.066,20.508,0
1583425174.354,18.555,37.109,29.785,19.531,26.855,0
1583425174.358,15.625,41.016,27.344,15.137,26.367,0
1583425174.362,13.672,36.133,26.855,14.160,53.223,0
1583425174.359,18.555,33.203,28.809,20.020,59.570,0
1583425174.363,18.066,33.203,32.715,19.531,47.852,0
1583425174.367,16.113,32.227,34.180,18.555,93.750,0
1583425174.371,12.695,32.227,31.738,15.625,54.688,0
1583425174.375,13.672,32.715,31.250,17.578,27.344,0
1583425174.379,20.020,30.273,30.762,20.020,40.527,0
1583425174.383,20.020,28.320,29.297,17.090,65.918,0
1583425174.386,16.602,26.367,30.762,14.648,81.543,0
1583425174.390,23.438,28.320,31.250,20.020,10.254,0
1583425174.394,32.715,36.621,30.273,24.902,-7.324,0
1583425174.398,32.227,36.621,28.809,23.926,41.504,0
1583425174.402,35.156,34.180,30.273,28.320,50.293,0
1583425174.400,36.621,34.668,30.762,33.691,76.660,0
1583425174.404,38.086,36.133,28.320,33.203,96.680,0
1583425174.408,35.156,33.691,27.344,31.738,69.824,0
1583425174.412,32.227,31.250,25.391,34.180,54.688,0
1583425174.416,37.598,30.762,21.973,35.645,17.090,0
1583425174.420,36.133,27.832,21.973,36.133,-21.973,0
1583425174.424,34.180,27.344,27.344,34.668,4.883,0
1583425174.427,38.086,33.203,29.785,37.109,40.527,0
1583425174.431,36.621,33.203,31.250,39.551,12.207,0
1583425174.435,35.156,31.250,32.715,40.039,19.531,0
1583425174.439,37.109,33.691,30.762,33.203,62.500,0
1583425174.443,35.156,37.109,30.273,32.227,57.129,0
1583425174.459,29.297,35.645,34.180,35.645,63.477,0
1583425174.463,25.391,31.738,34.668,30.273,13.672,0
1583425174.467,22.461,29.785,33.203,23.438,0.000,0
1583425174.471,17.578,29.785,33.691,20.508,33.691,0
1583425174.475,20.508,29.297,30.273,22.949,38.574,0
1583425174.479,23.438,27.344,30.762,22.949,20.996,0
1583425174.483,21.484,28.809,29.785,22.461,9.277,0
1583425174.486,19.043,30.273,26.855,24.414,48.828,0
1583425174.490,19.043,35.645,30.762,27.832,60.059,0
1583425174.494,20.020,39.062,34.180,29.297,50.781,0
1583425174.498,24.414,35.156,33.203,24.902,25.879,0
1583425174.502,24.414,34.180,34.668,20.508,16.113,0
1583425174.500,21.973,30.762,36.621,20.508,78.613,0
1583425174.504,23.926,29.297,34.180,20.996,67.871,0
1583425174.508,22.461,33.203,33.203,20.996,29.297,0
1583425174.512,19.531,31.738,33.691,19.043,26.367,0
1583425174.516,21.973,29.785,30.273,17.090,22.461,0
1583425174.520,25.879,33.203,27.832,20.508,49.805,0
1583425174.524,25.879,36.133,28.320,19.531,43.945,0
1583425174.527,27.344,39.062,25.879,21.484,19.043,0
1583425174.531,29.785,39.062,26.367,25.879,32.227,0
1583425174.535,29.785,36.621,26.367,24.902,48.340,0
1583425174.539,30.762,36.133,25.391,24.902,46.875,0
1583425174.543,26.855,34.668,27.344,23.926,21.973,0
1583425174.559,21.484,32.715,25.391,19.043,-29.297,0
1583425174.563,21.973,33.203,24.414,14.648,0.977,0
1583425174.567,25.879,31.738,25.879,15.137,59.082,0
1583425174.571,29.297,30.273,27.344,17.090,90.820,0
1583425174.575,26.367,36.621,27.832,17.578,60.059,0
1583425174.579,24.414,39.551,26.367,17.578,54.688,0
1583425174.583,26.367,36.621,26.855,21.484,45.410,0
1583425174.586,26.855,36.621,28.320,23.438,30.762,0
1583425174.590,26.855,37.109,31.738,20.996,62.988,0
1583425174.594,28.320,37.598,30.762,23.438,10.254,0
1583425174.598,29.785,37.598,29.297,24.902,-30.762,0
1583425174.602,21.973,35.645,32.227,21.973,16.602,0
1583425174.599,21.973,36.133,34.668,18.066,71.289,0
1583425174.603,23.438,37.109,38.574,16.602,34.180,0
1583425174.607,19.531,36.621,42.969,17.090,52.246,0
1583425174.611,23.926,35.645,41.016,19.531,62.988,0
