timestamps,TP9,AF7,AF8,TP10,Right AUX,Marker0
1583501261.264,26.855,32.227,42.480,24.902,1.953,0
1583501261.268,28.809,34.180,41.016,25.879,0.488,0
1583501261.272,30.762,31.738,43.945,24.414,87.402,0
1583501261.276,30.273,32.715,44.922,24.902,79.102,0
1583501261.280,34.668,36.621,45.410,27.344,-25.391,0
1583501261.284,34.180,35.645,46.875,30.273,-23.926,0
1583501261.288,25.879,32.715,42.969,30.762,33.203,0
1583501261.291,30.762,31.738,41.992,32.715,54.199,0
1583501261.295,33.691,32.715,44.434,33.691,59.082,0
1583501261.299,33.203,31.738,41.992,27.344,30.273,0
1583501261.303,30.762,29.297,39.551,23.438,20.508,0
1583501261.307,25.391,28.809,40.039,23.438,41.992,0
1583501261.324,31.738,33.691,40.527,23.438,42.969,0
1583501261.328,31.738,35.156,42.480,23.926,26.855,0
1583501261.332,26.367,33.691,43.457,21.973,2.441,0
1583501261.336,33.691,36.133,43.945,26.855,12.695,0
1583501261.340,35.645,36.133,43.457,29.297,52.734,0
1583501261.344,33.203,34.180,43.945,26.367,34.180,0
1583501261.348,35.645,35.156,44.434,28.320,10.254,0
1583501261.351,34.180,33.691,42.969,26.367,11.719,0
1583501261.355,34.180,28.809,41.992,24.414,1.465,0
1583501261.359,36.133,29.297,40.527,26.855,10.742,0
1583501261.363,32.227,32.715,38.574,25.879,0.488,0
1583501261.367,30.762,31.250,39.062,28.320,-10.254,0
1583501261.364,35.645,30.273,40.527,30.273,39.062,0
1583501261.368,36.133,30.762,41.504,28.320,22.461,0
1583501261.372,31.738,30.762,41.504,29.297,40.039,0
1583501261.376,31.738,30.762,42.969,32.715,60.059,0
1583501261.380,36.621,32.715,47.363,35.645,2.930,0
1583501261.384,37.109,33.691,47.363,34.668,63.477,0
1583501261.388,34.668,31.250,43.945,32.227,117.676,0
1583501261.391,32.227,29.785,43.945,31.738,95.215,0
1583501261.395,32.715,30.273,42.480,27.344,23.438,0
1583501261.399,35.645,31.250,41.504,25.879,18.066,0
1583501261.403,35.156,33.691,44.434,22.461,41.504,0
1583501261.407,32.227,31.738,45.410,21.973,-41.504,0
1583501261.404,31.250,29.297,42.480,26.367,-14.160,0
1583501261.408,34.668,30.762,44.434,24.902,45.410,0
1583501261.412,37.598,31.738,48.828,26.855,54.688,0
1583501261.416,36.133,31.250,49.316,28.809,52.734,0
1583501261.420,32.227,29.297,44.922,25.391,60.059,0
1583501261.424,32.227,28.809,42.969,23.438,8.301,0
1583501261.428,31.250,26.855,44.922,21.973,5.371,0
1583501261.431,29.785,28.320,43.945,22.461,40.527,0
1583501261.435,33.203,29.785,42.969,23.926,85.449,0
1583501261.439,34.180,27.344,42.480,23.438,67.383,0
1583501261.443,31.250,26.367,42.969,25.391,14.160,0
1583501261.447,35.156,28.809,43.457,25.391,22.949,0
1583501261.464,41.016,31.738,43.945,26.367,20.020,0
1583501261.468,36.133,34.180,47.852,30.762,44.922,0
1583501261.472,33.691,34.180,48.828,27.344,34.668,0
1583501261.476,36.621,30.273,41.504,23.926,-1.465,0
1583501261.480,36.133,29.785,41.504,26.855,28.809,0
1583501261.484,30.762,31.738,42.480,27.344,26.367,0
1583501261.488,29.297,32.227,44.434,27.832,0.977,0
1583501261.491,29.785,32.227,46.875,28.320,23.926,0
1583501261.495,31.250,31.738,43.945,29.297,21.973,0
1583501261.499,33.203,29.785,43.945,32.715,51.758,0
1583501261.503,27.344,27.832,41.992,31.250,75.195,0
1583501261.507,22.461,29.785,39.551,20.996,20.020,0
1583501261.504,27.344,35.156,41.504,24.414,-7.324,0
1583501261.508,33.203,37.598,42.969,32.227,57.129,0
1583501261.512,27.832,36.133,44.434,27.832,71.777,0
1583501261.516,23.926,34.180,43.457,18.066,-2.441,0
1583501261.520,26.367,37.598,41.016,12.207,41.016,0
1583501261.524,26.367,39.062,40.527,12.695,19.531,0
1583501261.528,22.949,35.156,38.086,11.719,13.672,0
1583501261.531,23.438,35.645,41.016,13.184,77.148,0
1583501261.535,25.391,37.109,45.410,13.184,66.895,0
1583501261.539,23.438,37.598,43.457,16.602,44.922,0
1583501261.543,25.879,38.574,42.480,17.090,14.160,0
1583501261.547,27.344,37.109,43.945,10.254,-12.207,0
1583501261.544,26.855,35.156,44.434,13.672,12.207,0
1583501261.548,22.949,30.273,42.480,17.578,-13.672,0
1583501261.552,22.949,30.273,41.504,23.926,12.695,0
1583501261.556,26.367,29.785,42.480,23.926,41.992,0
1583501261.560,23.438,27.344,42.480,16.602,8.789,0
1583501261.564,24.414,30.273,41.992,17.578,14.648,0
1583501261.568,28.320,30.273,42.480,26.367,29.785,0
1583501261.571,32.227,31.250,38.574,22.949,12.695,0
1583501261.575,32.715,31.738,37.109,18.555,-37.109,0
1583501261.579,28.320,31.738,39.551,16.113,-4.395,0
1583501261.583,29.785,32.715,39.062,15.625,32.715,0
1583501261.587,31.738,33.691,39.062,21.973,-4.395,0
1583501261.604,29.785,32.227,39.551,19.531,40.527,0
1583501261.608,32.227,32.715,39.551,18.066,92.773,0
1583501261.612,34.668,34.180,41.016,19.043,70.801,0
1583501261.616,32.227,34.180,41.016,16.602,4.883,0
1583501261.620,30.762,35.156,40.527,18.066,-5.371,0
1583501261.624,30.273,35.156,42.480,17.090,41.504,0
1583501261.628,30.273,36.621,41.016,18.066,55.176,0
1583501261.631,32.227,37.598,40.039,16.113,30.762,0
1583501261.635,32.227,36.133,41.504,15.137,22.949,0
1583501261.639,32.715,37.109,39.551,18.555,3.418,0
1583501261.643,30.762,36.621,37.598,21.484,3.418,0
1583501261.647,24.902,33.691,37.109,24.414,38.574,0
1583501261.644,22.949,34.668,38.574,18.066,45.898,0
1583501261.648,25.391,36.133,37.598,18.066,77.148,0
1583501261.652,21.484,34.180,34.668,16.113,77.637,0
1583501261.656,20.996,31.738,35.645,13.672,53.223,0
1583501261.660,25.879,33.203,41.016,21.973,55.664,0
1583501261.664,27.832,34.668,39.551,27.344,70.801,0
1583501261.668,30.273,32.227,37.598,24.902,28.809,0
1583501261.671,30.273,28.320,37.598,23.438,52.246,0
1583501261.675,31.738,29.297,38.086,26.367,53.711,0
1583501261.679,32.227,29.297,39.551,27.832,23.926,0
1583501261.683,30.762,31.738,41.992,20.020,79.590,0
1583501261.687,33.203,33.203,42.480,18.066,48.340,0
1583501261.684,31.738,32.715,40.527,25.879,-16.113,0
1583501261.688,30.273,33.203,39.551,29.297,27.832,0
1583501261.692,32.227,33.691,41.992,28.320,9.277,0
1583501261.696,36.133,33.691,41.504,25.391,-39.062,0
1583501261.700,31.738,34.668,42.480,27.832,22.461,0
1583501261.704,31.250,37.109,42.480,38.086,23.926,0
1583501261.708,35.156,36.133,39.062,33.691,18.066,0
1583501261.711,34.668,33.691,35.645,19.043,62.012,0
1583501261.715,32.715,35.156,35.156,13.184,76.660,0
1583501261.719,33.691,35.156,33.691,18.555,10.254,0
1583501261.723,38.574,36.621,33.691,27.344,-27.832,0
1583501261.727,42.969,39.062,34.668,24.902,-21.484,0
1583501261.744,45.898,36.621,32.227,22.949,17.090,0
1583501261.748,46.875,36.133,31.250,28.809,72.266,0
1583501261.752,40.039,36.133,31.738,26.855,47.852,0
1583501261.756,31.738,33.203,28.320,20.996,22.461,0
1583501261.760,29.297,31.738,29.785,19.043,35.156,0
1583501261.764,26.855,32.227,33.691,23.438,54.199,0
1583501261.768,25.879,33.203,33.691,20.020,52.246,0
1583501261.771,22.949,32.715,37.109,10.254,31.738,0
1583501261.775,22.949,32.227,39.062,18.066,54.199,0
1583501261.779,22.461,34.668,36.621,22.949,22.461,0
1583501261.783,24.414,35.645,37.598,22.461,13.184,0
1583501261.787,27.832,34.180,36.621,25.391,66.406,0
1583501261.784,25.391,33.203,34.180,26.367,54.688,0
1583501261.788,34.668,34.668,38.574,35.645,61.035,0
1583501261.792,51.270,39.551,39.551,41.992,96.191,0
1583501261.796,43.457,42.969,30.273,28.320,80.566,0
1583501261.800,37.598,42.969,28.809,18.066,-8.301,0
1583501261.804,50.781,45.410,28.320,27.344,-67.383,0
1583501261.808,50.293,45.410,22.949,33.691,35.156,0
1583501261.811,40.039,41.992,26.855,29.785,49.805,0
1583501261.815,31.738,39.551,30.273,22.949,31.250,0
1583501261.819,29.785,37.598,31.250,20.996,57.129,0
1583501261.823,36.621,38.086,31.250,30.273,56.152,0
1583501261.827,41.016,39.551,31.738,33.691,68.848,0
1583501261.824,41.504,39.062,36.133,28.809,18.555,0
1583501261.828,41.016,39.551,37.109,27.344,-3.906,0
1583501261.832,41.016,40.527,36.133,26.367,2.441,0
1583501261.836,38.086,38.086,33.203,22.461,22.461,0
1583501261.840,39.062,35.156,31.738,24.414,30.762,0
1583501261.844,40.527,34.180,33.203,26.367,-8.301,0
1583501261.848,42.480,34.180,31.738,27.832,34.180,0
1583501261.851,41.504,37.598,34.668,27.832,79.102,0
1583501261.855,39.062,38.086,37.109,22.461,91.797,0
1583501261.859,39.551,34.180,35.156,21.973,115.723,0
1583501261.863,37.109,35.156,35.645,24.414,78.125,0
1583501261.867,33.691,37.598,35.156,28.320,73.242,0
1583501261.884,34.668,40.039,35.645,30.762,41.016,0
1583501261.888,36.621,41.504,38.574,28.809,-11.719,0
1583501261.892,35.645,39.062,37.109,25.879,7.324,0
1583501261.896,32.227,36.133,35.156,25.391,-16.602,0
1583501261.900,32.715,37.598,35.156,25.391,25.879,0
1583501261.904,35.156,37.598,35.645,20.508,52.734,0
1583501261.908,33.203,39.062,39.062,19.043,-14.648,0
1583501261.911,31.250,38.574,41.016,22.461,10.254,0
1583501261.915,29.297,37.109,41.016,23.438,36.621,0
1583501261.919,33.691,38.086,38.574,25.391,42.969,0
1583501261.923,35.156,37.598,36.133,19.531,23.438,0
1583501261.927,33.203,38.086,39.062,20.508,-40.527,0
1583501261.924,34.668,40.527,38.086,25.879,-21.484,0
1583501261.928,35.645,40.039,33.203,21.973,3.418,0
1583501261.932,38.086,41.016,35.645,22.949,3.906,0
1583501261.936,40.527,43.457,35.645,27.344,-15.625,0
1583501261.940,39.062,43.457,33.691,31.738,-7.812,0
1583501261.944,34.180,39.062,31.738,31.250,21.484,0
1583501261.948,33.203,36.621,32.715,28.320,4.395,0
1583501261.951,37.109,37.598,34.668,30.273,42.969,0
1583501261.955,36.621,37.109,32.227,30.762,69.336,0
1583501261.959,36.133,39.062,32.715,27.832,34.180,0
1583501261.963,35.645,39.062,36.621,25.879,-0.488,0
1583501261.967,34.668,38.086,37.109,27.832,-5.859,0
1583501261.964,37.109,38.574,37.109,32.715,82.520,0
1583501261.968,39.551,37.598,37.598,33.203,66.406,0
1583501261.972,38.086,34.668,36.621,33.203,41.504,0
1583501261.976,37.109,31.738,35.156,28.809,69.824,0
1583501261.980,37.598,31.250,34.668,26.855,17.578,0
1583501261.984,35.645,31.250,32.715,34.180,13.672,0
1583501261.988,34.180,31.738,30.762,32.227,-36.133,0
1583501261.991,31.250,32.715,33.691,26.367,6.348,0
1583501261.995,29.785,30.762,37.598,18.555,62.012,0
1583501261.999,24.902,26.367,33.691,14.648,30.273,0
1583501262.003,23.438,28.320,30.762,22.949,57.129,0
1583501262.007,26.367,34.668,34.668,23.926,48.340,0
1583501262.024,26.855,37.598,38.574,22.461,15.137,0
1583501262.028,28.320,34.180,36.133,22.461,14.160,0
1583501262.032,24.414,31.250,31.738,25.879,76.172,0
1583501262.036,25.879,31.738,32.715,27.344,105.957,0
1583501262.040,29.785,31.250,34.668,26.367,93.262,0
1583501262.044,23.438,30.762,34.668,20.020,85.938,0
1583501262.048,24.414,33.691,34.180,13.184,41.504,0
1583501262.051,28.320,34.180,31.738,17.090,-16.113,0
1583501262.055,25.879,31.250,34.180,20.508,14.648,0
1583501262.059,27.344,32.715,35.645,20.996,29.297,0
1583501262.063,25.879,34.180,34.668,24.902,-19.043,0
1583501262.067,20.020,31.738,35.156,20.508,10.254,0
1583501262.064,20.508,30.762,35.645,14.648,1.953,0
1583501262.068,21.484,33.691,37.109,18.066,9.766,0
1583501262.072,22.461,33.691,37.109,20.508,22.949,0
1583501262.076,23.438,30.273,34.180,19.043,15.137,0
1583501262.080,21.484,29.785,33.691,14.160,9.766,0
1583501262.084,22.461,27.832,34.180,16.113,-5.859,0
1583501262.088,25.879,29.297,33.691,18.555,19.043,0
1583501262.091,24.902,28.809,37.109,15.137,21.973,0
1583501262.095,32.715,30.762,35.156,20.020,-22.949,0
1583501262.099,34.180,33.691,32.227,17.090,15.137,0
1583501262.103,27.832,32.715,31.738,14.648,69.336,0
1583501262.107,31.738,29.785,30.273,21.484,47.852,0
1583501262.104,32.227,31.250,34.180,22.461,31.250,0
1583501262.108,27.344,32.715,37.598,23.926,38.086,0
1583501262.112,29.297,33.203,38.574,28.320,29.297,0
1583501262.116,30.273,33.203,39.062,30.762,17.578,0
1583501262.120,23.438,30.762,39.551,24.902,47.363,0
1583501262.124,21.973,31.250,37.598,19.531,126.465,0
1583501262.128,23.926,29.785,35.156,19.043,18.066,0
1583501262.131,22.949,27.832,36.133,21.973,-23.926,0
1583501262.135,25.879,30.273,37.109,25.391,62.500,0
1583501262.139,30.762,31.738,35.645,20.996,99.609,0
1583501262.143,28.320,29.297,35.156,15.625,119.629,0
1583501262.147,26.367,31.250,36.133,18.555,59.082,0
1583501262.164,23.926,31.738,36.621,19.531,29.297,0
1583501262.168,24.902,31.250,35.645,19.531,21.484,0
1583501262.172,26.367,31.738,35.156,19.043,46.387,0
1583501262.176,27.344,31.250,35.645,15.625,-41.992,0
1583501262.180,35.156,35.156,37.598,25.879,-85.938,0
1583501262.184,37.598,38.086,41.504,31.250,-12.207,0
1583501262.188,31.250,36.133,42.480,14.648,27.832,0
1583501262.191,30.273,30.273,38.086,12.695,24.902,0
1583501262.195,26.855,29.297,36.133,19.043,62.988,0
1583501262.199,22.949,33.203,35.645,16.602,60.547,0
1583501262.203,27.344,34.668,34.180,16.602,62.012,0
1583501262.207,30.273,33.203,35.645,20.020,51.758,0
1583501262.204,30.762,33.691,38.086,21.973,5.371,0
1583501262.208,29.297,32.227,37.109,22.461,8.789,0
1583501262.212,28.809,33.203,37.109,21.484,19.531,0
1583501262.216,30.762,36.133,35.645,20.508,24.902,0
1583501262.220,31.738,35.645,36.133,24.902,0.488,0
1583501262.224,34.668,35.645,37.598,26.855,-11.230,0
1583501262.228,34.180,35.156,37.598,24.414,-11.230,0
1583501262.231,30.762,32.715,36.133,20.508,-21.484,0
1583501262.235,25.879,29.785,34.180,17.090,-69.336,0
1583501262.239,24.902,28.809,32.227,19.531,-34.668,0
1583501262.243,26.367,29.785,31.250,15.625,86.426,0
1583501262.247,27.344,31.738,35.156,16.602,20.508,0
1583501262.244,27.832,31.250,35.156,22.461,-35.645,0
1583501262.248,24.902,28.320,33.691,22.461,31.738,0
1583501262.252,26.367,31.738,34.668,23.438,54.688,0
1583501262.256,24.902,31.250,35.156,20.508,31.738,0
1583501262.260,22.461,28.809,35.645,17.578,57.129,0
1583501262.264,27.344,33.203,36.133,20.508,32.227,0
1583501262.268,29.785,33.203,36.133,26.855,52.734,0
1583501262.271,28.320,31.738,35.645,24.902,88.867,0
1583501262.275,29.785,32.715,36.621,22.461,64.453,0
1583501262.279,31.250,30.762,35.645,26.367,25.391,0
1583501262.283,32.227,31.250,35.645,23.926,-17.578,0
1583501262.287,29.785,29.785,34.668,19.531,-9.766,0
1583501262.304,29.297,28.809,33.203,18.066,41.504,0
1583501262.308,31.250,31.250,33.691,20.996,76.660,0
1583501262.312,35.645,32.715,41.016,26.855,44.434,0
1583501262.316,36.621,30.762,40.527,26.367,11.719,0
1583501262.320,31.738,27.344,38.574,21.973,4.395,0
1583501262.324,27.832,25.391,41.992,23.926,-0.488,0
1583501262.328,27.832,25.879,40.527,27.832,23.438,0
1583501262.331,27.344,26.367,38.574,27.344,49.316,0
1583501262.335,24.902,28.809,36.621,22.461,27.832,0
1583501262.339,26.855,29.297,37.109,20.508,28.320,0
1583501262.343,28.809,29.297,41.016,21.484,55.664,0
1583501262.347,27.832,29.785,41.504,18.555,69.336,0
1583501262.344,26.367,26.855,38.086,20.020,39.062,0
1583501262.348,30.762,27.832,38.574,31.250,22.949,0
1583501262.352,32.227,31.250,40.527,35.645,22.461,0
1583501262.356,28.320,26.367,38.574,30.273,79.590,0
1583501262.360,24.902,24.414,37.598,22.461,94.727,0
1583501262.364,25.391,24.902,36.133,17.578,7.324,0
1583501262.368,31.250,23.926,34.180,20.996,-7.324,0
1583501262.371,31.250,24.414,34.180,24.902,5.859,0
1583501262.375,29.297,25.391,33.691,23.926,10.742,0
1583501262.379,35.645,27.344,33.203,20.996,2.441,0
1583501262.383,41.992,29.785,32.227,29.297,28.809,0
1583501262.387,41.992,32.227,34.668,37.598,112.793,0
1583501262.384,27.832,33.691,41.992,20.996,97.168,0
1583501262.388,13.672,33.691,40.039,3.418,67.383,0
1583501262.392,11.230,28.809,34.180,1.953,89.355,0
1583501262.396,14.648,22.949,33.691,3.418,74.707,0
1583501262.400,15.625,25.879,32.227,6.836,42.969,0
1583501262.404,16.113,30.273,31.738,4.395,15.625,0
1583501262.408,16.602,30.273,30.762,0.977,26.855,0
1583501262.411,19.043,30.762,27.832,2.930,10.254,0
1583501262.415,22.949,31.738,30.762,10.742,0.977,0
1583501262.419,20.508,28.320,32.227,13.672,16.113,0
1583501262.423,21.973,28.320,30.762,11.230,-11.230,0
1583501262.427,28.809,33.203,34.668,20.508,-17.578,0
1583501262.444,31.250,35.156,37.598,26.855,22.949,0
1583501262.448,31.738,34.668,35.156,25.391,19.531,0
1583501262.452,32.715,35.156,34.668,26.855,-43.457,0
1583501262.456,31.250,34.180,35.156,28.809,-11.230,0
1583501262.460,30.762,35.156,36.621,31.250,52.734,0
1583501262.464,35.156,35.645,36.621,28.809,47.852,0
1583501262.468,36.621,35.645,32.715,23.926,41.504,0
1583501262.471,31.738,34.180,30.762,20.020,28.320,0
1583501262.475,29.297,31.738,30.762,20.996,-17.578,0
1583501262.479,28.320,32.715,30.762,24.414,0.488,0
1583501262.483,30.273,33.203,31.738,27.344,56.641,0
1583501262.487,26.855,33.691,31.738,26.367,93.750,0
1583501262.484,20.020,31.250,28.809,24.902,84.961,0
1583501262.488,23.438,29.297,28.809,24.902,5.859,0
1583501262.492,25.879,32.715,31.250,25.391,4.883,0
1583501262.496,20.508,32.715,31.250,19.531,35.645,0
1583501262.500,22.949,32.227,28.809,19.043,-2.441,0
1583501262.504,23.926,33.203,27.832,26.367,32.227,0
1583501262.508,20.508,31.738,30.762,26.855,80.078,0
1583501262.511,20.020,27.832,30.273,19.531,38.574,0
1583501262.515,27.832,30.273,30.273,20.508,16.602,0
1583501262.519,34.180,37.109,36.621,27.832,22.461,0
1583501262.523,30.762,36.621,37.109,25.391,7.324,0
1583501262.527,28.809,34.668,34.180,21.484,3.906,0
1583501262.524,29.297,32.227,30.762,21.973,80.078,0
1583501262.528,33.203,32.715,31.250,20.508,48.828,0
1583501262.532,36.621,36.621,32.715,25.391,-22.461,0
1583501262.536,40.527,38.574,29.297,27.832,-4.883,0
1583501262.540,43.457,40.039,26.855,23.438,-6.836,0
1583501262.544,45.410,41.016,26.855,23.926,59.082,0
1583501262.548,49.316,43.457,30.762,30.762,63.477,0
1583501262.551,49.805,44.434,34.180,31.250,51.758,0
1583501262.555,42.969,41.504,31.738,25.879,24.902,0
1583501262.559,40.527,41.992,33.203,29.297,39.551,0
1583501262.563,39.062,41.992,37.598,31.250,82.031,0
1583501262.567,30.273,37.598,34.668,24.902,29.785,0
1583501262.584,23.926,34.180,31.250,14.648,15.137,0
1583501262.588,24.902,35.645,32.715,13.672,-4.883,0
1583501262.592,25.391,35.156,32.715,22.949,-4.883,0
1583501262.596,24.414,35.156,32.715,23.438,24.902,0
1583501262.600,25.879,37.109,33.203,22.461,16.602,0
1583501262.604,24.902,37.598,34.180,20.508,14.160,0
1583501262.608,24.414,37.109,28.320,19.043,3.906,0
1583501262.611,26.367,33.691,24.414,22.949,15.625,0
1583501262.615,29.785,34.180,26.855,20.508,29.785,0
1583501262.619,30.273,36.133,27.832,16.113,91.309,0
1583501262.623,34.180,40.039,28.809,21.484,70.312,0
1583501262.627,35.156,40.039,28.320,23.926,61.035,0
1583501262.624,28.320,34.180,26.855,21.484,50.781,0
1583501262.628,30.273,31.738,26.367,21.973,5.859,0
1583501262.632,30.762,32.715,22.949,20.996,-3.906,0
1583501262.636,27.832,32.715,21.484,20.996,-34.180,0
1583501262.640,23.438,33.203,20.020,20.996,-14.648,0
1583501262.644,20.996,31.250,19.531,19.043,-5.859,0
1583501262.648,24.414,30.273,18.555,16.602,-18.066,0
1583501262.651,27.344,34.180,17.578,20.508,29.297,0
1583501262.655,33.203,37.109,16.113,27.344,63.965,0
1583501262.659,33.203,34.668,10.742,19.043,104.492,0
1583501262.663,30.762,31.250,9.766,14.160,117.188,0
1583501262.667,26.855,32.715,11.230,17.578,78.125,0
1583501262.664,25.391,33.203,11.230,19.531,37.109,0
1583501262.668,27.832,33.203,11.719,24.902,6.348,0
1583501262.672,26.855,33.203,14.648,22.949,9.766,0
1583501262.676,27.832,32.227,16.113,25.879,91.309,0
1583501262.680,28.809,32.227,15.137,25.391,94.727,0
1583501262.684,25.391,34.668,14.160,19.043,15.137,0
1583501262.688,25.391,35.645,19.043,22.461,3.906,0
1583501262.691,28.320,33.691,20.508,24.902,-26.367,0
1583501262.695,35.156,34.180,18.066,25.879,-52.734,0
1583501262.699,38.086,35.156,18.066,31.250,7.812,0
1583501262.703,34.180,35.156,17.578,30.762,69.336,0
1583501262.707,33.691,33.691,14.648,27.832,56.641,0
1583501262.724,29.785,30.762,17.090,23.926,91.797,0
1583501262.728,28.809,31.250,18.066,20.508,76.172,0
1583501262.732,32.227,32.715,14.648,20.020,-11.719,0
1583501262.736,29.785,32.227,16.113,17.090,0.977,0
1583501262.740,32.227,32.715,18.555,22.461,21.484,0
1583501262.744,37.109,33.691,19.043,26.855,2.441,0
1583501262.748,41.504,31.738,20.020,23.926,20.020,0
1583501262.751,41.992,30.762,22.461,24.902,46.875,0
1583501262.755,43.457,34.180,24.414,33.203,66.895,0
1583501262.759,45.898,33.691,22.949,38.086,55.664,0
1583501262.763,38.574,27.832,23.438,31.738,31.250,0
1583501262.767,37.109,27.344,24.414,26.367,33.203,0
1583501262.764,35.156,29.297,21.484,26.367,27.344,0
1583501262.768,33.691,28.320,23.438,25.879,42.969,0
1583501262.772,32.715,28.320,28.320,28.809,38.086,0
1583501262.776,28.809,26.855,31.250,26.367,11.230,0
1583501262.780,28.320,25.879,33.203,19.043,11.719,0
1583501262.784,29.785,29.297,35.156,20.508,19.043,0
1583501262.788,30.273,29.785,35.156,22.461,21.484,0
1583501262.791,26.367,24.414,38.574,20.508,-0.488,0
1583501262.795,24.902,25.879,41.016,19.531,16.602,0
1583501262.799,28.809,31.250,38.574,20.508,27.832,0
1583501262.803,28.809,31.250,41.016,21.484,-16.113,0
1583501262.807,28.809,25.391,37.598,19.531,25.391,0
1583501262.824,29.297,22.949,36.133,18.066,39.062,0
1583501262.828,26.367,24.902,39.062,17.578,-17.578,0
1583501262.832,24.414,25.879,38.574,19.043,16.113,0
1583501262.836,25.879,28.320,41.016,20.996,26.855,0
1583501262.840,25.879,26.367,41.992,19.531,28.320,0
1583501262.844,25.391,24.902,41.504,19.043,29.785,0
1583501262.848,24.902,28.320,42.969,27.832,16.602,0
1583501262.851,30.273,28.809,44.922,24.414,24.902,0
1583501262.855,36.133,30.762,45.410,17.578,27.344,0
1583501262.859,35.156,29.785,43.457,24.902,24.414,0
1583501262.863,34.180,31.250,42.969,24.902,19.043,0
1583501262.867,32.227,31.250,41.504,19.043,30.273,0
1583501262.864,33.203,29.297,45.898,19.043,41.504,0
1583501262.868,36.133,33.203,46.387,21.484,21.484,0
1583501262.872,36.133,34.668,43.945,26.367,27.344,0
1583501262.876,32.715,34.668,45.410,26.367,15.137,0
1583501262.880,30.762,34.668,45.410,19.043,0.000,0
1583501262.884,34.668,34.180,47.852,17.578,32.227,0
1583501262.888,34.180,36.133,46.387,21.973,46.875,0
1583501262.891,33.203,37.109,45.410,25.391,68.848,0
1583501262.895,35.156,34.668,45.898,29.297,24.414,0
1583501262.899,36.133,35.645,46.875,29.297,-3.906,0
1583501262.903,36.621,39.551,50.293,31.250,67.871,0
1583501262.907,37.109,37.598,52.734,35.645,72.266,0
1583501262.904,37.598,35.156,50.781,38.574,36.621,0
1583501262.908,36.133,37.109,47.363,36.621,51.270,0
1583501262.912,34.668,35.645,48.340,35.156,40.039,0
1583501262.916,37.109,32.227,49.805,34.180,25.391,0
1583501262.920,35.645,33.691,48.828,35.645,33.203,0
1583501262.924,33.203,35.645,46.387,36.133,15.625,0
1583501262.928,32.227,34.180,46.387,28.809,18.066,0
1583501262.931,31.738,32.227,47.852,28.320,-7.324,0
1583501262.935,36.133,35.645,49.316,32.227,50.781,0
1583501262.939,35.156,36.133,48.828,26.367,95.215,0
1583501262.943,26.367,34.668,42.969,19.531,49.316,0
1583501262.947,24.414,34.668,41.016,18.555,20.020,0
1583501262.964,25.879,31.250,42.480,22.461,12.207,0
1583501262.968,25.879,30.762,40.039,25.879,39.551,0
1583501262.972,26.855,32.715,37.598,19.531,68.359,0
1583501262.976,26.855,34.180,40.527,20.020,22.949,0
1583501262.980,25.879,34.668,40.527,24.414,-20.020,0
1583501262.984,22.949,32.715,38.086,21.973,8.301,0
1583501262.988,28.809,33.691,41.016,20.508,39.551,0
1583501262.991,37.109,35.645,43.945,26.855,53.711,0
1583501262.995,37.598,34.180,41.992,28.809,102.539,0
1583501262.999,35.156,31.738,40.527,27.832,77.637,0
1583501263.003,31.738,28.809,39.551,27.832,-1.953,0
1583501263.007,32.227,29.297,40.039,27.344,72.754,0
1583501263.004,33.691,31.738,41.992,25.391,34.180,0
1583501263.008,30.762,30.273,40.039,25.879,2.930,0
1583501263.012,33.203,34.180,41.016,32.715,-1.465,0
1583501263.016,34.668,37.598,45.898,32.715,-37.598,0
1583501263.020,31.250,34.180,44.922,26.855,43.945,0
1583501263.024,30.273,30.762,40.527,23.926,48.828,0
1583501263.028,30.762,31.738,37.598,23.438,12.695,0
1583501263.031,32.715,30.762,37.598,19.043,7.324,0
1583501263.035,32.227,27.832,38.574,17.090,18.555,0
1583501263.039,32.715,28.320,35.645,21.973,62.988,0
1583501263.043,35.156,31.250,34.180,20.020,56.641,0
1583501263.047,39.062,32.227,37.598,18.066,23.438,0
1583501263.044,33.203,30.762,34.180,18.555,41.992,0
1583501263.048,24.902,32.715,35.645,20.508,70.312,0
1583501263.052,25.879,35.156,41.992,24.414,89.355,0
1583501263.056,23.926,31.250,39.551,23.926,109.375,0
1583501263.060,24.414,26.367,35.645,20.996,72.266,0
1583501263.064,29.297,25.391,35.156,18.066,44.922,0
1583501263.068,31.250,29.785,34.668,20.996,60.547,0
1583501263.071,29.785,31.250,32.715,21.484,40.527,0
1583501263.075,27.832,30.762,33.691,16.113,36.133,0
1583501263.079,26.367,32.715,33.691,12.695,46.875,0
1583501263.083,32.227,35.645,35.645,22.949,12.695,0
1583501263.087,36.621,36.621,39.062,27.832,0.977,0
1583501263.104,27.344,34.180,33.691,18.066,38.574,0
1583501263.108,23.438,33.203,32.715,16.602,-10.742,0
1583501263.112,24.902,30.762,36.621,21.973,-62.012,0
1583501263.116,25.879,29.297,34.668,21.973,44.434,0
1583501263.120,26.367,29.785,30.273,20.996,74.707,0
1583501263.124,28.809,29.785,31.738,21.973,72.754,0
1583501263.128,30.273,31.250,38.086,23.926,83.496,0
1583501263.131,30.762,31.738,42.480,26.855,18.066,0
1583501263.135,36.621,30.762,42.969,30.762,1.953,0
1583501263.139,37.598,34.180,42.480,31.250,25.391,0
1583501263.143,31.250,34.668,37.598,21.973,6.836,0
1583501263.147,29.785,33.203,33.203,18.066,8.789,0
1583501263.144,32.715,31.250,31.250,22.949,23.926,0
1583501263.148,30.762,30.273,31.738,17.090,11.230,0
1583501263.152,26.367,31.738,35.645,15.625,43.457,0
1583501263.156,28.809,32.715,37.109,20.996,22.949,0
1583501263.160,33.691,34.668,35.645,24.902,-0.488,0
1583501263.164,35.645,34.668,36.621,27.832,17.090,0
1583501263.168,34.668,33.691,37.598,27.344,21.973,0
1583501263.171,34.180,36.133,39.062,27.344,16.113,0
1583501263.175,29.297,32.715,40.039,21.484,-3.418,0
1583501263.179,23.438,26.855,37.109,16.113,-26.367,0
1583501263.183,23.926,27.832,36.621,12.207,-50.781,0
1583501263.187,21.973,29.297,37.109,9.277,-49.316,0
1583501263.184,23.438,30.273,36.133,16.602,4.395,0
1583501263.188,25.391,28.809,35.156,19.531,68.359,0
1583501263.192,26.367,30.762,37.109,16.602,0.977,0
1583501263.196,21.973,34.668,36.621,13.184,-29.785,0
1583501263.200,21.973,35.156,36.621,17.090,-30.762,0
1583501263.204,28.809,38.574,35.645,21.973,53.223,0
1583501263.208,30.273,36.133,32.227,22.949,155.762,0
1583501263.211,30.273,29.297,31.250,21.973,112.793,0
1583501263.215,28.320,27.832,33.691,12.695,30.762,0
1583501263.219,25.391,27.832,33.203,12.695,18.555,0
1583501263.223,25.391,29.785,32.227,22.461,73.730,0
1583501263.227,21.973,33.203,31.738,17.578,86.426,0
1583501263.244,20.996,33.203,33.691,10.742,51.270,0
1583501263.248,20.508,35.156,35.156,18.555,7.812,0
1583501263.252,18.555,35.645,33.691,17.578,13.184,0
1583501263.256,19.043,33.691,33.691,13.672,34.180,0
1583501263.260,20.996,34.668,32.227,15.137,69.336,0
1583501263.264,16.602,35.645,33.691,15.625,41.992,0
1583501263.268,10.742,34.668,34.668,7.324,33.691,0
1583501263.271,11.230,32.715,32.227,-0.488,48.828,0
1583501263.275,12.695,36.621,35.156,4.395,28.809,0
1583501263.279,10.742,37.598,36.621,4.395,73.730,0
1583501263.283,3.418,34.668,33.691,-2.930,41.016,0
1583501263.287,-0.488,34.668,35.645,-5.859,29.785,0
1583501263.283,1.953,35.156,37.598,-7.812,41.016,0
1583501263.287,0.000,34.668,36.133,-9.277,-15.137,0
1583501263.291,-0.977,34.180,38.086,-10.254,15.625,0
1583501263.295,1.953,31.250,36.133,-7.324,37.598,0
1583501263.299,12.207,34.180,36.133,3.906,26.855,0
1583501263.303,15.137,36.133,39.551,9.277,64.941,0
1583501263.307,9.766,32.227,39.062,7.812,59.082,0
1583501263.310,12.695,33.203,39.062,7.324,54.688,0
1583501263.314,19.043,34.668,36.133,12.695,17.090,0
1583501263.318,21.973,32.227,36.133,20.020,-13.672,0
1583501263.322,19.043,32.715,39.062,14.160,8.789,0
1583501263.326,20.508,31.738,36.133,14.160,24.414,0
1583501263.324,28.320,30.762,33.691,20.020,51.270,0
1583501263.328,33.203,30.762,33.203,20.996,16.113,0
1583501263.332,32.715,31.738,34.668,25.879,19.043,0
1583501263.336,36.621,34.180,37.598,32.227,30.273,0
1583501263.340,35.645,32.227,34.668,27.344,30.273,0
1583501263.344,34.180,28.320,33.203,20.996,10.254,0
1583501263.348,32.227,27.344,33.203,23.438,27.344,0
1583501263.351,32.227,26.855,31.250,29.297,47.852,0
1583501263.355,36.133,28.320,32.715,30.273,83.008,0
1583501263.359,37.109,30.762,32.715,30.273,63.477,0
1583501263.363,37.109,33.203,34.668,37.598,-8.789,0
1583501263.367,34.668,34.668,37.598,41.992,39.551,0
1583501263.384,37.109,34.180,38.086,39.551,62.012,0
1583501263.388,41.016,36.133,39.551,40.527,48.340,0
1583501263.392,41.504,34.180,36.133,40.527,46.387,0
1583501263.396,43.945,33.203,36.133,39.062,62.012,0
1583501263.400,47.363,37.109,39.551,43.457,65.918,0
1583501263.404,45.898,35.156,39.062,46.387,63.965,0
1583501263.408,37.109,33.691,37.109,31.250,57.129,0
1583501263.411,34.180,31.738,34.668,24.902,39.551,0
1583501263.415,39.062,30.762,33.203,34.668,22.949,0
1583501263.419,39.062,32.227,34.180,36.621,37.598,0
1583501263.423,36.133,32.715,37.109,33.691,68.359,0
1583501263.427,33.691,31.250,37.598,32.227,62.988,0
1583501263.423,33.203,30.762,35.156,26.855,34.668,0
1583501263.427,30.762,32.227,34.180,24.414,11.230,0
1583501263.431,32.715,33.691,36.133,23.926,40.039,0
1583501263.435,34.668,35.156,38.086,25.879,41.992,0
1583501263.439,34.668,33.691,35.156,27.832,29.297,0
1583501263.443,35.645,33.203,31.738,23.438,18.555,0
1583501263.447,36.621,34.668,33.691,20.508,-33.203,0
1583501263.450,36.133,35.156,35.156,20.508,-44.434,0
1583501263.454,37.109,33.203,33.691,22.949,-3.418,0
1583501263.458,41.504,33.203,31.738,23.926,9.277,0
1583501263.462,37.109,32.715,32.227,21.484,51.758,0
1583501263.466,31.738,29.297,35.645,21.973,70.312,0
1583501263.463,28.809,29.785,38.086,22.949,51.270,0
1583501263.467,29.297,30.762,39.062,27.344,40.039,0
1583501263.471,37.598,30.273,43.457,38.086,18.555,0
1583501263.475,43.457,33.203,39.551,40.527,34.180,0
1583501263.479,35.645,35.645,35.156,28.809,32.227,0
1583501263.483,26.367,36.621,36.133,23.438,-14.648,0
1583501263.487,24.902,39.551,30.273,20.020,6.348,0
1583501263.490,20.508,40.527,23.926,10.254,42.969,0
1583501263.494,22.949,41.504,21.484,10.254,37.598,0
1583501263.498,22.461,43.457,18.066,11.719,96.680,0
1583501263.502,20.508,47.363,14.648,9.277,66.895,0
1583501263.506,27.832,49.805,16.113,12.207,64.453,0
1583501263.524,28.320,47.852,16.602,13.184,62.500,0
1583501263.528,29.297,48.828,18.066,15.625,52.246,0
1583501263.532,31.738,49.805,19.531,18.555,75.684,0
1583501263.536,28.320,43.457,17.578,15.137,46.387,0
1583501263.540,27.832,39.551,20.508,14.648,29.785,0
1583501263.544,30.273,41.016,23.438,21.973,35.156,0
1583501263.548,31.250,40.039,26.367,21.973,3.906,0
1583501263.551,31.738,39.062,24.902,19.043,13.184,0
1583501263.555,34.180,40.527,20.508,22.949,25.879,0
1583501263.559,37.109,41.016,20.508,24.414,45.410,0
1583501263.563,32.227,39.062,20.020,24.414,42.480,0
1583501263.567,34.180,37.109,23.926,27.344,16.602,0
1583501263.564,37.109,33.691,27.832,20.508,13.672,0
1583501263.568,33.691,32.227,27.832,13.184,-4.395,0
1583501263.572,41.016,34.668,28.320,26.855,-5.859,0
1583501263.576,42.969,34.180,28.809,30.762,20.996,0
1583501263.580,40.527,34.668,24.902,21.973,27.832,0
1583501263.584,40.527,34.668,25.391,22.461,43.945,0
1583501263.588,43.945,33.203,27.344,30.762,39.062,0
1583501263.591,42.480,32.227,29.297,28.320,-18.555,0
1583501263.595,35.156,33.691,29.785,21.973,-11.719,0
1583501263.599,35.645,33.203,29.785,23.926,70.312,0
1583501263.603,41.504,30.762,31.250,24.902,31.738,0
1583501263.607,41.992,33.691,31.738,27.832,-0.977,0
1583501263.604,40.527,35.645,34.668,30.273,37.109,0
1583501263.608,43.457,32.715,35.645,32.715,39.062,0
1583501263.612,43.457,30.762,33.203,32.227,43.945,0
1583501263.616,46.387,33.691,33.203,33.203,60.547,0
1583501263.620,46.875,33.203,31.250,35.156,29.785,0
1583501263.624,40.039,29.297,31.250,30.273,27.832,0
1583501263.628,38.574,28.809,30.273,29.785,51.270,0
1583501263.631,39.062,28.320,27.832,33.203,32.227,0
1583501263.635,34.668,26.855,29.785,27.344,35.156,0
1583501263.639,31.738,29.785,30.273,29.297,32.715,0
1583501263.643,30.762,35.156,31.250,3.418,28.320,0
1583501263.647,27.344,30.762,30.762,0.488,31.738,0
1583501263.664,25.391,25.879,30.762,34.180,49.805,0
1583501263.668,25.879,26.855,31.250,22.949,88.867,0
1583501263.672,29.297,26.855,29.785,26.855,76.660,0
1583501263.676,25.391,27.344,28.809,29.297,37.109,0
1583501263.680,23.438,26.367,28.809,25.391,38.574,0
1583501263.684,26.855,30.273,32.227,25.391,10.742,0
1583501263.688,27.344,33.691,34.668,19.531,23.926,0
1583501263.691,32.715,31.738,32.715,23.438,79.102,0
1583501263.695,35.645,33.203,35.645,29.785,34.668,0
1583501263.699,37.598,31.738,33.203,28.320,0.488,0
1583501263.703,35.645,30.273,30.273,25.879,53.223,0
1583501263.707,38.574,31.738,30.273,26.855,46.875,0
1583501263.704,45.410,34.180,25.879,32.227,23.926,0
1583501263.708,34.180,32.227,27.832,26.367,55.664,0
1583501263.712,23.926,30.762,31.738,17.578,47.363,0
1583501263.716,29.297,33.203,34.668,12.207,15.625,0
1583501263.720,28.320,32.227,34.668,13.672,19.043,0
1583501263.724,28.809,32.227,30.762,20.996,16.602,0
1583501263.728,34.668,31.250,31.250,22.461,-7.324,0
1583501263.731,32.715,32.227,33.203,23.926,-16.113,0
1583501263.735,34.668,34.668,36.133,27.344,18.555,0
1583501263.739,31.250,31.250,35.645,23.926,47.363,0
1583501263.743,28.809,28.809,29.297,17.578,13.184,0
1583501263.747,28.809,31.250,27.344,21.484,43.945,0
1583501263.745,29.297,31.250,30.762,26.855,62.500,0
1583501263.749,31.250,29.785,30.273,22.461,84.961,0
1583501263.753,29.297,32.715,31.738,19.043,74.219,0
1583501263.757,28.320,34.668,32.227,20.508,72.266,0
1583501263.761,24.414,34.668,30.273,17.578,117.676,0
1583501263.765,25.391,33.691,33.203,20.020,66.406,0
1583501263.769,29.785,34.668,33.691,27.344,45.898,0
1583501263.772,33.203,36.621,34.180,22.461,40.527,0
1583501263.776,34.180,35.645,35.156,16.113,9.766,0
1583501263.780,29.785,34.180,35.645,24.414,10.254,0
1583501263.784,29.297,34.668,34.180,27.344,38.086,0
1583501263.788,30.273,33.203,31.738,22.461,64.941,0
1583501263.804,31.738,30.762,31.250,19.531,6.836,0
1583501263.808,31.738,31.250,30.273,21.973,-18.555,0
1583501263.812,32.227,33.203,32.715,27.344,33.691,0
1583501263.816,31.738,34.668,35.156,22.461,59.082,0
1583501263.820,33.203,39.551,35.645,23.926,119.141,0
1583501263.824,46.387,41.504,38.574,37.109,111.816,0
1583501263.828,39.551,34.668,41.016,31.738,3.906,0
1583501263.831,21.973,29.785,42.969,20.508,15.625,0
1583501263.835,21.484,29.297,45.410,23.438,-9.277,0
1583501263.839,19.531,27.832,47.852,25.879,-57.617,0
1583501263.843,14.160,25.879,45.898,21.484,-62.988,0
1583501263.847,14.648,25.879,44.434,21.484,31.250,0
1583501263.845,16.113,22.461,43.457,16.602,28.320,0
1583501263.849,19.043,21.973,44.922,9.277,-74.219,0
1583501263.853,20.020,26.855,47.852,14.160,-26.855,0
1583501263.857,13.672,26.367,46.387,12.207,54.199,0
1583501263.861,17.578,24.414,43.457,13.672,90.820,0
1583501263.865,26.367,25.879,40.527,16.602,51.270,0
1583501263.869,25.879,23.926,41.016,16.113,1.465,0
1583501263.872,26.855,25.391,42.480,25.879,23.438,0
1583501263.876,32.715,27.832,43.945,28.809,41.016,0
1583501263.880,34.180,27.344,41.992,29.297,11.230,0
1583501263.884,31.738,27.344,40.039,28.320,11.719,0
1583501263.888,33.691,27.344,41.992,32.715,37.598,0
1583501263.884,37.598,26.367,38.574,33.203,75.684,0
1583501263.888,34.668,23.926,35.645,12.207,38.086,0
1583501263.892,31.250,21.973,36.133,21.973,-19.531,0
1583501263.896,31.250,23.926,37.109,35.645,-28.809,0
1583501263.900,28.320,25.879,36.621,25.879,47.852,0
1583501263.904,24.414,23.926,35.156,26.367,37.109,0
1583501263.908,23.926,22.949,36.621,26.855,21.973,0
1583501263.911,26.367,27.832,40.039,26.367,5.371,0
1583501263.915,33.691,31.250,43.457,31.250,1.953,0
1583501263.919,39.062,27.344,41.016,32.227,74.707,0
1583501263.923,31.250,25.391,38.574,26.855,61.035,0
1583501263.927,29.297,28.320,34.180,25.391,43.457,0
1583501263.945,30.762,28.809,28.809,27.344,28.320,0
1583501263.949,31.250,29.297,30.273,27.344,56.152,0
1583501263.953,32.227,32.227,34.180,26.855,84.473,0
1583501263.957,28.809,31.738,37.109,31.250,39.062,0
1583501263.961,29.785,29.785,36.133,31.250,6.348,0
1583501263.965,29.785,31.738,38.086,27.344,14.648,0
1583501263.969,27.344,31.738,39.062,26.367,47.363,0
1583501263.972,23.926,29.297,35.645,27.832,8.789,0
1583501263.976,23.438,30.273,38.574,26.855,-10.254,0
1583501263.980,26.855,30.762,37.598,22.949,35.156,0
1583501263.984,26.855,30.762,36.133,13.672,27.344,0
1583501263.988,26.367,30.273,36.621,8.301,36.621,0
1583501263.984,27.832,28.809,35.156,12.695,1.465,0
1583501263.988,29.785,29.297,36.133,14.648,-2.930,0
1583501263.992,26.855,27.344,38.086,17.090,17.090,0
1583501263.996,23.438,25.879,38.086,16.113,-16.113,0
1583501264.000,24.414,26.367,38.086,19.531,-25.879,0
1583501264.004,27.832,26.855,38.086,26.855,-8.301,0
1583501264.008,31.738,28.809,40.039,27.832,4.395,0
1583501264.011,32.227,25.391,41.992,25.879,7.324,0
1583501264.015,27.344,24.902,37.598,24.414,-21.484,0
1583501264.019,23.438,26.855,37.109,20.996,-34.668,0
1583501264.023,21.973,25.879,37.109,20.508,3.906,0
1583501264.027,26.367,26.855,36.133,20.996,-2.930,0
1583501264.024,26.855,30.762,37.109,20.020,-26.367,0
1583501264.028,27.344,31.738,37.109,26.367,-15.137,0
1583501264.032,24.902,31.250,37.109,25.391,15.625,0
1583501264.036,17.090,31.250,36.133,16.602,60.547,0
1583501264.040,21.484,31.738,35.156,18.555,75.684,0
1583501264.044,28.809,35.645,39.062,25.391,55.176,0
1583501264.048,21.973,37.598,38.574,25.391,43.457,0
1583501264.051,13.672,33.691,35.645,15.137,76.172,0
1583501264.055,13.672,31.738,35.156,8.789,79.102,0
1583501264.059,16.602,29.785,33.691,15.137,70.801,0
1583501264.063,13.672,29.297,32.715,16.602,37.598,0
1583501264.067,12.695,31.738,32.227,15.625,22.461,0
1583501264.084,18.555,32.715,33.691,15.625,62.500,0
1583501264.088,20.508,31.250,33.691,13.672,74.219,0
1583501264.092,20.996,33.203,35.156,15.625,43.945,0
1583501264.096,22.949,36.621,40.527,18.066,2.441,0
1583501264.100,22.461,35.645,38.086,16.113,34.668,0
1583501264.104,18.066,34.180,35.156,9.277,88.867,0
1583501264.108,15.625,31.738,33.691,6.836,66.406,0
1583501264.111,19.531,30.273,29.785,13.184,27.344,0
1583501264.115,25.879,33.691,32.227,18.066,72.754,0
1583501264.119,27.344,36.133,35.156,19.043,41.992,0
1583501264.123,23.926,34.180,34.668,20.508,-11.230,0
1583501264.127,22.461,32.227,33.691,17.090,33.691,0
1583501264.124,22.949,32.715,34.180,12.695,-8.789,0
1583501264.128,20.020,32.227,35.156,17.090,-2.930,0
1583501264.132,24.414,33.203,35.645,21.973,55.176,0
1583501264.136,31.738,36.133,34.668,26.367,33.203,0
1583501264.140,22.461,35.156,34.668,15.625,85.449,0
1583501264.144,15.137,32.715,32.227,6.836,88.379,0
1583501264.148,16.113,32.715,31.738,13.672,62.012,0
1583501264.151,11.719,30.273,33.691,11.719,36.133,0
1583501264.155,14.648,29.297,32.715,11.230,11.719,0
1583501264.159,20.020,30.273,32.227,9.277,27.344,0
1583501264.163,20.996,30.273,30.762,9.766,29.785,0
1583501264.167,24.902,30.762,29.785,22.461,41.992,0
1583501264.164,24.414,32.715,30.762,22.461,17.578,0
1583501264.168,25.391,37.109,35.156,23.438,23.438,0
1583501264.172,28.809,36.133,35.156,22.949,61.035,0
1583501264.176,25.879,33.691,29.785,16.602,97.656,0
1583501264.180,24.902,37.109,31.738,20.020,82.520,0
1583501264.184,26.855,39.062,35.156,21.973,17.578,0
1583501264.188,28.320,37.598,34.668,18.066,25.391,0
1583501264.191,28.320,37.598,33.691,15.137,67.383,0
1583501264.195,32.715,41.016,30.762,19.531,44.922,0
1583501264.199,39.062,39.551,30.273,26.855,37.109,0
1583501264.203,36.621,36.621,35.156,20.508,42.969,0
1583501264.207,37.109,38.574,38.574,22.949,16.113,0
1583501264.224,35.156,37.109,38.574,29.297,36.133,0
1583501264.228,29.297,34.180,38.086,27.344,-6.836,0
1583501264.232,31.738,33.203,35.645,31.250,-29.297,0
1583501264.236,34.180,32.227,35.156,31.250,3.906,0
1583501264.240,28.809,29.297,36.621,32.227,13.672,0
1583501264.244,26.367,31.250,38.086,32.715,9.277,0
1583501264.248,29.297,32.715,36.133,32.715,4.395,0
1583501264.251,31.738,30.762,33.691,31.250,-18.555,0
1583501264.255,34.668,31.738,32.227,32.715,-11.719,0
1583501264.259,34.668,31.738,33.203,35.645,41.016,0
1583501264.263,40.039,33.691,37.109,33.203,71.777,0
1583501264.267,41.504,33.691,40.039,27.832,39.062,0
1583501264.264,35.156,29.297,38.574,29.785,16.113,0
1583501264.268,34.668,26.855,36.133,30.273,34.668,0
1583501264.272,33.691,30.273,38.086,28.320,41.016,0
1583501264.276,33.691,32.227,36.621,25.879,95.215,0
1583501264.280,34.668,32.715,33.203,23.438,71.777,0
1583501264.284,32.715,35.156,34.668,26.367,31.738,0
1583501264.288,35.645,35.645,32.227,28.809,67.871,0
1583501264.291,37.109,33.691,30.762,27.832,22.949,0
1583501264.295,38.574,34.668,33.691,22.949,37.598,0
1583501264.299,38.574,35.156,32.227,21.484,37.109,0
1583501264.303,38.086,35.156,33.203,27.344,26.855,0
1583501264.307,44.922,36.621,36.621,33.203,76.172,0
1583501264.324,41.504,33.203,34.180,27.344,31.250,0
1583501264.328,31.738,30.762,31.250,25.391,48.340,0
1583501264.332,34.180,34.668,33.691,30.762,8.789,0
1583501264.336,41.504,35.645,31.250,35.645,-20.996,0
1583501264.340,45.410,32.715,28.809,40.039,56.152,0
1583501264.344,38.574,28.809,36.133,36.133,45.410,0
1583501264.348,29.297,25.391,41.992,32.227,58.594,0
1583501264.351,15.625,20.996,43.457,20.996,83.984,0
1583501264.355,15.625,17.090,45.898,20.996,14.648,0
1583501264.359,24.902,19.043,51.758,31.738,-56.152,0
1583501264.363,16.113,18.555,50.293,25.879,-29.785,0
1583501264.367,13.184,17.578,44.922,22.461,8.789,0
1583501264.364,12.695,16.602,43.457,17.578,25.879,0
1583501264.368,12.207,18.555,41.992,17.090,32.227,0
1583501264.372,20.020,22.949,42.480,22.461,17.090,0
1583501264.376,24.902,23.926,41.504,27.832,42.969,0
1583501264.380,27.344,25.391,41.016,25.879,65.430,0
1583501264.384,29.297,26.855,42.480,27.344,80.078,0
1583501264.388,27.344,25.879,39.551,32.227,55.664,0
1583501264.391,31.250,26.367,39.062,35.156,16.602,0
1583501264.395,35.645,28.809,41.016,35.156,23.438,0
1583501264.399,33.203,27.344,37.598,27.832,48.828,0
1583501264.403,30.273,24.414,36.621,22.461,35.645,0
1583501264.407,28.320,26.367,38.574,21.973,50.781,0
1583501264.404,31.738,24.902,37.598,26.855,76.660,0
1583501264.408,31.738,22.461,39.062,28.320,23.438,0
1583501264.412,27.344,24.414,40.527,22.949,-14.648,0
1583501264.416,24.902,23.438,40.039,21.973,-10.742,0
1583501264.420,27.344,21.973,37.109,23.438,43.945,0
1583501264.424,29.297,24.414,33.203,22.949,57.129,0
1583501264.428,31.250,29.785,36.621,24.902,44.922,0
1583501264.431,36.133,31.738,41.504,27.344,45.410,0
1583501264.435,32.715,29.785,39.062,26.855,60.059,0
1583501264.439,29.297,26.367,39.551,25.391,64.453,0
1583501264.443,32.227,26.367,38.086,24.414,18.066,0
1583501264.447,32.715,25.879,32.715,26.367,51.270,0
1583501264.464,32.227,21.973,34.668,30.273,55.664,0
1583501264.468,33.691,25.879,37.109,30.762,11.230,0
1583501264.472,31.250,31.250,35.156,23.438,52.246,0
1583501264.476,30.273,29.785,33.203,20.508,25.879,0
1583501264.480,29.297,29.785,34.180,25.879,19.043,0
1583501264.484,28.320,30.762,34.180,26.855,77.637,0
1583501264.488,30.273,28.809,34.668,23.438,89.844,0
1583501264.491,30.273,32.227,36.621,18.066,71.777,0
1583501264.495,33.203,32.227,29.297,17.090,58.105,0
1583501264.499,33.203,28.320,26.367,20.020,19.531,0
1583501264.503,32.715,28.809,32.227,22.461,-1.953,0
1583501264.507,30.762,27.832,35.156,20.020,-15.137,0
1583501264.504,28.320,26.367,32.227,17.578,11.230,0
1583501264.508,32.227,27.832,29.785,21.973,36.133,0
1583501264.512,31.250,28.809,31.250,22.949,36.621,0
1583501264.516,29.297,29.297,32.715,21.484,51.758,0
1583501264.520,28.320,27.832,34.180,21.484,-2.441,0
1583501264.524,30.273,26.855,34.180,23.926,-2.930,0
1583501264.528,33.691,29.785,35.645,27.344,14.648,0
1583501264.531,27.832,28.809,35.156,23.926,-3.418,0
1583501264.535,21.973,25.879,31.250,17.578,21.973,0
1583501264.539,24.902,26.855,28.809,19.531,52.734,0
1583501264.543,30.273,29.297,29.785,26.855,47.852,0
1583501264.547,27.344,27.832,33.691,23.438,55.664,0
1583501264.545,26.855,26.855,32.227,19.043,88.379,0
1583501264.549,28.809,29.297,29.785,23.438,71.777,0
1583501264.553,25.879,31.738,32.227,22.461,60.547,0
1583501264.557,31.738,34.668,34.668,20.508,50.781,0
1583501264.561,31.250,33.691,33.691,19.531,87.402,0
1583501264.565,28.320,31.250,32.227,19.531,75.684,0
1583501264.569,31.738,31.250,32.227,23.438,-35.156,0
1583501264.572,31.250,31.250,29.785,25.391,-30.273,0
1583501264.576,33.203,32.227,30.273,20.020,7.324,0
1583501264.580,31.738,31.738,32.227,14.160,-12.207,0
1583501264.584,29.297,29.785,29.297,17.090,57.617,0
1583501264.588,28.809,31.250,29.297,19.043,34.668,0
1583501264.604,27.832,31.738,31.250,17.578,-1.465,0
1583501264.608,24.902,33.203,33.203,18.066,6.836,0
1583501264.612,20.508,34.180,33.691,20.020,-38.574,0
1583501264.616,24.414,35.156,33.203,24.414,2.930,0
1583501264.620,26.855,38.574,33.203,25.391,-14.648,0
1583501264.624,22.461,36.621,33.691,21.484,8.789,0
1583501264.628,20.020,32.715,31.250,18.555,51.758,0
1583501264.631,19.531,31.738,29.297,16.113,-9.766,0
1583501264.635,21.484,28.320,30.273,12.695,5.859,0
1583501264.639,26.367,30.273,30.762,14.160,36.621,0
1583501264.643,35.645,32.715,29.297,24.902,22.461,0
1583501264.647,39.551,31.738,32.715,33.691,48.828,0
1583501264.645,24.414,30.273,38.086,24.902,37.109,0
1583501264.649,12.695,25.879,41.016,18.066,-11.719,0
1583501264.653,16.113,23.438,42.969,23.438,-3.418,0
1583501264.657,20.508,27.832,41.992,25.879,1.953,0
1583501264.661,22.461,27.344,42.969,23.926,44.922,0
1583501264.665,16.602,24.414,41.016,15.137,34.668,0
1583501264.669,13.672,21.973,38.574,9.766,1.465,0
1583501264.672,18.555,22.461,37.109,17.090,23.438,0
1583501264.676,20.508,25.879,32.715,22.461,45.898,0
1583501264.680,22.949,27.832,33.691,21.484,68.359,0
1583501264.684,27.832,29.297,38.086,21.973,3.418,0
1583501264.688,25.879,28.320,36.133,20.996,20.996,0
1583501264.684,27.344,30.273,35.156,25.391,64.453,0
1583501264.688,30.762,33.691,34.180,29.785,47.363,0
1583501264.692,34.668,36.133,35.645,31.738,79.590,0
1583501264.696,37.109,38.086,40.039,33.691,94.727,0
1583501264.700,34.180,34.668,35.645,30.273,78.125,0
1583501264.704,30.273,31.738,31.738,26.855,41.016,0
1583501264.708,27.832,30.273,32.715,21.973,30.762,0
1583501264.711,26.367,29.785,33.691,21.973,0.000,0
1583501264.715,23.926,31.250,33.203,22.949,-25.879,0
1583501264.719,24.414,31.738,31.250,21.973,19.531,0
1583501264.723,26.855,32.227,31.738,29.297,-47.852,0
1583501264.727,27.832,31.738,33.203,26.855,-28.809,0
1583501264.744,26.855,30.273,30.273,22.949,25.391,0
1583501264.748,26.855,29.297,29.297,22.949,41.504,0
1583501264.752,32.227,30.762,32.715,23.926,31.738,0
1583501264.756,34.180,29.297,33.203,24.902,-28.320,0
1583501264.760,32.715,28.809,29.297,25.879,13.184,0
1583501264.764,35.156,30.762,30.762,32.715,13.184,0
1583501264.768,35.156,32.715,33.691,31.738,23.438,0
1583501264.771,33.691,31.738,36.621,20.996,78.125,0
1583501264.775,31.250,28.320,37.109,19.531,36.621,0
1583501264.779,31.250,31.738,35.645,26.855,9.277,0
1583501264.783,29.785,31.250,33.691,27.832,32.227,0
1583501264.787,29.297,25.879,32.715,20.996,18.066,0
1583501264.784,26.855,23.438,31.250,14.648,1.465,0
1583501264.788,27.832,27.344,31.738,14.648,2.441,0
1583501264.792,29.785,31.738,30.273,20.508,1.465,0
1583501264.796,33.203,32.715,29.785,22.949,18.555,0
1583501264.800,34.668,32.715,30.762,23.438,95.703,0
1583501264.804,35.645,31.738,31.250,22.949,113.770,0
1583501264.808,35.645,32.715,31.738,23.438,56.152,0
1583501264.811,31.250,33.691,31.250,24.414,56.641,0
1583501264.815,30.762,32.715,32.227,23.438,57.129,0
1583501264.819,34.180,31.738,32.715,27.344,22.461,0
1583501264.823,30.273,30.273,32.227,21.484,5.859,0
1583501264.827,26.855,28.320,30.762,20.996,1.953,0
1583501264.824,27.344,24.902,32.715,26.855,25.391,0
1583501264.828,28.320,24.902,34.180,24.902,43.945,0
1583501264.832,29.785,29.297,35.645,30.273,0.977,0
1583501264.836,30.762,31.250,35.645,32.227,11.230,0
1583501264.840,33.691,30.762,34.180,29.785,46.875,0
1583501264.844,37.109,29.785,35.645,30.273,54.199,0
1583501264.848,39.062,33.203,38.574,33.691,-4.883,0
1583501264.851,35.645,33.691,37.598,33.691,14.648,0
1583501264.855,36.621,30.762,33.691,26.367,136.719,0
1583501264.859,35.156,29.297,31.250,22.461,75.684,0
1583501264.863,30.762,29.785,28.320,26.367,-36.133,0
1583501264.867,32.715,30.273,31.250,29.297,-74.707,0
1583501264.884,32.227,29.785,35.156,29.785,-8.301,0
1583501264.888,32.227,31.250,35.156,28.809,21.973,0
1583501264.892,28.809,31.738,34.668,25.879,-21.973,0
1583501264.896,24.414,30.762,35.645,25.391,14.160,0
1583501264.900,22.949,30.762,33.691,21.484,56.152,0
1583501264.904,25.879,30.762,30.273,23.438,21.973,0
1583501264.908,29.297,34.180,34.180,24.902,-13.184,0
1583501264.911,25.879,33.203,36.621,24.902,-14.160,0
1583501264.915,24.902,28.320,32.715,26.367,20.508,0
1583501264.919,27.344,27.832,32.227,25.391,56.152,0
1583501264.923,29.297,29.297,33.691,24.902,68.848,0
1583501264.927,31.250,31.250,33.691,25.391,55.664,0
1583501264.924,29.785,30.273,33.203,26.367,44.922,0
1583501264.928,23.926,25.879,29.785,22.461,4.395,0
1583501264.932,26.367,29.297,32.227,21.973,5.859,0
1583501264.936,29.297,31.738,34.180,26.367,62.012,0
1583501264.940,28.809,29.785,31.250,24.414,65.918,0
1583501264.944,30.762,30.273,27.344,23.438,61.523,0
1583501264.948,37.598,30.762,24.902,27.344,97.656,0
1583501264.951,39.062,28.809,30.273,27.832,46.387,0
1583501264.955,31.250,26.367,35.645,28.320,-31.250,0
1583501264.959,22.949,26.367,39.551,22.949,26.855,0
1583501264.963,13.672,21.484,47.363,10.254,40.527,0
1583501264.967,15.625,19.043,52.734,16.113,35.645,0
1583501264.964,17.578,16.602,54.688,21.973,58.594,0
1583501264.968,14.160,12.207,52.734,20.996,51.270,0
1583501264.972,10.742,17.090,50.781,17.578,22.949,0
1583501264.976,6.348,20.508,49.805,8.301,19.043,0
1583501264.980,10.254,18.555,46.875,11.230,33.691,0
1583501264.984,18.555,20.996,46.387,20.508,7.812,0
1583501264.988,20.996,20.508,44.434,22.461,25.391,0
1583501264.991,27.832,20.996,43.457,23.926,47.852,0
1583501264.995,32.227,23.926,46.875,27.344,59.082,0
1583501264.999,28.320,26.855,43.945,28.320,53.223,0
1583501265.003,29.785,27.344,40.527,27.832,83.984,0
1583501265.007,26.855,26.367,41.504,21.973,87.402,0
1583501265.024,21.484,27.832,40.527,18.555,41.016,0
1583501265.028,20.996,28.320,40.527,20.508,31.738,0
1583501265.032,21.484,28.320,40.527,21.484,57.129,0
1583501265.036,24.414,29.785,39.551,20.508,55.176,0
1583501265.040,25.879,29.785,38.574,19.531,49.805,0
1583501265.044,28.809,31.738,40.527,22.949,33.691,0
1583501265.048,34.180,31.250,43.457,26.855,35.156,0
1583501265.051,31.738,29.297,43.457,25.391,65.918,0
1583501265.055,31.250,28.809,41.016,23.438,25.391,0
1583501265.059,37.109,32.227,38.574,27.344,60.547,0
1583501265.063,37.109,34.180,41.504,32.227,72.266,0
1583501265.067,34.668,33.203,42.480,31.738,-4.883,0
1583501265.065,38.574,33.691,44.922,33.691,34.180,0
1583501265.069,41.992,34.668,48.828,38.574,31.738,0
1583501265.073,41.016,35.156,47.363,41.504,11.719,0
1583501265.077,38.574,34.668,46.387,37.598,26.855,0
1583501265.081,43.945,40.039,45.898,34.180,-27.832,0
1583501265.085,42.969,39.062,44.434,32.715,-20.508,0
1583501265.089,37.109,35.645,41.992,32.715,38.086,0
1583501265.092,35.645,38.574,39.062,33.691,49.805,0
1583501265.096,33.203,36.133,36.621,29.785,44.922,0
1583501265.100,28.809,34.180,33.691,24.902,58.594,0
1583501265.104,27.344,33.691,33.691,25.391,74.707,0
1583501265.108,31.250,31.250,39.551,27.832,40.039,0
1583501265.104,29.297,30.762,39.062,25.879,-44.922,0
1583501265.108,23.926,31.250,34.668,25.391,-6.836,0
1583501265.112,25.879,29.785,36.621,29.297,63.477,0
1583501265.116,28.809,30.273,41.504,33.203,38.086,0
1583501265.120,29.297,31.738,38.574,29.785,18.066,0
1583501265.124,32.715,29.297,35.645,26.855,48.828,0
1583501265.128,34.668,27.832,34.180,28.320,19.043,0
1583501265.131,36.621,28.809,31.738,28.320,38.574,0
1583501265.135,40.039,28.809,32.715,22.949,32.227,0
1583501265.139,41.992,29.297,33.691,20.996,3.418,0
1583501265.143,46.875,31.738,34.180,25.391,38.574,0
1583501265.147,41.992,30.273,33.203,29.297,42.969,0
1583501265.164,33.203,31.738,34.668,29.785,17.090,0
1583501265.168,32.227,34.668,37.109,22.949,43.457,0
1583501265.172,27.832,31.250,32.715,18.066,34.180,0
1583501265.176,25.391,27.832,28.809,19.531,13.184,0
1583501265.180,25.391,27.344,31.250,21.973,31.738,0
1583501265.184,22.461,26.367,34.180,22.461,44.922,0
1583501265.188,23.438,25.391,37.109,19.043,36.133,0
1583501265.191,24.902,25.391,36.621,19.043,28.320,0
1583501265.195,23.926,25.879,36.133,25.879,96.191,0
1583501265.199,26.855,27.832,35.156,31.738,66.895,0
1583501265.203,29.785,29.785,39.062,32.227,-14.648,0
1583501265.207,27.832,28.809,40.527,30.762,19.531,0
1583501265.204,25.391,27.832,33.691,30.762,47.363,0
1583501265.208,27.832,27.344,32.227,27.344,25.879,0
1583501265.212,28.809,31.250,31.738,26.855,-13.672,0
1583501265.216,31.250,30.273,32.227,32.227,-6.836,0
1583501265.220,32.715,26.855,31.738,32.227,35.156,0
1583501265.224,30.762,30.273,31.250,31.250,27.344,0
1583501265.228,32.227,35.645,32.227,29.297,60.059,0
1583501265.231,43.457,40.039,32.227,32.227,47.852,0
1583501265.235,50.781,39.551,36.133,45.410,10.254,0
1583501265.239,32.227,34.180,42.969,32.715,34.180,0
1583501265.243,15.625,28.320,43.457,17.090,47.363,0
1583501265.247,19.043,27.344,42.969,25.391,19.531,0
1583501265.244,21.973,29.785,44.922,32.715,37.598,0
1583501265.248,21.973,28.320,44.434,30.273,94.238,0
1583501265.252,23.438,29.785,43.945,26.367,59.570,0
1583501265.256,27.832,32.227,43.457,29.297,38.086,0
1583501265.260,30.762,31.738,43.457,27.344,68.848,0
1583501265.264,31.738,32.715,41.016,25.391,51.758,0
1583501265.268,35.645,35.156,39.062,31.250,4.395,0
1583501265.271,33.691,36.133,41.504,29.297,-33.691,0
1583501265.275,26.367,32.227,38.574,21.973,28.809,0
1583501265.279,26.855,27.832,37.109,20.996,91.309,0
1583501265.283,28.320,28.809,40.527,26.855,104.980,0
1583501265.287,25.879,29.297,39.062,27.344,68.848,0
1583501265.304,25.391,30.273,37.598,24.414,22.949,0
1583501265.308,26.855,32.715,40.527,25.391,25.879,0
1583501265.312,29.297,31.738,41.504,23.926,-37.598,0
1583501265.316,32.227,31.738,40.527,27.344,-27.832,0
1583501265.320,32.227,33.691,39.551,31.250,40.527,0
1583501265.324,33.691,35.156,43.945,35.156,33.203,0
1583501265.328,35.156,32.715,44.434,32.227,42.969,0
1583501265.331,32.227,27.832,36.133,27.832,61.035,0
1583501265.335,30.762,26.855,34.668,27.832,110.352,0
1583501265.339,31.250,27.344,35.645,27.344,118.652,0
1583501265.343,30.762,26.367,35.645,32.227,75.684,0
1583501265.347,32.227,29.785,33.691,34.180,89.355,0
1583501265.344,35.156,33.691,31.738,28.320,93.750,0
1583501265.348,30.762,32.715,32.715,23.926,79.102,0
1583501265.352,34.180,32.227,35.156,27.832,57.617,0
1583501265.356,37.109,31.738,39.062,29.297,11.719,0
1583501265.360,30.273,27.832,34.180,24.414,-12.207,0
1583501265.364,30.273,28.320,32.715,21.973,50.293,0
1583501265.368,31.250,28.809,34.180,21.484,32.715,0
1583501265.371,29.785,29.297,32.227,21.484,-54.199,0
1583501265.375,29.785,29.785,32.227,22.461,-5.859,0
1583501265.379,28.809,28.320,34.668,19.531,69.336,0
1583501265.383,26.855,30.273,34.180,18.066,50.293,0
1583501265.387,24.902,31.738,35.156,20.508,17.090,0
1583501265.384,24.414,33.203,39.551,21.484,29.297,0
1583501265.388,25.879,35.645,37.109,22.949,16.602,0
1583501265.392,19.531,34.180,36.621,20.020,20.996,0
1583501265.396,19.043,30.762,35.645,21.484,46.387,0
1583501265.400,24.902,32.227,34.180,27.344,46.387,0
1583501265.404,24.902,34.668,38.086,25.391,47.852,0
1583501265.408,28.320,33.691,38.086,22.461,55.664,0
1583501265.411,32.715,35.645,38.574,26.855,50.293,0
1583501265.415,30.762,33.691,38.086,24.902,57.617,0
1583501265.419,28.809,31.738,34.668,20.996,49.805,0
1583501265.423,27.832,32.715,33.203,20.996,50.293,0
1583501265.427,25.879,32.227,32.715,22.461,22.949,0
1583501265.445,25.391,30.762,33.691,24.414,3.906,0
1583501265.449,30.762,28.320,34.180,27.832,42.969,0
1583501265.453,41.992,31.738,29.785,31.250,11.230,0
1583501265.457,32.227,38.574,27.832,19.531,4.395,0
1583501265.461,15.625,39.551,28.320,9.277,55.176,0
1583501265.465,21.484,40.039,29.785,10.742,8.301,0
1583501265.469,28.809,43.457,35.645,6.836,-30.762,0
1583501265.472,26.367,41.504,35.156,8.301,-25.391,0
1583501265.476,27.832,35.645,29.785,16.602,-20.508,0
1583501265.480,26.855,35.156,32.227,20.996,11.230,0
1583501265.484,23.438,36.621,33.203,21.484,40.039,0
1583501265.488,25.391,37.109,35.645,20.020,44.434,0
1583501265.484,23.926,34.180,34.668,21.484,59.082,0
1583501265.488,27.344,36.133,33.691,24.902,65.430,0
1583501265.492,31.250,37.109,37.109,24.902,76.172,0
1583501265.496,30.273,34.668,33.203,21.484,64.453,0
1583501265.500,30.762,35.645,31.738,22.461,41.992,0
1583501265.504,30.762,32.227,33.203,26.855,53.711,0
1583501265.508,29.785,34.180,32.715,30.273,46.875,0
1583501265.511,28.320,35.645,30.762,28.809,1.953,0
1583501265.515,28.320,33.203,30.762,27.832,5.859,0
1583501265.519,27.344,35.645,36.133,25.879,39.062,0
1583501265.523,30.762,37.109,36.621,27.832,28.809,0
1583501265.527,38.086,37.598,37.598,29.785,-32.227,0
1583501265.524,41.016,37.598,41.016,27.344,-13.672,0
1583501265.528,37.109,35.156,38.086,28.809,49.316,0
1583501265.532,30.273,34.180,34.180,24.414,41.504,0
1583501265.536,28.809,32.715,33.691,22.461,23.926,0
1583501265.540,32.715,33.691,34.668,26.367,20.020,0
1583501265.544,37.109,36.133,32.227,26.855,40.527,0
1583501265.548,38.574,35.645,33.203,29.297,57.617,0
1583501265.551,36.133,37.109,34.668,24.414,-35.645,0
1583501265.555,36.133,36.621,30.273,23.926,-60.547,0
1583501265.559,38.086,34.180,31.250,32.715,-24.902,0
1583501265.563,34.180,34.180,36.133,35.156,12.207,0
1583501265.567,29.297,33.691,33.203,35.156,41.504,0
1583501265.584,29.785,35.156,32.227,33.203,20.020,0
1583501265.588,26.367,35.156,34.180,30.273,-29.785,0
1583501265.592,23.438,33.203,34.180,30.273,-8.301,0
1583501265.596,26.855,32.715,33.691,29.785,-4.883,0
1583501265.600,27.344,30.762,30.762,25.879,71.289,0
1583501265.604,27.832,32.227,32.227,22.461,103.027,0
1583501265.608,30.273,36.133,36.133,20.996,34.668,0
1583501265.611,29.297,35.645,34.668,22.949,59.082,0
1583501265.615,33.203,38.574,36.621,25.879,-12.695,0
1583501265.619,38.574,42.969,36.621,26.367,-33.203,0
1583501265.623,36.133,41.992,35.645,26.855,24.902,0
1583501265.627,30.273,38.086,37.109,26.367,57.129,0
1583501265.624,29.785,34.668,33.691,26.855,82.031,0
1583501265.628,32.227,33.203,33.691,28.320,84.961,0
1583501265.632,31.250,33.691,34.668,29.297,69.824,0
1583501265.636,34.180,35.156,30.762,31.738,42.969,0
1583501265.640,36.621,34.668,31.250,31.738,24.902,0
1583501265.644,31.738,32.227,35.645,26.855,41.504,0
1583501265.648,36.133,34.668,39.551,30.273,53.711,0
1583501265.651,40.527,37.109,40.527,38.086,57.129,0
1583501265.655,36.133,33.203,36.621,35.645,72.754,0
1583501265.659,33.203,32.715,35.156,28.809,25.879,0
1583501265.663,29.297,32.715,34.668,24.902,3.418,0
1583501265.667,31.250,33.203,33.691,28.320,31.250,0
1583501265.664,32.227,35.156,34.668,32.715,65.918,0
1583501265.668,31.738,33.203,34.668,33.691,22.461,0
1583501265.672,35.156,33.203,34.668,34.180,-52.734,0
1583501265.676,41.016,35.156,37.109,38.086,-11.230,0
1583501265.680,41.016,35.645,37.598,40.527,-8.301,0
1583501265.684,32.227,34.668,35.156,31.250,-10.742,0
1583501265.688,29.297,32.227,34.180,25.391,38.574,0
1583501265.691,29.785,31.738,36.621,19.531,28.320,0
1583501265.695,30.273,32.227,35.645,20.996,40.527,0
1583501265.699,33.691,33.203,36.621,33.691,80.566,0
1583501265.703,32.227,32.227,37.109,28.320,66.406,0
1583501265.707,30.273,32.227,34.668,21.973,29.785,0
1583501265.724,30.762,33.691,32.227,29.297,43.945,0
1583501265.728,26.855,32.715,31.738,30.762,71.289,0
1583501265.732,33.203,33.691,31.738,33.203,50.293,0
1583501265.736,41.016,35.645,32.715,36.621,104.980,0
1583501265.740,32.227,34.180,38.086,28.320,99.121,0
1583501265.744,25.391,31.738,41.992,25.391,28.809,0
1583501265.748,24.902,30.762,41.992,24.902,37.109,0
1583501265.751,25.391,27.344,41.016,25.391,21.973,0
1583501265.755,23.438,27.832,40.039,23.438,70.312,0
1583501265.759,25.391,33.691,41.504,23.438,46.875,0
1583501265.763,31.250,36.133,43.945,27.344,-37.109,0
1583501265.767,25.879,34.180,41.016,15.137,-55.664,0
1583501265.764,19.043,30.762,37.109,11.719,-54.199,0
1583501265.768,23.438,30.273,40.039,23.926,-21.484,0
1583501265.772,29.785,29.785,39.062,30.273,35.156,0
1583501265.776,31.250,27.344,37.598,30.273,11.230,0
1583501265.780,34.668,26.855,38.086,30.273,53.711,0
1583501265.784,37.109,27.344,38.086,34.180,32.715,0
1583501265.788,33.691,27.344,39.062,34.668,-40.527,0
1583501265.791,30.273,25.879,38.086,31.738,35.645,0
1583501265.795,34.180,28.320,41.992,35.156,19.531,0
1583501265.799,34.668,30.762,43.945,29.297,14.648,0
1583501265.803,27.832,26.855,37.598,21.484,2.441,0
1583501265.807,19.531,23.926,35.156,17.578,20.020,0
1583501265.804,17.578,23.438,37.109,14.160,101.562,0
1583501265.808,21.484,26.855,39.062,15.625,59.570,0
1583501265.812,22.461,29.297,35.156,18.066,48.828,0
1583501265.816,21.973,28.809,35.645,18.066,78.613,0
1583501265.820,23.926,25.879,37.598,15.625,36.133,0
1583501265.824,28.809,26.367,37.598,20.996,11.230,0
1583501265.828,29.297,30.273,40.527,26.855,45.898,0
1583501265.831,24.414,30.273,42.480,22.461,60.547,0
1583501265.835,21.484,25.879,38.086,17.090,62.012,0
1583501265.839,21.484,25.879,36.621,13.672,41.504,0
1583501265.843,24.902,30.762,37.109,19.043,19.043,0
1583501265.847,25.879,30.273,37.109,28.320,16.602,0
1583501265.864,24.414,27.832,38.574,24.902,-19.531,0
1583501265.868,24.902,28.809,37.109,22.949,35.645,0
1583501265.872,23.926,29.785,37.109,24.414,65.430,0
1583501265.876,26.855,28.320,36.621,27.344,11.230,0
1583501265.880,30.762,27.832,39.551,31.250,15.625,0
1583501265.884,27.832,29.297,43.945,26.855,6.348,0
1583501265.888,25.391,27.832,40.039,22.949,5.859,0
1583501265.891,27.344,26.855,35.645,23.926,41.504,0
1583501265.895,25.879,26.367,38.574,26.367,52.734,0
1583501265.899,27.832,25.391,38.086,24.902,62.500,0
1583501265.903,30.762,29.785,35.645,20.508,76.172,0
1583501265.907,26.367,28.809,36.133,19.043,62.012,0
1583501265.904,23.438,26.855,33.691,16.113,65.430,0
1583501265.908,29.297,30.273,31.250,17.578,107.910,0
1583501265.912,30.762,29.785,33.203,21.484,87.402,0
1583501265.916,28.320,29.297,34.180,22.461,37.109,0
1583501265.920,32.227,30.762,36.133,27.344,-6.348,0
1583501265.924,28.809,29.785,37.109,23.438,0.977,0
1583501265.928,24.414,29.297,35.156,18.555,48.340,0
1583501265.931,25.879,30.762,36.621,22.949,81.055,0
1583501265.935,25.391,30.273,35.645,23.438,37.109,0
1583501265.939,27.344,32.227,35.156,23.926,18.066,0
1583501265.943,27.832,34.668,33.691,22.949,61.523,0
1583501265.947,22.949,33.203,32.715,20.020,8.301,0
1583501265.969,23.438,31.738,33.691,26.855,40.039,0
1583501265.973,23.926,31.250,33.203,26.855,63.965,0
1583501265.977,24.414,32.227,36.621,19.043,16.602,0
1583501265.981,25.879,34.180,39.551,21.973,35.156,0
1583501265.985,25.391,32.227,36.133,23.438,60.547,0
1583501265.989,25.391,30.273,33.691,19.531,75.684,0
1583501265.993,26.367,28.320,33.203,19.531,85.449,0
1583501265.996,26.855,25.879,30.762,19.043,26.855,0
1583501266.000,25.391,26.367,28.809,18.066,30.273,0
1583501266.004,28.320,28.320,32.227,21.973,-9.277,0
1583501266.008,30.762,29.785,34.668,23.926,-8.301,0
1583501266.012,33.203,33.691,35.156,22.949,-1.465,0
1583501266.003,32.715,33.203,33.691,21.484,-36.621,0
1583501266.007,34.180,30.273,30.273,22.461,9.766,0
1583501266.011,45.898,34.668,32.715,28.320,44.434,0
1583501266.015,50.293,34.668,33.691,26.855,70.801,0
1583501266.019,48.340,31.738,33.691,25.879,98.633,0
1583501266.023,43.945,29.297,35.156,32.227,108.398,0
1583501266.027,38.086,25.879,35.156,31.738,79.102,0
1583501266.030,36.133,27.344,32.715,29.785,58.594,0
1583501266.034,36.621,27.832,33.203,31.250,55.176,0
1583501266.038,37.109,27.344,33.691,34.180,26.855,0
1583501266.042,36.133,30.273,32.715,29.785,25.391,0
1583501266.046,37.109,33.203,34.180,26.367,47.852,0
1583501266.044,37.109,33.203,34.668,31.738,10.742,0
1583501266.048,36.133,32.227,33.691,30.762,33.691,0
1583501266.052,31.250,31.738,32.227,27.832,60.059,0
1583501266.056,26.855,32.227,28.809,26.367,0.000,0
1583501266.060,31.250,31.738,27.344,23.438,32.715,0
1583501266.064,32.227,33.203,30.762,22.949,31.250,0
1583501266.068,28.320,34.180,29.297,22.949,4.395,0
1583501266.071,27.344,34.180,28.320,24.414,77.148,0
1583501266.075,30.273,33.203,31.250,20.508,38.086,0
1583501266.079,36.621,36.133,32.227,21.484,2.930,0
1583501266.083,34.668,36.133,30.762,28.320,43.457,0
1583501266.087,32.227,29.785,28.809,26.855,41.016,0
1583501266.104,34.180,29.297,27.832,24.414,14.648,0
1583501266.108,36.133,30.273,28.320,23.926,8.301,0
1583501266.112,34.668,27.832,30.762,25.391,7.812,0
1583501266.116,33.691,29.297,30.762,27.832,-11.230,0
1583501266.120,34.668,29.785,31.250,28.320,13.672,0
1583501266.124,33.691,26.855,34.180,26.367,4.395,0
1583501266.128,34.668,28.809,35.156,26.367,35.156,0
1583501266.131,37.598,33.691,35.156,24.902,80.078,0
1583501266.135,33.691,32.715,32.227,24.902,31.738,0
1583501266.139,30.273,29.785,30.273,23.926,31.250,0
1583501266.143,26.855,30.273,30.762,20.508,30.273,0
1583501266.147,27.344,29.297,33.203,23.438,57.617,0
1583501266.144,30.273,26.855,34.180,26.367,52.734,0
1583501266.148,29.785,28.809,30.273,28.320,-5.859,0
1583501266.152,30.273,29.297,29.785,28.809,-2.930,0
1583501266.156,30.273,30.273,30.762,27.344,31.738,0
1583501266.160,31.250,31.250,32.227,28.809,-18.555,0
1583501266.164,30.762,29.785,36.133,28.809,-9.277,0
1583501266.168,39.062,33.691,38.086,34.668,25.391,0
1583501266.171,38.574,31.738,38.086,34.668,6.836,0
1583501266.175,32.227,25.391,35.645,29.785,-6.836,0
1583501266.179,31.738,25.879,33.203,30.762,26.367,0
1583501266.183,30.273,26.855,31.738,28.320,82.520,0
1583501266.187,33.203,27.832,31.250,29.297,50.781,0
1583501266.183,36.621,30.273,32.227,34.668,51.758,0
1583501266.187,36.621,29.785,32.715,35.645,75.195,0
1583501266.191,37.598,31.738,35.645,34.668,97.168,0
1583501266.195,41.504,34.180,37.109,37.598,67.871,0
1583501266.199,37.109,30.273,34.180,38.086,3.906,0
1583501266.203,32.227,29.297,31.250,35.645,13.672,0
1583501266.207,32.227,30.762,31.250,34.180,17.090,0
1583501266.210,32.227,30.273,33.203,31.738,25.879,0
1583501266.214,38.574,31.738,34.180,29.297,22.949,0
1583501266.218,38.086,32.715,35.156,26.367,61.523,0
1583501266.222,32.227,31.250,35.156,25.391,66.406,0
1583501266.226,33.691,32.227,34.180,25.879,19.531,0
1583501266.244,30.762,28.809,33.203,24.414,27.832,0
1583501266.248,28.809,30.273,36.133,25.879,42.969,0
1583501266.252,32.715,33.203,34.180,27.832,44.922,0
1583501266.256,30.762,30.273,29.785,22.461,1.953,0
1583501266.260,28.809,30.273,29.785,20.020,2.930,0
1583501266.264,29.297,30.273,30.762,23.438,41.992,0
1583501266.268,28.809,29.785,31.250,23.438,63.965,0
1583501266.271,27.832,28.809,33.691,17.090,74.219,0
1583501266.275,28.809,30.273,33.203,19.531,11.719,0
1583501266.279,36.133,37.109,32.715,30.762,-6.348,0
1583501266.283,36.621,34.180,30.762,25.879,27.344,0
1583501266.287,33.203,29.297,26.855,18.066,22.949,0
1583501266.284,34.180,30.762,24.414,20.996,6.836,0
1583501266.288,32.227,31.250,26.367,24.414,37.598,0
1583501266.292,29.297,29.297,29.785,24.902,52.246,0
1583501266.296,28.809,27.344,28.809,23.926,59.082,0
1583501266.300,30.273,26.367,29.785,25.879,18.555,0
1583501266.304,28.320,27.344,32.227,28.320,-17.578,0
1583501266.308,29.785,30.762,29.297,29.785,21.973,0
1583501266.311,32.715,37.109,30.762,29.785,9.766,0
1583501266.315,28.809,36.133,31.250,23.438,22.949,0
1583501266.319,24.414,31.738,27.344,20.508,24.902,0
1583501266.323,23.926,30.762,27.832,21.973,47.852,0
1583501266.327,26.367,31.250,25.879,23.438,54.688,0
1583501266.324,28.320,30.273,25.879,25.879,0.488,0
1583501266.328,26.367,27.344,29.785,21.973,6.348,0
1583501266.332,24.902,31.250,34.668,22.949,36.621,0
1583501266.336,22.461,30.762,35.645,22.461,31.738,0
1583501266.340,19.531,26.855,30.762,13.184,41.992,0
1583501266.344,17.090,29.297,31.250,7.324,59.570,0
1583501266.348,15.625,28.320,33.691,12.207,51.270,0
1583501266.351,14.160,27.832,34.180,18.066,49.805,0
1583501266.355,13.672,27.832,36.133,11.230,50.781,0
1583501266.359,18.555,27.344,35.645,11.719,52.246,0
1583501266.363,20.020,26.855,35.645,22.461,27.832,0
1583501266.367,21.973,27.344,38.086,24.414,37.109,0
1583501266.384,24.902,29.297,38.574,23.926,67.871,0
1583501266.388,16.602,26.855,35.645,20.020,29.297,0
1583501266.392,12.695,27.344,34.180,18.555,28.809,0
1583501266.396,15.137,25.879,31.738,22.461,23.926,0
1583501266.400,18.066,23.926,31.738,25.391,2.441,0
1583501266.404,23.438,25.879,32.715,23.926,13.672,0
1583501266.408,22.949,29.785,33.203,22.949,3.418,0
1583501266.411,21.973,28.809,32.227,24.414,35.156,0
1583501266.415,22.949,28.809,32.715,26.367,101.074,0
1583501266.419,26.367,32.227,35.645,21.484,76.172,0
1583501266.423,30.762,31.250,30.762,21.484,72.754,0
1583501266.427,27.344,31.250,30.273,22.461,113.770,0
1583501266.424,25.879,31.738,32.715,19.531,107.422,0
1583501266.428,30.273,32.715,33.691,24.414,87.891,0
1583501266.432,32.227,34.668,36.621,24.414,73.242,0
1583501266.436,27.832,35.645,34.180,21.973,59.570,0
1583501266.440,27.344,35.156,33.691,25.879,32.227,0
1583501266.444,27.832,35.156,32.715,24.414,19.043,0
1583501266.448,26.855,35.156,31.250,20.508,19.531,0
1583501266.451,24.414,33.203,32.227,19.531,0.977,0
1583501266.455,22.461,33.203,30.273,20.508,-17.578,0
1583501266.459,28.809,32.715,32.227,23.926,-9.766,0
1583501266.463,31.738,31.738,33.203,22.949,-13.672,0
1583501266.467,24.902,33.203,29.297,18.555,-58.594,0
1583501266.464,26.855,35.156,30.762,18.555,-26.855,0
1583501266.468,33.691,34.180,30.762,21.484,40.527,0
1583501266.472,33.203,34.668,29.297,22.949,0.000,0
1583501266.476,29.297,35.156,33.691,22.461,0.488,0
1583501266.480,27.832,34.668,31.738,22.461,-3.418,0
1583501266.484,33.203,36.621,31.250,28.320,-14.648,0
1583501266.488,36.133,37.598,35.645,29.785,6.348,0
1583501266.491,33.203,35.156,32.227,24.902,25.391,0
1583501266.495,30.273,33.691,30.762,25.391,7.324,0
1583501266.499,29.297,31.738,32.715,27.344,-25.879,0
1583501266.503,29.785,30.762,33.691,27.344,18.066,0
1583501266.507,31.250,29.785,35.645,26.855,9.766,0
1583501266.524,31.250,28.320,35.645,28.809,9.766,0
1583501266.528,27.344,31.738,36.133,31.738,51.270,0
1583501266.532,28.809,35.156,36.621,33.691,46.875,0
1583501266.536,32.715,35.645,34.668,30.762,73.242,0
1583501266.540,29.785,33.203,32.715,27.344,57.617,0
1583501266.544,29.785,33.203,33.691,30.273,67.871,0
1583501266.548,36.621,36.133,36.133,28.809,87.891,0
1583501266.551,37.598,35.156,34.180,22.461,-7.812,0
1583501266.555,31.250,33.203,32.715,23.926,-34.180,0
1583501266.559,28.809,32.715,35.156,26.855,-8.789,0
1583501266.563,29.785,31.738,33.691,30.762,-8.301,0
1583501266.567,30.762,31.738,33.691,31.250,51.758,0
1583501266.564,31.738,30.762,33.691,25.879,79.102,0
1583501266.568,34.668,31.250,35.645,25.879,24.902,0
1583501266.572,35.156,31.738,39.551,29.297,17.090,0
1583501266.576,32.715,28.809,36.621,30.273,8.301,0
1583501266.580,34.180,25.879,34.180,28.809,19.531,0
1583501266.584,34.180,27.344,36.621,33.691,21.973,0
1583501266.588,31.250,28.809,34.668,36.621,35.645,0
1583501266.591,29.785,27.344,33.691,33.203,41.016,0
1583501266.595,31.250,27.832,31.738,31.250,66.895,0
1583501266.599,32.715,29.297,36.621,35.156,58.105,0
1583501266.603,30.762,30.273,40.039,33.203,32.715,0
1583501266.607,32.715,27.344,38.086,32.715,70.801,0
1583501266.604,37.109,29.785,41.992,39.551,44.922,0
1583501266.608,33.691,32.227,40.527,34.180,37.109,0
1583501266.612,26.367,28.809,35.645,27.832,-16.602,0
1583501266.616,26.855,27.832,34.668,27.832,-16.602,0
1583501266.620,30.273,28.809,34.668,26.367,10.254,0
1583501266.624,32.227,30.762,34.668,26.367,-10.254,0
1583501266.628,30.273,31.250,36.133,28.809,-5.859,0
1583501266.631,28.320,28.320,36.621,32.715,-23.438,0
1583501266.635,29.785,28.809,34.180,29.785,18.555,0
1583501266.639,28.320,29.297,34.180,24.414,73.730,0
1583501266.643,26.855,29.297,35.156,24.414,66.895,0
1583501266.647,32.227,33.203,37.109,28.809,59.082,0
1583501266.664,37.109,35.645,37.109,29.785,-3.418,0
1583501266.668,34.668,32.715,31.738,24.414,22.949,0
1583501266.672,33.203,30.273,28.809,22.949,65.918,0
1583501266.676,33.203,29.297,29.297,25.879,51.758,0
1583501266.680,33.691,28.809,32.227,28.320,29.297,0
1583501266.684,35.645,28.320,35.645,29.297,54.199,0
1583501266.688,33.203,27.344,34.668,25.879,113.770,0
1583501266.691,32.227,27.832,32.227,25.391,100.586,0
1583501266.695,32.715,29.297,33.203,27.832,47.363,0
1583501266.699,30.273,28.320,34.180,23.438,-64.941,0
1583501266.703,31.738,31.250,35.156,25.391,-49.316,0
1583501266.707,33.203,36.133,33.691,30.273,40.527,0
1583501266.704,29.297,31.738,32.715,29.297,83.496,0
1583501266.708,28.320,29.785,33.691,20.996,56.152,0
1583501266.712,28.809,29.785,36.133,19.043,31.250,0
1583501266.716,28.809,28.809,36.621,26.855,38.574,0
1583501266.720,26.855,28.809,35.156,25.391,48.828,0
1583501266.724,28.320,30.273,36.133,25.391,41.504,0
1583501266.728,32.227,30.762,37.598,29.785,17.578,0
1583501266.731,31.738,29.785,38.086,28.809,-17.090,0
1583501266.735,25.879,26.855,35.645,27.344,-18.555,0
1583501266.739,29.297,25.879,35.156,28.320,25.391,0
1583501266.743,30.762,25.391,36.621,24.414,20.996,0
1583501266.747,28.809,21.973,34.668,27.344,-33.203,0
1583501266.744,28.320,24.902,37.109,29.297,-12.207,0
1583501266.748,25.391,26.855,38.086,30.762,42.969,0
1583501266.752,29.785,27.344,39.062,36.133,48.828,0
1583501266.756,42.969,30.273,38.574,39.062,36.133,0
1583501266.760,39.062,34.668,32.227,35.156,13.672,0
1583501266.764,26.855,36.133,29.785,23.438,17.090,0
1583501266.768,24.414,34.668,28.809,16.113,52.734,0
1583501266.771,20.508,31.738,30.762,8.789,36.133,0
1583501266.775,15.625,28.320,32.715,3.418,-17.090,0
1583501266.779,22.461,28.809,31.250,17.090,22.949,0
1583501266.783,28.809,27.832,29.785,25.879,66.895,0
1583501266.787,28.320,29.297,33.691,21.973,-2.930,0
1583501266.804,35.645,35.156,34.668,24.902,20.020,0
1583501266.808,35.156,30.762,27.832,27.832,32.715,0
1583501266.812,29.785,27.344,22.949,24.902,9.766,0
1583501266.816,32.715,29.785,23.926,23.926,21.484,0
1583501266.820,36.133,29.785,27.344,25.879,3.906,0
1583501266.824,37.598,31.738,26.855,27.344,41.504,0
1583501266.828,32.715,32.227,26.367,26.855,87.891,0
1583501266.831,34.668,35.156,28.320,29.297,68.848,0
1583501266.835,38.574,35.645,30.762,29.785,62.988,0
1583501266.839,33.203,29.785,28.809,25.879,73.730,0
1583501266.843,32.227,30.273,26.855,28.809,65.918,0
1583501266.847,35.156,34.180,31.250,34.180,44.922,0
1583501266.844,36.133,34.668,36.621,30.273,17.578,0
1583501266.848,37.109,32.715,36.133,29.785,45.898,0
1583501266.852,35.156,31.738,34.668,34.180,32.227,0
1583501266.856,33.691,32.227,33.691,29.785,46.387,0
1583501266.860,35.645,32.227,31.250,25.879,51.270,0
1583501266.864,36.621,32.715,34.668,27.344,24.414,0
1583501266.868,35.645,33.203,35.645,30.273,70.801,0
1583501266.871,31.250,30.273,28.809,28.809,45.898,0
1583501266.875,29.785,29.297,29.785,26.855,42.969,0
1583501266.879,34.180,32.227,35.645,20.996,58.105,0
1583501266.883,32.715,34.668,34.180,22.949,41.992,0
1583501266.887,34.668,31.250,30.762,31.250,48.828,0
1583501266.886,41.504,30.762,30.273,29.785,57.129,0
1583501266.890,41.504,34.668,31.738,30.273,-8.301,0
1583501266.894,43.457,36.133,32.227,34.668,60.547,0
1583501266.898,48.340,36.621,32.715,37.598,116.699,0
1583501266.902,50.293,40.039,36.621,37.109,34.180,0
1583501266.906,53.711,42.480,39.062,35.156,9.766,0
1583501266.910,50.781,38.574,38.086,29.297,23.926,0
1583501266.913,43.457,34.668,35.645,23.438,51.270,0
1583501266.917,35.645,32.227,33.203,21.484,8.301,0
1583501266.921,32.227,31.738,33.203,25.391,39.551,0
1583501266.925,30.273,33.691,37.598,29.785,46.387,0
1583501266.929,26.855,34.668,38.086,27.344,21.484,0
1583501266.944,33.203,35.645,34.668,24.902,-29.297,0
1583501266.948,32.227,35.645,34.668,26.367,-17.578,0
1583501266.952,31.250,39.062,34.668,27.832,25.391,0
1583501266.956,33.203,41.992,35.645,32.715,15.625,0
1583501266.960,27.832,35.156,31.250,30.762,12.695,0
1583501266.964,22.461,30.273,29.785,26.367,18.555,0
1583501266.968,20.996,30.273,33.691,20.020,4.395,0
1583501266.971,23.438,29.297,34.668,19.043,20.996,0
1583501266.975,24.414,29.297,35.645,24.902,20.996,0
1583501266.979,26.367,32.227,36.621,27.344,30.762,0
1583501266.983,28.320,34.668,36.133,28.320,20.020,0
1583501266.987,29.785,32.715,35.156,31.250,0.000,0
1583501266.984,35.156,30.762,34.180,43.457,22.461,0
1583501266.988,46.387,39.551,36.133,50.293,40.039,0
1583501266.992,41.504,49.316,31.738,35.156,69.336,0
1583501266.996,28.809,51.270,23.438,16.113,82.520,0
1583501267.000,22.949,48.828,20.508,11.230,82.520,0
1583501267.004,19.531,45.410,19.043,12.207,92.773,0
1583501267.008,16.113,46.387,19.043,4.395,15.625,0
1583501267.011,15.137,47.852,17.578,0.000,-24.414,0
1583501267.015,20.508,48.828,14.648,7.812,27.344,0
1583501267.019,21.484,47.363,17.578,3.906,21.973,0
1583501267.023,22.949,44.922,19.043,4.395,-28.809,0
1583501267.027,27.832,42.969,18.066,15.625,6.836,0
1583501267.023,30.273,42.480,16.113,18.555,76.660,0
1583501267.027,30.762,45.898,18.066,20.996,61.523,0
1583501267.031,32.227,44.922,22.461,21.484,29.297,0
1583501267.035,28.809,41.992,22.461,18.555,14.160,0
1583501267.039,32.227,41.992,22.949,20.508,41.504,0
1583501267.043,34.668,40.527,25.391,27.344,70.312,0
1583501267.047,33.203,39.062,26.367,25.879,49.316,0
1583501267.050,36.133,36.621,26.855,24.902,40.039,0
1583501267.054,36.621,36.621,25.879,25.391,5.371,0
1583501267.058,33.691,37.109,23.438,25.391,1.953,0
1583501267.062,36.133,39.062,27.832,31.738,31.250,0
1583501267.066,31.738,37.598,31.738,31.738,34.180,0
1583501267.083,29.785,34.668,29.297,28.809,49.805,0
1583501267.087,36.133,35.645,29.297,33.203,31.250,0
1583501267.091,37.109,35.156,30.273,36.621,35.156,0
1583501267.095,36.133,33.203,28.320,33.203,33.203,0
1583501267.099,35.645,33.203,28.809,31.738,31.738,0
1583501267.103,36.133,33.691,32.227,32.227,14.160,0
1583501267.107,38.086,36.133,31.250,27.832,-4.395,0
1583501267.110,37.598,36.133,29.297,33.203,39.062,0
1583501267.114,39.062,30.762,28.320,36.621,16.602,0
1583501267.118,37.598,30.273,24.902,31.250,-36.133,0
1583501267.122,38.086,33.203,24.414,28.809,30.273,0
1583501267.126,36.133,32.227,25.879,29.297,84.473,0
1583501267.124,31.250,31.250,26.367,28.320,31.738,0
1583501267.128,31.250,30.762,28.320,25.391,0.977,0
1583501267.132,33.203,28.809,26.855,27.832,32.227,0
1583501267.136,35.645,30.273,26.855,36.133,60.547,0
1583501267.140,37.598,29.785,28.320,35.645,34.668,0
1583501267.144,43.945,28.320,28.320,33.691,16.113,0
1583501267.148,47.363,29.785,29.785,36.621,28.320,0
1583501267.151,48.340,32.227,29.785,38.086,1.953,0
1583501267.155,46.875,26.367,27.344,34.180,18.066,0
1583501267.159,42.969,24.902,26.855,27.344,32.715,0
1583501267.163,36.621,25.879,27.344,26.855,36.621,0
1583501267.167,35.645,25.391,32.227,31.738,31.250,0
1583501267.163,41.992,25.391,34.180,36.621,6.836,0
1583501267.167,41.504,26.855,31.738,36.133,-7.812,0
1583501267.171,39.062,29.297,33.691,27.344,37.598,0
1583501267.175,33.203,30.273,29.785,25.879,57.129,0
1583501267.179,33.203,29.785,27.832,24.414,14.648,0
1583501267.183,38.086,33.203,30.273,23.438,77.148,0
1583501267.187,33.691,33.691,30.273,26.855,66.895,0
1583501267.190,28.320,28.320,30.273,17.090,53.223,0
1583501267.194,26.367,25.879,29.785,14.648,23.438,0
1583501267.198,27.832,26.367,28.320,20.996,-55.176,0
1583501267.202,28.809,27.832,28.320,20.020,-35.645,0
1583501267.206,28.809,29.785,27.344,20.020,79.590,0
1583501267.223,32.715,31.250,28.320,24.414,75.684,0
1583501267.227,34.180,33.203,30.762,28.320,-16.113,0
1583501267.231,31.738,34.668,32.715,28.809,4.395,0
1583501267.235,26.855,29.297,32.715,22.461,10.742,0
1583501267.239,24.902,27.832,28.809,21.973,-13.672,0
1583501267.243,24.414,29.297,29.785,26.367,60.547,0
1583501267.247,25.879,28.809,32.715,22.949,69.824,0
1583501267.250,26.855,28.809,33.691,20.996,0.977,0
1583501267.254,24.414,28.320,33.691,21.484,-4.883,0
1583501267.258,24.414,27.832,31.250,21.973,2.441,0
1583501267.262,28.320,31.250,32.227,21.973,41.016,0
1583501267.266,25.879,31.738,30.273,13.184,116.211,0
1583501267.263,25.879,30.762,31.250,21.484,56.641,0
1583501267.267,28.320,32.715,34.180,5.371,-56.152,0
1583501267.271,23.438,29.785,31.250,-4.883,-37.109,0
1583501267.275,21.484,27.344,31.250,17.578,49.805,0
1583501267.279,24.902,27.832,33.203,13.184,53.223,0
1583501267.283,28.320,28.320,31.250,23.926,43.945,0
1583501267.287,27.832,29.297,32.227,29.297,36.621,0
1583501267.290,24.414,29.785,35.156,26.367,32.227,0
1583501267.294,25.391,27.832,33.691,23.438,53.223,0
1583501267.298,29.785,31.250,34.180,20.996,11.230,0
1583501267.302,31.738,32.715,36.621,20.020,-2.441,0
1583501267.306,26.855,27.832,34.668,19.531,32.715,0
1583501267.304,24.414,29.297,32.715,18.066,26.367,0
1583501267.308,23.438,31.738,33.691,22.461,39.551,0
1583501267.312,24.902,33.203,33.691,26.855,41.504,0
1583501267.316,30.273,32.715,33.203,25.391,39.551,0
1583501267.320,28.320,30.273,32.715,22.949,21.973,0
1583501267.324,30.273,32.227,34.668,25.391,4.395,0
1583501267.328,32.227,31.250,35.156,27.832,46.387,0
1583501267.331,27.344,29.297,31.250,25.391,60.547,0
1583501267.335,28.809,32.227,31.738,24.414,16.602,0
1583501267.339,31.250,30.273,34.668,23.438,26.367,0
1583501267.343,29.785,23.438,31.738,29.785,40.039,0
1583501267.347,37.109,24.902,28.320,37.109,19.531,0
1583501267.364,30.762,33.203,24.902,19.531,15.625,0
1583501267.368,21.484,33.691,26.367,12.207,17.090,0
1583501267.372,27.832,34.180,24.902,17.578,31.250,0
1583501267.376,24.414,35.156,22.461,9.766,15.625,0
1583501267.380,17.578,32.227,26.367,8.789,11.230,0
1583501267.384,20.020,33.691,28.809,11.719,31.250,0
1583501267.388,27.832,36.621,28.809,16.113,36.133,0
1583501267.391,32.227,39.062,31.250,26.367,-37.109,0
1583501267.395,29.297,36.133,28.809,22.949,33.203,0
1583501267.399,26.367,34.668,26.367,16.602,92.285,0
1583501267.403,31.250,36.621,27.832,20.996,50.293,0
1583501267.407,30.273,35.156,27.832,20.508,110.352,0
1583501267.404,28.320,34.180,28.809,20.508,60.547,0
1583501267.408,24.902,33.691,28.809,19.043,31.250,0
1583501267.412,21.484,34.180,29.785,15.137,27.832,0
1583501267.416,21.484,35.156,33.203,18.066,-10.254,0
1583501267.420,21.484,34.180,33.691,19.531,-0.488,0
1583501267.424,21.973,35.645,31.738,18.555,33.691,0
1583501267.428,22.461,36.133,33.203,17.578,119.629,0
1583501267.431,20.020,31.738,30.762,15.625,111.328,0
1583501267.435,17.578,29.297,28.320,12.695,3.418,0
1583501267.439,18.555,31.738,28.809,7.812,10.742,0
1583501267.443,18.066,32.715,28.320,9.277,-3.906,0
1583501267.447,19.043,31.738,29.785,14.648,-32.227,0
1583501267.464,20.020,32.715,31.738,20.508,23.438,0
1583501267.468,26.367,36.621,30.273,20.996,43.457,0
1583501267.472,31.738,38.086,32.715,18.555,38.086,0
1583501267.476,35.156,39.062,34.180,24.414,33.691,0
1583501267.480,35.645,39.551,32.715,29.297,20.508,0
1583501267.484,30.273,34.668,31.738,24.414,20.996,0
1583501267.488,28.809,32.715,30.762,19.531,56.152,0
1583501267.491,28.320,34.668,29.785,19.043,63.965,0
1583501267.495,26.367,33.691,26.855,20.996,41.504,0
1583501267.499,25.879,34.668,27.832,24.414,47.363,0
1583501267.503,25.391,34.180,32.227,21.973,4.883,0
1583501267.507,27.344,33.203,33.203,21.973,19.531,0
1583501267.504,29.297,30.762,31.738,25.879,51.270,0
1583501267.508,28.320,30.273,32.715,27.832,34.668,0
1583501267.512,26.855,31.250,29.785,28.320,21.484,0
1583501267.516,22.461,25.879,30.273,24.414,-17.090,0
1583501267.520,18.066,24.414,34.180,22.949,-2.930,0
1583501267.524,18.066,26.367,33.691,28.320,33.691,0
1583501267.528,19.043,24.902,33.691,32.715,52.246,0
1583501267.531,23.438,27.832,34.668,29.297,55.176,0
1583501267.535,26.855,31.738,32.715,26.855,72.266,0
1583501267.539,26.855,32.715,33.203,32.227,70.312,0
1583501267.543,28.809,33.203,33.203,31.250,1.465,0
1583501267.547,31.250,32.227,31.738,27.832,-2.930,0
1583501267.544,32.715,32.715,31.738,25.879,51.270,0
1583501267.548,29.297,32.227,31.250,25.879,78.125,0
1583501267.552,32.715,34.180,34.180,29.297,52.734,0
1583501267.556,34.180,32.715,33.203,29.297,3.418,0
1583501267.560,28.320,26.367,31.738,27.344,4.395,0
1583501267.564,25.879,25.391,32.715,25.391,-18.555,0
1583501267.568,25.879,26.855,32.715,26.367,-16.113,0
1583501267.571,28.320,26.855,33.691,24.902,-19.531,0
1583501267.575,28.809,26.855,31.738,22.461,-27.832,0
1583501267.579,30.273,27.344,28.809,23.438,27.344,0
1583501267.583,29.297,27.344,28.320,24.902,-41.504,0
1583501267.587,28.320,27.832,31.738,23.926,-15.137,0
1583501267.604,28.320,28.809,33.203,20.996,62.988,0
1583501267.608,23.438,25.391,31.738,17.578,34.668,0
1583501267.612,23.438,23.438,33.691,21.973,22.461,0
1583501267.616,26.367,24.902,33.691,27.344,40.527,0
1583501267.620,27.344,26.367,32.715,27.832,100.586,0
1583501267.624,27.832,27.832,33.203,28.320,50.781,0
1583501267.628,32.227,29.785,33.203,30.273,4.395,0
1583501267.631,35.156,30.762,34.180,29.785,92.773,0
1583501267.635,34.668,30.273,31.738,28.320,78.125,0
1583501267.639,34.180,32.227,32.715,26.855,8.789,0
1583501267.643,37.109,34.180,35.156,31.250,33.203,0
1583501267.647,36.133,31.250,34.180,33.203,-4.395,0
1583501267.644,29.297,28.809,33.203,22.949,-29.297,0
1583501267.648,27.344,25.879,31.738,18.555,58.105,0
1583501267.652,30.273,25.391,31.250,22.461,62.988,0
1583501267.656,33.691,28.320,28.809,26.367,41.504,0
1583501267.660,33.203,28.320,26.855,31.738,77.148,0
1583501267.664,34.180,29.297,27.344,29.785,53.223,0
1583501267.668,37.598,27.832,33.203,26.855,-0.977,0
1583501267.671,26.855,22.949,38.086,24.414,35.156,0
1583501267.675,13.672,16.113,35.645,19.043,42.480,0
1583501267.679,19.531,16.602,36.621,22.461,20.020,0
1583501267.683,24.902,21.484,38.574,23.438,-0.488,0
1583501267.687,21.973,20.996,36.133,22.949,78.125,0
1583501267.684,23.438,20.996,36.621,27.832,113.770,0
1583501267.688,26.367,24.414,38.086,28.809,10.254,0
1583501267.692,25.879,25.391,38.086,31.738,-6.348,0
1583501267.696,23.926,25.391,38.086,29.785,38.086,0
1583501267.700,23.926,26.855,36.621,30.273,51.270,0
1583501267.704,25.391,28.809,37.598,32.715,21.484,0
1583501267.708,34.180,32.227,40.039,31.250,0.000,0
1583501267.711,38.574,32.227,40.039,33.203,9.277,0
1583501267.715,32.715,30.273,37.598,27.344,8.301,0
1583501267.719,35.645,28.320,36.621,21.484,30.273,0
1583501267.723,41.016,25.391,34.668,24.902,32.227,0
1583501267.727,41.504,27.832,35.156,27.832,25.879,0
1583501267.744,41.016,30.762,34.180,30.273,12.695,0
1583501267.748,37.109,30.762,33.203,33.691,26.855,0
1583501267.752,36.621,35.156,37.598,35.645,69.336,0
1583501267.756,32.227,37.109,38.574,32.227,77.637,0
1583501267.760,27.832,33.691,35.156,27.832,52.246,0
1583501267.764,25.879,32.715,34.668,28.320,37.109,0
1583501267.768,23.438,32.715,35.156,23.926,37.598,0
1583501267.771,20.020,33.203,32.227,13.672,5.371,0
1583501267.775,17.090,31.250,30.273,16.602,38.086,0
1583501267.779,18.555,29.785,28.320,24.902,29.785,0
1583501267.783,20.508,29.785,31.250,26.367,-13.672,0
1583501267.787,23.926,30.762,34.180,27.344,7.812,0
1583501267.784,26.855,29.297,31.738,32.227,62.500,0
1583501267.788,30.273,30.762,38.086,35.156,52.734,0
1583501267.792,28.320,31.738,39.551,31.250,45.898,0
1583501267.796,27.344,29.297,36.621,27.832,45.410,0
1583501267.800,26.855,26.855,38.574,26.855,37.598,0
1583501267.804,26.855,27.344,37.598,26.855,55.176,0
1583501267.808,30.273,28.809,34.668,25.879,54.199,0
1583501267.811,28.809,29.785,32.227,21.973,56.641,0
1583501267.815,26.367,27.832,28.320,20.508,70.312,0
1583501267.819,23.926,26.367,29.297,21.973,50.293,0
1583501267.823,24.414,26.367,33.203,21.484,-8.301,0
1583501267.827,29.297,28.809,35.156,21.484,-33.691,0
1583501267.825,29.785,30.273,36.621,20.996,-34.668,0
1583501267.829,29.297,28.809,34.668,20.996,-31.250,0
1583501267.833,29.785,27.832,32.227,26.367,-24.902,0
1583501267.837,29.785,29.297,32.227,26.855,-1.465,0
1583501267.841,29.297,30.762,31.738,20.508,66.406,0
1583501267.845,28.320,28.809,33.691,22.461,73.242,0
1583501267.849,29.297,30.762,34.180,28.809,9.277,0
1583501267.852,30.273,31.738,34.668,28.809,37.598,0
1583501267.856,32.715,28.809,36.621,23.926,37.109,0
1583501267.860,39.062,29.785,37.109,26.367,33.691,0
1583501267.864,40.039,32.227,35.645,31.738,75.195,0
1583501267.868,34.180,30.762,34.668,30.273,86.426,0
1583501267.884,34.180,32.227,35.156,26.367,30.273,0
1583501267.888,35.156,34.180,36.133,26.855,-15.625,0
1583501267.892,37.109,33.691,34.668,28.320,-38.574,0
1583501267.896,37.598,33.691,31.738,27.344,41.992,0
1583501267.900,37.109,33.691,33.203,30.273,66.406,0
1583501267.904,39.551,33.203,37.598,32.715,14.160,0
1583501267.908,41.504,33.203,34.180,33.203,50.781,0
1583501267.911,39.062,32.227,33.203,30.762,37.109,0
1583501267.915,39.551,32.227,35.645,30.762,18.555,0
1583501267.919,43.457,34.668,34.668,33.691,-18.066,0
1583501267.923,38.086,33.691,34.180,33.203,25.391,0
1583501267.927,34.180,31.250,32.715,31.738,54.199,0
1583501267.924,36.621,31.738,32.227,29.785,21.484,0
1583501267.928,35.645,32.715,31.250,28.809,49.805,0
1583501267.932,37.109,32.715,33.203,27.832,57.617,0
1583501267.936,38.574,32.715,35.156,27.832,51.270,0
1583501267.940,39.062,33.203,34.180,30.273,11.719,0
1583501267.944,41.016,30.273,32.227,29.785,-2.930,0
1583501267.948,39.551,29.297,35.156,29.297,-24.414,0
1583501267.951,34.668,30.762,37.598,31.738,32.227,0
1583501267.955,31.250,28.809,31.250,28.809,73.242,0
1583501267.959,34.180,29.785,30.762,26.367,33.691,0
1583501267.963,34.180,30.273,34.180,24.414,21.484,0
1583501267.967,31.738,29.297,34.180,22.949,21.484,0
1583501267.964,35.645,28.320,33.691,29.297,4.395,0
1583501267.968,33.203,27.344,31.250,27.832,33.203,0
1583501267.972,32.227,29.785,31.738,26.855,76.660,0
1583501267.976,36.621,31.250,33.691,29.297,27.344,0
1583501267.980,31.738,31.250,32.227,28.320,34.668,0
1583501267.984,32.227,34.180,35.156,32.227,30.273,0
1583501267.988,38.086,35.156,36.621,34.668,-2.441,0
1583501267.991,37.598,33.691,33.203,31.738,32.715,0
1583501267.995,35.645,31.738,31.738,27.344,59.082,0
1583501267.999,31.738,31.738,30.762,24.902,72.266,0
1583501268.003,28.320,31.738,28.809,27.832,49.316,0
1583501268.007,28.809,34.180,28.320,26.855,28.320,0
1583501268.024,25.391,33.691,30.762,26.367,50.293,0
1583501268.028,28.320,32.227,29.785,26.855,81.055,0
1583501268.032,30.273,33.203,25.879,24.902,46.387,0
1583501268.036,31.250,33.691,28.809,25.391,5.859,0
1583501268.040,36.621,34.668,36.133,29.297,-16.113,0
1583501268.044,31.738,32.227,35.645,31.250,-0.977,0
1583501268.048,30.762,29.297,31.738,24.414,-0.488,0
1583501268.051,30.762,27.832,32.227,18.066,14.648,0
1583501268.055,29.785,27.344,32.715,23.438,55.664,0
1583501268.059,31.738,26.367,31.250,33.203,47.852,0
1583501268.063,31.738,28.320,30.273,32.715,92.773,0
1583501268.067,31.738,31.738,31.250,22.949,40.527,0
1583501268.064,33.203,33.691,30.273,20.020,-18.555,0
1583501268.068,34.180,35.156,32.227,24.414,28.320,0
1583501268.072,30.273,35.156,32.715,25.879,52.734,0
1583501268.076,28.320,36.621,29.785,26.855,2.441,0
1583501268.080,29.297,37.109,34.180,25.879,8.789,0
1583501268.084,24.902,33.691,35.156,22.461,25.391,0
1583501268.088,20.996,31.250,33.203,22.949,4.395,0
1583501268.091,21.973,30.273,30.273,24.902,3.418,0
1583501268.095,22.949,31.250,27.344,25.879,-2.930,0
1583501268.099,21.484,32.715,29.785,21.484,61.035,0
1583501268.103,20.996,33.203,29.297,22.461,71.777,0
1583501268.107,20.996,30.762,29.785,25.879,26.855,0
1583501268.103,20.508,28.809,34.180,21.484,63.965,0
1583501268.107,26.367,31.250,35.156,24.902,51.758,0
1583501268.111,31.250,34.180,34.668,32.227,44.434,0
1583501268.115,25.879,30.762,32.715,25.879,34.668,0
1583501268.119,25.879,27.344,31.738,24.902,30.273,0
1583501268.123,29.785,28.809,31.250,28.809,57.129,0
1583501268.127,27.344,29.785,31.738,28.809,61.523,0
1583501268.130,28.809,31.738,33.691,32.227,49.316,0
1583501268.134,28.320,33.691,35.156,27.832,44.922,0
1583501268.138,27.832,31.738,34.180,22.949,86.426,0
1583501268.142,31.250,32.227,35.645,26.855,89.844,0
1583501268.146,33.203,33.203,36.133,30.273,70.312,0
1583501268.163,34.668,31.738,34.668,27.344,21.973,0
1583501268.167,32.227,33.203,33.203,23.438,-21.484,0
1583501268.171,31.250,35.645,28.320,25.391,-14.648,1
1583501268.175,34.180,35.645,29.785,27.344,4.883,0
1583501268.179,32.227,37.598,34.668,24.902,-12.695,0
1583501268.183,33.691,40.527,36.133,27.344,-41.992,0
1583501268.187,36.621,37.598,36.621,28.809,27.344,0
1583501268.190,34.180,34.668,36.133,30.762,60.059,0
1583501268.194,31.738,36.133,35.645,35.645,8.789,0
1583501268.198,32.715,37.109,34.668,34.180,24.902,0
1583501268.202,35.156,40.527,37.109,33.691,35.645,0
1583501268.206,36.133,42.480,39.551,36.133,15.625,0
1583501268.203,33.203,38.086,38.574,36.621,34.180,0
1583501268.207,32.227,36.621,38.086,36.133,28.809,0
1583501268.211,30.762,36.133,35.156,32.227,13.184,0
1583501268.215,27.832,34.668,34.668,27.344,20.020,0
1583501268.219,24.902,33.691,36.621,27.344,73.730,0
1583501268.223,26.855,34.180,33.691,28.809,78.613,0
1583501268.227,28.809,33.691,29.785,26.855,16.113,0
1583501268.230,27.832,36.133,30.762,22.949,67.871,0
1583501268.234,28.320,36.133,34.180,26.855,59.570,0
1583501268.238,26.855,33.203,31.738,26.855,1.465,0
1583501268.242,25.391,30.762,27.344,19.043,24.902,0
1583501268.246,26.367,29.297,29.785,22.461,22.461,0
1583501268.244,29.785,29.785,32.227,27.832,17.090,0
1583501268.248,28.320,29.785,29.785,26.855,18.066,0
1583501268.252,27.832,32.227,30.762,25.879,-51.758,0
1583501268.256,27.344,30.762,31.250,23.438,-46.387,0
1583501268.260,27.344,29.297,30.273,25.391,39.062,0
1583501268.264,27.344,30.762,31.250,26.855,116.211,0
1583501268.268,28.809,30.273,30.762,26.855,101.562,0
1583501268.271,30.273,33.203,31.738,24.902,36.621,0
1583501268.275,28.809,36.621,32.715,19.531,31.250,0
1583501268.279,26.855,35.156,31.738,22.461,26.855,0
1583501268.283,22.461,32.227,26.367,21.973,77.148,0
1583501268.287,27.344,32.227,21.973,20.020,79.590,0
1583501268.303,30.762,33.203,23.438,22.949,-1.953,0
1583501268.307,26.855,32.715,27.344,26.367,-2.441,0
1583501268.311,29.297,34.180,29.297,29.785,52.734,0
1583501268.315,30.762,34.180,31.250,28.320,120.605,0
1583501268.319,30.762,35.645,31.250,27.832,85.938,0
1583501268.323,31.250,37.109,27.344,31.738,12.695,0
1583501268.327,30.762,35.645,27.832,31.250,60.059,0
1583501268.330,32.227,36.133,28.809,31.738,46.875,0
1583501268.334,32.715,39.551,29.785,33.691,4.395,0
1583501268.338,29.297,37.109,30.762,30.762,23.926,0
1583501268.342,21.973,31.738,28.809,27.832,23.438,0
1583501268.346,20.996,32.715,29.297,25.391,31.738,0
1583501268.344,23.438,31.738,31.738,23.926,28.320,0
1583501268.348,26.855,32.227,32.715,21.973,39.551,0
1583501268.352,29.297,36.133,32.715,24.902,2.441,0
1583501268.356,30.762,37.598,32.715,29.297,-41.992,0
1583501268.360,28.320,36.133,33.203,21.484,-11.230,0
1583501268.364,26.855,34.668,33.691,21.973,-4.883,0
1583501268.368,32.715,37.109,34.668,28.320,25.391,0
1583501268.371,34.668,40.039,35.156,30.762,62.988,0
1583501268.375,34.180,40.039,34.180,31.250,27.832,0
1583501268.379,32.715,37.598,33.691,23.926,34.180,0
1583501268.383,30.273,34.180,35.156,20.020,46.875,0
1583501268.387,30.273,32.715,35.156,22.949,74.219,0
1583501268.383,32.227,35.156,36.621,22.949,41.016,0
1583501268.387,32.715,35.156,36.133,18.066,-0.977,0
1583501268.391,27.344,35.156,34.668,14.648,21.484,0
1583501268.395,24.414,34.668,34.668,18.066,15.625,0
1583501268.399,25.391,35.645,37.598,21.973,53.711,0
1583501268.403,27.832,38.574,40.527,22.949,31.738,0
1583501268.407,27.832,37.109,35.645,21.973,-45.898,0
1583501268.410,25.391,37.598,34.180,20.996,-0.488,0
1583501268.414,25.391,37.598,35.645,19.531,37.109,0
1583501268.418,24.902,35.645,33.691,18.066,59.570,0
1583501268.422,26.855,36.133,31.250,20.508,68.848,0
1583501268.426,26.367,37.109,30.762,24.414,19.531,0
1583501268.443,25.391,37.109,34.180,22.949,-40.527,0
1583501268.447,29.785,37.598,38.574,26.855,19.043,0
1583501268.451,32.715,40.527,39.062,27.832,30.762,0
1583501268.455,27.832,40.039,38.086,25.879,0.000,0
1583501268.459,31.250,38.086,37.109,29.785,55.176,0
1583501268.463,36.133,39.062,36.621,28.320,52.246,0
1583501268.467,30.273,38.574,37.598,23.926,49.316,0
1583501268.470,27.344,38.574,36.621,23.438,58.105,0
1583501268.474,32.227,41.504,35.156,25.879,65.430,0
1583501268.478,31.738,38.086,36.133,27.344,50.781,0
1583501268.482,28.320,35.645,35.645,24.414,-8.789,0
1583501268.486,29.785,38.086,35.645,22.461,5.371,0
1583501268.483,30.273,39.062,36.133,20.508,34.668,0
1583501268.487,30.273,41.016,37.109,25.879,36.621,0
1583501268.491,28.320,38.574,34.668,26.855,30.762,0
1583501268.495,28.320,35.645,30.273,20.996,12.207,0
1583501268.499,25.879,36.621,31.738,20.508,11.719,0
1583501268.503,24.414,34.180,35.156,23.926,35.156,0
1583501268.507,25.879,34.180,37.109,26.367,41.016,0
1583501268.510,27.344,35.645,35.645,23.438,17.578,0
1583501268.514,30.273,38.574,34.668,25.391,42.480,0
1583501268.518,35.645,42.480,36.621,29.297,49.316,0
1583501268.522,34.180,42.480,33.691,20.508,66.406,0
1583501268.526,33.203,39.551,31.250,18.555,84.961,0
1583501268.524,36.621,40.527,30.273,21.484,44.922,0
1583501268.528,38.086,41.504,30.762,23.438,0.977,0
1583501268.532,38.574,42.480,32.227,23.926,-6.348,0
1583501268.536,34.180,44.434,30.762,19.531,-6.348,0
1583501268.540,28.320,42.480,33.203,21.484,22.461,0
1583501268.544,30.273,41.992,34.180,26.855,24.414,0
1583501268.548,31.250,43.457,34.180,30.273,0.000,0
1583501268.551,26.367,41.504,34.668,26.855,10.254,0
1583501268.555,23.926,36.133,33.203,17.578,-30.762,0
1583501268.559,25.391,36.621,34.668,22.461,-40.039,0
1583501268.563,23.438,36.621,34.668,29.297,0.977,0
1583501268.567,23.926,34.180,31.738,26.367,-17.090,0
1583501268.583,24.902,34.668,32.227,18.066,27.344,0
1583501268.587,26.367,38.086,33.691,16.602,117.188,0
1583501268.591,27.344,39.062,33.691,21.484,124.512,0
1583501268.595,27.344,36.621,32.715,23.926,23.438,0
1583501268.599,32.227,37.598,33.691,27.344,26.367,0
1583501268.603,35.645,43.945,38.574,29.297,86.426,0
1583501268.607,33.691,42.969,37.109,28.809,49.805,0
1583501268.610,31.250,37.109,30.273,27.344,13.672,0
1583501268.614,28.809,36.621,31.250,22.949,59.082,0
1583501268.618,27.832,38.574,32.227,19.043,55.176,0
1583501268.622,26.855,38.574,31.738,21.973,-7.812,0
1583501268.626,23.926,35.645,34.180,22.949,-41.504,0
1583501268.623,30.762,32.227,34.180,28.320,-9.277,0
1583501268.627,40.527,34.668,31.250,31.250,75.684,0
1583501268.631,34.180,38.574,26.855,21.973,79.102,0
1583501268.635,29.785,39.551,31.250,19.043,34.668,0
1583501268.639,27.832,39.551,32.715,15.625,-7.324,0
1583501268.643,20.020,36.133,29.785,10.254,-18.066,0
1583501268.647,19.531,35.645,26.367,8.789,32.227,0
1583501268.650,25.879,37.109,25.391,12.207,11.719,0
1583501268.654,32.227,38.574,28.809,20.508,7.324,0
1583501268.658,35.156,40.039,31.250,17.578,63.965,0
1583501268.662,32.715,34.180,27.344,16.602,17.090,0
1583501268.666,31.738,31.738,26.855,27.832,7.812,0
1583501268.663,38.086,35.645,31.250,31.250,42.969,0
1583501268.667,37.598,34.668,30.273,29.785,20.508,0
1583501268.671,34.180,31.738,30.273,29.297,14.648,0
1583501268.675,36.133,29.785,30.273,29.297,27.832,0
1583501268.679,36.133,32.227,28.320,32.715,13.184,0
1583501268.683,37.109,35.645,29.785,35.156,22.461,0
1583501268.687,36.133,35.156,31.250,35.156,23.438,0
1583501268.690,33.691,35.645,29.297,31.738,17.578,0
1583501268.694,31.738,36.621,27.344,27.832,3.906,0
1583501268.698,32.715,38.574,31.250,30.762,51.758,0
1583501268.702,29.297,37.109,34.180,29.785,101.074,0
1583501268.706,29.785,33.691,33.203,25.879,83.008,0
1583501268.723,36.133,35.156,33.203,26.855,55.176,0
1583501268.727,35.156,37.109,34.668,28.320,36.621,0
1583501268.731,33.691,37.109,34.668,27.344,70.801,0
1583501268.735,34.180,36.133,34.180,26.855,52.246,0
1583501268.739,33.691,36.133,33.691,29.297,49.316,0
1583501268.743,35.645,37.109,37.598,28.320,31.250,0
1583501268.747,33.203,35.156,37.598,26.367,39.062,0
1583501268.750,27.344,28.320,33.203,22.461,59.570,0
1583501268.754,25.391,23.438,32.715,20.508,74.219,0
1583501268.758,27.344,23.438,32.227,26.855,66.895,0
1583501268.762,29.297,26.855,33.691,24.902,31.250,0
1583501268.766,31.250,29.785,33.691,20.020,31.250,0
1583501268.764,34.180,31.738,29.785,26.367,65.918,0
1583501268.768,32.715,31.250,31.250,29.297,58.105,0
1583501268.772,30.762,30.762,32.715,27.832,-1.953,0
1583501268.776,32.715,32.227,34.180,25.391,39.062,0
1583501268.780,29.785,30.762,33.203,20.020,44.922,0
1583501268.784,28.809,34.668,34.180,20.996,27.832,0
1583501268.788,29.785,38.086,36.621,24.902,28.320,0
1583501268.791,26.855,34.668,31.250,20.996,15.625,0
1583501268.795,28.809,34.668,31.738,18.555,-18.066,0
1583501268.799,27.344,32.715,34.180,20.508,20.020,0
1583501268.803,24.902,31.738,32.227,23.926,22.949,0
1583501268.807,26.855,31.250,32.227,25.879,16.113,0
1583501268.804,25.879,30.762,32.227,19.531,46.875,0
1583501268.808,24.414,31.250,34.668,20.020,33.691,0
1583501268.812,27.832,32.715,36.133,24.902,2.441,0
1583501268.816,28.320,33.203,33.203,21.484,9.277,0
1583501268.820,25.879,33.203,34.180,20.020,24.414,0
1583501268.824,25.391,33.691,35.645,23.438,18.555,0
1583501268.828,24.414,34.180,31.738,25.879,45.898,0
1583501268.831,28.320,38.574,35.156,23.926,40.527,0
1583501268.835,30.762,40.039,37.598,20.508,-48.828,0
1583501268.839,27.344,36.621,32.715,22.949,17.090,0
1583501268.843,27.832,35.645,32.227,24.414,63.477,0
1583501268.847,26.367,35.156,34.180,25.879,13.184,0
1583501268.864,28.320,38.086,38.086,31.738,25.879,0
1583501268.868,32.227,38.086,40.039,30.762,17.578,0
1583501268.872,23.926,33.691,35.645,24.414,39.551,0
1583501268.876,21.973,34.668,33.691,21.484,49.316,0
1583501268.880,22.461,36.621,34.180,22.461,48.828,0
1583501268.884,20.508,37.598,33.691,23.438,53.223,0
1583501268.888,25.391,40.039,33.203,22.949,33.691,0
1583501268.891,28.809,40.039,33.203,25.391,58.105,0
1583501268.895,28.320,37.109,34.180,23.926,71.289,0
1583501268.899,24.414,37.109,32.227,19.043,99.609,0
1583501268.903,25.391,41.504,34.180,22.461,115.723,0
1583501268.907,27.344,44.922,37.109,27.344,55.176,0
1583501268.904,23.926,42.480,31.738,24.414,44.434,0
1583501268.908,26.367,40.527,30.273,22.949,73.242,0
1583501268.912,24.414,41.016,33.203,24.902,49.805,0
1583501268.916,21.484,37.598,33.203,24.414,17.578,0
1583501268.920,26.367,36.621,31.250,24.902,11.719,0
1583501268.924,29.297,37.598,31.738,26.367,-15.137,0
1583501268.928,25.391,34.668,34.668,23.926,9.766,0
1583501268.931,25.391,34.668,34.668,23.926,44.922,0
1583501268.935,29.297,40.527,34.668,27.344,31.738,0
1583501268.939,30.273,39.551,35.645,21.973,20.020,0
1583501268.943,27.344,35.156,34.180,18.066,61.035,0
1583501268.947,25.391,37.598,33.691,25.391,93.750,0
1583501268.963,30.273,38.086,35.156,32.227,61.523,0
1583501268.967,32.227,37.598,34.668,34.180,20.508,0
1583501268.971,29.785,39.551,33.203,31.738,0.000,0
1583501268.975,28.320,40.527,35.645,28.809,9.766,0
1583501268.979,27.344,39.551,34.180,25.879,1.465,0
1583501268.983,28.809,40.039,30.273,25.879,8.789,0
1583501268.987,32.227,44.434,31.738,26.855,60.059,0
1583501268.990,30.762,46.387,33.203,22.949,34.668,0
1583501268.994,26.367,42.969,29.297,17.090,-8.789,0
1583501268.998,24.902,41.504,28.809,16.602,18.555,0
1583501269.002,27.344,41.992,29.785,19.043,7.812,0
1583501269.006,27.832,44.434,28.809,19.043,-33.203,0
1583501269.004,24.902,42.969,28.320,21.973,13.184,0
1583501269.008,27.832,40.527,27.832,25.391,-20.508,0
1583501269.012,30.273,42.480,29.785,27.344,-46.875,0
1583501269.016,31.738,43.457,31.738,29.785,27.832,0
1583501269.020,33.203,41.504,31.738,30.762,23.926,0
1583501269.024,37.598,43.945,35.645,35.156,61.035,0
1583501269.028,36.133,45.410,37.109,34.668,90.332,0
1583501269.031,26.855,40.039,32.715,23.926,89.355,0
1583501269.035,23.438,39.551,30.762,20.996,62.012,0
1583501269.039,27.832,40.039,30.762,26.367,20.996,0
1583501269.043,30.762,38.574,29.785,25.879,40.039,0
1583501269.047,28.320,39.551,30.273,25.391,46.387,0
1583501269.043,27.832,41.504,30.762,27.344,53.711,0
1583501269.047,30.762,40.527,28.809,24.902,75.684,0
1583501269.051,30.762,39.062,31.250,23.926,50.293,0
1583501269.055,33.691,41.504,34.668,26.855,46.387,0
1583501269.059,32.227,37.598,34.668,22.949,51.270,0
1583501269.063,27.344,35.645,31.250,26.367,54.199,0
1583501269.067,26.855,37.598,28.809,27.832,28.320,0
1583501269.070,25.391,38.086,29.785,23.926,-32.715,0
1583501269.074,26.367,40.039,32.715,22.949,-2.930,0
1583501269.078,26.855,39.551,32.227,17.578,-17.090,0
1583501269.082,28.809,39.551,30.762,22.949,20.020,0
1583501269.086,30.762,39.551,32.227,28.320,11.719,0
1583501269.103,29.785,39.551,30.273,22.949,-9.277,0
1583501269.107,31.250,42.480,34.180,25.391,26.367,0
1583501269.111,28.809,40.039,34.180,28.320,23.438,0
1583501269.115,23.926,35.645,28.320,23.926,44.434,0
1583501269.119,25.879,32.715,30.762,22.461,38.086,0
1583501269.123,28.320,33.203,34.180,22.461,9.766,0
1583501269.127,27.344,33.691,32.715,21.484,69.824,0
1583501269.130,25.391,32.227,32.715,19.531,108.398,0
1583501269.134,25.391,33.691,33.691,17.090,77.637,0
1583501269.138,25.879,33.203,35.156,20.020,-4.395,0
1583501269.142,24.902,34.180,34.668,22.949,-22.461,0
1583501269.146,26.367,36.133,32.715,23.438,34.668,0
1583501269.143,26.367,33.203,31.250,21.973,80.078,0
1583501269.147,23.926,32.715,31.738,20.020,80.566,0
1583501269.151,24.902,33.691,33.203,20.996,73.730,0
1583501269.155,26.367,33.691,34.180,22.949,121.582,0
1583501269.159,28.320,33.691,33.691,21.973,85.449,0
1583501269.163,28.809,33.691,32.715,20.508,69.336,0
1583501269.167,30.273,35.156,31.738,21.484,18.066,0
1583501269.170,33.691,33.691,31.250,25.879,-11.230,0
1583501269.174,31.738,33.203,32.715,23.926,23.926,0
1583501269.178,30.273,35.645,34.180,24.414,12.695,0
1583501269.182,29.297,38.574,37.109,21.484,14.160,0
1583501269.186,28.320,39.551,39.551,20.996,25.879,0
1583501269.183,27.344,36.621,36.133,26.367,45.898,0
1583501269.187,25.391,37.109,33.203,22.949,22.461,0
1583501269.191,26.855,38.086,33.691,20.996,-7.812,3
1583501269.195,31.250,34.668,34.668,21.484,-1.953,0
1583501269.199,31.738,34.180,32.227,21.484,39.062,0
1583501269.203,28.809,36.621,29.297,22.949,19.043,0
1583501269.207,34.180,38.086,27.344,21.484,-0.488,0
1583501269.210,36.133,40.039,26.855,21.484,61.035,0
1583501269.214,37.109,44.922,32.227,28.320,64.941,0
1583501269.218,37.598,45.898,34.180,28.809,41.504,0
1583501269.222,32.715,43.457,31.250,23.438,78.613,0
1583501269.226,33.203,41.992,30.762,23.438,70.312,0
1583501269.243,37.109,41.504,31.250,30.273,18.555,0
1583501269.247,34.180,42.480,31.250,31.250,58.594,0
1583501269.251,31.250,42.480,29.297,24.902,50.781,0
1583501269.255,31.250,41.016,27.832,26.367,24.902,0
1583501269.259,32.715,41.016,34.180,34.180,34.668,0
1583501269.263,31.738,39.551,34.180,36.621,16.113,0
1583501269.267,28.320,38.086,28.320,31.738,25.391,0
1583501269.270,29.785,39.062,27.832,25.391,29.297,0
1583501269.274,28.809,37.598,28.320,24.414,58.105,0
1583501269.278,28.809,36.621,28.809,27.344,27.344,0
1583501269.282,32.227,37.109,30.273,28.809,2.930,0
1583501269.286,31.738,39.551,31.738,28.320,-4.395,0
1583501269.283,32.227,39.062,31.250,26.855,-8.789,0
1583501269.287,31.738,38.574,32.227,29.785,24.414,0
1583501269.291,31.738,40.039,35.645,28.809,58.105,0
1583501269.295,35.156,42.969,38.086,27.832,57.129,0
1583501269.299,36.133,45.410,37.598,32.715,19.043,0
1583501269.303,37.109,44.922,36.133,35.645,0.488,0
1583501269.307,35.645,42.480,35.645,33.203,31.250,0
1583501269.310,33.203,39.551,33.691,27.344,0.000,0
1583501269.314,34.668,38.086,32.715,22.461,-8.301,0
1583501269.318,35.645,39.551,35.156,26.855,19.531,0
1583501269.322,39.551,42.480,36.621,25.879,9.277,0
1583501269.326,41.016,41.016,34.668,20.508,-11.719,0
1583501269.323,42.969,39.062,31.738,22.949,-25.879,0
1583501269.327,47.852,42.969,33.203,31.250,-16.602,0
1583501269.331,43.945,41.992,35.645,35.156,-2.441,0
1583501269.335,37.598,37.109,34.668,31.250,56.641,0
1583501269.339,33.203,37.598,30.762,25.391,58.594,0
1583501269.343,26.855,37.598,30.762,20.020,56.152,0
1583501269.347,23.438,35.645,30.762,20.508,65.918,0
1583501269.350,24.902,37.598,32.227,21.973,36.133,0
1583501269.354,25.391,40.039,35.645,20.020,18.555,0
1583501269.358,24.414,38.086,35.156,17.578,5.371,0
1583501269.362,30.762,38.574,32.715,27.344,13.184,0
1583501269.366,28.809,37.109,33.691,30.273,47.852,0
1583501269.383,27.832,36.133,33.203,25.879,35.645,0
1583501269.387,33.203,39.062,35.156,26.367,45.898,0
1583501269.391,31.738,40.039,34.668,29.785,34.180,0
1583501269.395,33.203,39.062,32.715,35.645,34.668,0
1583501269.399,33.203,38.086,34.180,34.668,35.645,0
1583501269.403,32.227,39.551,35.645,30.762,14.648,0
1583501269.407,29.297,38.574,36.621,25.391,65.918,0
1583501269.410,27.344,34.180,35.645,24.414,83.984,0
1583501269.414,30.273,37.109,36.621,27.344,61.523,0
1583501269.418,27.832,40.527,36.133,22.461,2.441,0
1583501269.422,21.973,35.156,34.668,17.090,0.488,0
1583501269.426,20.020,31.738,38.086,16.602,80.566,0
1583501269.423,21.484,32.227,37.598,17.578,61.523,0
1583501269.427,22.949,32.715,32.715,18.555,42.480,0
1583501269.431,22.949,33.691,31.738,20.020,81.055,0
1583501269.435,27.344,34.180,33.203,23.438,44.434,0
1583501269.439,27.832,37.109,36.133,28.809,65.430,0
1583501269.443,20.508,37.598,35.156,28.320,108.887,0
1583501269.447,19.043,35.645,32.715,20.996,46.875,0
1583501269.450,20.020,35.156,31.738,22.949,-3.418,0
1583501269.454,22.949,35.156,32.227,24.414,11.719,0
1583501269.458,24.414,34.180,34.668,21.484,34.668,0
1583501269.462,25.391,35.156,34.180,21.973,10.254,0
1583501269.466,25.879,33.691,33.691,19.043,19.531,0
1583501269.463,26.367,32.227,34.668,22.461,26.367,0
1583501269.467,31.738,37.598,36.133,27.344,30.273,0
1583501269.471,34.668,38.574,36.133,28.320,50.293,0
1583501269.475,30.762,33.691,35.156,28.809,47.852,0
1583501269.479,29.297,30.762,31.738,29.785,-15.625,0
1583501269.483,28.320,28.809,29.785,31.738,-13.184,0
1583501269.487,27.344,26.855,28.809,25.391,54.688,0
1583501269.490,31.738,26.855,30.762,23.926,23.438,0
1583501269.494,31.250,27.344,36.133,27.344,8.301,0
1583501269.498,23.926,25.879,35.645,25.879,16.602,0
1583501269.502,26.367,29.785,35.156,28.809,-29.785,0
1583501269.506,29.297,30.762,38.574,27.832,-60.059,0
1583501269.523,26.855,29.297,36.133,24.414,18.066,0
1583501269.527,27.344,27.832,30.273,24.414,79.590,0
1583501269.531,27.832,28.320,31.738,20.996,28.809,0
1583501269.535,32.715,32.227,32.715,21.484,52.734,0
1583501269.539,33.691,33.691,31.250,24.414,55.664,0
1583501269.543,30.273,34.180,29.297,23.438,16.113,0
1583501269.547,31.738,36.621,29.297,22.461,5.371,0
1583501269.550,31.250,37.598,32.227,20.508,46.387,0
1583501269.554,28.809,33.691,29.785,16.602,-7.324,0
1583501269.558,30.273,30.762,27.344,18.066,-4.395,0
1583501269.562,29.785,30.762,30.273,22.949,46.875,0
1583501269.566,28.320,33.203,33.691,23.438,70.312,0
1583501269.563,30.273,34.180,33.203,23.438,72.754,0
1583501269.567,32.227,33.691,34.668,29.785,9.277,0
1583501269.571,33.691,32.227,32.227,32.715,59.082,0
1583501269.575,29.785,30.762,31.738,25.879,74.219,0
1583501269.579,30.762,32.227,37.109,29.297,12.207,0
1583501269.583,36.133,35.156,40.527,37.109,14.160,0
1583501269.587,35.645,33.203,37.109,36.621,-32.227,0
1583501269.590,33.203,32.227,32.715,31.738,-13.184,0
1583501269.594,27.832,32.715,31.738,27.832,61.523,0
1583501269.598,28.320,32.227,30.273,29.297,9.277,0
1583501269.602,31.738,32.715,30.762,27.344,-8.789,0
1583501269.606,32.715,33.691,30.273,28.809,13.672,0
1583501269.604,35.156,33.691,31.250,33.691,-2.441,0
1583501269.608,37.598,36.133,35.645,36.621,7.812,0
1583501269.612,39.062,36.621,36.133,39.062,62.012,0
1583501269.616,33.691,32.715,32.227,37.598,37.598,0
1583501269.620,33.203,31.250,31.738,36.133,45.898,0
1583501269.624,35.156,32.715,34.180,36.621,54.199,0
1583501269.628,36.133,32.715,35.156,39.551,6.836,0
1583501269.631,37.598,32.227,33.203,39.062,25.879,0
1583501269.635,36.621,33.203,32.227,33.691,-2.930,0
1583501269.639,39.062,35.645,31.738,34.180,-20.508,0
1583501269.643,43.457,37.598,34.668,41.016,24.414,0
1583501269.647,38.574,34.180,33.203,40.527,24.414,0
1583501269.664,34.668,28.320,30.762,34.180,-1.465,0
1583501269.668,33.203,24.414,30.273,27.832,61.523,0
1583501269.672,33.203,28.809,28.809,26.855,63.477,0
1583501269.676,33.691,34.180,31.738,29.297,-20.020,0
1583501269.680,32.227,33.203,31.250,29.785,9.277,0
1583501269.684,30.762,31.738,28.809,28.809,64.941,0
1583501269.688,27.832,33.203,29.785,23.438,29.785,0
1583501269.691,28.320,32.715,32.227,23.438,-15.625,0
1583501269.695,32.227,34.180,33.691,30.273,8.301,0
1583501269.699,34.668,34.668,30.762,29.785,-12.207,0
1583501269.703,27.344,31.250,29.785,25.391,-0.977,0
1583501269.707,24.414,30.273,28.320,27.344,7.812,0
1583501269.704,29.785,30.762,26.855,29.297,15.137,0
1583501269.708,30.762,31.738,32.227,27.344,95.703,0
1583501269.712,32.227,34.180,33.691,27.832,72.754,0
1583501269.716,36.621,35.156,33.691,32.715,67.871,0
1583501269.720,38.086,33.203,32.227,37.109,67.383,0
1583501269.724,33.691,31.250,30.762,35.156,-4.883,0
1583501269.728,32.227,34.180,34.668,35.645,-9.766,0
1583501269.731,31.738,33.691,36.133,34.668,20.508,0
1583501269.735,31.250,29.297,32.227,34.668,27.344,0
1583501269.739,32.227,29.785,31.250,32.227,70.801,0
1583501269.743,29.297,31.250,34.668,25.879,59.570,0
1583501269.747,28.320,31.250,34.668,26.855,64.453,0
1583501269.743,32.227,33.203,33.203,28.320,53.223,0
1583501269.747,33.203,33.203,34.668,28.320,40.039,0
1583501269.751,33.203,33.691,35.645,28.320,3.906,0
1583501269.755,33.203,34.668,33.203,28.320,11.230,0
1583501269.759,32.227,36.621,33.691,31.250,41.992,0
1583501269.763,30.273,37.109,34.668,31.738,23.926,0
1583501269.767,29.297,33.203,32.227,30.273,67.383,0
1583501269.770,28.809,33.203,33.691,28.320,79.102,0
1583501269.774,27.832,36.621,35.156,20.508,70.801,0
1583501269.778,32.227,35.156,34.668,23.926,46.875,0
1583501269.782,30.273,33.691,33.691,28.809,8.789,0
1583501269.786,26.855,35.645,34.180,23.438,12.695,0
1583501269.803,28.809,39.062,34.180,22.461,7.324,0
1583501269.807,28.320,36.621,31.738,24.902,10.254,0
1583501269.811,30.273,38.574,35.156,25.879,-5.859,0
1583501269.815,30.762,39.062,37.598,25.879,18.555,0
1583501269.819,26.367,32.715,36.133,23.438,24.902,0
1583501269.823,24.902,29.785,37.109,23.926,35.645,0
1583501269.827,19.043,27.344,37.109,18.555,48.340,0
1583501269.830,17.578,27.344,34.668,12.695,-8.301,0
1583501269.834,22.461,29.297,30.762,18.555,39.551,0
1583501269.838,20.508,29.785,32.227,20.508,89.355,0
1583501269.842,19.043,29.297,33.691,19.531,66.406,0
1583501269.846,21.484,28.320,32.227,16.113,39.062,0
1583501269.843,25.879,28.809,33.691,15.137,22.949,0
1583501269.847,25.879,31.738,30.762,17.090,20.508,0
1583501269.851,20.020,30.273,28.320,14.648,12.207,0
1583501269.855,20.996,26.855,29.785,16.602,28.320,0
1583501269.859,21.973,27.832,29.785,16.113,27.344,0
1583501269.863,17.578,28.320,31.738,15.137,56.152,0
1583501269.867,16.602,27.832,34.180,18.555,56.641,0
1583501269.870,18.555,28.320,31.738,17.090,27.344,0
1583501269.874,20.508,27.344,31.250,17.578,3.906,0
1583501269.878,19.043,28.809,35.645,18.555,-27.344,0
1583501269.882,20.508,28.809,36.621,17.578,46.387,0
1583501269.886,27.344,31.250,38.086,24.902,85.938,0
1583501269.883,31.250,35.156,38.086,27.344,51.758,0
1583501269.887,28.809,34.180,33.203,22.949,23.926,0
1583501269.891,22.949,34.668,33.203,18.555,13.184,0
1583501269.895,21.973,35.156,33.203,18.066,71.289,0
1583501269.899,23.438,34.668,32.227,21.484,42.969,0
1583501269.903,27.832,35.156,31.250,21.484,1.465,0
1583501269.907,29.785,33.691,33.203,20.996,35.645,0
1583501269.910,27.344,35.156,36.621,21.484,53.711,0
1583501269.914,30.762,34.668,35.156,22.949,52.246,0
1583501269.918,29.297,31.250,31.250,24.414,91.309,0
1583501269.922,30.762,35.156,32.227,27.832,71.777,0
1583501269.926,39.551,38.574,34.668,35.156,-15.137,0
1583501269.944,35.156,31.250,32.227,31.250,-10.742,0
1583501269.948,29.785,31.250,30.762,24.414,31.738,0
1583501269.952,29.297,37.109,30.762,24.414,40.527,0
1583501269.956,24.414,36.133,32.715,25.391,36.133,0
1583501269.960,26.367,36.133,34.668,29.785,41.504,0
1583501269.964,24.902,37.109,34.668,26.855,39.551,0
1583501269.968,22.949,36.621,37.109,21.484,-19.043,0
1583501269.971,25.391,37.598,37.598,23.438,-9.277,0
1583501269.975,21.484,34.668,33.203,22.461,38.574,0
1583501269.979,18.066,30.762,33.691,20.996,17.090,0
1583501269.983,18.555,31.738,34.668,17.578,42.480,0
1583501269.987,22.949,35.645,36.133,20.020,62.012,0
1583501269.983,23.926,34.180,37.598,25.391,-18.555,0
1583501269.987,23.438,34.180,37.109,25.391,12.695,0
1583501269.991,25.391,35.645,34.180,23.438,42.480,0
1583501269.995,23.926,34.668,34.668,19.043,-10.742,0
1583501269.999,29.297,40.039,36.621,26.855,8.789,0
1583501270.003,36.621,42.480,37.598,35.645,12.695,0
1583501270.007,30.273,37.109,36.133,27.832,4.883,0
1583501270.010,22.949,35.645,35.156,24.902,-7.812,0
1583501270.014,24.414,38.086,33.203,29.297,43.945,0
1583501270.018,25.391,37.598,34.180,26.367,93.262,0
1583501270.022,29.297,36.133,36.133,25.391,52.246,0
1583501270.026,29.785,35.645,33.691,28.320,73.730,0
1583501270.023,24.414,37.109,35.156,27.344,62.988,0
1583501270.027,25.879,38.574,36.133,29.785,29.297,0
1583501270.031,26.367,39.062,35.645,33.691,75.195,0
1583501270.035,26.855,38.574,35.645,31.738,76.660,0
1583501270.039,29.297,39.062,38.574,30.762,18.066,0
1583501270.043,24.902,37.598,35.645,26.855,28.809,0
1583501270.047,20.996,34.668,31.250,21.973,90.820,0
1583501270.050,20.996,32.715,32.227,20.020,68.848,0
1583501270.054,25.879,34.180,35.156,19.043,49.805,0
1583501270.058,26.855,33.691,34.668,22.949,63.965,0
1583501270.062,27.344,32.227,35.156,29.297,79.102,0
1583501270.066,30.762,32.715,34.668,26.855,18.555,0
1583501270.083,30.273,34.180,34.668,24.414,-41.992,0
1583501270.087,28.809,33.691,35.156,25.391,27.832,0
1583501270.091,27.832,31.738,32.227,25.879,6.836,0
1583501270.095,30.762,28.809,31.250,30.762,0.000,0
1583501270.099,35.156,27.344,31.250,31.250,18.066,0
1583501270.103,33.203,28.809,32.227,29.297,-20.996,0
1583501270.107,31.738,32.227,35.156,33.203,1.953,0
