timestamps,TP9,AF7,AF8,TP10,Right AUX,Marker0
1583342037.627,38.086,20.020,64.453,53.223,78.613,0
1583342037.631,42.969,20.996,59.570,49.316,56.152,0
1583342037.635,54.688,21.484,57.129,56.152,-19.043,0
1583342037.639,56.641,23.926,56.152,49.805,11.230,0
1583342037.643,47.363,24.414,51.758,42.969,44.434,0
1583342037.647,44.922,20.508,51.270,51.270,5.371,0
1583342037.651,51.270,22.461,51.758,46.387,28.809,0
1583342037.654,53.711,22.461,46.875,38.086,98.145,0
1583342037.658,46.875,20.996,43.457,45.898,73.242,0
1583342037.662,41.504,21.484,46.387,50.781,27.832,0
1583342037.666,46.875,21.973,49.316,51.270,-10.742,0
1583342037.670,50.293,24.414,46.875,53.711,-1.465,0
1583342037.667,51.270,24.414,43.945,52.246,68.848,0
1583342037.671,52.246,28.320,43.945,45.898,52.734,0
1583342037.675,45.410,28.809,44.922,42.480,-14.648,0
1583342037.679,42.480,26.855,42.480,42.480,41.992,0
1583342037.683,31.250,25.391,40.039,32.715,112.305,0
1583342037.687,18.555,24.414,41.504,32.227,70.801,0
1583342037.691,30.762,28.809,38.086,37.109,64.941,0
1583342037.694,39.551,31.738,37.598,35.645,98.145,0
1583342037.698,38.574,32.715,39.062,31.250,4.883,0
1583342037.702,41.016,35.645,35.645,26.855,-1.953,0
1583342037.706,40.527,38.574,34.180,24.414,73.730,0
1583342037.710,39.062,37.109,34.668,31.738,52.734,0
1583342037.706,36.133,35.156,39.062,52.246,13.184,0
1583342037.710,32.715,35.645,41.016,50.781,22.949,0
1583342037.714,34.180,35.645,35.645,33.691,61.523,0
1583342037.718,27.344,33.691,37.109,37.598,48.828,0
1583342037.722,29.785,36.133,37.598,38.086,29.297,0
1583342037.726,39.062,37.598,33.691,35.156,51.758,0
1583342037.730,36.133,33.203,36.621,37.598,50.293,0
1583342037.733,32.227,31.250,37.598,34.668,15.625,0
1583342037.737,29.785,31.738,39.062,31.738,44.922,0
1583342037.741,26.855,30.762,40.527,32.227,54.688,0
1583342037.745,31.250,30.762,39.551,37.109,23.438,0
1583342037.749,37.598,31.250,41.016,35.645,18.066,0
1583342037.767,37.598,31.738,40.527,36.133,-16.602,0
1583342037.771,28.809,28.809,40.527,43.457,-29.785,0
1583342037.775,22.461,30.273,37.109,32.715,-37.598,0
1583342037.779,33.203,33.691,35.645,24.414,1.953,0
1583342037.783,35.156,32.715,37.109,27.832,49.805,0
1583342037.787,30.273,32.227,36.133,27.344,16.602,0
1583342037.791,25.879,31.738,36.133,23.926,55.176,0
1583342037.794,19.531,31.250,36.133,16.113,79.102,0
1583342037.798,16.602,30.762,39.551,24.902,43.457,0
1583342037.802,20.020,34.180,35.156,21.973,62.500,0
1583342037.806,26.367,37.109,33.691,21.973,62.012,0
1583342037.810,23.438,35.645,37.598,32.715,47.852,0
1583342037.807,38.086,41.016,32.715,30.762,49.316,0
1583342037.811,50.781,42.480,30.762,29.785,26.855,0
1583342037.815,34.180,38.574,33.691,24.902,8.301,0
1583342037.819,18.555,32.715,36.133,22.461,42.480,0
1583342037.823,26.855,28.809,39.551,34.668,36.133,0
1583342037.827,51.270,34.668,36.133,38.086,-19.531,0
1583342037.831,48.340,34.668,37.598,39.551,-23.926,0
1583342037.834,35.156,34.180,40.527,41.016,43.457,0
1583342037.838,35.645,35.156,37.109,35.156,22.949,0
1583342037.842,40.039,34.180,37.109,31.250,-5.371,0
1583342037.846,36.133,35.156,37.598,32.715,25.879,0
1583342037.850,33.691,33.691,33.203,32.715,30.762,0
1583342037.847,35.156,32.227,32.715,33.691,29.297,0
1583342037.851,33.691,30.762,31.250,29.297,24.414,0
1583342037.855,35.156,28.809,31.250,20.020,23.438,0
1583342037.859,28.320,28.809,34.668,24.414,35.645,0
1583342037.863,18.555,29.785,33.691,25.391,28.320,0
1583342037.867,18.066,31.250,31.250,9.766,76.660,0
1583342037.871,17.578,29.297,31.738,13.672,118.164,0
1583342037.874,20.996,27.832,30.273,22.461,95.215,0
1583342037.878,14.648,26.855,30.762,23.438,30.762,0
1583342037.882,9.766,27.344,30.762,24.414,-13.184,0
1583342037.886,23.926,29.297,29.785,15.137,-19.531,0
1583342037.890,40.527,33.691,22.461,14.648,11.719,0
1583342037.908,40.039,36.133,22.461,23.438,30.762,0
1583342037.912,26.855,31.250,30.273,34.668,25.391,0
1583342037.916,42.480,35.156,29.297,30.273,44.434,0
1583342037.920,50.781,37.598,29.297,25.391,87.402,0
1583342037.924,37.598,34.180,36.621,25.391,9.277,0
1583342037.928,33.203,36.133,35.645,32.227,-12.207,0
1583342037.932,36.133,39.062,31.250,27.832,53.711,0
1583342037.935,38.574,40.527,30.762,18.555,-2.930,0
1583342037.939,27.344,39.062,29.785,21.973,2.441,0
1583342037.943,19.531,39.551,30.762,24.902,53.711,0
1583342037.947,19.531,38.086,32.227,22.461,49.316,0
1583342037.951,12.695,36.133,35.156,19.043,80.566,0
1583342037.948,9.766,35.645,32.715,20.508,85.938,0
1583342037.952,9.766,35.645,33.203,20.996,63.965,0
1583342037.956,11.719,37.598,32.227,16.602,85.938,0
1583342037.960,13.672,38.574,26.367,14.648,35.645,0
1583342037.964,7.812,36.621,33.203,13.184,5.859,0
1583342037.968,1.465,38.086,37.109,18.066,81.543,0
1583342037.972,-3.906,35.645,37.598,27.832,86.426,0
1583342037.975,7.324,31.738,37.109,18.066,50.293,0
1583342037.979,7.812,27.344,40.039,17.578,83.008,0
1583342037.983,5.371,28.809,37.598,24.902,71.777,0
1583342037.987,18.066,34.180,30.273,18.066,87.891,0
1583342037.991,25.879,32.715,32.715,27.344,117.676,0
1583342037.987,28.320,33.691,37.109,34.668,20.508,0
1583342037.991,25.391,34.180,38.086,31.738,-28.320,0
1583342037.995,23.438,31.250,40.039,37.109,2.930,0
1583342037.999,27.344,32.715,40.039,31.250,-4.395,0
1583342038.003,30.762,34.668,41.016,22.461,-15.625,0
1583342038.007,25.391,35.645,38.574,22.461,48.828,0
1583342038.011,18.555,36.621,35.645,33.203,19.043,0
1583342038.014,19.531,36.621,40.039,38.086,-41.504,0
1583342038.018,24.902,37.109,37.109,26.367,0.488,0
1583342038.022,22.461,34.180,32.715,24.414,46.387,0
1583342038.026,12.695,32.227,37.598,33.691,62.500,0
1583342038.030,21.973,37.109,36.621,22.461,27.832,0
1583342038.047,27.832,37.109,32.715,20.020,22.949,0
1583342038.051,23.438,33.203,35.645,31.738,23.438,0
1583342038.055,27.344,35.645,31.250,30.762,25.391,0
1583342038.059,28.809,37.109,28.809,27.344,49.805,0
1583342038.063,29.785,36.133,29.297,29.297,14.648,0
1583342038.067,26.855,36.133,28.320,22.949,-5.371,0
1583342038.071,30.762,32.227,26.855,26.367,43.457,0
1583342038.074,54.199,35.156,26.855,48.828,44.922,0
1583342038.078,54.688,44.922,24.902,44.434,12.207,0
1583342038.082,14.648,44.434,17.578,6.836,-14.648,0
1583342038.086,-2.441,41.992,11.719,-10.254,-40.039,0
1583342038.090,-4.395,41.016,7.812,-13.672,-11.230,0
1583342038.087,-14.648,40.039,2.441,-31.738,1.953,0
1583342038.091,-7.324,45.410,1.465,-34.180,46.875,0
1583342038.095,-10.254,50.293,-0.977,-40.527,87.402,0
1583342038.099,-21.484,51.270,-2.441,-43.457,64.941,0
1583342038.103,-30.273,49.316,-3.906,-47.852,67.871,0
1583342038.107,-27.832,48.828,-3.418,-44.434,61.523,0
1583342038.111,-36.133,48.340,-1.465,-53.711,30.273,0
1583342038.114,-34.668,45.410,-1.953,-56.152,41.992,0
1583342038.118,-17.090,45.898,0.000,-34.668,11.719,0
1583342038.122,-11.230,47.852,0.000,-33.203,31.738,0
1583342038.126,-6.836,47.363,2.930,-26.367,52.246,0
1583342038.130,0.977,46.387,6.348,-11.230,-9.277,0
1583342038.127,4.395,47.852,6.836,-12.695,9.277,0
1583342038.131,9.277,47.363,8.789,-13.672,46.875,0
1583342038.135,22.461,48.340,9.766,-3.906,75.195,0
1583342038.139,29.297,48.828,11.230,3.906,73.242,0
1583342038.143,25.879,45.898,12.207,11.230,7.812,0
1583342038.147,26.367,44.434,12.207,13.184,-23.926,0
1583342038.151,29.785,43.945,12.695,17.578,-3.418,0
1583342038.154,29.297,44.434,15.625,23.926,-19.043,0
1583342038.158,30.273,45.410,16.113,16.113,-5.371,0
1583342038.162,29.785,44.434,12.695,11.719,66.895,0
1583342038.166,26.367,42.969,17.090,11.719,67.383,0
1583342038.170,25.391,42.480,22.949,20.508,-3.418,0
1583342038.187,23.438,41.504,20.508,30.762,25.879,0
1583342038.191,15.625,41.992,20.508,28.320,66.406,0
1583342038.195,13.672,41.016,25.879,32.227,48.828,0
1583342038.199,27.344,41.504,27.832,34.668,41.504,0
1583342038.203,28.809,40.527,28.809,32.227,4.395,0
1583342038.207,20.020,39.062,28.320,41.016,-32.715,0
1583342038.211,24.902,39.551,28.320,39.551,0.000,0
1583342038.214,29.785,40.527,26.367,32.227,42.480,0
1583342038.218,24.902,41.016,26.855,33.691,28.320,0
1583342038.222,28.320,39.062,25.879,31.738,6.348,0
1583342038.226,29.297,37.598,28.320,27.344,30.762,0
1583342038.230,26.367,36.133,29.785,31.738,37.598,0
1583342038.227,35.156,38.086,25.879,30.273,-1.953,0
1583342038.231,36.621,39.062,29.297,28.809,-20.020,0
1583342038.235,35.645,40.039,29.297,28.320,-14.160,0
1583342038.239,36.133,38.086,26.367,19.043,61.035,0
1583342038.243,41.016,38.086,24.414,23.438,121.582,0
1583342038.247,42.969,37.598,24.414,32.715,85.938,0
1583342038.251,34.668,34.668,27.832,33.203,20.996,0
1583342038.254,39.062,35.156,25.391,26.855,30.273,0
1583342038.258,54.688,39.062,25.391,25.879,30.762,0
1583342038.262,54.688,41.016,26.367,29.297,32.715,0
1583342038.266,48.828,38.574,24.902,39.551,28.320,0
1583342038.270,56.641,39.062,25.391,40.039,7.812,0
1583342038.267,67.871,41.504,25.879,32.715,24.902,0
1583342038.271,67.383,41.016,29.297,30.273,74.707,0
1583342038.275,67.871,41.504,26.855,29.785,93.262,0
1583342038.279,67.871,42.480,25.879,40.039,55.176,0
1583342038.283,62.500,36.621,31.250,43.457,-9.766,0
1583342038.287,62.012,34.668,28.809,37.598,-26.367,0
1583342038.291,58.105,35.156,28.809,35.645,5.371,0
1583342038.294,57.129,36.133,30.762,39.062,31.738,0
1583342038.298,54.688,35.645,28.320,35.156,97.168,0
1583342038.302,48.340,32.715,27.344,35.156,43.457,0
1583342038.306,43.457,31.738,32.715,37.109,-47.852,0
1583342038.310,39.551,31.250,35.156,40.527,49.805,0
1583342038.327,46.875,34.180,27.832,48.340,46.387,0
1583342038.331,49.316,33.691,32.715,45.898,-15.625,0
1583342038.335,45.898,34.180,33.203,46.875,54.199,0
1583342038.339,43.945,37.109,29.785,36.133,62.500,0
1583342038.343,41.016,36.621,31.738,27.344,2.930,0
1583342038.347,45.898,37.109,30.273,40.039,38.086,0
1583342038.351,42.969,36.621,32.715,32.715,99.121,0
1583342038.354,35.156,38.574,33.203,27.344,69.336,0
1583342038.358,37.109,40.039,30.273,34.668,26.367,0
1583342038.362,37.598,36.621,31.250,29.297,14.160,0
1583342038.366,35.645,35.156,30.762,26.367,37.109,0
1583342038.370,30.273,37.598,28.320,27.832,86.426,0
1583342038.367,25.391,38.086,27.344,30.762,45.410,0
1583342038.371,21.973,37.109,29.785,32.715,-28.320,0
1583342038.375,20.020,39.062,30.273,29.785,-9.766,0
1583342038.379,21.484,39.062,28.809,30.762,28.809,0
1583342038.383,20.996,36.621,28.809,34.668,46.875,0
1583342038.387,21.484,37.109,27.832,38.574,10.254,0
1583342038.391,23.926,36.621,27.832,41.504,8.301,0
1583342038.394,23.438,33.691,29.785,35.645,15.625,0
1583342038.398,26.855,36.133,25.879,35.156,12.695,0
1583342038.402,25.879,33.691,32.227,36.133,49.316,0
1583342038.406,25.391,31.738,33.691,41.504,19.531,0
1583342038.410,38.574,36.621,28.320,52.246,22.949,0
1583342038.407,49.805,36.133,27.344,56.641,24.902,0
1583342038.411,54.199,35.156,31.250,63.477,12.695,0
1583342038.415,43.945,33.203,39.062,54.688,7.812,0
1583342038.419,37.109,29.297,41.016,44.434,-15.625,0
1583342038.423,47.852,29.785,39.551,56.152,-31.250,0
1583342038.427,54.199,29.297,43.457,55.664,-30.273,0
1583342038.431,57.617,29.785,39.062,59.570,14.648,0
1583342038.434,61.523,30.273,32.227,67.871,38.086,0
1583342038.438,63.965,32.715,34.668,55.664,59.082,0
1583342038.442,65.918,35.645,35.645,50.781,11.719,0
1583342038.446,69.336,34.668,38.086,53.223,-16.113,0
1583342038.450,75.195,34.180,41.016,51.758,24.414,0
1583342038.467,74.707,33.691,40.527,55.664,37.598,0
1583342038.471,70.801,33.691,36.133,63.965,20.508,0
1583342038.475,68.848,32.715,35.645,60.059,38.086,0
1583342038.479,74.219,34.668,33.691,59.082,57.129,0
1583342038.483,73.242,36.133,35.645,60.059,104.980,0
1583342038.487,61.523,33.691,39.062,51.758,48.828,0
1583342038.491,60.059,31.738,37.598,47.363,20.996,0
1583342038.494,67.383,33.203,32.715,59.570,91.309,0
1583342038.498,65.918,32.715,32.715,60.059,83.496,0
1583342038.502,61.035,30.762,32.227,53.711,34.180,0
1583342038.506,58.594,30.273,34.668,63.477,21.973,0
1583342038.510,56.641,29.297,40.039,61.523,41.992,0
1583342038.507,53.223,25.879,37.109,59.570,34.668,0
1583342038.511,49.316,25.879,34.180,56.641,123.535,0
1583342038.515,44.922,28.809,36.133,51.758,112.793,0
1583342038.519,47.852,32.227,33.691,54.688,14.160,0
1583342038.523,57.129,33.691,31.738,53.223,63.965,0
1583342038.527,57.617,33.691,34.180,52.734,70.312,0
1583342038.531,52.246,33.203,32.227,52.734,31.250,0
1583342038.534,49.805,34.180,32.715,51.758,22.461,0
1583342038.538,53.223,36.133,30.762,50.781,31.250,0
1583342038.542,52.246,36.133,30.273,41.992,29.785,0
1583342038.546,47.363,34.180,31.250,41.992,24.902,0
1583342038.550,41.504,34.180,35.156,47.852,98.145,0
1583342038.547,36.621,34.180,35.156,41.992,93.262,0
1583342038.551,36.133,35.645,29.297,41.504,17.578,0
1583342038.555,39.551,34.668,31.738,40.527,25.391,0
1583342038.559,34.668,34.668,34.668,42.480,62.500,0
1583342038.563,32.227,35.645,32.715,48.340,73.730,0
1583342038.567,34.180,33.691,35.156,41.016,51.270,0
1583342038.571,29.297,38.086,34.668,39.062,34.180,0
1583342038.574,21.484,37.598,35.645,39.551,6.348,0
1583342038.578,19.043,31.738,35.156,38.086,-32.715,0
1583342038.582,19.043,34.668,30.273,39.551,72.754,0
1583342038.586,21.973,33.691,31.250,46.387,58.105,0
1583342038.590,20.508,33.203,32.227,44.434,10.742,0
1583342038.607,22.949,33.203,31.250,44.434,77.637,0
1583342038.611,26.855,32.227,33.691,46.875,48.340,0
1583342038.615,20.996,31.250,38.086,35.645,22.461,0
1583342038.619,26.367,32.227,34.180,40.527,8.301,0
1583342038.623,26.367,33.203,32.227,47.363,9.277,0
1583342038.627,24.902,34.668,34.180,40.039,53.223,0
1583342038.631,25.391,32.227,37.598,33.691,81.543,0
1583342038.634,32.227,27.832,36.621,40.039,68.848,0
1583342038.638,41.016,33.203,32.227,47.852,68.848,0
1583342038.642,41.504,35.156,34.668,47.363,51.270,0
1583342038.646,40.039,29.785,36.621,46.875,43.945,0
1583342038.650,32.715,29.785,35.645,41.992,49.316,0
1583342038.647,33.691,29.297,34.180,40.039,61.035,0
1583342038.651,33.691,28.809,35.156,41.992,83.984,0
1583342038.655,30.273,29.297,38.574,41.016,39.551,0
1583342038.659,36.133,29.785,38.086,38.574,-25.879,0
1583342038.663,40.527,32.227,37.598,41.504,3.418,0
1583342038.667,35.645,34.668,38.574,39.062,54.688,0
1583342038.671,38.574,30.762,36.133,39.551,17.090,0
1583342038.674,49.805,29.297,37.598,50.781,-22.949,0
1583342038.678,39.062,39.551,30.762,39.551,0.977,0
1583342038.682,23.926,43.945,23.926,21.973,17.090,0
1583342038.686,23.926,42.969,24.902,20.020,1.465,0
1583342038.690,14.648,39.551,26.855,18.555,48.828,0
1583342038.687,9.766,36.621,28.320,21.973,52.734,0
1583342038.691,15.625,39.062,24.902,19.531,-17.578,0
1583342038.695,13.184,39.062,26.367,20.996,21.973,0
1583342038.699,15.625,38.574,29.785,26.855,62.012,0
1583342038.703,18.066,40.527,28.809,23.926,-12.695,0
1583342038.707,12.207,38.574,28.809,25.879,10.254,0
1583342038.711,8.789,36.621,31.250,32.227,84.473,0
1583342038.714,10.742,36.133,32.227,25.879,54.688,0
1583342038.718,14.648,36.133,28.809,25.391,41.016,0
1583342038.722,13.184,37.109,27.344,29.785,53.711,0
1583342038.726,4.883,37.109,28.320,30.273,63.965,0
1583342038.730,8.789,36.621,25.879,31.250,15.625,0
1583342038.747,15.625,38.086,27.832,28.320,16.602,0
1583342038.751,12.695,37.109,28.320,25.391,52.246,0
1583342038.755,10.254,35.156,26.367,22.461,97.168,0
1583342038.759,7.812,32.715,29.785,20.020,51.270,0
1583342038.763,15.625,33.691,28.320,20.508,-4.883,0
1583342038.767,23.438,36.133,24.902,20.996,67.871,0
1583342038.771,18.066,36.621,25.391,17.578,47.363,0
1583342038.774,16.113,35.156,24.414,16.602,43.457,0
1583342038.778,21.484,37.598,26.367,17.090,-8.789,0
1583342038.782,26.367,40.527,28.809,22.461,-47.852,0
1583342038.786,24.414,38.086,28.809,23.926,-20.020,0
1583342038.790,28.320,38.086,27.344,19.531,-10.254,0
1583342038.787,34.180,37.109,27.344,20.996,6.836,0
1583342038.791,35.645,37.109,28.809,21.973,33.691,0
1583342038.795,35.156,40.527,25.879,22.461,0.977,0
1583342038.799,30.762,39.551,23.438,25.879,-11.230,0
1583342038.803,32.227,39.551,27.344,26.855,41.016,0
1583342038.807,39.062,39.551,28.809,26.855,28.320,0
1583342038.811,38.574,38.086,30.762,28.320,6.836,0
1583342038.814,36.621,38.574,30.762,31.250,20.996,0
1583342038.818,43.457,41.016,30.273,33.203,70.801,0
1583342038.822,50.781,41.992,31.738,28.320,61.523,0
1583342038.826,50.781,41.016,32.227,32.715,33.691,0
1583342038.830,47.363,39.062,33.691,37.109,-2.930,0
1583342038.827,46.875,39.551,37.598,38.574,11.230,0
1583342038.831,51.270,41.016,38.086,43.457,71.289,0
1583342038.835,50.781,39.551,38.086,46.387,71.777,0
1583342038.839,46.387,37.598,37.598,43.457,22.461,0
1583342038.843,43.457,37.109,35.156,38.086,90.820,0
1583342038.847,46.875,34.668,36.621,40.039,104.980,0
1583342038.851,47.852,33.203,37.598,37.598,1.465,0
1583342038.854,39.551,35.156,35.645,35.645,-2.930,0
1583342038.858,33.691,34.180,35.645,35.645,0.488,0
1583342038.862,31.738,31.250,36.621,36.133,5.371,0
1583342038.866,35.645,30.273,35.645,37.109,53.711,0
1583342038.870,37.109,31.250,36.133,40.039,83.008,0
1583342038.887,33.203,32.227,35.645,39.551,53.711,0
1583342038.891,33.203,28.809,31.738,36.621,26.367,0
1583342038.895,36.133,28.809,31.738,35.645,26.367,0
1583342038.899,38.086,33.203,30.762,31.738,1.953,0
1583342038.903,36.621,33.203,32.227,32.227,-24.902,0
1583342038.907,35.156,33.203,32.715,33.691,22.949,0
1583342038.911,38.574,35.156,33.203,33.691,22.461,0
1583342038.914,39.551,34.180,32.715,35.645,-5.371,0
1583342038.918,31.738,33.203,32.227,31.738,48.828,0
1583342038.922,26.855,31.250,33.203,30.273,51.270,0
1583342038.926,27.832,31.250,32.715,28.809,59.082,0
1583342038.930,28.320,31.738,32.227,25.879,81.055,0
1583342038.927,32.227,31.250,31.738,33.203,63.965,0
1583342038.931,34.180,32.227,31.738,39.062,63.477,0
1583342038.935,35.156,33.203,33.691,36.621,47.363,0
1583342038.939,47.852,35.156,33.691,41.016,22.949,0
1583342038.943,51.758,36.133,31.738,40.039,25.391,0
1583342038.947,49.805,38.086,34.668,34.668,-4.883,0
1583342038.951,51.270,36.133,34.668,34.668,46.387,0
1583342038.954,44.922,34.668,33.203,36.621,38.086,0
1583342038.958,39.551,34.668,34.180,34.668,-1.953,0
1583342038.962,37.109,30.273,37.109,34.180,44.922,0
1583342038.966,36.621,30.762,36.133,36.133,21.973,0
1583342038.970,39.551,32.227,33.203,36.621,38.574,0
1583342038.974,39.551,28.320,31.738,36.133,70.801,0
1583342038.978,37.109,30.762,31.738,37.109,5.371,0
1583342038.982,37.109,34.668,33.203,39.062,18.555,0
1583342038.986,38.086,30.762,32.227,38.086,13.672,0
1583342038.990,43.945,31.250,32.715,42.969,-34.668,0
1583342038.994,44.922,32.227,35.156,42.969,-18.066,0
1583342038.998,39.062,32.227,33.691,41.504,42.480,0
1583342039.001,37.109,33.203,38.574,39.551,32.227,0
1583342039.005,39.551,31.738,40.527,38.574,3.418,0
1583342039.009,40.039,28.809,35.156,39.551,27.344,0
1583342039.013,33.203,29.785,34.180,39.062,50.781,0
1583342039.017,22.949,29.785,37.109,33.203,3.906,0
1583342039.027,26.367,29.785,35.156,32.227,9.766,0
1583342039.031,32.715,31.738,31.738,34.180,46.875,0
1583342039.035,26.855,31.250,32.227,32.227,67.871,0
1583342039.039,28.809,30.273,32.715,33.691,97.168,0
1583342039.043,34.180,28.809,33.691,34.180,103.027,0
1583342039.047,33.691,28.320,33.203,34.668,115.234,0
1583342039.051,30.273,32.227,33.691,33.691,89.844,0
1583342039.054,28.809,33.691,36.133,33.691,44.434,0
1583342039.058,31.250,33.691,37.109,30.273,9.766,0
1583342039.062,37.598,34.668,33.691,33.691,2.441,0
1583342039.066,37.598,34.668,31.738,33.203,-20.508,0
1583342039.070,33.691,37.109,33.691,29.297,-58.105,0
1583342039.067,34.668,36.621,31.738,31.250,-5.859,0
1583342039.071,36.133,36.133,29.297,30.273,18.555,0
1583342039.075,33.691,35.645,28.809,25.879,-0.488,0
1583342039.079,35.156,33.203,30.273,25.879,16.602,0
1583342039.083,34.668,35.645,32.227,29.785,32.715,0
1583342039.087,36.621,35.645,33.203,30.762,28.809,0
1583342039.091,41.016,32.227,34.668,33.203,14.648,0
1583342039.094,36.621,32.715,32.715,35.156,41.016,0
1583342039.098,31.250,31.738,31.250,35.156,26.367,0
1583342039.102,33.203,32.227,32.715,36.621,30.762,0
1583342039.106,42.480,36.621,32.227,36.621,64.941,0
1583342039.110,45.410,33.691,31.250,39.551,49.316,0
1583342039.127,40.527,29.297,31.250,44.922,0.977,0
1583342039.131,32.715,28.809,34.668,38.086,32.715,0
1583342039.135,39.062,29.297,35.645,37.598,82.031,0
1583342039.139,42.969,32.227,37.109,44.922,50.781,0
1583342039.143,38.086,32.715,39.062,44.434,47.852,0
1583342039.147,39.551,32.227,37.598,43.945,4.883,0
1583342039.151,43.457,33.691,36.133,45.898,-8.789,0
1583342039.154,46.387,34.180,34.180,44.922,-0.977,0
1583342039.158,44.922,36.133,31.738,43.945,25.391,0
1583342039.162,47.363,38.086,31.738,43.945,72.266,0
1583342039.166,53.223,35.156,33.691,44.922,70.312,0
1583342039.170,54.199,34.668,34.180,45.410,52.734,0
1583342039.167,49.316,37.109,34.180,43.945,-3.906,0
1583342039.171,42.480,37.109,36.133,40.039,8.789,0
1583342039.175,40.527,36.133,35.645,40.527,56.641,0
1583342039.179,43.945,32.715,34.668,42.480,67.871,0
1583342039.183,44.434,32.715,36.621,40.527,35.156,0
1583342039.187,41.992,33.691,34.180,44.434,6.348,0
1583342039.191,41.504,32.715,32.715,46.387,-6.836,0
1583342039.194,42.480,31.738,36.621,46.387,35.156,0
1583342039.198,41.992,31.738,36.133,47.852,105.957,0
1583342039.202,41.504,32.227,33.691,50.293,53.711,0
1583342039.206,37.598,32.227,36.621,41.992,-12.207,0
1583342039.210,36.133,33.203,37.598,34.668,20.508,0
1583342039.207,42.969,34.668,32.715,41.992,33.691,0
1583342039.211,42.969,35.645,31.250,43.945,33.203,0
1583342039.215,41.992,36.621,33.691,43.457,43.457,0
1583342039.219,44.434,35.645,34.668,42.480,93.262,0
1583342039.223,42.969,33.691,35.645,39.062,99.121,0
1583342039.227,36.621,36.133,32.715,39.062,51.758,0
1583342039.231,32.715,34.180,32.227,36.133,44.922,0
1583342039.234,32.227,32.715,33.203,30.762,31.250,0
1583342039.238,32.715,33.203,30.273,28.809,34.668,0
1583342039.242,30.273,32.715,30.273,28.320,15.625,0
1583342039.246,31.738,34.180,31.738,28.320,57.129,0
1583342039.250,36.133,36.133,32.715,31.250,68.848,0
1583342039.267,42.969,36.621,30.762,34.180,47.363,0
1583342039.271,47.363,36.133,30.273,36.621,24.902,0
1583342039.275,41.016,37.598,29.785,31.738,-7.812,0
1583342039.279,38.086,38.086,28.809,25.879,-1.953,0
1583342039.283,38.086,36.133,29.297,25.879,20.020,0
1583342039.287,41.016,35.156,25.391,29.785,32.715,0
1583342039.291,38.086,36.133,24.414,27.832,30.762,0
1583342039.294,31.250,35.156,27.344,22.461,-8.789,0
1583342039.298,33.203,34.668,26.855,28.809,9.277,0
1583342039.302,31.250,35.645,27.832,32.715,62.500,0
1583342039.306,29.297,34.668,32.227,30.762,36.133,0
1583342039.310,31.250,33.691,31.738,32.715,14.648,0
1583342039.307,33.203,34.180,29.297,39.062,-7.812,0
1583342039.311,32.227,35.645,27.344,39.062,32.227,0
1583342039.315,32.715,36.621,30.273,39.062,73.242,0
1583342039.319,28.320,33.691,34.668,33.691,9.277,0
1583342039.323,27.832,34.668,32.715,28.320,-27.832,0
1583342039.327,33.203,37.598,31.250,28.809,-15.137,0
1583342039.331,29.785,36.133,30.273,24.414,23.926,0
1583342039.334,27.344,36.621,31.250,26.367,59.570,0
1583342039.338,25.879,34.668,31.738,25.391,15.137,0
1583342039.342,25.391,33.203,30.273,20.020,22.949,0
1583342039.346,31.738,36.133,28.320,23.926,73.242,0
1583342039.350,27.832,36.133,27.344,24.902,76.660,0
1583342039.347,22.949,32.715,28.809,22.949,41.992,0
1583342039.351,29.785,31.738,30.273,27.344,19.531,0
1583342039.355,33.691,33.691,31.738,32.715,24.414,0
1583342039.359,29.297,33.691,34.180,29.297,69.336,0
1583342039.363,27.344,34.180,35.156,26.367,86.914,0
1583342039.367,26.367,33.203,37.109,28.809,30.762,0
1583342039.371,29.297,32.227,36.133,29.297,79.102,0
1583342039.374,30.273,32.227,35.156,29.785,77.637,0
1583342039.378,25.879,33.203,32.715,22.949,60.059,0
1583342039.382,23.438,30.762,34.180,17.578,62.500,0
1583342039.386,26.367,30.273,37.598,30.273,-11.230,0
1583342039.390,31.738,34.668,37.109,35.156,13.672,0
1583342039.407,30.273,33.691,35.156,32.227,44.434,0
1583342039.411,25.879,28.809,36.133,30.762,4.883,0
1583342039.415,28.809,29.785,32.715,29.785,25.391,0
1583342039.419,31.738,34.668,30.273,33.203,55.664,0
1583342039.423,26.855,34.668,32.715,31.738,49.805,0
1583342039.427,26.367,34.668,31.738,31.250,11.719,0
1583342039.431,29.297,36.133,28.809,27.344,26.855,0
1583342039.434,28.809,35.645,27.832,21.973,77.637,0
1583342039.438,30.273,34.668,29.297,29.785,73.730,0
1583342039.442,28.809,34.668,30.762,34.180,16.113,0
1583342039.446,28.320,34.668,29.785,33.203,-16.602,0
1583342039.450,36.133,33.203,28.320,33.203,53.711,0
1583342039.447,38.574,34.180,29.297,36.133,127.930,0
1583342039.451,35.156,32.715,30.762,34.180,63.477,0
1583342039.455,38.574,35.645,30.762,34.668,0.000,0
1583342039.459,43.945,36.621,29.785,38.574,10.742,0
1583342039.463,43.457,34.180,28.809,40.527,72.754,0
1583342039.467,40.039,31.738,31.250,36.621,107.422,0
1583342039.471,35.156,29.297,33.691,31.250,104.004,0
1583342039.474,32.715,32.227,30.273,34.668,105.957,0
1583342039.478,38.086,33.203,27.832,36.621,57.617,0
1583342039.482,40.527,32.715,27.344,31.250,41.016,0
1583342039.486,32.227,35.156,30.762,21.973,49.805,0
1583342039.490,33.203,35.645,30.762,25.391,59.570,0
1583342039.487,34.668,31.738,30.273,30.273,61.035,0
1583342039.491,30.762,29.785,33.691,30.762,12.695,0
1583342039.495,24.414,30.273,31.738,29.297,-12.695,0
1583342039.499,18.555,29.297,32.715,24.902,-41.992,0
1583342039.503,22.461,26.855,36.621,27.344,-37.598,0
1583342039.507,26.367,28.320,38.086,29.785,0.488,0
1583342039.511,23.438,31.738,38.574,31.738,-26.367,0
1583342039.514,25.391,29.297,39.551,35.645,-58.594,0
1583342039.518,32.227,29.297,39.551,34.180,27.832,0
1583342039.522,36.133,30.762,35.156,34.180,75.195,0
1583342039.526,31.738,28.809,32.227,38.086,56.641,0
1583342039.530,29.297,26.855,32.715,38.574,67.383,0
1583342039.547,29.297,29.297,35.156,36.133,4.395,0
1583342039.551,34.180,29.785,32.227,36.133,-40.039,0
1583342039.555,35.156,26.855,31.738,35.645,22.949,0
1583342039.559,30.273,26.855,34.668,33.203,17.090,0
1583342039.563,32.227,28.320,30.762,33.203,-13.184,0
1583342039.567,37.109,27.832,31.738,33.203,17.578,0
1583342039.571,37.109,28.809,34.668,32.715,60.059,0
1583342039.574,37.598,32.227,31.250,34.180,37.598,0
1583342039.578,34.180,31.738,30.273,33.203,-13.184,0
1583342039.582,37.109,30.762,31.738,32.227,18.066,0
1583342039.586,39.551,33.691,31.250,33.691,81.543,0
1583342039.590,34.668,31.250,32.715,29.297,93.262,0
1583342039.587,33.691,30.273,33.203,30.273,56.641,0
1583342039.591,41.992,35.156,27.344,34.668,17.578,0
1583342039.595,51.270,36.621,29.297,34.668,9.766,0
1583342039.599,48.340,39.062,28.320,32.715,-43.945,0
1583342039.603,42.969,37.598,27.344,25.391,-30.762,0
1583342039.607,47.363,38.086,30.273,31.738,61.035,0
1583342039.611,42.969,39.551,31.738,34.668,79.102,0
1583342039.614,34.180,37.109,30.273,26.367,81.543,0
1583342039.618,25.879,33.691,32.715,23.926,60.547,0
1583342039.622,23.438,33.203,35.645,24.414,77.148,0
1583342039.626,24.414,34.180,33.691,24.414,84.473,0
1583342039.630,20.508,31.250,30.762,27.344,50.781,0
1583342039.627,13.184,31.250,32.715,27.344,22.461,0
1583342039.631,14.160,31.250,35.645,30.273,43.457,0
1583342039.635,20.020,30.273,36.133,34.668,52.246,0
1583342039.639,16.113,28.320,35.156,29.785,-5.371,0
1583342039.643,15.625,27.832,33.691,28.320,31.250,0
1583342039.647,14.160,26.855,32.227,27.832,78.125,0
1583342039.651,13.672,25.879,30.273,25.879,77.637,0
1583342039.654,23.438,28.320,29.785,29.297,32.227,0
1583342039.658,25.879,30.762,32.227,27.344,10.254,0
1583342039.662,31.738,31.250,32.715,30.762,28.320,0
1583342039.666,41.992,35.156,32.715,35.645,46.387,0
1583342039.670,46.387,37.598,36.133,33.691,11.230,0
1583342039.687,49.316,38.086,34.668,36.133,-23.438,0
1583342039.691,46.875,41.504,32.227,34.668,12.207,0
1583342039.695,43.457,41.504,33.691,34.668,17.090,0
1583342039.699,45.898,41.992,32.227,38.574,23.926,0
1583342039.703,44.434,42.969,31.738,33.691,16.602,0
1583342039.707,40.039,42.969,31.738,32.227,-16.113,0
1583342039.711,40.527,41.016,34.180,32.715,18.066,0
1583342039.714,45.898,41.504,36.621,35.645,85.449,0
1583342039.718,40.039,39.551,35.645,39.062,68.359,0
1583342039.722,33.691,36.621,33.203,35.156,48.340,0
1583342039.726,34.668,35.156,33.691,35.645,68.359,0
1583342039.730,32.227,35.156,35.156,32.227,67.871,0
1583342039.727,31.250,36.621,35.156,30.273,41.992,0
1583342039.731,32.715,36.133,33.203,37.109,43.945,0
1583342039.735,31.250,36.133,32.715,39.551,31.250,0
1583342039.739,29.297,39.551,35.645,38.574,-38.086,0
1583342039.743,33.691,40.039,37.109,42.480,-12.207,0
1583342039.747,35.156,35.645,36.621,43.457,35.156,0
1583342039.751,27.832,34.668,37.109,37.109,13.672,0
1583342039.754,24.414,36.621,35.156,35.645,-37.598,0
1583342039.758,30.273,35.156,36.621,39.062,-19.531,0
1583342039.762,28.320,33.691,39.551,38.574,45.410,0
1583342039.766,20.996,31.738,37.109,32.227,42.480,0
1583342039.770,20.508,30.762,35.645,28.320,-7.812,0
1583342039.767,21.484,27.832,34.180,26.367,-18.555,0
1583342039.771,21.484,30.273,31.738,23.926,54.199,0
1583342039.775,20.996,34.668,32.715,23.438,52.246,0
1583342039.779,20.996,34.668,32.715,24.414,25.879,0
1583342039.783,28.320,36.621,31.738,25.879,-5.859,0
1583342039.787,34.180,37.109,29.785,27.344,42.480,0
1583342039.791,32.227,37.598,28.320,24.902,47.852,0
1583342039.794,31.250,38.086,28.809,23.438,35.645,0
1583342039.798,32.715,36.133,31.738,22.949,44.434,0
1583342039.802,37.598,33.203,34.180,25.879,26.855,0
1583342039.806,40.527,35.645,33.691,31.738,48.340,0
1583342039.810,40.527,36.621,34.668,35.156,52.246,0
1583342039.827,37.109,34.180,35.156,34.180,41.016,0
1583342039.831,40.527,36.621,35.156,29.297,45.410,0
1583342039.835,41.504,36.133,34.180,31.250,86.426,0
1583342039.839,30.273,35.156,30.273,32.227,61.523,0
1583342039.843,25.879,35.156,27.832,31.738,8.301,0
1583342039.847,33.691,35.645,28.320,31.738,70.312,0
1583342039.851,34.668,37.109,29.297,22.461,128.418,0
1583342039.854,28.320,36.133,27.832,25.879,118.164,0
1583342039.858,25.391,29.785,27.344,34.180,77.637,0
1583342039.862,27.344,30.273,27.344,33.691,64.453,0
1583342039.866,32.715,35.645,26.855,33.691,34.180,0
1583342039.870,27.832,33.691,31.250,26.855,49.805,0
1583342039.867,25.879,33.691,33.691,28.320,67.383,0
1583342039.871,29.785,32.715,33.691,37.109,47.363,0
1583342039.875,29.297,32.715,33.691,36.133,55.176,0
1583342039.879,34.668,36.133,31.250,33.691,31.738,0
1583342039.883,35.645,35.645,30.762,33.691,30.762,0
1583342039.887,32.715,36.621,32.715,34.668,33.691,0
1583342039.891,35.156,36.621,34.180,36.133,66.895,0
1583342039.894,38.574,36.133,35.645,40.039,68.359,0
1583342039.898,38.574,36.621,35.156,43.457,29.785,0
1583342039.902,34.180,38.086,34.668,35.156,29.785,0
1583342039.906,35.156,38.086,33.203,31.250,22.461,0
1583342039.910,38.086,37.109,33.691,38.086,4.883,0
1583342039.907,35.156,35.156,35.645,39.062,19.043,0
1583342039.911,36.621,34.668,33.691,39.062,20.996,0
1583342039.915,38.086,35.645,32.715,38.086,23.438,0
1583342039.919,36.621,36.133,33.691,32.227,41.504,0
1583342039.923,31.738,38.086,34.668,33.691,59.082,0
1583342039.927,29.297,38.574,35.156,38.574,21.484,0
1583342039.931,32.227,38.574,35.156,37.598,20.020,0
1583342039.934,34.668,38.574,35.156,35.156,26.855,0
1583342039.938,31.250,38.574,35.645,26.855,27.344,0
1583342039.942,25.879,38.574,32.227,22.949,79.590,0
1583342039.946,25.391,37.598,29.297,27.344,64.941,0
1583342039.950,27.344,35.156,27.344,24.414,38.086,0
1583342039.971,26.367,33.203,28.809,20.996,16.113,0
1583342039.975,22.949,34.668,32.227,22.461,9.766,0
1583342039.979,21.484,35.156,36.133,22.461,35.645,0
1583342039.983,22.949,30.762,38.086,23.438,9.766,0
1583342039.987,27.344,28.320,38.086,27.344,-40.527,0
1583342039.991,30.762,30.273,38.574,28.809,-2.930,0
1583342039.995,30.273,31.738,37.598,28.809,31.738,0
1583342039.998,32.715,29.297,36.621,34.668,-51.758,0
1583342040.002,39.551,28.320,36.133,35.645,-68.359,0
1583342040.006,38.086,32.227,33.203,30.762,-9.277,0
1583342040.010,34.668,33.203,31.738,30.273,-32.227,0
1583342040.014,36.133,32.227,34.668,31.738,0.488,0
1583342040.007,38.086,31.250,35.156,30.762,-0.977,0
1583342040.011,40.039,31.738,35.156,30.762,-29.297,0
1583342040.015,29.785,32.227,34.668,27.832,21.484,0
1583342040.019,25.879,29.297,33.691,28.320,65.430,0
1583342040.023,34.668,27.832,37.598,29.785,46.387,0
1583342040.027,35.645,28.809,36.133,29.785,6.348,0
1583342040.031,36.621,29.297,32.715,32.715,-46.387,0
1583342040.034,37.598,33.203,33.203,33.691,-16.113,0
1583342040.038,33.691,34.180,36.621,32.715,43.945,0
1583342040.042,37.598,34.668,38.086,33.691,80.566,0
1583342040.046,38.086,35.645,36.133,32.715,97.168,0
1583342040.050,31.738,31.738,36.133,26.855,49.316,0
1583342040.047,30.273,28.809,34.668,28.320,55.176,0
1583342040.051,32.715,30.273,34.668,31.250,50.781,0
1583342040.055,31.250,32.715,32.715,31.250,0.488,0
1583342040.059,27.832,33.203,32.227,28.809,21.973,0
1583342040.063,31.250,33.691,30.273,29.785,31.738,0
1583342040.067,34.668,34.180,30.273,33.203,20.508,0
1583342040.071,33.203,32.715,32.715,35.156,40.527,0
1583342040.074,27.832,32.227,30.273,31.250,11.719,0
1583342040.078,26.367,32.227,28.320,28.809,11.719,0
1583342040.082,27.832,32.715,30.273,32.227,33.203,0
1583342040.086,31.738,34.180,32.715,35.645,-11.719,0
1583342040.090,31.250,35.645,32.227,33.691,5.371,0
1583342040.107,30.762,35.645,30.762,30.762,93.262,0
1583342040.111,31.738,34.180,33.203,30.762,130.371,0
1583342040.115,32.715,34.180,31.738,30.762,113.770,0
1583342040.119,32.227,32.715,30.273,31.250,68.359,0
1583342040.123,32.227,35.645,31.738,36.133,53.223,0
1583342040.127,34.180,34.668,32.227,35.156,84.961,0
1583342040.131,34.668,30.762,32.227,26.367,75.684,0
1583342040.134,31.738,31.250,29.785,26.855,3.906,0
1583342040.138,28.809,33.203,30.273,31.250,26.855,0
1583342040.142,28.320,34.180,36.133,28.809,44.922,0
1583342040.146,30.273,34.668,37.109,28.809,-18.066,0
1583342040.150,36.133,38.574,35.156,32.227,22.461,0
1583342040.146,36.133,39.551,35.156,33.691,20.996,0
1583342040.150,31.250,37.109,33.203,31.738,55.176,0
1583342040.154,35.156,36.133,33.203,31.738,131.836,0
1583342040.158,36.621,36.133,30.762,33.691,89.844,0
1583342040.162,33.203,37.598,30.762,32.227,-2.441,0
1583342040.166,34.668,36.621,34.180,31.738,26.855,0
1583342040.170,38.086,34.668,34.180,35.645,92.285,0
1583342040.173,38.086,35.156,31.250,32.715,42.480,0
1583342040.177,37.109,34.180,31.738,31.250,61.035,0
1583342040.181,36.133,31.738,30.273,29.297,80.078,0
1583342040.185,35.645,31.738,33.203,31.738,59.570,0
1583342040.189,40.039,33.691,35.645,39.062,94.238,0
1583342040.187,41.504,34.180,33.691,41.504,41.992,0
1583342040.191,33.691,34.180,35.156,40.527,-3.418,0
1583342040.195,35.645,35.156,33.691,37.598,27.832,0
1583342040.199,38.086,32.715,31.250,37.598,36.133,0
1583342040.203,36.621,32.715,33.203,38.086,-9.766,0
1583342040.207,35.156,34.668,34.180,38.574,-28.809,0
1583342040.211,32.227,34.668,32.715,38.086,28.809,0
1583342040.214,34.180,35.156,32.227,34.180,80.566,0
1583342040.218,41.992,35.156,34.180,34.668,10.254,0
1583342040.222,43.457,34.180,32.715,38.574,28.809,0
1583342040.226,41.016,37.109,30.762,40.039,143.555,0
1583342040.230,41.504,38.086,30.762,38.574,140.625,0
1583342040.246,39.062,35.645,29.785,36.133,88.379,0
1583342040.250,34.668,37.109,30.762,35.645,13.672,0
1583342040.254,30.273,37.598,35.156,33.691,-24.902,0
1583342040.258,30.762,35.645,36.621,34.180,40.527,0
1583342040.262,37.109,38.086,31.738,34.180,28.320,0
1583342040.266,36.133,38.086,31.738,30.762,-27.344,0
1583342040.270,25.879,33.691,34.180,26.367,36.133,0
1583342040.273,25.391,33.203,34.668,24.414,107.910,0
1583342040.277,30.273,34.180,34.180,29.785,47.852,0
1583342040.281,31.250,33.203,33.691,32.715,2.441,0
1583342040.285,30.762,32.715,33.691,28.320,-22.461,0
1583342040.289,26.367,31.738,34.180,27.832,-35.156,0
1583342040.287,29.297,31.250,35.645,33.203,-9.277,0
1583342040.291,36.621,31.250,35.645,33.691,3.418,0
1583342040.295,34.668,30.273,35.645,34.668,48.340,0
1583342040.299,33.203,32.715,36.621,37.598,28.320,0
1583342040.303,40.039,34.668,37.598,40.527,-9.766,0
1583342040.307,45.898,33.691,35.645,40.527,47.363,0
1583342040.311,40.039,34.180,36.133,36.621,29.785,0
1583342040.314,32.715,33.691,35.645,36.621,29.297,0
1583342040.318,34.180,33.203,31.250,37.109,47.852,0
1583342040.322,37.598,33.203,30.273,34.180,-8.789,0
1583342040.326,33.203,33.203,33.203,34.180,-46.387,0
1583342040.330,29.785,33.691,35.645,37.109,6.836,0
1583342040.327,35.645,35.645,34.668,41.504,26.367,0
1583342040.331,38.574,35.645,35.156,43.457,29.785,0
1583342040.335,40.527,36.133,36.133,45.410,60.059,0
1583342040.339,41.016,34.180,34.180,46.875,45.410,0
1583342040.343,37.109,31.250,34.668,43.945,62.988,0
1583342040.347,39.062,33.203,34.668,41.504,114.746,0
1583342040.351,42.969,35.645,33.203,40.527,88.867,0
1583342040.354,44.922,35.156,33.691,38.086,48.340,0
1583342040.358,43.945,34.180,31.250,34.668,50.781,0
1583342040.362,42.480,34.668,28.809,34.668,28.320,0
1583342040.366,47.363,34.180,27.344,36.133,31.250,0
1583342040.370,42.969,32.715,26.367,32.227,101.562,0
1583342040.386,31.738,32.715,26.367,27.832,71.289,0
1583342040.390,39.551,32.227,26.367,36.133,-21.973,0
1583342040.394,47.852,34.668,28.320,40.527,-39.551,0
1583342040.398,31.738,39.551,26.367,22.949,24.414,0
1583342040.402,20.508,36.621,23.438,15.137,67.871,0
1583342040.406,20.508,36.621,25.879,20.508,57.129,0
1583342040.410,20.020,39.062,24.414,16.113,60.059,0
1583342040.413,20.020,39.551,22.949,18.066,15.137,0
1583342040.417,20.508,39.551,23.438,21.973,-15.137,0
1583342040.421,24.414,41.016,20.508,20.996,-29.785,0
1583342040.425,27.832,42.969,18.555,20.020,15.137,0
1583342040.429,32.715,39.062,19.531,27.832,39.062,0
1583342040.427,32.227,34.180,22.949,34.668,43.945,0
1583342040.431,29.297,37.109,25.391,32.715,76.172,0
1583342040.435,34.668,38.086,27.832,35.156,69.824,0
1583342040.439,42.480,36.621,28.320,39.062,46.387,0
1583342040.443,40.527,38.086,28.809,39.551,-24.902,0
1583342040.447,38.574,39.551,27.344,41.016,16.602,0
1583342040.451,41.992,41.016,30.273,37.598,71.289,0
1583342040.454,42.969,41.992,33.691,34.180,37.109,0
1583342040.458,48.340,40.039,30.762,39.062,19.531,0
1583342040.462,40.527,37.598,31.738,34.668,15.625,0
1583342040.466,33.691,37.598,30.273,34.180,57.129,0
1583342040.470,40.527,38.574,27.832,37.109,80.566,0
1583342040.467,41.016,39.551,30.762,38.574,41.016,0
1583342040.471,36.133,40.039,29.785,39.062,18.066,0
1583342040.475,36.133,39.062,29.297,40.039,45.410,0
1583342040.479,40.039,39.062,30.273,41.016,52.246,0
1583342040.483,41.504,37.598,27.832,37.598,14.160,0
1583342040.487,40.527,36.133,28.320,33.691,10.742,0
1583342040.491,39.062,38.574,30.273,31.250,60.547,0
1583342040.494,38.086,39.551,30.273,28.809,79.590,0
1583342040.498,39.062,38.086,28.320,31.738,39.062,0
1583342040.502,40.039,37.598,26.855,36.621,19.531,0
1583342040.506,37.598,39.551,26.367,37.109,33.691,0
1583342040.510,35.645,39.062,25.879,36.133,-3.418,0
1583342040.527,39.551,37.109,25.391,33.691,-3.906,0
1583342040.531,40.039,35.645,26.855,32.227,-9.277,0
1583342040.535,35.156,35.156,30.273,32.227,41.016,0
1583342040.539,33.203,34.668,28.320,30.273,78.613,0
1583342040.543,33.691,31.738,27.832,26.367,36.133,0
1583342040.547,34.668,32.227,27.344,24.902,56.152,0
1583342040.551,33.203,32.715,27.344,24.414,70.801,0
1583342040.554,30.762,34.668,30.273,25.879,20.996,0
1583342040.558,34.668,36.133,32.715,32.227,21.484,0
1583342040.562,37.598,36.133,35.156,35.645,71.289,0
1583342040.566,32.715,33.203,33.691,27.832,31.738,0
1583342040.570,28.809,31.250,31.738,24.414,0.488,0
1583342040.567,29.297,34.180,33.203,26.855,6.348,0
1583342040.571,32.715,35.156,33.203,26.367,1.953,0
1583342040.575,33.203,34.180,33.203,24.902,32.227,0
1583342040.579,37.109,34.668,30.762,31.250,84.961,0
1583342040.583,44.434,35.156,26.855,42.480,92.773,0
1583342040.587,44.434,38.574,29.297,37.598,74.219,0
1583342040.591,35.645,40.039,29.297,26.855,21.484,0
1583342040.594,30.762,37.598,25.879,27.832,-13.184,0
1583342040.598,31.250,34.668,25.879,31.250,30.273,0
1583342040.602,31.738,35.645,27.344,27.344,19.043,0
1583342040.606,27.344,37.598,28.809,21.484,56.641,0
1583342040.610,22.949,37.598,28.809,19.043,84.961,0
1583342040.627,26.855,40.527,26.367,23.438,20.020,0
1583342040.631,25.879,42.480,25.391,20.996,-36.621,0
1583342040.635,27.344,40.527,24.902,20.996,-25.879,0
1583342040.639,29.785,36.133,26.855,23.926,-26.367,0
1583342040.643,22.949,33.691,29.297,21.973,-11.230,0
1583342040.647,21.973,33.203,31.250,25.879,62.500,0
1583342040.651,28.809,33.203,31.738,29.785,24.414,0
1583342040.654,33.691,34.668,29.785,27.832,82.031,0
1583342040.658,30.762,33.203,27.832,28.320,72.266,0
1583342040.662,28.320,33.691,29.785,30.762,19.043,0
1583342040.666,32.227,33.203,31.738,32.227,-23.926,0
1583342040.670,34.668,35.156,31.250,32.227,24.902,0
1583342040.667,34.668,38.574,31.250,36.133,62.012,0
1583342040.671,33.691,37.109,30.762,36.133,35.645,0
1583342040.675,36.133,36.621,28.809,33.203,51.758,0
1583342040.679,39.062,36.133,25.879,33.691,72.754,0
1583342040.683,38.086,37.109,24.414,31.738,52.246,0
1583342040.687,36.133,39.062,26.855,31.738,-2.441,0
1583342040.691,36.133,39.551,25.879,32.715,29.785,0
1583342040.694,40.527,40.527,23.926,35.645,51.270,0
1583342040.698,40.039,39.062,26.367,32.227,24.902,0
1583342040.702,34.180,35.645,22.949,30.273,50.781,0
1583342040.706,35.156,36.133,19.531,31.738,72.266,0
1583342040.710,35.645,39.062,24.902,30.273,46.875,0
1583342040.708,35.645,39.551,28.809,32.715,71.289,0
1583342040.712,34.180,39.551,29.297,34.668,78.125,0
1583342040.716,31.738,37.598,30.273,32.715,22.949,0
1583342040.720,31.250,35.156,31.250,28.809,72.266,0
1583342040.724,33.691,36.621,30.273,28.809,119.629,0
1583342040.728,28.320,36.621,29.297,30.273,34.668,0
1583342040.732,27.344,36.133,28.320,28.809,-15.137,0
1583342040.735,32.227,38.574,26.855,27.832,-16.113,0
1583342040.739,32.715,35.645,27.344,26.367,65.430,0
1583342040.743,28.320,33.691,26.367,22.949,44.434,0
1583342040.747,26.855,35.156,26.855,26.367,-33.691,0
1583342040.751,29.785,34.668,26.855,27.344,24.414,0
1583342040.767,31.250,34.180,25.879,27.832,45.898,0
1583342040.771,30.273,33.691,27.832,28.320,19.043,0
1583342040.775,32.227,31.738,30.762,26.855,-13.672,0
1583342040.779,28.809,30.273,29.297,26.367,41.504,0
1583342040.783,27.832,29.785,28.320,26.855,47.852,0
1583342040.787,34.180,29.297,27.344,33.691,48.828,0
1583342040.791,33.203,31.250,25.879,30.762,80.566,0
1583342040.794,29.297,31.250,27.344,21.973,56.641,0
1583342040.798,34.180,32.227,29.297,26.855,13.672,0
1583342040.802,38.086,36.621,30.273,28.809,5.859,0
1583342040.806,34.668,36.133,32.227,30.273,50.293,0
1583342040.810,35.645,37.109,32.227,34.668,26.855,0
1583342040.807,37.598,39.551,31.738,33.203,-11.719,0
1583342040.811,39.551,35.156,31.738,35.156,6.836,0
1583342040.815,36.133,34.180,30.273,34.180,-18.066,0
1583342040.819,33.203,34.668,31.250,31.738,-98.145,0
1583342040.823,35.156,33.691,30.273,32.715,5.371,0
1583342040.827,37.598,34.668,27.344,33.203,65.430,0
1583342040.831,36.621,35.645,29.297,32.715,38.574,0
1583342040.834,33.691,34.180,31.738,30.273,52.246,0
1583342040.838,35.645,30.273,28.809,30.273,-9.766,0
1583342040.842,37.598,30.273,29.297,32.715,-23.438,0
1583342040.846,36.621,30.273,34.180,32.715,-28.320,0
1583342040.850,38.574,29.297,31.250,34.668,4.395,0
1583342040.847,37.598,30.273,29.297,37.598,53.223,0
1583342040.851,35.645,30.273,31.738,36.621,22.461,0
1583342040.855,40.527,32.715,30.762,38.086,70.312,0
1583342040.859,41.992,35.645,33.203,40.527,37.598,0
1583342040.863,34.180,35.645,35.645,39.062,2.930,0
1583342040.867,32.715,35.645,36.621,38.086,47.363,0
1583342040.871,42.480,35.645,36.133,39.062,61.523,0
1583342040.874,53.711,37.109,34.668,45.898,106.445,0
1583342040.878,48.340,35.156,38.086,43.457,76.660,0
1583342040.882,27.832,30.762,41.992,24.414,29.297,0
1583342040.886,25.391,29.785,42.480,23.438,57.129,0
1583342040.890,27.344,26.367,42.480,33.203,20.508,0
1583342040.907,22.949,24.414,42.969,30.273,14.160,0
1583342040.911,20.020,24.902,44.922,25.879,62.500,0
1583342040.915,20.508,24.414,45.410,24.414,80.566,0
1583342040.919,23.438,24.414,45.898,29.785,94.727,0
1583342040.923,18.066,24.902,48.828,28.809,66.406,0
1583342040.927,13.184,24.902,49.316,24.414,64.941,0
1583342040.931,13.672,28.809,48.340,24.414,55.176,0
1583342040.934,18.555,29.297,43.945,24.414,16.113,0
1583342040.938,23.438,26.855,43.457,28.809,31.250,0
1583342040.942,24.902,29.785,44.922,32.715,19.531,0
1583342040.946,24.414,28.809,44.434,33.691,18.555,0
1583342040.950,27.344,28.320,44.434,36.133,47.852,0
1583342040.947,30.762,28.809,42.969,38.574,83.008,0
1583342040.951,28.809,28.320,41.504,38.574,48.828,0
1583342040.955,29.785,28.320,38.086,38.086,8.789,0
1583342040.959,32.227,28.320,37.598,35.645,73.242,0
1583342040.963,32.715,28.809,40.527,34.668,38.574,0
1583342040.967,28.320,30.273,38.574,35.156,-45.898,0
1583342040.971,29.297,28.320,35.645,34.180,41.016,0
1583342040.974,32.227,30.273,35.645,34.180,45.410,0
1583342040.978,33.691,32.227,36.133,35.156,-8.301,0
1583342040.982,30.273,31.738,34.180,33.691,27.344,0
1583342040.986,20.996,32.227,34.180,30.273,37.109,0
1583342040.990,25.391,33.691,34.668,28.320,40.039,0
1583342040.990,35.645,34.668,34.180,32.715,20.020,0
1583342040.994,35.645,36.133,32.227,31.250,-18.066,0
1583342040.998,29.297,37.109,29.785,29.785,28.320,0
1583342041.002,29.297,37.598,28.320,31.250,37.598,0
1583342041.006,36.133,39.062,29.785,35.156,-16.113,0
1583342041.010,35.645,37.109,32.715,38.086,-66.895,0
1583342041.014,35.156,33.691,32.715,36.621,-68.848,0
1583342041.017,36.133,34.180,34.180,40.527,-1.465,0
1583342041.021,36.621,37.109,36.133,38.574,36.621,0
1583342041.025,41.504,38.574,37.109,36.621,25.879,0
1583342041.029,38.086,36.133,36.133,36.621,20.508,0
1583342041.033,34.180,34.668,36.133,35.645,42.969,0
1583342041.047,37.598,35.156,36.133,40.039,85.938,0
1583342041.051,42.480,35.645,35.645,41.016,62.500,0
1583342041.055,38.574,35.156,35.645,41.016,22.949,0
1583342041.059,32.715,32.715,37.109,40.527,56.152,0
1583342041.063,33.691,33.203,38.086,38.086,56.152,0
1583342041.067,37.598,33.691,36.133,38.086,11.719,0
1583342041.071,35.156,31.738,34.180,29.297,15.137,0
1583342041.074,33.691,31.738,33.203,26.367,-9.766,0
1583342041.078,39.062,32.715,36.133,37.598,15.625,0
1583342041.082,43.945,32.715,37.598,39.062,59.082,0
1583342041.086,44.922,32.715,37.598,36.621,45.898,0
1583342041.090,41.992,33.691,37.109,33.691,59.082,0
1583342041.087,39.551,34.668,36.133,33.203,39.551,0
1583342041.091,32.227,35.156,36.133,37.109,83.496,0
1583342041.095,34.180,38.574,35.156,42.969,83.984,0
1583342041.099,37.109,40.039,35.156,43.945,66.895,0
1583342041.103,31.738,39.062,35.156,37.598,40.039,0
1583342041.107,35.645,40.039,35.156,40.527,22.461,0
1583342041.111,44.922,42.480,32.715,44.434,22.949,0
1583342041.114,48.340,42.969,29.297,44.922,28.809,0
1583342041.118,36.621,39.062,32.227,45.410,37.109,0
1583342041.122,20.508,35.645,36.133,27.832,59.082,0
1583342041.126,22.949,34.668,40.527,22.461,73.730,0
1583342041.130,28.320,33.691,40.039,28.320,23.926,0
1583342041.127,21.973,33.691,37.598,23.926,-13.184,0
1583342041.131,22.461,33.691,38.574,26.367,15.625,0
1583342041.135,24.414,34.180,39.062,26.855,14.160,0
1583342041.139,24.414,32.715,36.133,23.926,30.273,0
1583342041.143,23.926,30.762,35.156,29.785,56.152,0
1583342041.147,24.414,32.227,35.156,36.133,79.590,0
1583342041.151,28.320,32.715,35.645,36.133,63.477,0
1583342041.154,33.203,33.203,40.039,33.203,51.270,0
1583342041.158,31.738,31.738,39.062,26.855,61.035,0
1583342041.162,28.320,31.738,35.156,26.367,48.828,0
1583342041.166,33.691,32.227,36.133,29.297,26.855,0
1583342041.170,45.898,32.227,35.156,35.156,17.090,0
1583342041.187,51.270,36.133,31.250,37.109,18.555,0
1583342041.191,35.156,36.133,33.203,33.691,22.461,0
1583342041.195,35.156,35.156,36.133,35.156,52.734,0
1583342041.199,45.410,37.598,38.086,39.551,44.922,0
1583342041.203,40.039,38.574,37.598,40.039,11.230,0
1583342041.207,37.598,37.109,36.621,36.621,73.730,0
1583342041.211,34.180,38.086,37.598,34.668,54.688,0
1583342041.214,36.621,38.574,36.133,35.156,1.465,0
1583342041.218,37.109,37.598,35.156,28.809,69.824,0
1583342041.222,35.156,38.086,35.156,28.809,71.289,0
1583342041.226,36.621,37.109,29.785,30.762,35.645,0
1583342041.230,36.621,34.668,28.320,33.203,81.055,0
1583342041.227,38.086,34.180,31.738,37.598,104.980,0
1583342041.231,37.598,33.203,35.156,37.598,98.633,0
1583342041.235,35.156,32.715,36.133,40.039,59.082,0
1583342041.239,36.621,33.203,37.109,44.434,46.387,0
1583342041.243,35.645,31.738,36.621,39.062,41.016,0
1583342041.247,32.715,31.250,35.645,36.133,-3.906,0
1583342041.251,26.855,32.715,37.598,37.109,28.320,0
1583342041.254,22.461,32.715,37.109,37.109,16.602,0
1583342041.258,31.738,32.715,37.109,42.480,6.836,0
1583342041.262,36.621,35.645,39.062,40.527,27.832,0
1583342041.266,29.785,35.645,37.598,34.668,-31.250,0
1583342041.270,27.344,35.156,37.109,37.598,-0.977,0
1583342041.267,33.691,34.668,39.062,39.062,45.898,0
1583342041.271,28.320,33.203,36.133,34.180,18.555,0
1583342041.275,17.578,34.180,33.691,32.227,3.906,0
1583342041.279,23.438,33.203,34.180,30.762,27.344,0
1583342041.283,28.809,34.668,33.203,26.855,12.695,0
1583342041.287,35.156,35.156,31.738,28.809,15.137,0
1583342041.291,33.203,33.691,32.227,31.250,38.574,0
1583342041.294,31.738,33.691,34.180,29.785,-16.113,0
1583342041.298,35.156,32.715,34.180,24.414,21.973,0
1583342041.302,41.016,34.180,32.715,29.785,56.641,0
1583342041.306,40.527,34.668,32.227,38.086,78.613,0
1583342041.310,33.691,36.133,34.668,36.133,109.375,0
1583342041.327,31.738,37.109,35.156,35.156,30.762,0
1583342041.331,36.621,34.668,33.203,35.645,17.578,0
1583342041.335,36.621,35.156,32.227,39.551,74.707,0
1583342041.339,29.297,37.598,32.227,36.621,63.965,0
1583342041.343,30.762,39.062,33.691,36.621,56.152,0
1583342041.347,32.227,40.527,35.156,38.574,121.094,0
1583342041.351,32.227,40.527,34.180,34.668,88.379,0
1583342041.354,31.738,40.527,33.691,32.227,-6.348,0
1583342041.358,27.832,39.551,34.668,32.715,67.871,0
1583342041.362,33.203,38.086,33.203,34.180,56.152,0
1583342041.366,39.551,39.062,32.715,33.691,-22.461,0
1583342041.370,35.645,39.551,32.227,32.227,3.906,0
1583342041.367,30.762,37.109,32.227,28.320,17.090,0
1583342041.371,37.109,38.086,32.227,26.855,15.625,0
1583342041.375,49.805,39.551,32.227,39.062,16.602,0
1583342041.379,46.875,37.598,34.668,43.945,0.000,0
1583342041.383,26.855,33.691,37.598,30.273,14.160,0
1583342041.387,23.926,30.762,38.574,23.926,32.715,0
1583342041.391,30.762,32.227,38.574,22.949,-4.395,0
1583342041.394,26.367,30.273,38.574,18.066,10.254,0
1583342041.398,21.484,26.367,41.504,22.949,8.789,0
1583342041.402,13.184,27.344,43.945,17.578,-17.090,0
1583342041.406,17.578,25.879,42.480,15.625,-33.691,0
1583342041.410,26.367,23.438,39.551,29.297,-6.348,0
1583342041.407,22.949,23.926,39.062,28.809,33.203,0
1583342041.411,25.391,26.367,37.598,26.855,36.621,0
1583342041.415,33.691,27.344,36.133,26.855,39.551,0
1583342041.419,24.414,28.320,34.668,25.879,77.148,0
1583342041.423,23.926,29.785,33.203,31.738,104.492,0
1583342041.427,36.133,29.785,34.668,32.227,46.875,0
1583342041.431,32.715,26.855,37.598,32.227,25.879,0
1583342041.434,34.180,24.902,37.109,35.156,36.621,0
1583342041.438,32.227,27.344,36.621,31.738,31.250,0
1583342041.442,32.227,30.273,35.156,25.391,38.574,0
1583342041.446,31.738,30.762,33.203,25.879,60.547,0
1583342041.450,30.273,32.715,35.645,33.691,55.176,0
1583342041.468,34.180,35.645,35.156,33.691,61.035,0
1583342041.472,31.738,37.109,31.250,38.574,89.355,0
1583342041.476,33.691,37.598,32.227,39.551,31.738,0
1583342041.480,37.598,37.598,35.156,29.297,7.324,0
1583342041.484,36.133,36.133,37.109,27.344,34.180,0
1583342041.488,34.180,33.691,37.109,26.855,14.160,0
1583342041.492,34.180,35.156,36.621,25.391,0.488,0
1583342041.495,33.691,35.645,37.598,33.203,15.137,0
1583342041.499,35.645,34.668,35.156,41.992,44.922,0
1583342041.503,39.551,35.156,34.668,39.062,59.082,0
1583342041.507,36.133,34.180,34.180,38.086,65.430,0
1583342041.511,31.250,37.598,31.250,32.227,26.367,0
1583342041.507,33.691,39.062,31.250,24.902,0.488,0
1583342041.511,36.133,37.109,30.762,33.203,-14.648,0
1583342041.515,35.156,35.645,27.832,36.621,-2.441,0
1583342041.519,32.227,35.156,28.809,34.180,61.035,0
1583342041.523,32.715,36.133,34.668,35.645,42.480,0
1583342041.527,39.551,33.203,34.668,39.551,15.137,0
1583342041.531,36.133,31.738,31.738,36.133,26.855,0
1583342041.534,29.785,32.227,33.203,37.109,-3.418,0
1583342041.538,33.691,27.832,31.250,37.598,1.953,0
1583342041.542,29.297,28.320,30.762,28.320,62.012,0
1583342041.546,24.414,31.250,31.738,22.949,77.637,0
1583342041.550,26.855,31.738,31.738,31.738,42.480,0
1583342041.567,28.809,31.738,31.738,31.250,63.965,0
1583342041.571,31.738,32.227,30.762,26.367,110.840,0
1583342041.575,31.738,32.715,30.762,36.133,95.215,0
1583342041.579,30.273,31.250,31.250,36.621,40.039,0
1583342041.583,34.180,31.738,31.250,31.738,20.020,0
1583342041.587,37.109,33.691,32.227,37.598,42.480,0
1583342041.591,34.180,32.715,33.203,40.527,25.879,0
1583342041.594,32.715,31.250,35.645,36.133,-20.508,0
1583342041.598,31.250,32.227,36.133,33.203,-57.617,0
1583342041.602,33.691,32.227,34.668,38.086,-24.414,0
1583342041.606,34.180,34.180,33.203,39.062,32.715,0
1583342041.610,31.738,34.180,32.715,33.691,28.809,0
1583342041.607,27.344,35.156,33.691,33.691,41.504,0
1583342041.611,29.297,36.621,36.621,33.203,61.523,0
1583342041.615,36.133,36.621,37.109,33.203,3.906,0
1583342041.619,33.691,37.109,37.598,32.715,61.035,0
1583342041.623,31.738,36.621,37.109,33.691,72.266,0
1583342041.627,32.227,34.668,34.668,34.180,25.879,0
1583342041.631,33.691,35.645,31.738,31.250,70.312,0
1583342041.634,31.738,36.133,30.762,29.297,58.594,0
1583342041.638,30.762,36.133,31.250,30.273,37.109,0
1583342041.642,32.715,36.621,30.273,32.227,18.555,0
1583342041.646,37.109,39.551,29.297,36.133,39.551,0
1583342041.650,35.645,39.062,31.250,31.738,36.621,0
1583342041.667,31.738,37.598,31.250,27.344,-2.930,0
1583342041.671,36.621,39.551,31.250,35.645,32.227,0
1583342041.675,39.062,40.527,32.715,35.156,26.855,0
1583342041.679,36.621,35.645,33.691,31.738,17.578,0
1583342041.683,35.645,34.668,35.156,36.621,27.832,0
1583342041.687,31.738,36.621,32.715,40.039,9.766,0
1583342041.691,29.785,37.598,28.809,38.574,45.898,0
1583342041.694,35.156,36.133,29.785,33.691,62.012,0
1583342041.698,35.156,36.133,30.273,30.762,21.973,0
1583342041.702,31.250,37.109,30.762,30.273,35.645,0
1583342041.706,30.762,36.621,30.762,29.785,23.926,0
1583342041.710,36.621,35.156,29.785,35.645,1.953,0
1583342041.687,37.598,36.621,29.785,33.691,9.766,0
1583342041.691,32.715,35.645,27.832,33.203,-31.250,0
1583342041.695,30.273,33.203,28.809,32.227,-1.953,0
1583342041.699,31.738,32.715,30.273,32.715,55.664,0
1583342041.703,34.668,31.738,27.344,35.645,26.855,0
1583342041.707,34.668,31.738,28.320,33.203,-0.977,0
1583342041.711,32.715,31.738,33.203,31.738,53.223,0
1583342041.714,35.156,35.156,33.203,33.203,116.699,0
1583342041.718,33.691,34.668,30.273,31.738,66.406,0
1583342041.722,30.762,32.227,31.738,30.273,-22.461,0
1583342041.726,29.297,32.715,32.715,32.715,2.930,0
1583342041.730,24.902,33.203,30.762,28.320,2.930,0
1583342041.747,30.273,32.227,30.273,29.785,14.160,0
1583342041.751,30.762,33.691,30.273,33.691,47.852,0
1583342041.755,28.809,33.691,31.250,38.574,59.082,0
1583342041.759,31.250,31.738,32.227,38.086,85.449,0
1583342041.763,34.668,32.715,33.203,35.156,47.852,0
1583342041.767,36.133,32.715,34.668,34.668,58.105,0
1583342041.771,32.227,34.180,33.203,34.180,82.520,0
1583342041.774,32.715,35.156,31.738,31.738,19.531,0
1583342041.778,37.109,32.715,33.203,29.785,6.836,0
1583342041.782,41.016,29.297,33.691,37.109,34.668,0
1583342041.786,40.527,31.738,31.250,34.180,52.734,0
1583342041.790,39.062,36.133,30.273,34.668,65.918,0
1583342041.788,39.551,34.180,30.762,38.086,11.230,0
1583342041.792,41.016,34.180,29.297,36.621,25.391,0
1583342041.796,43.945,36.133,28.809,39.062,56.641,0
1583342041.800,43.945,37.109,29.785,41.992,20.996,0
1583342041.804,42.969,36.133,29.785,40.527,-6.836,0
1583342041.808,43.457,37.109,31.250,37.598,15.625,0
1583342041.812,40.527,36.621,33.691,39.062,23.438,0
1583342041.815,30.762,34.180,31.250,37.598,41.992,0
1583342041.819,29.785,32.715,34.180,35.156,69.824,0
1583342041.823,37.598,33.203,36.133,35.645,46.387,0
1583342041.827,35.645,33.691,33.691,35.645,32.227,0
1583342041.831,36.133,34.668,36.621,44.434,23.438,0
1583342041.827,44.434,41.992,35.156,47.852,-15.625,0
1583342041.831,39.062,44.922,33.203,35.645,-13.672,0
1583342041.835,28.320,38.086,31.738,24.902,29.785,0
1583342041.839,28.809,36.621,31.738,24.414,60.547,0
1583342041.843,26.367,38.574,31.738,27.344,7.324,0
1583342041.847,26.367,36.621,27.344,27.344,-20.996,0
1583342041.851,33.691,37.109,25.391,30.273,36.621,0
1583342041.854,36.621,36.621,28.320,32.227,46.387,0
1583342041.858,37.109,35.156,31.738,36.133,16.113,0
1583342041.862,37.598,33.203,31.738,40.039,-7.324,0
1583342041.866,43.945,34.180,31.738,37.598,77.637,0
1583342041.870,44.434,33.691,33.203,35.645,111.328,0
1583342041.887,35.156,34.180,31.738,33.203,61.523,0
1583342041.891,35.645,34.668,29.785,31.250,34.180,0
1583342041.895,41.504,33.203,31.250,34.668,27.344,0
1583342041.899,39.062,34.668,30.273,34.668,56.152,0
1583342041.903,39.551,37.109,25.879,30.762,73.730,0
1583342041.907,41.992,36.621,26.367,32.715,40.527,0
1583342041.911,45.898,35.645,27.832,30.762,-2.441,0
1583342041.914,55.176,39.062,25.391,32.715,-2.930,0
1583342041.918,57.617,38.574,26.855,38.086,41.992,0
1583342041.922,53.711,36.133,26.855,34.668,2.441,0
1583342041.926,51.758,37.598,24.414,36.621,-52.246,0
1583342041.930,49.805,38.086,25.391,41.504,-7.812,0
1583342041.927,44.434,37.109,26.367,41.504,-8.301,0
1583342041.931,36.133,36.621,26.855,37.598,-1.953,0
1583342041.935,35.156,34.668,29.785,40.039,27.832,0
1583342041.939,34.180,32.227,29.297,36.133,54.688,0
1583342041.943,32.715,34.180,26.367,31.738,103.027,0
1583342041.947,34.180,34.668,27.832,40.527,103.027,0
1583342041.951,32.715,33.203,30.273,40.527,54.199,0
1583342041.954,34.180,33.691,28.809,40.039,42.969,0
1583342041.958,32.715,34.180,29.297,40.039,39.551,0
1583342041.962,27.344,37.109,29.297,33.203,36.133,0
1583342041.966,21.973,35.645,28.809,30.762,50.781,0
1583342041.970,20.020,33.691,31.738,32.715,47.852,0
1583342041.987,23.438,37.109,30.762,32.715,24.414,0
1583342041.991,23.438,38.086,28.320,26.855,50.293,0
1583342041.995,21.973,35.156,29.785,25.391,37.598,0
1583342041.999,22.949,35.156,27.832,27.832,32.715,0
1583342042.003,23.926,35.156,27.832,33.203,43.457,0
1583342042.007,23.438,35.156,29.297,34.180,6.836,0
1583342042.011,22.461,37.109,31.250,32.227,33.691,0
1583342042.014,27.832,38.086,31.738,27.832,57.617,0
1583342042.018,32.715,37.109,33.203,28.809,25.391,0
1583342042.022,30.762,37.109,33.691,36.133,1.953,0
1583342042.026,28.809,36.621,30.762,36.621,3.906,0
1583342042.030,26.367,33.691,28.809,37.109,-1.465,0
1583342042.027,25.879,32.715,32.227,35.645,71.289,0
1583342042.031,27.344,32.715,34.180,32.227,96.680,0
1583342042.035,27.832,33.203,34.668,33.203,47.852,0
1583342042.039,30.273,34.668,35.156,35.645,33.203,0
1583342042.043,33.203,36.133,35.156,35.156,52.246,0
1583342042.047,33.203,34.668,33.203,29.297,88.867,0
1583342042.051,34.180,36.133,31.250,33.691,47.852,0
1583342042.054,32.715,35.156,33.203,36.133,20.996,0
1583342042.058,35.645,35.156,33.203,30.762,-17.578,0
1583342042.062,37.598,38.574,31.250,31.250,-38.574,0
1583342042.066,30.762,38.086,32.715,20.996,69.336,0
1583342042.070,24.414,37.598,31.738,18.555,104.980,0
1583342042.067,24.902,36.133,32.227,24.902,49.316,0
1583342042.071,29.297,34.180,32.227,25.391,-8.301,0
1583342042.075,29.297,34.180,31.738,26.367,19.043,0
1583342042.079,26.367,35.156,34.668,24.414,50.293,0
1583342042.083,28.320,34.668,34.180,26.367,60.059,0
1583342042.087,31.738,34.180,34.180,31.250,63.965,0
1583342042.091,37.109,34.668,35.645,32.227,51.270,0
1583342042.094,34.180,32.715,33.691,34.668,78.613,0
1583342042.098,28.320,33.203,30.273,32.227,67.871,0
1583342042.102,31.250,34.180,28.320,26.855,43.457,0
1583342042.106,35.156,32.227,28.320,33.691,11.719,0
1583342042.110,35.156,32.227,27.344,34.180,-31.250,0
1583342042.127,36.133,36.133,29.297,35.645,23.926,0
1583342042.131,37.598,37.598,31.250,38.574,47.852,0
1583342042.135,35.156,36.621,28.809,34.180,22.949,0
1583342042.139,36.621,35.645,29.297,36.621,30.273,0
1583342042.143,35.156,34.668,32.227,37.109,21.973,0
1583342042.147,37.598,34.180,31.738,36.621,5.371,0
1583342042.151,44.922,35.645,31.738,40.527,28.809,0
1583342042.154,40.527,34.668,33.691,36.621,26.367,0
1583342042.158,36.621,33.691,33.203,31.738,25.391,0
1583342042.162,37.598,34.668,30.762,36.133,28.809,0
1583342042.166,37.598,35.156,29.785,38.086,1.465,0
1583342042.170,40.527,38.574,28.320,34.668,15.625,0
1583342042.167,37.598,39.062,29.785,32.227,39.062,0
1583342042.171,37.109,33.691,29.785,37.109,21.484,0
1583342042.175,50.781,32.227,27.344,48.340,61.035,0
1583342042.179,55.664,38.574,25.879,48.340,79.102,0
1583342042.183,41.992,42.480,22.461,31.250,20.996,0
1583342042.187,31.250,40.039,26.367,25.879,15.137,0
1583342042.191,29.785,37.109,30.762,26.367,15.625,0
1583342042.194,24.902,34.180,30.762,18.066,37.598,0
1583342042.198,24.902,33.203,31.738,18.555,52.734,0
1583342042.202,28.320,34.668,29.297,23.926,62.012,0
1583342042.206,27.832,37.109,27.832,24.902,47.363,0
1583342042.210,36.621,38.086,25.879,27.832,4.883,0
1583342042.207,40.527,37.598,25.879,32.715,25.879,0
1583342042.211,35.645,38.574,27.344,37.109,39.551,0
1583342042.215,34.668,36.133,26.855,41.016,83.496,0
1583342042.219,37.598,33.691,27.344,35.156,70.312,0
1583342042.223,34.180,34.180,27.344,31.250,50.781,0
1583342042.227,29.297,34.180,28.320,34.668,64.941,0
1583342042.231,26.855,31.738,27.344,34.180,66.406,0
1583342042.234,30.273,29.785,25.879,32.715,94.238,0
1583342042.238,29.297,32.715,24.902,22.949,74.219,0
1583342042.242,25.879,34.668,25.391,19.531,35.645,0
1583342042.246,27.832,32.715,24.902,27.344,71.777,0
1583342042.250,29.297,34.180,24.902,27.832,92.285,0
1583342042.268,32.715,33.691,25.391,30.273,62.012,0
1583342042.272,32.227,29.297,26.855,30.273,24.902,0
1583342042.276,31.738,31.738,28.320,28.809,-25.391,0
1583342042.280,33.691,33.691,30.273,31.738,-38.086,0
1583342042.284,37.109,33.203,29.297,34.180,34.180,0
1583342042.288,41.016,33.691,26.855,35.645,45.410,0
1583342042.292,41.016,34.180,25.879,37.109,-13.672,0
1583342042.295,36.621,34.180,26.855,37.109,-3.418,0
1583342042.299,38.574,35.645,29.785,41.016,82.520,0
1583342042.303,44.434,36.133,29.297,42.480,97.168,0
1583342042.307,41.016,35.156,30.762,43.457,29.785,0
1583342042.311,35.156,36.621,32.227,41.504,29.297,0
1583342042.307,36.621,37.598,32.227,35.156,44.434,0
1583342042.311,40.527,36.621,32.227,34.668,14.160,0
1583342042.315,37.598,37.598,27.832,33.691,43.945,0
1583342042.319,29.297,38.574,26.855,31.738,84.961,0
1583342042.323,24.414,36.133,30.762,29.785,48.828,0
1583342042.327,28.320,35.156,30.762,30.273,69.336,0
1583342042.331,27.832,34.180,27.832,32.715,67.871,0
1583342042.334,27.832,33.691,27.832,30.762,20.020,0
1583342042.338,34.668,35.156,27.344,33.691,8.301,0
1583342042.342,37.109,36.621,27.832,37.598,12.207,0
1583342042.346,37.109,38.086,28.809,31.250,-6.348,0
1583342042.350,39.551,38.574,29.297,28.809,-1.953,0
1583342042.347,38.086,39.062,29.785,32.227,47.363,0
1583342042.351,38.086,39.062,26.855,29.785,33.691,0
1583342042.355,44.434,38.574,27.344,33.691,42.969,0
1583342042.359,41.016,39.551,29.297,34.180,36.621,0
1583342042.363,38.086,38.086,32.715,35.156,4.395,0
1583342042.367,40.527,35.645,33.203,38.574,-9.766,0
1583342042.371,43.945,35.156,28.809,33.203,-33.203,0
1583342042.374,44.434,35.645,28.809,34.180,-7.324,0
1583342042.378,36.133,34.180,32.715,34.668,48.340,0
1583342042.382,33.691,37.109,32.227,29.785,65.430,0
1583342042.386,39.062,37.598,27.344,30.762,28.809,0
1583342042.390,37.109,35.645,28.320,31.738,39.062,0
1583342042.407,29.785,36.621,31.738,28.809,43.457,0
1583342042.411,25.879,36.133,31.738,30.762,31.738,0
1583342042.415,26.367,34.668,31.738,34.180,75.684,0
1583342042.419,27.344,33.691,30.762,29.297,62.500,0
1583342042.423,24.414,32.715,32.227,26.855,2.441,0
1583342042.427,21.973,34.180,32.715,29.297,-24.902,0
1583342042.431,27.344,33.691,31.738,30.273,-20.996,0
1583342042.434,29.297,29.785,31.738,29.297,17.578,0
1583342042.438,29.785,32.227,32.227,33.691,37.109,0
1583342042.442,32.227,32.715,32.715,36.133,7.324,0
1583342042.446,33.203,31.250,33.691,38.086,-4.395,0
1583342042.450,33.691,32.715,32.227,41.016,25.391,0
1583342042.447,35.156,31.738,28.320,39.551,38.574,0
1583342042.451,34.180,30.273,26.367,40.527,2.930,0
1583342042.455,30.762,27.344,28.320,39.062,17.578,0
1583342042.459,37.109,27.832,32.227,39.062,11.719,0
1583342042.463,42.969,29.785,30.762,40.039,0.977,0
1583342042.467,43.945,27.832,30.762,45.410,17.090,0
1583342042.471,44.434,28.320,34.180,49.316,33.203,0
1583342042.474,40.527,31.738,34.668,42.480,32.715,0
1583342042.478,39.551,32.227,33.203,40.039,33.691,0
1583342042.482,35.645,31.250,33.691,42.480,39.551,0
1583342042.486,26.367,32.227,34.180,32.227,42.969,0
1583342042.490,26.855,34.180,32.227,23.438,64.941,0
1583342042.488,29.785,31.738,32.715,25.391,60.059,0
1583342042.492,29.785,28.809,31.738,23.926,49.316,0
1583342042.496,27.832,30.762,31.738,24.902,54.199,0
1583342042.500,28.809,31.738,30.762,28.809,-9.277,0
1583342042.504,35.156,34.180,27.832,28.809,15.625,0
1583342042.508,36.621,35.156,29.297,29.297,62.988,0
1583342042.512,36.621,33.691,30.762,32.715,34.180,0
1583342042.515,38.574,36.133,32.227,39.551,18.066,0
1583342042.519,39.551,37.109,32.715,39.551,-13.184,0
1583342042.523,44.434,35.645,35.645,37.598,0.977,0
1583342042.527,41.504,37.598,35.645,39.551,41.016,0
1583342042.531,38.086,40.039,35.645,42.480,35.645,0
1583342042.547,44.922,38.086,37.598,41.504,22.461,0
1583342042.551,44.434,39.551,37.109,39.551,49.316,0
1583342042.555,39.062,38.574,38.086,39.062,38.574,0
1583342042.559,34.668,34.668,37.109,40.039,30.273,0
1583342042.563,35.156,35.156,33.691,37.598,67.871,0
1583342042.567,36.621,35.156,30.273,40.527,71.289,0
1583342042.571,34.668,35.645,32.227,39.062,41.016,0
1583342042.574,34.668,36.133,31.250,33.203,53.223,0
1583342042.578,36.133,34.668,26.855,37.109,29.785,0
1583342042.582,40.039,32.715,29.297,41.016,13.184,0
1583342042.586,43.945,36.621,29.785,46.387,48.828,0
1583342042.590,43.457,40.039,29.785,45.410,92.285,0
1583342042.587,39.551,37.598,30.273,40.039,92.285,0
1583342042.591,40.527,37.109,29.297,41.504,63.965,0
1583342042.595,44.434,36.621,31.738,45.898,51.758,0
1583342042.599,40.527,36.621,34.180,46.387,25.879,0
1583342042.603,33.203,37.109,35.156,45.410,17.090,0
1583342042.607,33.691,34.180,35.645,42.969,-2.930,0
1583342042.611,37.598,32.715,37.109,41.016,-40.527,0
1583342042.614,39.062,32.227,38.086,41.016,-36.621,0
1583342042.618,37.598,34.180,38.574,41.016,7.812,0
1583342042.622,38.574,35.156,37.598,39.551,40.039,0
1583342042.626,52.246,36.621,31.250,39.062,82.031,0
1583342042.630,62.988,38.086,28.809,43.945,50.293,0
1583342042.627,49.805,33.691,35.156,41.504,-16.113,0
1583342042.631,33.691,31.250,40.527,29.297,14.160,0
1583342042.635,31.250,27.344,44.922,27.832,35.156,0
1583342042.639,28.320,24.902,47.852,27.344,60.059,0
1583342042.643,24.414,26.855,46.387,28.320,62.500,0
1583342042.647,19.531,27.344,47.363,29.297,82.520,0
1583342042.651,14.648,23.438,46.875,23.926,41.504,0
1583342042.654,18.066,23.438,44.922,28.320,-35.645,0
1583342042.658,21.484,27.832,46.875,28.320,7.324,0
1583342042.662,15.137,27.344,45.410,24.902,35.156,0
1583342042.666,15.625,25.879,46.875,31.738,27.832,0
1583342042.670,22.949,27.832,48.340,34.180,6.348,0
1583342042.687,21.973,28.320,42.969,34.180,35.156,0
1583342042.691,19.043,27.344,40.039,36.621,54.199,0
1583342042.695,23.438,28.320,41.504,37.598,21.973,0
1583342042.699,30.273,31.250,41.992,40.527,26.855,0
1583342042.703,32.715,30.762,41.992,41.504,70.801,0
1583342042.707,28.809,29.297,43.945,41.016,106.445,0
1583342042.711,25.391,29.785,44.922,34.668,77.148,0
1583342042.714,30.762,29.297,40.039,31.738,27.832,0
1583342042.718,36.621,26.855,38.574,37.598,35.645,0
1583342042.722,31.738,29.297,36.621,40.039,20.996,0
1583342042.726,30.273,30.762,32.715,40.039,-9.766,0
1583342042.730,35.156,27.832,35.645,39.062,54.688,0
1583342042.747,37.109,30.273,38.086,40.527,77.637,0
1583342042.751,31.738,29.297,36.621,40.527,49.805,0
1583342042.755,25.391,27.344,37.109,39.551,41.992,0
1583342042.759,27.832,30.273,31.738,41.016,73.242,0
1583342042.763,30.273,33.691,29.785,41.992,53.223,0
1583342042.767,30.762,31.738,35.156,41.992,-9.766,0
1583342042.771,27.832,31.738,32.715,41.016,46.875,0
1583342042.774,27.832,33.691,32.715,41.992,87.891,0
1583342042.778,31.738,30.762,34.180,38.086,45.898,0
1583342042.782,35.645,32.227,31.250,33.691,23.926,0
1583342042.786,35.156,33.691,32.227,32.715,10.742,0
1583342042.790,31.250,32.227,35.156,34.180,10.742,0
1583342042.767,37.598,32.227,34.668,37.598,26.855,0
1583342042.771,43.457,34.180,34.180,37.598,17.090,0
1583342042.775,37.109,34.668,36.133,36.621,-21.973,0
1583342042.779,31.738,33.691,33.691,32.715,9.766,0
1583342042.783,33.203,35.156,32.227,34.180,38.086,0
1583342042.787,33.691,36.133,35.156,35.645,74.707,0
1583342042.791,30.762,38.086,35.645,35.156,83.008,0
1583342042.794,26.855,38.086,33.691,37.598,17.090,0
1583342042.798,29.785,35.645,32.227,36.621,-31.250,0
1583342042.802,33.691,32.227,33.691,32.715,16.113,0
1583342042.806,30.762,31.250,33.691,31.738,52.246,0
1583342042.810,28.809,32.227,31.250,34.668,19.043,0
1583342042.827,30.273,32.715,30.762,38.086,1.953,0
1583342042.831,29.785,32.715,31.250,28.320,58.594,0
1583342042.835,31.738,32.715,31.738,26.855,55.176,0
1583342042.839,32.715,34.180,32.715,33.691,47.852,0
1583342042.843,33.691,36.621,33.691,36.133,56.641,0
1583342042.847,37.109,36.133,31.738,37.598,59.082,0
1583342042.851,37.109,35.156,31.250,33.203,105.469,0
1583342042.854,38.086,34.668,31.738,34.180,62.500,0
1583342042.858,34.668,34.180,31.250,34.668,63.965,0
1583342042.862,33.203,33.203,30.762,33.691,63.965,0
1583342042.866,40.039,35.645,31.250,37.109,32.227,0
1583342042.870,42.969,38.086,34.668,39.551,45.410,0
1583342042.867,39.062,36.133,33.203,37.598,2.930,0
1583342042.871,35.156,35.645,29.785,31.738,29.785,0
1583342042.875,37.109,35.156,30.762,28.809,65.918,0
1583342042.879,32.715,33.203,30.762,27.832,62.500,0
1583342042.883,27.344,36.621,28.809,23.438,54.688,0
1583342042.887,28.809,36.133,27.344,21.973,-17.090,0
1583342042.891,28.320,34.668,28.320,22.949,-31.738,0
1583342042.894,27.832,34.668,27.832,22.949,63.965,0
1583342042.898,26.367,34.180,28.809,26.367,42.969,0
1583342042.902,25.879,36.133,31.250,23.926,48.828,0
1583342042.906,28.320,32.715,32.227,23.438,76.172,0
1583342042.910,30.762,28.809,33.691,30.273,46.875,0
1583342042.907,28.809,30.762,34.668,28.809,83.984,0
1583342042.911,26.367,31.250,36.133,31.250,40.039,0
1583342042.915,30.762,31.250,35.156,34.668,-2.930,0
1583342042.919,35.645,31.250,34.180,32.715,18.555,0
1583342042.923,32.227,30.273,34.180,35.156,10.742,0
1583342042.927,31.250,32.227,34.668,37.109,-6.836,0
1583342042.931,35.645,33.203,32.715,38.086,7.324,0
1583342042.934,41.504,34.180,30.273,39.551,18.555,0
1583342042.938,43.945,36.133,29.785,35.645,66.406,0
1583342042.942,40.527,35.156,32.715,37.109,55.664,0
1583342042.946,39.551,35.156,34.668,42.969,-22.949,0
1583342042.950,39.551,34.180,34.180,44.434,69.336,0
1583342042.967,38.574,32.227,36.133,40.527,72.754,0
1583342042.971,38.086,32.715,34.668,35.645,9.766,0
1583342042.975,37.598,31.250,32.227,33.691,28.320,0
1583342042.979,37.598,32.715,31.250,31.738,32.715,0
1583342042.983,39.551,39.062,31.738,35.156,12.207,0
1583342042.987,41.016,37.598,32.715,37.109,4.395,0
1583342042.991,37.109,38.086,31.250,30.762,37.109,0
1583342042.994,42.969,40.039,29.297,36.133,84.961,0
1583342042.998,50.293,36.621,29.785,43.457,66.406,0
1583342043.002,36.133,35.156,35.156,38.086,21.973,0
1583342043.006,22.949,33.203,34.668,33.203,80.078,0
1583342043.010,26.855,30.273,36.621,39.551,9.766,0
1583342043.007,27.344,29.785,40.039,38.574,-51.758,0
1583342043.011,22.949,30.273,38.086,28.320,59.570,0
1583342043.015,18.555,29.785,41.504,27.832,63.477,0
1583342043.019,16.113,27.344,39.062,30.762,24.902,0
1583342043.023,24.902,28.809,38.086,35.645,14.648,0
1583342043.027,29.297,30.273,39.551,32.715,-8.789,0
1583342043.031,26.855,29.297,37.598,28.809,43.457,0
1583342043.034,24.902,28.320,38.574,33.203,46.387,0
1583342043.038,27.832,28.809,39.551,37.598,28.320,0
1583342043.042,34.180,28.809,39.551,37.109,42.480,0
1583342043.046,36.133,26.855,39.062,32.227,39.062,0
1583342043.050,36.133,27.832,40.039,31.250,51.270,0
1583342043.047,37.109,29.297,40.527,33.203,24.414,0
1583342043.051,41.504,29.297,41.016,37.109,8.789,0
1583342043.055,42.480,30.762,38.086,40.527,46.875,0
1583342043.059,39.062,31.250,37.109,41.016,28.809,0
1583342043.063,36.621,29.297,39.062,40.527,-12.695,0
1583342043.067,37.598,30.273,37.109,37.109,26.855,0
1583342043.071,36.133,34.180,36.133,34.668,87.402,0
1583342043.074,32.227,35.156,32.715,29.785,50.781,0
1583342043.078,28.320,32.227,33.203,23.926,-17.578,0
1583342043.082,34.180,31.250,35.156,33.691,-1.465,0
1583342043.086,39.551,34.180,33.203,39.062,28.809,0
1583342043.090,36.621,34.668,33.691,37.109,18.555,0
1583342043.107,30.273,33.203,35.156,36.133,19.043,0
1583342043.111,29.785,35.156,37.109,36.621,73.730,0
1583342043.115,38.086,38.086,37.109,38.574,25.391,0
1583342043.119,38.086,37.598,35.645,37.109,-26.367,0
1583342043.123,30.762,36.621,35.645,36.621,19.531,0
1583342043.127,32.227,36.621,35.156,37.109,41.016,0
1583342043.131,40.039,36.133,36.621,36.133,51.270,0
1583342043.134,40.039,35.156,37.109,34.668,49.316,0
1583342043.138,37.598,33.691,37.109,38.086,34.180,0
1583342043.142,39.062,33.691,36.621,40.527,14.160,0
1583342043.146,41.016,33.691,34.668,34.668,45.898,0
1583342043.150,37.598,34.180,35.156,33.203,71.289,0
1583342043.157,36.133,38.086,34.668,36.133,62.988,0
1583342043.161,37.109,39.062,32.715,35.156,48.340,0
1583342043.165,34.668,39.062,30.273,35.645,21.973,0
1583342043.169,35.645,38.086,29.785,33.691,41.504,0
1583342043.173,36.133,37.598,31.738,32.715,53.223,0
1583342043.177,33.203,38.574,32.227,32.715,17.090,0
1583342043.181,28.320,37.109,27.832,30.273,37.598,0
1583342043.184,30.762,33.691,28.320,30.273,9.766,0
1583342043.188,31.738,30.762,34.180,35.156,-0.977,0
1583342043.192,29.297,34.180,30.762,31.250,41.992,0
1583342043.196,32.715,36.133,30.762,29.785,8.301,0
1583342043.200,41.504,34.668,36.133,41.016,-17.578,0
1583342043.188,40.527,33.691,32.715,36.133,28.809,0
1583342043.192,34.668,34.180,31.250,31.738,68.848,0
1583342043.196,31.250,34.668,32.227,28.809,41.992,0
1583342043.200,36.133,39.062,29.785,32.715,25.879,0
1583342043.204,45.898,39.062,27.832,38.574,70.312,0
1583342043.208,37.109,36.133,32.227,32.227,93.750,0
1583342043.212,19.043,32.227,37.109,24.414,54.199,0
1583342043.215,17.578,27.832,39.062,23.926,41.504,0
1583342043.219,30.273,25.391,40.039,29.297,26.855,0
1583342043.223,27.344,27.344,39.551,29.297,-26.855,0
1583342043.227,19.043,29.297,39.551,25.879,-1.465,0
1583342043.231,24.414,29.785,41.016,28.320,1.465,0
1583342043.247,29.785,29.297,40.527,29.785,-13.184,0
1583342043.251,30.273,28.809,39.062,30.273,-10.254,0
1583342043.255,32.227,31.738,39.062,35.156,7.812,0
1583342043.259,32.715,32.715,41.992,40.527,29.785,0
1583342043.263,31.738,30.762,40.039,39.062,38.574,0
1583342043.267,33.691,30.762,38.086,34.668,84.473,0
1583342043.271,31.250,31.738,38.086,37.109,96.191,0
1583342043.274,29.785,32.715,34.668,37.109,76.660,0
1583342043.278,36.133,32.715,36.621,38.086,27.344,0
1583342043.282,37.109,33.203,39.062,42.969,-16.113,0
1583342043.286,33.691,34.180,37.598,39.551,9.277,0
1583342043.290,32.227,34.180,37.598,33.691,2.441,0
1583342043.287,35.156,29.297,35.645,37.598,-40.039,0
1583342043.291,34.180,27.832,33.203,39.551,-54.199,0
1583342043.295,35.156,33.691,32.227,37.109,-11.230,0
1583342043.299,37.109,34.668,30.273,39.062,58.105,0
1583342043.303,35.645,33.691,30.762,40.527,43.457,0
1583342043.307,44.922,32.715,30.762,41.016,36.133,0
1583342043.311,50.293,32.715,34.180,41.016,52.734,0
1583342043.314,46.387,35.645,34.180,36.621,24.902,0
1583342043.318,47.363,37.598,30.762,36.133,21.973,0
1583342043.322,52.734,38.086,29.785,35.645,68.359,0
1583342043.326,51.270,39.062,27.832,33.691,41.016,0
1583342043.330,41.016,38.086,29.297,34.180,45.410,0
1583342043.328,38.574,37.598,30.273,34.668,94.238,0
1583342043.332,37.598,37.109,29.297,35.645,28.320,0
1583342043.336,35.156,33.691,31.250,33.691,39.551,0
1583342043.340,29.297,32.715,33.203,32.227,63.477,0
1583342043.344,27.344,33.691,32.227,33.203,47.363,0
1583342043.348,31.738,34.668,35.156,38.574,55.176,0
1583342043.352,35.156,32.715,36.621,43.945,81.543,0
1583342043.355,34.180,32.227,38.086,36.621,15.137,0
1583342043.359,29.297,33.203,39.062,31.250,31.738,0
1583342043.363,31.738,35.645,41.504,37.109,66.895,0
1583342043.367,35.156,35.156,40.527,39.062,39.551,0
1583342043.371,33.203,35.156,37.598,40.039,61.523,0
1583342043.387,30.762,37.598,37.109,40.527,22.461,0
1583342043.391,25.879,36.621,35.645,39.062,39.551,0
1583342043.395,28.320,38.086,35.645,41.016,30.762,0
1583342043.399,29.785,36.621,36.133,39.062,-25.391,0
1583342043.403,26.367,34.180,35.156,37.598,4.395,0
1583342043.407,29.297,34.668,33.691,39.551,5.859,0
1583342043.411,34.180,35.156,35.645,42.969,24.902,0
1583342043.414,33.691,32.227,35.645,41.016,59.570,0
1583342043.418,36.621,29.785,35.156,47.363,16.113,0
1583342043.422,47.363,31.250,37.598,58.594,26.855,0
1583342043.426,42.969,37.598,34.668,41.992,40.039,0
1583342043.430,30.762,39.062,32.227,22.461,43.457,0
1583342043.428,27.832,36.621,32.227,25.391,47.363,0
1583342043.432,25.391,36.621,32.227,28.809,11.230,0
1583342043.436,28.809,37.109,31.250,24.902,44.922,0
1583342043.440,35.156,38.086,27.344,23.438,86.914,0
1583342043.444,38.086,36.133,24.902,28.320,39.551,0
1583342043.448,36.621,35.645,29.297,29.785,3.906,0
1583342043.452,33.203,35.645,30.273,30.273,-8.301,0
1583342043.455,35.156,33.203,29.297,28.320,-16.113,0
1583342043.459,35.645,34.180,30.762,26.367,15.625,0
1583342043.463,37.109,37.109,29.297,30.273,36.621,0
1583342043.467,31.250,38.086,27.832,30.762,22.949,0
1583342043.471,31.250,37.109,29.297,32.227,45.898,0
1583342043.467,37.598,37.598,30.762,33.691,76.172,0
1583342043.471,35.156,37.598,30.762,32.227,-3.906,0
1583342043.475,27.832,36.621,31.250,30.273,38.574,0
1583342043.479,26.855,37.109,30.762,31.250,94.238,0
1583342043.483,29.785,35.156,31.738,33.203,107.422,0
1583342043.487,27.832,34.180,32.715,34.180,50.781,0
1583342043.491,28.320,32.227,35.645,35.645,-32.227,0
1583342043.494,31.250,33.691,38.086,37.109,42.480,0
1583342043.498,36.621,35.156,37.598,40.527,70.801,0
1583342043.502,38.086,29.785,36.133,39.062,30.273,0
1583342043.506,34.180,28.320,35.645,36.133,13.672,0
1583342043.510,37.109,33.691,36.133,42.480,13.672,0
1583342043.527,41.504,35.156,33.203,43.945,27.832,0
1583342043.531,45.898,35.156,33.203,40.527,50.781,0
1583342043.535,49.316,37.109,35.156,42.480,21.484,0
1583342043.539,46.875,37.598,36.133,41.992,25.391,0
1583342043.543,44.922,39.062,33.203,40.039,38.086,0
1583342043.547,45.898,40.527,32.227,38.086,27.344,0
1583342043.551,37.598,39.062,34.180,34.668,44.434,0
1583342043.554,28.809,37.598,31.250,28.809,23.438,0
1583342043.558,27.344,37.109,30.762,27.344,27.344,0
1583342043.562,37.109,37.109,33.203,31.738,35.645,0
1583342043.566,43.945,35.156,35.156,35.156,13.672,0
1583342043.570,34.180,33.691,36.621,33.203,49.316,0
1583342043.567,31.738,34.668,36.133,36.133,70.312,0
1583342043.571,34.668,34.668,35.156,35.645,31.738,0
1583342043.575,34.668,30.273,35.156,28.809,32.227,0
1583342043.579,30.273,28.809,37.598,28.809,62.500,0
1583342043.583,31.738,31.738,37.109,32.715,44.922,0
1583342043.587,37.109,32.227,36.621,33.203,23.438,0
1583342043.591,37.109,33.691,38.086,31.738,23.926,0
1583342043.594,35.645,33.691,38.086,33.203,-20.996,0
1583342043.598,31.738,34.180,35.645,33.203,44.434,0
1583342043.602,33.691,37.598,32.227,29.785,100.098,0
1583342043.606,43.457,36.621,28.809,36.133,19.531,0
1583342043.610,42.969,35.156,27.832,43.945,29.785,0
1583342043.627,33.203,37.109,30.762,38.086,38.086,0
1583342043.631,35.156,37.109,32.227,38.086,25.391,0
1583342043.635,43.945,35.645,31.738,42.969,58.105,0
1583342043.639,45.898,35.645,33.203,39.551,33.203,0
1583342043.643,39.062,35.156,35.156,35.156,53.711,0
1583342043.647,30.762,35.645,33.691,34.668,76.660,0
1583342043.651,30.762,35.156,31.250,34.668,9.277,0
1583342043.654,31.738,33.203,31.738,27.832,-5.859,0
1583342043.658,27.832,35.645,33.203,25.391,52.246,0
1583342043.662,25.391,38.086,34.180,28.809,12.695,0
1583342043.666,25.879,39.062,32.715,32.715,31.250,0
1583342043.670,21.973,41.016,31.738,30.273,67.383,0
1583342043.668,12.207,42.969,35.156,20.508,-4.883,0
1583342043.672,9.277,44.922,42.969,17.090,-9.766,0
1583342043.676,5.859,42.969,43.457,10.254,-23.926,0
1583342043.680,2.441,41.016,45.410,6.348,7.324,0
1583342043.684,-1.465,47.363,50.293,3.906,18.066,0
1583342043.688,-19.043,56.641,44.922,-19.531,-14.648,0
1583342043.692,-44.922,61.035,44.434,-50.781,4.395,0
1583342043.695,-58.594,65.918,49.805,-66.406,9.766,0
1583342043.699,-71.777,70.801,50.293,-81.543,27.344,0
1583342043.703,-104.980,72.754,44.922,-112.793,-0.488,0
1583342043.707,-128.906,74.219,49.316,-134.766,-28.809,0
1583342043.711,-133.301,80.078,48.828,-145.996,-6.348,0
1583342043.707,-148.926,78.613,48.828,-163.574,-2.930,0
1583342043.711,-169.922,80.566,50.293,-179.688,34.668,0
1583342043.715,-173.828,86.426,49.316,-187.988,85.938,0
1583342043.719,-174.805,82.031,51.758,-196.777,59.570,0
1583342043.723,-176.270,81.055,50.781,-198.730,-5.859,0
1583342043.727,-174.316,83.008,45.410,-196.289,18.555,0
1583342043.731,-168.457,83.496,42.480,-190.430,39.551,0
1583342043.734,-156.738,82.031,37.109,-174.316,28.809,0
1583342043.738,-136.719,81.543,33.691,-160.156,63.965,0
1583342043.742,-125.977,80.078,36.133,-150.391,62.500,0
1583342043.746,-118.652,74.707,34.180,-136.230,45.410,0
1583342043.750,-92.773,67.871,35.645,-111.816,10.254,0
1583342043.767,-65.430,63.965,38.574,-86.914,12.207,0
1583342043.771,-49.805,62.988,33.691,-70.801,34.668,0
1583342043.775,-39.551,60.059,27.344,-57.129,101.074,0
1583342043.779,-19.043,56.152,24.414,-36.621,116.699,0
1583342043.783,0.000,54.199,22.949,-18.555,52.734,0
1583342043.787,13.184,51.758,20.996,-5.859,23.438,0
1583342043.791,28.809,45.410,22.461,11.719,20.508,0
1583342043.794,37.109,38.086,21.484,20.508,35.645,0
1583342043.798,53.711,35.645,19.043,33.203,32.715,0
1583342043.802,68.848,33.203,19.531,55.176,20.508,0
1583342043.806,71.777,26.855,18.555,64.453,37.598,0
1583342043.810,81.055,22.949,19.531,79.102,50.293,0
1583342043.808,88.867,18.066,23.438,93.262,51.758,0
1583342043.812,94.238,12.695,23.438,93.750,30.273,0
1583342043.816,102.539,12.695,23.926,103.027,11.719,0
1583342043.820,106.445,12.207,26.367,107.910,-14.648,0
1583342043.824,111.816,11.230,23.926,108.398,11.230,0
1583342043.828,123.047,12.207,21.484,117.188,19.043,0
1583342043.832,125.000,10.742,24.414,123.047,18.066,0
1583342043.835,121.094,7.324,22.949,120.605,66.406,0
1583342043.839,120.117,8.789,20.996,122.070,26.367,0
1583342043.843,121.094,9.277,21.973,124.512,2.441,0
1583342043.847,125.000,8.789,20.508,123.047,10.742,0
1583342043.851,125.977,10.254,19.531,123.047,-25.391,0
1583342043.847,122.070,10.742,19.043,124.512,-14.160,0
1583342043.851,124.023,10.254,20.508,126.953,40.527,0
1583342043.855,127.930,11.230,20.996,123.535,48.828,0
1583342043.859,125.488,11.719,20.020,121.582,31.738,0
1583342043.863,117.676,10.254,20.508,120.605,22.461,0
1583342043.867,118.164,13.184,21.973,119.629,18.555,0
1583342043.871,121.094,15.137,20.508,118.164,83.496,0
1583342043.874,116.699,15.137,21.484,119.629,107.422,0
1583342043.878,111.328,15.137,24.414,112.305,51.758,0
1583342043.882,108.398,18.066,23.438,108.887,-13.672,0
1583342043.886,107.422,20.020,22.949,115.723,-17.090,0
1583342043.890,107.910,20.020,22.949,114.746,32.715,0
1583342043.907,109.375,20.020,22.461,116.211,37.598,0
1583342043.911,105.469,20.508,24.902,115.723,6.836,0
1583342043.915,105.957,23.438,26.855,111.816,-6.348,0
1583342043.919,112.305,24.902,22.949,109.375,26.855,0
1583342043.923,104.980,22.461,19.043,104.004,24.414,0
1583342043.927,100.586,20.508,19.531,101.074,46.387,0
1583342043.931,101.074,21.484,21.973,97.168,55.176,0
1583342043.934,101.562,21.484,26.367,88.867,30.273,0
1583342043.938,96.191,20.996,24.414,92.773,81.055,0
1583342043.942,86.426,22.949,25.391,93.262,47.852,0
1583342043.946,84.961,24.414,28.809,92.773,29.785,0
1583342043.950,86.426,26.855,28.320,94.238,73.730,0
1583342043.947,84.473,26.367,26.367,84.473,90.332,0
1583342043.951,79.590,27.832,27.344,83.008,79.102,0
1583342043.955,76.660,29.785,29.297,82.520,82.520,0
1583342043.959,74.707,27.832,27.832,82.520,36.621,0
1583342043.963,73.242,29.297,27.832,84.473,0.977,0
1583342043.967,69.824,30.762,28.809,77.637,27.832,0
1583342043.971,64.941,30.762,29.785,70.801,27.832,0
1583342043.974,65.430,30.762,29.297,67.871,39.062,0
1583342043.978,67.383,30.273,25.879,68.359,2.930,0
1583342043.982,62.012,27.344,25.879,63.965,15.137,0
1583342043.986,58.594,25.391,28.320,56.641,5.371,0
1583342043.990,57.129,26.367,29.297,54.199,24.902,0
1583342043.986,56.641,26.855,31.250,54.688,62.012,0
1583342043.990,52.734,26.855,31.738,49.316,53.223,0
1583342043.994,50.293,26.367,29.785,46.875,37.598,0
1583342043.998,55.176,26.855,28.809,52.734,14.160,0
1583342044.002,57.617,28.809,29.297,47.852,11.719,0
1583342044.006,58.105,27.832,28.809,42.969,40.039,0
1583342044.010,59.082,27.832,27.344,48.340,97.656,0
1583342044.013,61.035,31.738,28.809,47.852,65.430,0
1583342044.017,67.383,34.668,30.762,45.898,-5.859,0
1583342044.021,67.383,35.156,31.250,47.363,-4.395,0
1583342044.025,58.105,34.668,31.738,54.199,77.637,0
1583342044.029,53.711,36.133,30.762,56.152,30.762,0
1583342044.046,52.734,37.109,30.273,51.270,9.277,0
1583342044.050,45.898,36.621,29.785,42.969,45.410,0
1583342044.054,39.062,38.086,28.809,38.086,0.000,0
1583342044.058,35.645,37.109,29.785,40.039,-23.438,0
1583342044.062,32.715,33.203,32.715,43.457,12.695,0
1583342044.066,38.574,35.156,34.180,44.922,109.863,0
1583342044.070,42.480,37.598,34.180,43.457,64.941,0
1583342044.073,38.086,36.621,33.691,41.016,-9.277,0
1583342044.077,36.621,36.133,30.762,40.527,59.082,0
1583342044.081,37.109,33.691,30.273,39.551,64.453,0
1583342044.085,36.621,33.203,31.250,41.992,75.195,0
1583342044.089,34.668,34.180,33.203,41.504,97.656,0
1583342044.086,31.738,33.691,34.668,37.109,77.148,0
1583342044.090,35.645,33.691,35.156,43.457,80.566,0
1583342044.094,37.109,35.645,34.668,43.457,3.418,0
1583342044.098,34.180,37.598,33.691,40.039,5.371,0
1583342044.102,33.203,37.109,32.715,44.434,83.984,0
1583342044.106,33.691,37.109,29.297,47.852,62.988,0
1583342044.110,36.621,35.645,32.715,49.316,36.621,0
1583342044.113,37.109,30.762,36.621,44.434,43.457,0
1583342044.117,34.668,32.227,34.668,38.086,37.109,0
1583342044.121,32.715,35.156,34.668,44.434,62.988,0
1583342044.125,35.156,34.668,35.645,41.504,53.223,0
1583342044.129,39.551,35.645,34.180,36.133,22.461,0
1583342044.126,38.086,37.598,34.668,39.551,28.320,0
1583342044.130,34.180,34.668,33.691,36.621,27.344,0
1583342044.134,40.039,35.156,34.668,38.574,-0.488,0
1583342044.138,42.480,35.645,33.691,42.480,-2.441,0
1583342044.142,37.598,32.227,33.203,40.039,-15.137,0
1583342044.146,39.062,31.738,36.133,41.992,3.906,0
1583342044.150,41.504,32.715,33.203,42.969,11.719,0
1583342044.153,39.551,30.762,31.738,40.039,62.500,0
1583342044.157,37.598,31.250,33.203,31.250,90.820,0
1583342044.161,38.086,33.203,29.785,34.668,2.441,0
1583342044.165,42.480,32.227,28.320,41.992,3.906,0
1583342044.169,43.945,32.715,31.250,39.551,75.684,0
1583342044.187,44.922,33.203,34.668,44.434,56.152,0
1583342044.191,42.480,31.738,36.133,47.363,41.016,0
1583342044.195,39.062,33.203,34.180,43.457,78.613,0
1583342044.199,41.504,34.180,33.203,41.992,67.383,0
1583342044.203,41.504,34.180,33.203,40.039,41.016,0
1583342044.207,36.621,34.668,32.715,39.551,4.883,0
1583342044.211,32.227,34.668,32.715,35.645,-32.715,0
1583342044.214,30.273,32.715,32.227,34.180,-23.926,0
1583342044.218,35.156,33.203,28.320,34.668,24.902,0
1583342044.222,37.109,36.621,25.391,31.738,28.320,0
1583342044.226,30.762,35.156,25.879,33.203,39.062,0
1583342044.230,31.738,34.668,27.344,35.156,88.379,0
1583342044.227,38.574,36.133,28.320,36.621,63.965,0
1583342044.231,37.598,36.621,29.297,33.203,60.547,0
1583342044.235,36.133,37.109,31.738,29.785,91.309,0
1583342044.239,37.109,36.621,31.738,31.738,29.297,0
1583342044.243,41.504,39.062,27.832,34.180,46.387,0
1583342044.247,40.527,39.062,27.344,34.668,84.473,0
1583342044.251,35.645,37.109,32.227,37.109,63.477,0
1583342044.254,40.039,40.039,33.691,42.969,46.387,0
1583342044.258,44.434,39.551,33.691,44.922,29.297,0
1583342044.262,43.457,39.062,36.621,38.086,39.062,0
1583342044.266,37.598,41.504,34.668,26.855,11.230,0
1583342044.270,34.180,37.109,33.203,29.785,17.090,0
1583342044.267,38.574,35.645,32.715,37.598,20.996,0
1583342044.271,40.039,37.109,31.738,39.551,11.230,0
1583342044.275,34.668,36.621,32.715,34.668,55.664,0
1583342044.279,33.203,37.598,33.203,31.738,62.500,0
1583342044.283,36.133,36.621,33.691,30.273,26.367,0
1583342044.287,37.598,36.133,34.180,30.762,54.688,0
1583342044.291,34.668,35.645,36.133,35.156,81.543,0
1583342044.294,29.785,34.668,34.668,32.227,72.754,0
1583342044.298,26.855,34.180,33.203,27.832,68.848,0
1583342044.302,32.227,33.691,31.250,29.297,94.238,0
1583342044.306,33.203,31.738,31.250,28.809,64.453,0
1583342044.310,27.344,31.738,32.227,30.762,45.410,0
1583342044.327,29.785,35.645,30.762,31.250,15.625,0
1583342044.331,32.715,34.668,30.273,28.809,20.020,0
1583342044.335,35.156,34.668,32.227,35.645,39.551,0
1583342044.339,33.203,36.621,32.715,38.574,25.391,0
1583342044.343,27.344,35.645,32.227,34.180,10.254,0
1583342044.347,31.250,33.691,32.227,36.133,-24.902,0
1583342044.351,30.762,33.203,30.762,30.762,-25.879,0
1583342044.354,29.785,33.691,30.273,25.879,-18.555,0
1583342044.358,31.738,34.180,30.762,34.668,10.742,0
1583342044.362,28.809,36.621,29.785,36.621,33.203,0
1583342044.366,33.691,34.668,28.809,36.133,6.836,0
1583342044.370,33.691,31.250,28.809,38.574,-15.137,0
1583342044.367,25.879,30.273,28.809,33.691,28.809,0
1583342044.371,28.320,29.785,29.785,27.832,43.457,0
1583342044.375,36.621,30.762,32.227,33.203,8.789,0
1583342044.379,37.598,32.227,35.156,32.715,19.531,0
1583342044.383,33.691,30.762,35.645,26.367,18.555,0
1583342044.387,33.203,32.715,33.203,29.297,0.000,0
1583342044.391,37.598,35.156,33.203,36.133,-5.371,0
1583342044.394,35.645,32.715,35.156,36.621,25.391,0
1583342044.398,32.715,30.762,35.156,34.180,76.172,0
1583342044.402,32.715,30.273,36.133,32.715,45.410,0
1583342044.406,33.691,29.785,35.645,32.227,-5.371,0
1583342044.410,37.598,29.297,33.691,35.645,-5.859,0
1583342044.407,38.086,32.715,34.668,37.109,58.105,0
1583342044.411,35.156,37.109,34.668,39.062,53.711,0
1583342044.415,41.016,38.086,32.715,38.086,19.043,0
1583342044.419,35.156,37.109,37.109,40.527,41.016,0
1583342044.423,25.879,34.180,38.574,40.527,62.988,0
1583342044.427,34.180,32.227,36.621,38.086,58.105,0
1583342044.431,36.133,32.715,36.621,41.016,43.457,0
1583342044.434,36.621,33.203,35.156,37.598,64.941,0
1583342044.438,35.645,32.227,31.738,28.809,42.480,0
1583342044.442,33.203,32.715,33.691,33.203,-33.691,0
1583342044.446,32.227,34.668,36.133,40.039,-34.180,0
1583342044.450,37.598,37.109,34.180,41.992,14.160,0
1583342044.467,40.527,38.574,35.645,41.016,36.621,0
1583342044.471,36.621,37.109,37.109,38.574,47.363,0
1583342044.475,30.762,35.156,35.645,35.645,50.293,0
1583342044.479,34.668,33.691,34.668,38.086,40.039,0
1583342044.483,41.992,33.691,37.598,37.598,15.625,0
1583342044.487,30.273,36.621,38.086,33.203,71.777,0
1583342044.491,27.344,35.156,36.133,27.832,69.824,0
1583342044.494,39.062,32.227,35.645,27.344,12.695,0
1583342044.498,41.504,32.715,35.645,30.762,-2.930,0
1583342044.502,41.504,33.691,32.715,32.227,35.156,0
1583342044.506,36.621,32.715,33.691,37.109,34.180,0
1583342044.510,38.086,34.668,35.645,41.016,73.730,0
1583342044.507,44.434,36.621,32.715,40.039,123.535,0
1583342044.511,41.992,36.133,32.715,37.598,51.270,0
1583342044.515,34.180,34.668,35.645,38.574,-22.461,0
1583342044.519,32.227,33.691,37.109,38.574,-3.418,0
1583342044.523,34.668,32.715,33.203,37.109,21.484,0
1583342044.527,35.645,33.203,33.203,38.086,12.695,0
1583342044.531,34.668,34.668,36.621,38.086,45.898,0
1583342044.534,30.762,33.203,35.645,38.086,14.160,0
1583342044.538,34.668,34.180,33.691,37.598,-17.578,0
1583342044.542,36.133,34.180,34.180,32.715,50.293,0
1583342044.546,29.297,31.738,38.574,37.109,61.035,0
1583342044.550,30.273,32.715,37.109,41.016,-12.207,0
1583342044.547,31.738,31.250,34.668,38.086,-39.551,0
1583342044.551,32.715,28.320,35.645,34.668,24.902,0
1583342044.555,34.668,30.273,33.691,30.273,67.383,0
1583342044.559,33.203,33.691,34.668,31.250,77.148,0
1583342044.563,32.715,34.668,37.109,37.109,53.711,0
1583342044.567,28.809,36.621,36.133,37.598,31.250,0
1583342044.571,35.645,36.621,33.691,33.691,55.176,0
1583342044.574,46.387,35.156,33.203,31.250,45.898,0
1583342044.578,44.434,35.156,34.180,31.250,30.273,0
1583342044.582,38.086,31.738,35.156,32.715,-3.418,0
1583342044.586,44.922,33.691,37.598,35.645,-13.184,0
1583342044.590,49.805,38.086,36.133,37.109,4.395,0
1583342044.607,42.480,35.156,37.109,39.062,46.387,0
1583342044.611,40.039,36.133,37.109,37.109,40.527,0
1583342044.615,47.363,40.039,35.645,35.156,72.266,0
1583342044.619,43.457,37.598,36.133,35.156,69.336,0
1583342044.623,38.574,36.133,36.133,35.156,-0.977,0
1583342044.627,41.992,36.621,38.086,34.668,56.152,0
1583342044.631,41.016,37.109,38.086,30.762,70.801,0
1583342044.634,35.645,38.574,37.109,31.738,65.430,0
1583342044.638,36.133,39.062,36.133,35.156,83.984,0
1583342044.642,38.574,37.109,34.180,33.691,60.547,0
1583342044.646,36.621,35.645,36.621,28.809,19.531,0
1583342044.650,36.133,36.133,37.109,27.832,13.184,0
1583342044.647,33.203,32.715,37.109,31.738,43.945,0
1583342044.651,31.250,30.762,38.574,32.227,9.766,0
1583342044.655,31.250,32.715,37.109,36.133,61.523,0
1583342044.659,32.715,33.691,35.645,36.621,153.809,0
1583342044.663,31.738,33.203,35.645,35.156,98.145,0
1583342044.667,30.273,32.227,36.133,36.621,64.453,0
1583342044.671,32.227,33.203,36.133,37.109,18.066,0
1583342044.674,33.203,34.668,35.645,37.598,5.371,0
1583342044.678,31.250,35.645,36.621,40.527,37.598,0
1583342044.682,26.855,36.133,35.156,34.668,52.734,0
1583342044.686,28.320,36.621,35.156,30.762,74.707,0
1583342044.690,35.156,35.645,31.738,36.133,44.434,0
1583342044.687,33.203,32.715,31.738,30.762,38.574,0
1583342044.691,20.996,33.691,34.668,29.785,19.043,0
1583342044.695,24.414,36.621,32.227,33.203,-8.301,0
1583342044.699,41.504,37.598,32.227,31.738,31.738,0
1583342044.703,43.457,36.621,31.738,30.273,33.203,0
1583342044.707,39.062,35.645,29.297,28.809,9.277,0
1583342044.711,45.410,35.645,31.250,29.785,-10.254,0
1583342044.714,49.805,35.156,31.250,29.297,31.250,0
1583342044.718,51.758,36.621,30.273,28.809,62.988,0
1583342044.722,53.223,35.156,30.273,29.297,28.320,0
1583342044.726,42.480,35.156,30.273,30.762,29.297,0
1583342044.730,35.156,36.621,31.250,36.621,65.430,0
1583342044.747,35.156,34.668,30.762,36.621,21.973,0
1583342044.751,36.621,33.691,32.227,32.227,47.852,0
1583342044.755,32.715,34.180,36.133,41.016,80.566,0
1583342044.759,28.320,32.715,34.668,41.992,35.156,0
1583342044.763,31.738,32.715,35.645,35.645,8.301,0
1583342044.767,27.832,31.250,37.109,35.156,19.043,0
1583342044.771,18.555,27.832,37.109,34.180,66.406,0
1583342044.774,20.996,29.785,39.551,36.133,52.246,0
1583342044.778,30.762,34.180,37.598,39.062,13.184,0
1583342044.782,38.086,35.645,36.621,45.898,15.137,0
1583342044.786,25.879,35.645,36.621,44.434,53.711,0
1583342044.790,20.020,35.645,33.203,40.527,70.801,0
1583342044.787,33.203,35.156,32.227,43.457,44.922,0
1583342044.791,38.574,33.203,34.668,43.945,27.832,0
1583342044.795,36.621,34.668,34.180,40.039,50.293,0
1583342044.799,31.738,35.645,35.156,37.109,31.250,0
1583342044.803,31.250,35.156,36.133,38.086,-0.488,0
1583342044.807,37.598,37.109,33.203,37.598,13.184,0
1583342044.811,38.086,37.109,32.227,36.621,26.855,0
1583342044.814,35.645,37.109,32.227,36.133,28.320,0
1583342044.818,34.180,37.598,32.715,37.598,5.371,0
1583342044.822,33.691,37.598,34.180,35.645,-19.043,0
1583342044.826,38.086,36.621,34.668,33.203,38.574,0
1583342044.830,33.691,34.668,35.156,37.598,63.965,0
1583342044.827,23.926,33.691,37.109,39.551,43.457,0
1583342044.831,31.250,33.691,35.645,39.062,10.742,0
1583342044.835,35.156,32.715,33.691,39.551,18.555,0
1583342044.839,33.691,32.715,29.785,37.109,40.527,0
1583342044.843,32.227,36.133,30.762,36.621,25.391,0
1583342044.847,35.156,36.133,33.203,39.062,-10.254,0
1583342044.851,38.574,35.645,33.691,37.598,0.000,0
1583342044.854,34.668,36.133,35.645,32.715,10.742,0
1583342044.858,34.180,35.645,34.180,30.762,-8.301,0
1583342044.862,34.180,33.691,34.668,34.668,15.137,0
1583342044.866,38.086,32.715,35.156,37.598,-27.832,0
1583342044.870,32.715,30.273,34.180,37.109,42.480,0
1583342044.886,24.902,30.762,35.645,34.668,134.766,0
1583342044.890,32.227,31.738,39.062,34.180,59.570,0
1583342044.894,36.133,29.785,38.086,35.156,10.742,0
1583342044.898,37.109,31.738,35.645,37.109,26.367,0
1583342044.902,36.621,35.645,33.203,41.016,20.508,0
1583342044.906,35.645,34.668,33.203,36.133,10.742,0
1583342044.910,39.062,31.250,35.645,35.156,13.184,0
1583342044.913,42.480,32.715,35.156,41.016,45.410,0
1583342044.917,38.086,34.668,35.645,38.574,34.180,0
1583342044.921,38.086,35.156,36.133,38.086,10.742,0
1583342044.925,42.480,36.133,36.133,38.086,59.570,0
1583342044.929,38.086,37.109,35.645,34.668,49.316,0
1583342044.926,31.250,35.645,33.203,35.156,40.527,0
1583342044.930,32.715,35.156,31.738,39.551,42.480,0
1583342044.934,35.645,35.645,33.203,40.039,71.777,0
1583342044.938,37.598,34.668,32.715,34.668,39.062,0
1583342044.942,34.668,34.668,30.762,33.691,-26.855,0
1583342044.946,35.645,37.109,30.273,33.203,58.594,0
1583342044.950,31.738,38.086,29.785,30.762,112.793,0
1583342044.953,33.691,37.109,28.809,28.809,66.895,0
1583342044.957,38.086,36.621,29.785,32.227,54.688,0
1583342044.961,34.668,37.109,31.250,28.320,78.613,0
1583342044.965,33.691,36.133,29.297,27.832,55.664,0
1583342044.969,35.645,32.715,33.203,34.668,67.871,0
1583342044.967,36.133,30.762,37.109,36.133,37.109,0
1583342044.971,36.133,34.180,32.227,32.715,2.930,0
1583342044.975,32.715,35.156,32.227,31.738,17.090,0
1583342044.979,30.762,33.203,34.180,33.691,22.949,0
1583342044.983,33.691,32.715,33.691,34.180,20.996,0
1583342044.987,29.785,31.738,32.715,36.133,34.668,0
1583342044.991,27.344,32.715,31.250,34.180,70.801,0
1583342044.994,30.273,32.715,32.715,33.203,39.551,0
1583342044.998,30.762,30.273,32.715,33.691,17.578,0
1583342045.002,33.691,30.273,30.762,38.086,-1.465,0
1583342045.006,30.762,29.785,30.273,40.039,33.203,1
1583342045.010,26.367,25.879,33.203,39.551,81.055,0
1583342045.046,28.320,24.902,37.109,36.133,24.414,0
1583342045.050,32.715,26.367,37.598,36.621,4.883,0
1583342045.054,34.668,28.809,37.109,40.039,25.391,0
1583342045.058,34.668,28.809,37.109,38.086,24.902,0
1583342045.062,35.156,30.762,36.133,40.039,14.648,0
1583342045.066,37.598,33.691,37.109,42.480,7.812,0
1583342045.070,33.203,33.203,38.086,42.480,101.074,0
1583342045.073,29.297,32.227,36.621,37.598,88.379,0
1583342045.077,36.133,36.621,34.668,39.551,29.785,0
1583342045.081,38.574,38.574,35.645,42.969,20.020,0
1583342045.085,36.133,36.133,36.621,35.645,-13.672,0
1583342045.089,32.227,34.180,35.156,33.691,58.594,0
1583342045.087,31.250,33.203,32.715,36.133,68.359,0
1583342045.091,35.645,34.180,33.691,34.668,14.648,0
1583342045.095,33.203,35.645,36.621,31.738,-6.836,0
1583342045.099,30.273,36.133,37.598,32.227,-8.301,0
1583342045.103,31.250,36.133,36.621,36.133,-0.488,0
1583342045.107,28.809,34.668,36.133,30.762,-23.926,0
1583342045.111,30.762,34.668,36.133,30.762,-25.879,0
1583342045.114,34.180,37.598,31.250,32.715,16.602,0
1583342045.118,30.273,37.109,29.297,29.297,44.922,0
1583342045.122,30.762,34.180,30.273,32.227,50.781,0
1583342045.126,37.109,35.645,29.785,34.668,60.059,0
1583342045.130,36.133,36.621,30.762,32.715,57.129,0
1583342045.107,34.180,37.598,29.785,34.180,41.016,0
1583342045.111,35.156,37.109,30.762,37.109,70.801,0
1583342045.115,36.133,35.156,30.273,31.250,116.699,0
1583342045.119,35.156,37.109,28.809,29.785,68.359,0
1583342045.123,32.227,37.109,32.227,33.691,21.973,0
1583342045.127,33.691,35.645,34.180,33.203,50.293,0
1583342045.131,35.645,36.133,34.180,36.133,93.262,0
1583342045.134,35.645,35.156,36.133,30.762,101.562,0
1583342045.138,33.203,33.203,35.645,22.949,33.203,0
1583342045.142,34.668,33.691,33.203,26.367,20.508,0
1583342045.146,39.062,36.621,35.156,32.715,33.203,0
1583342045.150,39.551,36.621,34.668,35.156,22.949,0
1583342045.168,35.645,36.621,35.645,31.738,76.660,0
1583342045.172,34.668,36.133,34.180,32.715,92.285,0
1583342045.176,39.551,35.156,32.715,37.109,33.691,0
1583342045.180,44.922,37.109,33.203,40.527,24.902,0
1583342045.184,43.457,38.086,33.691,43.457,66.895,0
1583342045.188,38.574,36.621,34.180,37.109,38.086,0
1583342045.192,40.039,36.621,34.668,35.156,41.504,0
1583342045.195,45.898,35.645,36.133,41.992,19.531,0
1583342045.199,47.852,34.668,35.156,42.969,-50.781,0
1583342045.203,44.434,37.598,33.691,41.992,14.160,0
1583342045.207,40.039,38.086,34.180,39.062,-0.488,0
1583342045.211,41.016,33.691,34.180,37.109,-47.363,0
1583342045.207,43.945,36.621,32.715,40.527,50.781,0
1583342045.211,41.992,36.621,34.180,41.992,41.504,0
1583342045.215,35.645,31.738,38.086,39.551,-25.879,0
1583342045.219,32.227,31.738,35.645,32.715,20.996,0
1583342045.223,29.297,29.785,33.691,27.832,44.434,0
1583342045.227,23.438,27.832,33.691,27.832,66.406,0
1583342045.231,18.555,27.832,31.250,28.809,59.570,0
1583342045.234,20.508,27.832,32.227,28.809,86.426,0
1583342045.238,25.391,30.762,35.156,26.367,74.219,0
1583342045.242,24.414,29.785,36.133,29.297,8.301,0
1583342045.246,17.578,26.367,36.621,29.297,55.664,0
1583342045.250,17.578,27.832,33.203,25.879,27.832,0
1583342045.267,23.926,28.320,33.203,25.879,44.434,0
1583342045.271,23.926,27.344,35.156,27.344,62.500,0
1583342045.275,20.508,28.320,34.180,29.297,29.297,0
1583342045.279,25.879,28.320,34.668,35.156,20.508,0
1583342045.283,26.855,26.855,35.156,39.062,14.648,0
1583342045.287,28.320,28.320,38.574,38.086,15.137,0
1583342045.291,31.250,31.738,36.133,33.691,20.996,0
1583342045.294,32.227,32.227,30.762,26.367,47.852,0
1583342045.298,33.203,29.297,33.691,27.832,39.551,0
1583342045.302,37.109,26.367,34.668,30.762,-5.859,0
1583342045.306,36.133,29.785,33.203,31.250,0.000,0
1583342045.310,31.250,35.156,33.203,32.715,38.574,0
1583342045.307,32.715,34.180,34.180,35.156,62.988,0
1583342045.311,38.574,33.691,36.133,37.109,47.852,0
1583342045.315,38.574,33.691,39.062,35.156,45.410,0
1583342045.319,35.156,32.715,38.086,36.133,59.082,0
1583342045.323,35.156,36.133,35.645,42.480,29.297,0
1583342045.327,37.598,34.180,33.691,37.598,5.371,0
1583342045.331,39.551,30.273,31.250,33.691,-8.301,0
1583342045.334,34.668,30.273,30.273,35.645,17.578,0
1583342045.338,32.227,33.691,30.273,35.645,74.707,0
1583342045.342,33.203,36.621,31.738,36.621,78.613,0
1583342045.346,36.133,36.133,36.133,37.109,32.715,0
1583342045.350,41.016,36.133,36.133,35.645,3.418,0
1583342045.347,38.086,37.598,34.180,36.133,9.277,0
1583342045.351,38.574,37.109,32.715,39.062,33.203,0
1583342045.355,41.992,36.621,32.227,40.039,102.051,0
1583342045.359,37.598,36.621,32.715,39.062,78.125,0
1583342045.363,35.156,34.668,32.715,43.457,55.664,0
1583342045.367,36.621,32.715,33.203,44.434,28.809,0
1583342045.371,35.156,30.762,35.645,39.551,7.812,0
1583342045.374,34.180,29.785,33.691,38.086,36.621,0
1583342045.378,32.715,31.738,30.273,35.645,20.020,0
1583342045.382,28.320,31.250,30.273,25.391,18.066,0
1583342045.386,29.785,31.250,31.738,29.785,43.457,0
1583342045.390,31.738,33.691,32.227,33.203,16.602,0
1583342045.407,30.273,34.180,30.762,28.320,-13.184,0
1583342045.411,30.273,34.180,33.691,30.273,35.645,0
1583342045.415,33.691,33.691,31.738,31.250,45.898,0
1583342045.419,37.598,35.156,29.297,29.785,-18.066,0
1583342045.423,39.551,35.156,31.250,30.762,-12.695,0
1583342045.427,42.480,35.156,31.738,31.738,56.152,0
1583342045.431,39.062,37.598,32.227,28.809,93.750,0
1583342045.434,40.039,35.156,33.691,29.297,42.969,0
1583342045.438,42.480,33.203,30.762,31.250,-79.102,0
1583342045.442,34.668,33.691,31.250,32.227,-33.691,0
1583342045.446,30.273,32.715,32.227,35.156,45.898,0
1583342045.450,35.645,35.645,26.855,35.156,35.645,0
1583342045.447,37.109,36.621,28.809,33.691,7.812,0
1583342045.451,33.691,33.203,33.203,30.273,2.930,0
1583342045.455,32.715,33.203,35.156,31.738,-11.230,0
1583342045.459,34.180,31.738,34.668,30.762,32.227,0
1583342045.463,35.156,29.785,32.227,26.855,92.285,0
1583342045.467,33.203,29.297,33.691,32.227,21.484,0
1583342045.471,31.738,27.344,36.621,32.227,23.926,0
1583342045.474,34.668,26.367,35.156,31.250,80.566,0
1583342045.478,34.180,27.344,32.227,34.180,114.258,0
1583342045.482,31.738,31.250,32.715,39.062,111.816,0
1583342045.486,31.250,34.180,33.691,38.574,78.125,0
1583342045.490,34.180,34.180,30.762,37.598,79.102,0
1583342045.487,41.992,36.133,32.227,44.922,31.738,0
1583342045.491,34.180,36.621,35.156,41.504,-29.785,0
1583342045.495,22.461,34.180,34.668,31.738,-17.578,0
1583342045.499,26.855,33.691,34.180,28.320,22.461,0
1583342045.503,23.926,33.691,31.738,23.438,33.691,0
1583342045.507,16.602,29.297,31.738,21.973,40.039,0
1583342045.511,18.066,32.227,34.180,22.949,29.297,0
1583342045.514,21.973,34.180,31.738,27.832,68.359,0
1583342045.518,26.367,31.738,30.273,30.762,68.359,0
1583342045.522,33.203,33.691,31.250,27.832,30.273,0
1583342045.526,33.203,33.691,32.227,28.320,58.105,0
1583342045.530,30.273,33.203,31.738,28.320,32.715,0
1583342045.547,31.250,34.668,29.785,30.273,-8.789,0
1583342045.551,33.203,32.715,30.273,32.227,4.883,0
1583342045.555,37.109,32.227,31.738,34.180,-20.020,0
1583342045.559,33.691,33.203,33.203,39.551,-20.020,0
1583342045.563,29.785,32.227,30.273,40.039,8.789,0
1583342045.567,33.203,31.738,28.320,40.527,19.043,0
1583342045.571,34.180,33.691,28.320,36.133,9.766,0
1583342045.574,31.250,33.691,28.809,32.227,28.809,0
1583342045.578,27.832,33.203,33.203,38.086,56.152,0
1583342045.582,29.297,32.715,32.227,33.691,77.637,0
1583342045.586,29.785,32.227,33.203,29.785,76.172,0
1583342045.590,29.297,31.250,37.109,31.250,45.410,0
1583342045.587,30.762,30.273,37.109,36.133,101.074,0
1583342045.591,36.621,29.785,37.598,40.527,78.125,0
1583342045.595,36.621,30.762,36.133,40.527,33.691,0
1583342045.599,29.297,31.250,33.691,36.133,77.637,0
1583342045.603,27.832,29.297,35.645,33.203,61.523,0
1583342045.607,25.391,29.785,34.180,35.156,-12.207,0
1583342045.611,28.320,29.785,34.180,37.109,-3.418,0
1583342045.614,30.273,31.738,38.086,33.203,45.410,0
1583342045.618,26.855,31.738,35.645,33.691,27.344,0
1583342045.622,28.320,28.809,31.738,35.156,49.316,0
1583342045.626,30.762,27.832,31.250,33.691,23.438,0
1583342045.630,32.715,30.273,33.203,36.133,40.039,0
1583342045.627,35.645,33.691,36.133,39.062,62.500,0
1583342045.631,31.738,35.156,37.109,39.551,-7.812,0
1583342045.635,34.668,37.109,39.062,41.992,-17.578,0
1583342045.639,36.621,37.109,37.109,39.551,44.922,0
1583342045.643,30.273,36.133,33.203,34.668,70.312,0
1583342045.647,30.762,38.574,33.691,38.574,36.133,0
1583342045.651,37.598,41.992,31.738,43.945,5.859,0
1583342045.654,43.457,41.504,29.297,41.016,-5.859,0
1583342045.658,46.387,39.551,32.715,38.574,27.344,0
1583342045.662,41.504,40.527,32.715,35.645,92.773,0
1583342045.666,37.109,38.574,32.227,33.691,44.922,0
1583342045.670,41.504,37.109,33.691,38.086,43.457,0
1583342045.687,37.109,35.645,30.273,36.621,59.082,0
1583342045.691,31.250,34.180,26.367,28.809,1.465,0
1583342045.695,31.250,34.180,26.855,27.344,25.391,0
1583342045.699,31.250,35.156,29.297,33.691,52.734,0
1583342045.703,29.785,36.621,30.762,31.250,35.156,0
1583342045.707,30.762,35.156,31.250,31.250,60.547,0
1583342045.711,30.762,34.668,31.738,29.785,101.074,0
1583342045.714,35.645,37.598,28.809,28.320,71.777,0
1583342045.718,38.574,40.527,27.832,34.180,25.391,0
1583342045.722,28.809,37.109,29.297,32.715,25.391,0
1583342045.726,24.414,36.621,28.320,36.133,84.473,0
1583342045.730,26.367,38.574,28.320,36.133,22.949,0
1583342045.727,34.180,36.621,32.715,38.574,20.508,0
1583342045.731,35.645,36.621,31.738,43.457,64.941,0
1583342045.735,32.715,36.133,29.785,35.645,35.645,0
1583342045.739,36.133,35.156,35.156,35.156,7.324,0
1583342045.743,36.621,36.621,38.574,39.062,-1.953,0
1583342045.747,37.598,35.156,38.086,42.480,47.852,0
1583342045.751,43.457,31.738,37.109,51.270,33.691,0
1583342045.754,43.945,36.621,35.156,49.805,0.000,0
1583342045.758,35.156,44.434,29.785,31.738,22.461,0
1583342045.762,30.762,42.969,25.879,22.949,28.809,0
1583342045.766,26.855,39.062,25.879,20.996,47.363,0
1583342045.770,23.438,39.062,25.879,21.973,10.254,0
1583342045.767,19.043,36.621,26.367,21.484,-2.441,0
1583342045.771,20.020,36.133,26.367,22.949,0.488,0
1583342045.775,27.832,37.109,26.367,26.367,-1.465,0
1583342045.779,28.809,38.086,27.832,28.320,42.480,0
1583342045.783,28.809,38.574,30.762,31.738,72.754,0
1583342045.787,38.086,37.598,28.809,35.156,101.074,0
1583342045.791,36.621,34.668,28.320,37.598,55.664,0
1583342045.794,30.273,31.738,29.297,39.062,52.734,0
1583342045.798,34.180,37.109,27.832,39.062,104.004,0
1583342045.802,39.551,38.086,28.320,36.621,53.223,0
1583342045.806,39.551,36.133,31.738,42.480,43.945,0
1583342045.810,37.109,36.621,33.691,44.434,20.020,0
1583342045.827,36.133,35.645,34.180,43.945,-29.785,0
1583342045.831,38.574,35.645,35.645,42.969,0.000,0
1583342045.835,39.062,36.133,35.156,35.645,-5.859,0
1583342045.839,32.227,36.621,34.180,33.203,15.625,0
1583342045.843,30.762,36.133,35.156,38.086,-22.949,0
1583342045.847,35.645,33.203,36.621,38.574,-23.438,0
1583342045.851,39.062,32.715,34.180,38.574,13.672,0
1583342045.854,37.598,34.180,32.715,38.086,32.715,0
1583342045.858,35.156,36.133,32.715,37.598,64.453,0
1583342045.862,36.133,35.156,32.715,41.016,43.945,0
1583342045.866,37.109,31.250,32.227,38.574,16.113,0
1583342045.870,35.645,31.738,30.273,31.738,-0.488,0
1583342045.867,38.086,35.156,29.785,37.109,-36.133,0
1583342045.871,42.969,33.691,28.809,42.480,5.859,0
1583342045.875,44.434,32.715,29.297,41.016,66.406,0
1583342045.879,43.457,33.203,26.855,39.062,45.410,0
1583342045.883,39.551,33.691,24.902,40.039,15.625,0
1583342045.887,37.598,34.668,30.273,41.992,4.883,0
1583342045.891,37.598,33.691,32.227,39.062,18.066,0
1583342045.894,40.039,32.227,31.738,38.574,29.297,0
1583342045.898,37.109,32.715,32.227,36.621,30.762,0
1583342045.902,31.250,33.691,32.227,31.250,64.941,0
1583342045.906,36.621,33.203,31.738,31.250,68.848,0
1583342045.910,37.109,29.297,32.227,30.273,52.734,0
1583342045.907,29.785,29.297,33.691,29.785,46.387,0
1583342045.911,26.855,33.203,33.203,34.180,-3.418,0
1583342045.915,33.203,33.691,29.297,33.203,17.090,0
1583342045.919,44.922,35.156,27.832,40.527,64.941,0
1583342045.923,42.969,35.156,32.227,45.898,36.621,0
1583342045.927,24.902,30.273,38.574,34.668,18.066,0
1583342045.931,16.602,27.344,39.551,28.320,11.230,0
1583342045.934,26.855,28.320,38.574,31.738,39.062,0
1583342045.938,31.738,30.762,37.109,30.762,53.223,0
1583342045.942,25.879,30.273,35.156,30.762,59.082,0
1583342045.946,28.809,27.344,37.109,30.762,43.457,0
1583342045.950,36.133,29.785,38.574,33.203,68.848,0
1583342045.967,35.645,32.715,39.062,33.691,76.660,0
1583342045.971,32.715,31.250,39.551,35.645,51.758,0
1583342045.975,33.203,33.691,38.086,40.039,4.883,0
1583342045.979,34.668,35.156,36.621,34.180,0.977,0
1583342045.983,36.133,35.156,32.227,30.762,85.938,0
1583342045.987,33.203,33.691,30.762,31.738,79.102,0
1583342045.991,26.367,31.250,32.715,24.902,25.879,0
1583342045.994,29.297,30.762,33.691,28.809,31.738,0
1583342045.998,36.621,33.691,33.691,34.180,25.391,0
1583342046.002,33.691,32.227,33.691,29.785,0.000,0
1583342046.006,25.391,29.297,33.203,30.762,66.406,0
1583342046.010,23.926,29.297,32.227,31.738,70.312,0
1583342046.007,31.738,29.297,28.809,35.645,-0.977,0
1583342046.011,37.109,33.691,30.762,34.180,25.391,0
1583342046.015,35.156,35.156,33.203,31.250,62.012,0
1583342046.019,31.738,34.180,31.250,31.738,64.941,0
1583342046.023,33.203,34.180,28.809,30.762,93.262,0
1583342046.027,38.086,33.203,27.344,33.691,25.391,0
1583342046.031,38.574,35.156,28.320,35.156,21.484,0
1583342046.034,34.180,37.598,30.273,34.180,54.199,0
1583342046.038,34.668,36.133,31.250,35.645,15.137,0
1583342046.042,38.574,36.133,30.273,30.273,32.227,0
1583342046.046,34.668,35.156,32.227,24.902,34.180,0
1583342046.050,33.691,34.180,31.738,33.691,12.695,0
1583342046.047,37.109,35.156,29.297,36.133,40.039,0
1583342046.051,39.062,35.156,31.738,40.527,72.754,0
1583342046.055,40.039,35.156,33.691,42.969,66.406,0
1583342046.059,39.062,35.156,31.738,39.062,23.926,0
1583342046.063,37.109,36.133,31.738,39.062,-10.742,0
1583342046.067,38.086,36.621,31.738,36.133,-13.184,0
1583342046.071,38.574,36.133,29.297,39.062,52.246,0
1583342046.074,34.180,35.645,31.738,39.062,72.754,0
1583342046.078,33.691,36.133,33.203,36.133,41.504,0
1583342046.082,38.086,36.621,30.273,38.574,87.402,0
1583342046.086,41.016,36.621,28.809,41.016,72.266,0
1583342046.090,38.086,34.180,29.297,40.039,57.129,3
1583342046.107,37.598,34.180,31.250,37.598,73.242,0
1583342046.111,44.434,36.133,30.762,36.133,41.504,0
1583342046.115,47.852,38.086,29.297,36.621,55.664,0
1583342046.119,47.363,39.062,30.762,34.180,38.574,0
1583342046.123,50.781,40.039,33.691,35.645,-35.156,0
1583342046.127,55.176,40.039,31.250,37.598,-76.172,0
1583342046.131,52.246,38.574,27.832,33.203,-55.664,0
1583342046.134,47.852,39.551,30.762,36.621,-25.391,0
1583342046.138,40.527,36.133,34.668,41.992,-3.418,0
1583342046.142,30.273,32.227,34.180,36.133,1.953,0
1583342046.146,28.320,32.227,33.691,31.738,37.598,0
1583342046.150,25.391,29.297,33.691,33.203,48.340,0
1583342046.146,23.438,27.344,32.227,28.809,28.320,0
1583342046.150,19.531,27.832,30.273,25.879,64.941,0
1583342046.154,19.531,27.344,33.203,26.367,55.176,0
1583342046.158,24.414,25.879,33.691,24.414,10.254,0
1583342046.162,24.902,28.320,31.738,25.391,-19.531,0
1583342046.166,26.367,29.785,31.738,31.250,9.766,0
1583342046.170,29.785,30.273,29.785,33.203,91.797,0
1583342046.173,33.203,32.715,31.250,35.156,84.473,0
1583342046.177,34.180,33.691,31.250,37.109,58.594,0
1583342046.181,31.738,34.180,26.855,31.250,61.523,0
1583342046.185,29.785,31.738,28.320,31.250,39.551,0
1583342046.189,31.738,32.715,30.273,33.203,67.871,0
1583342046.186,32.715,37.598,31.250,31.738,69.336,0
1583342046.190,29.297,34.668,29.785,33.691,13.672,0
1583342046.194,27.344,31.738,30.273,35.645,66.895,0
1583342046.198,28.320,32.715,36.133,36.133,70.312,0
1583342046.202,30.273,31.250,35.156,36.133,55.176,0
1583342046.206,28.320,29.785,36.133,36.133,110.352,0
1583342046.210,27.832,31.738,35.645,38.574,74.219,0
1583342046.213,30.273,32.715,35.156,37.109,-10.254,0
1583342046.217,33.691,30.762,37.109,35.156,-61.035,0
1583342046.221,32.227,30.762,36.621,37.109,37.598,0
1583342046.225,28.320,31.738,34.668,35.645,52.246,0
1583342046.229,33.203,31.738,33.691,38.086,-16.113,0
1583342046.246,35.156,34.180,34.180,37.109,7.812,0
1583342046.250,35.645,35.645,32.227,35.156,32.715,0
1583342046.254,38.086,35.156,30.273,34.180,57.129,0
1583342046.258,37.598,35.645,31.738,33.203,-10.254,0
1583342046.262,39.062,36.133,31.250,34.180,-47.852,0
1583342046.266,38.574,35.156,28.809,30.273,34.180,0
1583342046.270,35.156,34.668,24.902,22.949,25.879,0
1583342046.273,33.691,35.156,22.461,22.461,-45.898,0
1583342046.277,34.668,36.133,23.926,25.879,25.879,0
1583342046.281,34.668,34.180,26.367,28.320,46.875,0
1583342046.285,28.809,32.715,27.832,28.320,-28.809,0
1583342046.289,26.855,32.227,27.832,26.855,-35.156,0
1583342046.287,28.809,30.762,27.344,27.832,19.531,0
1583342046.291,29.785,33.203,28.320,29.297,6.836,0
1583342046.295,29.297,30.273,30.762,28.809,11.230,0
1583342046.299,30.273,29.297,33.203,33.691,21.973,0
1583342046.303,34.668,31.250,34.180,37.598,13.184,0
1583342046.307,35.645,29.297,33.203,33.691,64.453,0
1583342046.311,32.715,27.344,33.203,33.691,57.129,0
1583342046.314,32.715,28.320,34.668,36.133,41.504,0
1583342046.318,32.227,27.344,36.133,34.180,-2.441,0
1583342046.322,30.762,25.391,35.156,26.367,83.496,0
1583342046.326,32.715,28.809,34.668,28.809,120.605,0
1583342046.330,33.691,27.832,34.180,33.691,71.777,0
1583342046.327,29.785,28.320,31.250,29.785,50.293,0
1583342046.331,32.227,32.715,29.297,32.715,8.301,0
1583342046.335,35.645,33.691,28.809,35.645,46.875,0
1583342046.339,33.691,35.156,27.344,30.762,35.156,0
1583342046.343,35.156,35.156,27.832,34.180,36.621,0
1583342046.347,38.086,36.621,29.785,40.527,92.773,0
1583342046.351,40.527,37.598,28.320,37.109,59.082,0
1583342046.354,40.527,37.109,29.785,34.180,27.832,0
1583342046.358,36.621,36.133,31.738,37.109,19.043,0
1583342046.362,37.598,34.668,32.227,39.062,39.062,0
1583342046.366,41.016,33.691,32.715,37.109,35.156,0
1583342046.370,45.410,33.691,29.297,40.039,2.441,0
1583342046.387,45.410,35.645,31.250,41.016,43.945,0
1583342046.391,44.434,36.133,31.738,36.621,88.867,0
1583342046.395,51.270,34.668,33.203,41.992,111.328,0
1583342046.399,48.340,32.715,34.668,42.969,71.777,0
1583342046.403,37.109,32.715,35.645,34.668,52.246,0
1583342046.407,32.715,33.691,37.109,30.273,14.648,0
1583342046.411,35.156,32.227,33.691,29.297,-18.066,0
1583342046.414,33.691,30.273,30.273,31.738,30.762,0
1583342046.418,33.691,33.203,33.203,32.715,25.391,0
1583342046.422,29.785,37.109,33.691,35.156,27.832,0
1583342046.426,28.809,34.668,32.715,37.109,51.758,0
1583342046.430,33.203,34.180,34.668,36.133,43.457,0
1583342046.427,34.180,35.156,33.203,40.039,-3.418,0
1583342046.431,31.250,35.645,35.645,41.504,-30.273,0
1583342046.435,34.668,34.668,35.645,41.016,9.766,0
