timestamps,TP9,AF7,AF8,TP10,Right AUX,Marker0
1571370196.457,32.227,41.016,32.227,2.441,43.457,0
1571370196.461,100.586,40.527,30.273,80.078,38.086,0
1571370196.465,56.641,40.527,32.227,78.125,55.176,0
1571370196.469,-16.602,41.016,33.691,-5.371,59.082,0
1571370196.473,10.254,41.016,35.156,-11.719,-26.855,0
1571370196.477,87.891,42.480,36.133,66.406,20.508,0
1571370196.481,78.613,42.480,34.668,99.121,37.598,0
1571370196.484,-0.977,41.992,33.203,24.902,16.113,0
1571370196.488,-6.348,41.504,34.180,-24.414,42.969,0
1571370196.492,70.801,40.039,36.621,45.410,-6.836,0
1571370196.496,97.656,41.504,38.574,110.840,9.277,0
1571370196.500,22.949,42.969,39.062,52.734,-2.441,0
1571370196.496,-14.648,42.969,38.086,-32.715,11.719,0
1571370196.500,56.152,42.969,36.133,25.879,100.098,0
1571370196.504,106.445,41.504,36.133,105.469,31.738,0
1571370196.508,38.086,40.527,35.156,64.453,40.527,0
1571370196.512,-25.391,40.527,32.715,-24.902,100.098,0
1571370196.516,36.621,41.016,30.762,20.996,16.602,0
1571370196.520,98.633,36.133,34.668,89.844,-32.715,0
1571370196.523,36.133,34.668,39.551,74.707,17.090,0
1571370196.527,-34.180,41.016,35.156,-2.441,67.871,0
1571370196.531,14.160,38.574,34.180,-2.930,32.227,0
1571370196.535,93.262,37.109,37.598,72.266,26.855,0
1571370196.539,86.426,40.527,33.203,119.141,1.465,0
1571370196.516,12.207,41.992,31.738,60.059,33.691,0
1571370196.520,2.930,43.945,34.668,-6.836,77.148,0
1571370196.524,82.031,42.969,34.180,55.176,-24.414,0
1571370196.528,112.305,39.551,33.691,130.859,-41.016,0
1571370196.532,35.645,40.039,35.156,79.102,24.414,0
1571370196.536,-13.672,41.016,34.668,-17.090,23.926,0
1571370196.540,45.898,40.039,35.645,25.391,19.043,0
1571370196.543,104.004,39.551,37.598,106.445,66.895,0
1571370196.547,47.852,39.551,37.598,87.891,42.480,0
1571370196.551,-18.555,39.551,35.645,-1.465,44.922,0
1571370196.555,25.391,39.062,34.180,12.695,29.297,0
1571370196.559,101.562,39.551,36.133,82.520,-8.301,0
1571370196.576,77.148,41.016,36.133,97.656,11.230,0
1571370196.580,-2.930,42.480,33.203,18.555,39.551,0
1571370196.584,11.230,41.992,35.645,-18.066,32.227,0
1571370196.588,94.238,38.574,35.156,54.688,-20.996,0
1571370196.592,103.516,39.551,30.762,112.305,-6.836,0
1571370196.596,23.438,40.039,29.297,50.293,50.293,0
1571370196.600,-9.277,39.551,28.809,-30.762,26.855,0
1571370196.603,66.895,42.480,31.738,36.621,-2.441,0
1571370196.607,118.652,42.969,35.156,124.512,35.156,0
1571370196.611,41.992,41.016,35.645,76.660,119.141,0
1571370196.615,-16.113,39.551,34.180,-24.414,104.004,0
1571370196.619,48.340,40.527,34.668,23.438,19.531,0
1571370196.616,104.980,39.551,35.156,103.516,70.801,0
1571370196.620,50.293,38.574,31.250,87.891,107.422,0
1571370196.624,-20.996,39.062,30.762,-2.930,49.805,0
1571370196.628,15.625,38.574,34.180,-3.906,19.531,0
1571370196.632,93.750,38.574,34.180,71.777,16.113,0
1571370196.636,74.219,40.039,33.203,105.469,-7.812,0
1571370196.640,-4.395,39.551,33.691,35.156,13.672,0
1571370196.643,-1.465,41.016,32.715,-22.949,82.031,0
1571370196.647,78.613,41.504,31.250,42.480,47.363,0
1571370196.651,91.797,38.574,31.738,109.375,6.348,0
1571370196.655,9.277,37.598,31.250,48.828,0.488,0
1571370196.659,-25.391,38.086,29.785,-33.691,-31.738,0
1571370196.656,46.387,39.551,32.227,25.391,18.555,0
1571370196.660,104.004,38.574,32.715,104.980,20.020,0
1571370196.664,34.668,36.133,30.762,65.918,45.410,0
1571370196.668,-22.461,37.109,32.227,-27.832,82.520,0
1571370196.672,33.203,39.551,33.203,7.812,95.215,0
1571370196.676,91.309,40.039,32.227,78.613,48.828,0
1571370196.680,48.828,36.133,34.180,75.684,31.250,0
1571370196.683,-24.414,35.645,34.180,-1.953,21.484,0
1571370196.687,4.883,36.621,34.668,-14.648,-16.113,0
1571370196.691,85.938,35.645,37.598,65.430,47.852,0
1571370196.695,81.543,34.668,38.574,109.863,57.617,0
1571370196.699,5.371,35.645,38.574,42.969,26.855,0
1571370196.716,-5.371,40.039,37.109,-10.254,-13.184,0
1571370196.720,65.430,39.551,38.574,57.129,42.480,0
1571370196.724,92.285,38.574,39.062,128.906,46.387,0
1571370196.728,17.578,38.574,37.109,71.289,20.508,0
1571370196.732,-19.043,37.109,36.621,-17.090,-17.578,0
1571370196.736,50.293,39.551,35.645,40.527,-27.344,0
1571370196.740,109.375,41.016,37.598,113.281,30.273,0
1571370196.743,53.711,38.574,41.016,80.566,62.988,0
1571370196.747,-11.719,38.086,40.039,-6.836,69.336,0
1571370196.751,37.109,38.574,40.527,14.160,78.125,0
1571370196.755,104.492,36.621,42.969,88.379,46.387,0
1571370196.759,67.383,36.133,39.551,90.332,63.965,0
1571370196.755,-11.719,38.086,36.621,-0.977,78.125,0
1571370196.759,0.977,40.527,37.109,-31.250,64.453,0
1571370196.763,78.125,39.551,37.109,45.410,30.273,0
1571370196.767,86.426,36.621,37.109,96.191,-43.945,0
1571370196.771,9.766,36.621,34.668,28.809,-28.320,0
1571370196.775,-15.137,37.109,32.227,-41.016,9.766,0
1571370196.779,61.035,35.645,33.691,22.949,41.504,0
1571370196.782,105.469,38.086,34.180,102.051,80.078,0
1571370196.786,31.738,39.062,34.180,51.270,66.406,0
1571370196.790,-17.090,38.086,33.203,-37.598,61.035,0
1571370196.794,45.410,37.598,35.156,13.184,51.758,0
1571370196.798,103.027,34.668,36.133,93.262,-10.742,0
1571370196.796,53.223,35.156,33.203,76.172,17.090,0
1571370196.800,-13.672,33.203,33.691,-16.113,60.059,0
1571370196.804,23.926,30.762,33.203,-4.395,39.062,0
1571370196.808,96.191,32.227,34.180,75.195,18.555,0
1571370196.812,74.707,37.109,37.109,95.703,34.180,0
1571370196.816,-5.859,38.086,35.645,12.695,17.090,0
1571370196.820,0.977,34.180,34.668,-30.762,-4.395,0
1571370196.823,79.102,37.598,34.668,42.480,5.371,0
1571370196.827,95.215,38.086,35.156,100.586,38.574,0
1571370196.831,18.066,36.621,34.668,35.156,61.523,0
1571370196.835,-16.602,36.621,34.668,-43.457,59.082,0
1571370196.839,54.199,37.109,37.109,24.414,-11.719,0
1571370196.856,97.656,38.086,36.133,103.516,-42.969,0
1571370196.860,26.367,37.598,36.133,64.453,42.480,0
1571370196.864,-34.180,37.109,32.715,-35.156,39.551,0
1571370196.868,25.391,40.527,27.832,3.418,-12.207,0
1571370196.872,93.750,39.062,32.227,91.309,-14.648,0
1571370196.876,61.523,37.598,29.297,88.867,45.410,0
1571370196.880,-2.441,37.598,27.344,4.883,66.895,0
1571370196.883,0.488,34.668,34.180,-26.367,24.902,0
1571370196.887,62.500,37.598,34.668,37.598,-14.160,0
1571370196.891,69.824,37.598,32.715,93.750,-58.594,0
1571370196.895,-0.488,36.621,33.691,35.645,9.277,0
1571370196.899,-6.348,39.551,32.715,-20.508,61.523,0
1571370196.896,81.055,41.016,34.668,49.805,68.359,0
1571370196.900,106.445,40.527,36.133,124.023,85.449,0
1571370196.904,23.438,40.527,36.133,63.477,78.125,0
1571370196.908,-16.602,40.527,34.668,-23.438,87.891,0
1571370196.912,56.641,40.039,34.180,33.691,63.965,0
1571370196.916,106.934,38.086,36.133,109.863,68.848,0
1571370196.920,36.621,38.574,34.180,74.219,45.410,0
1571370196.923,-28.809,38.086,33.691,-21.484,2.930,0
1571370196.927,20.508,36.133,35.645,6.836,-19.531,0
1571370196.931,96.191,38.574,33.691,85.449,4.395,0
1571370196.935,59.082,39.062,32.715,83.984,8.789,0
1571370196.939,-16.113,38.086,33.203,4.883,-17.578,0
1571370196.935,7.812,38.086,35.156,-9.766,37.598,0
1571370196.939,88.867,41.504,34.668,64.453,4.395,0
1571370196.943,88.379,41.992,31.738,106.445,-38.086,0
1571370196.947,4.395,40.039,32.715,33.203,-13.184,0
1571370196.951,-9.766,40.039,33.691,-20.996,15.137,0
1571370196.955,69.824,40.527,34.180,47.363,28.320,0
1571370196.959,99.121,38.574,33.691,115.234,20.508,0
1571370196.962,23.438,38.086,29.785,58.105,67.383,0
1571370196.966,-15.625,39.551,28.320,-30.762,33.203,0
1571370196.970,45.410,39.551,31.250,20.508,-45.410,0
1571370196.974,100.098,39.551,33.691,103.516,0.977,0
1571370196.978,42.969,40.527,33.203,84.961,38.086,0
1571370196.995,-24.414,41.992,29.297,-13.184,21.973,0
1571370196.999,16.602,39.062,31.250,-3.906,45.410,0
1571370197.003,91.309,35.156,34.668,82.520,80.078,0
1571370197.007,68.359,39.062,32.227,96.680,81.055,0
1571370197.011,-7.324,40.039,31.250,14.160,20.508,0
1571370197.015,1.465,38.086,33.203,-19.531,14.160,0
1571370197.019,75.684,37.109,37.109,49.805,67.871,0
1571370197.022,84.961,36.133,36.621,108.887,68.359,0
1571370197.026,2.930,36.133,33.691,44.922,18.066,0
1571370197.030,-21.484,33.691,32.715,-31.738,-2.441,0
1571370197.034,55.664,36.621,33.203,26.367,16.602,0
1571370197.038,97.168,34.668,35.645,104.492,41.992,0
1571370197.035,27.344,34.180,33.691,63.965,12.207,0
1571370197.039,-20.996,38.086,33.203,-25.391,-39.551,0
1571370197.043,41.504,37.109,36.133,28.320,18.066,0
1571370197.047,100.586,37.598,34.668,102.539,44.922,0
1571370197.051,45.898,39.551,32.715,76.172,23.926,0
1571370197.055,-22.949,37.109,30.762,-10.254,1.953,0
1571370197.059,7.812,32.715,31.738,-3.418,26.855,0
1571370197.062,83.496,36.621,35.156,75.684,18.555,0
1571370197.066,71.289,39.062,34.668,98.145,-10.742,0
1571370197.070,-11.230,38.086,30.762,13.672,-12.695,0
1571370197.074,-12.207,39.551,30.273,-32.227,-33.691,0
1571370197.078,66.406,39.551,30.273,42.969,8.789,0
1571370197.075,88.867,39.551,30.762,111.328,38.086,0
1571370197.079,14.648,39.062,31.738,47.852,51.758,0
1571370197.083,-21.973,38.086,29.785,-43.457,59.570,0
1571370197.087,52.734,38.086,30.273,26.855,33.691,0
1571370197.091,107.910,41.016,32.227,111.816,47.852,0
1571370197.095,41.016,42.969,32.715,69.824,56.641,0
1571370197.099,-13.672,41.992,30.273,-20.020,27.344,0
1571370197.102,35.645,40.039,28.809,11.719,-2.441,0
1571370197.106,99.609,42.480,33.203,89.844,36.133,0
1571370197.110,60.059,42.969,32.715,88.867,49.805,0
1571370197.114,-17.090,40.039,31.250,3.906,46.387,0
1571370197.118,12.207,40.527,34.180,-3.418,42.969,0
1571370197.135,86.914,35.645,34.180,64.941,10.254,0
1571370197.139,72.754,37.109,32.715,102.051,31.738,0
1571370197.143,-5.371,39.062,33.203,36.133,38.574,0
1571370197.147,-12.207,36.133,34.668,-24.902,29.297,0
1571370197.151,67.383,37.598,34.180,41.016,13.184,0
1571370197.155,90.332,36.133,34.180,111.816,42.480,0
1571370197.159,9.277,33.203,32.715,55.664,70.312,0
1571370197.162,-28.809,34.180,33.691,-32.715,30.273,0
1571370197.166,36.621,36.621,34.668,20.020,52.734,0
1571370197.170,91.309,34.180,34.668,100.098,85.938,0
1571370197.174,45.410,32.227,31.738,83.008,51.758,0
1571370197.178,-27.344,39.551,29.297,-22.949,70.801,0
1571370197.175,4.395,39.062,29.297,-20.020,88.379,0
1571370197.179,87.402,36.621,29.785,68.848,73.730,0
1571370197.183,55.176,40.039,29.785,78.125,92.773,0
1571370197.187,-25.879,41.016,30.273,-5.859,11.230,0
1571370197.191,-7.324,36.621,32.715,-26.855,-20.020,0
1571370197.195,68.359,35.645,32.227,44.922,36.621,0
1571370197.199,70.801,40.039,30.762,96.191,-10.254,0
1571370197.202,-3.418,39.062,32.227,32.715,-14.160,0
1571370197.206,-18.066,38.574,32.715,-33.691,16.113,0
1571370197.210,61.523,40.039,32.715,31.250,-24.902,0
1571370197.214,96.680,37.598,34.668,106.445,1.953,0
1571370197.218,15.137,36.133,34.668,59.082,29.785,0
1571370197.216,-28.809,37.598,33.203,-34.668,14.648,0
1571370197.220,40.039,38.086,30.762,16.602,-23.926,0
1571370197.224,98.145,39.551,31.250,99.609,-21.484,0
1571370197.228,40.039,40.039,30.762,70.312,29.785,0
1571370197.232,-23.926,39.551,25.879,-16.113,4.395,0
1571370197.236,20.508,39.062,26.855,1.953,20.020,0
1571370197.240,90.820,38.574,31.738,76.660,38.574,0
1571370197.243,62.988,39.551,31.250,90.332,1.465,0
1571370197.247,-15.137,40.039,27.344,14.648,26.855,0
1571370197.251,-2.441,40.039,28.809,-15.137,33.691,0
1571370197.255,79.102,40.527,32.227,50.781,22.461,0
1571370197.259,88.867,40.527,32.227,109.375,35.645,0
1571370197.275,7.324,40.039,28.809,48.340,14.648,0
1571370197.279,-16.113,40.039,27.344,-30.273,-10.254,0
1571370197.283,57.129,38.086,29.785,36.133,43.945,0
1571370197.287,94.238,38.086,29.297,110.352,78.613,0
1571370197.291,23.926,41.992,26.367,63.965,23.438,0
1571370197.295,-28.320,41.992,26.367,-25.391,-10.254,0
1571370197.299,35.645,41.992,29.297,19.531,44.434,0
1571370197.302,102.051,41.992,31.250,100.098,41.016,0
1571370197.306,47.363,41.016,31.738,83.496,37.598,0
1571370197.310,-22.949,39.551,30.762,-3.906,47.363,0
1571370197.314,11.719,38.086,31.250,-2.930,3.418,0
1571370197.318,88.379,38.574,33.203,72.266,0.488,0
1571370197.315,75.195,39.062,32.227,103.516,17.578,0
1571370197.319,-8.301,40.527,29.785,25.391,39.551,0
1571370197.323,-9.277,41.016,29.297,-22.461,32.227,0
1571370197.327,67.383,37.598,30.273,46.387,-10.742,0
1571370197.331,86.914,38.086,31.738,108.887,25.879,0
1571370197.335,13.184,41.016,32.227,55.176,46.387,0
1571370197.339,-22.461,38.086,29.297,-30.273,81.055,0
1571370197.342,44.434,37.598,29.297,25.391,48.828,0
1571370197.346,91.797,40.039,31.250,106.445,6.836,0
1571370197.350,26.367,37.109,30.273,65.918,13.672,0
1571370197.354,-35.645,36.133,31.738,-21.973,16.113,0
1571370197.358,19.531,40.527,34.180,19.043,-13.184,0
1571370197.375,93.262,39.551,32.715,104.980,-18.066,0
1571370197.379,54.199,39.062,29.297,99.609,25.391,0
1571370197.383,-17.578,40.527,27.344,9.277,54.199,0
1571370197.387,5.859,37.598,30.273,-1.465,59.082,0
1571370197.391,80.566,36.621,32.227,68.359,24.414,0
1571370197.395,77.637,38.086,30.762,106.934,20.020,0
1571370197.399,-1.465,38.574,28.320,37.109,67.871,0
1571370197.402,-13.184,40.039,27.832,-24.902,31.738,0
1571370197.406,70.801,40.527,32.227,41.504,27.344,0
1571370197.410,104.492,39.551,31.738,111.816,81.543,0
1571370197.414,27.344,37.598,31.250,55.664,46.387,0
1571370197.418,-17.578,37.109,34.180,-34.668,7.812,0
1571370197.415,42.969,36.621,34.180,22.461,17.578,0
1571370197.419,97.656,36.133,35.156,102.539,75.684,0
1571370197.423,39.062,37.109,35.156,66.895,50.293,0
1571370197.427,-29.297,36.133,36.133,-20.020,22.949,0
1571370197.431,18.555,35.645,35.645,6.836,11.719,0
1571370197.435,92.285,36.133,35.156,83.496,22.461,0
1571370197.439,58.594,39.062,34.180,88.867,46.387,0
1571370197.442,-16.113,39.062,30.762,6.348,57.129,0
1571370197.446,-3.906,37.598,34.668,-13.672,49.805,0
1571370197.450,78.125,37.598,35.156,60.547,4.395,0
1571370197.454,83.984,37.598,33.203,107.910,11.230,0
1571370197.458,0.488,38.574,35.645,40.039,25.879,0
1571370197.455,-14.160,40.039,33.691,-27.832,32.715,0
1571370197.459,66.895,40.527,30.762,39.551,20.508,0
1571370197.463,106.445,40.039,30.273,112.793,45.898,0
1571370197.467,29.785,40.039,28.320,62.988,-2.930,0
1571370197.471,-22.949,40.039,26.855,-33.203,12.207,0
1571370197.475,40.527,36.621,28.809,13.672,82.520,0
1571370197.479,100.586,33.691,30.762,95.703,29.785,0
1571370197.482,45.410,37.109,31.250,69.336,33.203,0
1571370197.486,-23.926,39.551,32.715,-17.578,19.531,0
1571370197.490,19.043,35.645,35.156,-5.371,13.184,0
1571370197.494,97.656,36.133,37.109,72.754,46.387,0
1571370197.498,77.637,37.109,38.086,100.586,21.973,0
1571370197.515,-5.859,33.691,36.621,20.996,-30.762,0
1571370197.519,-6.348,34.180,35.645,-19.043,7.812,0
1571370197.523,72.754,35.156,36.621,51.270,94.727,0
1571370197.527,84.961,33.691,37.109,109.863,48.828,0
1571370197.531,2.441,33.691,36.133,55.664,11.230,0
1571370197.535,-21.973,34.180,37.109,-18.555,44.922,0
1571370197.539,57.617,32.227,38.086,44.434,49.805,0
1571370197.542,104.004,32.227,36.133,113.281,83.008,0
1571370197.546,29.785,33.691,36.621,67.383,46.875,0
1571370197.550,-26.855,34.180,35.156,-16.113,-8.789,0
1571370197.554,36.133,37.109,33.691,24.414,41.504,0
1571370197.558,102.051,39.551,33.203,104.004,51.270,0
1571370197.555,56.152,40.527,32.227,86.914,28.809,0
1571370197.559,-14.648,37.598,31.250,-7.324,14.160,0
1571370197.563,18.066,36.621,30.273,-4.883,12.695,0
1571370197.567,98.633,40.527,30.273,69.336,57.617,0
1571370197.571,83.008,40.039,33.691,97.168,46.875,0
1571370197.575,-1.465,38.574,29.297,20.996,11.230,0
1571370197.579,-7.324,39.551,27.344,-31.738,28.320,0
1571370197.582,66.895,40.527,32.227,39.062,7.812,0
1571370197.586,89.355,40.039,33.203,103.027,75.195,0
1571370197.590,11.719,40.039,34.180,48.828,125.977,0
1571370197.594,-29.297,40.039,35.156,-38.574,104.492,0
1571370197.598,44.434,39.062,35.645,13.672,60.547,0
1571370197.595,103.516,38.086,35.156,104.492,76.660,0
1571370197.599,35.645,39.062,34.668,65.918,42.969,0
1571370197.603,-26.367,39.062,34.180,-26.367,-41.016,0
1571370197.607,29.785,40.527,33.203,7.324,-2.930,0
1571370197.611,99.121,41.504,31.738,82.031,-38.574,0
1571370197.615,56.641,40.527,31.738,83.496,-60.059,0
1571370197.619,-20.020,40.527,31.738,1.465,15.625,0
1571370197.622,7.324,41.016,33.691,-10.742,-16.602,0
1571370197.626,85.938,41.992,33.203,56.641,-6.348,0
1571370197.630,82.031,40.039,31.250,97.656,38.574,0
1571370197.634,0.000,35.645,31.738,33.203,29.297,0
1571370197.638,-17.578,36.621,31.738,-29.785,16.602,0
1571370197.655,58.105,39.062,34.180,38.574,35.645,0
1571370197.659,91.309,37.109,35.156,104.980,71.777,0
1571370197.663,15.625,35.645,34.668,49.316,26.855,0
1571370197.667,-27.832,39.062,33.203,-37.598,-3.418,0
1571370197.671,42.480,39.551,32.715,17.578,2.441,0
1571370197.675,102.539,37.598,32.715,101.074,-12.695,0
1571370197.679,38.574,37.109,30.762,64.941,70.801,0
1571370197.682,-32.227,36.133,27.832,-30.273,87.402,0
1571370197.686,16.602,37.109,31.250,-3.906,2.441,0
1571370197.690,93.262,39.062,33.691,77.148,18.555,0
1571370197.694,64.941,37.598,33.203,90.820,24.414,0
1571370197.698,-13.672,35.645,31.738,9.766,87.402,0
1571370197.695,-0.488,37.109,28.320,-24.414,54.688,0
1571370197.699,82.031,37.598,30.762,47.363,-16.602,0
1571370197.703,90.332,36.621,32.227,102.539,42.969,0
1571370197.707,3.906,37.109,30.762,39.551,-0.488,0
1571370197.711,-26.855,37.598,29.785,-37.109,-13.184,0
1571370197.715,48.340,39.551,31.250,26.367,45.410,0
1571370197.719,96.191,40.527,33.203,110.840,21.484,0
1571370197.722,26.367,41.016,31.250,65.430,15.137,0
1571370197.726,-23.438,42.969,31.250,-27.832,24.902,0
1571370197.730,38.086,43.945,33.691,16.602,33.203,0
1571370197.734,97.168,41.992,33.203,94.238,26.367,0
1571370197.738,46.875,40.527,33.203,71.289,-4.395,0
1571370197.735,-22.949,39.062,30.273,-17.578,-14.160,0
1571370197.739,9.766,40.527,26.367,-7.812,21.973,0
1571370197.743,86.426,39.062,26.367,65.918,28.320,0
1571370197.747,63.965,37.109,27.832,86.426,-41.992,0
1571370197.751,-19.043,39.062,27.344,8.789,-25.391,0
1571370197.755,-15.137,36.621,28.809,-33.203,10.254,0
1571370197.759,65.430,33.691,31.250,37.598,20.508,0
1571370197.762,90.820,34.668,29.785,100.098,15.625,0
1571370197.766,13.672,35.645,29.297,39.551,9.766,0
1571370197.770,-19.531,36.621,27.344,-41.992,6.836,0
1571370197.774,48.828,37.598,25.879,20.508,4.395,0
1571370197.778,89.355,35.645,28.809,94.238,19.531,0
1571370197.795,25.391,36.621,26.367,52.734,-0.488,0
1571370197.799,-31.738,36.621,25.391,-38.086,9.766,0
1571370197.803,20.996,34.180,26.367,1.465,0.977,0
1571370197.807,93.750,33.691,30.762,86.426,0.977,0
1571370197.811,54.199,36.133,33.691,80.566,44.922,0
1571370197.815,-15.137,37.598,30.273,-6.836,65.430,0
1571370197.819,14.160,36.621,30.762,-12.207,-2.930,0
1571370197.822,80.566,36.133,31.250,61.523,7.324,0
1571370197.826,72.266,37.598,31.738,103.027,98.633,0
1571370197.830,-2.441,39.062,29.785,39.062,145.508,0
1571370197.834,-9.766,38.574,28.809,-17.578,59.570,0
1571370197.838,69.336,37.598,32.715,47.852,-27.344,0
1571370197.835,100.098,40.527,32.715,117.676,15.625,0
1571370197.839,28.320,41.992,31.738,64.941,48.828,0
1571370197.843,-13.672,40.039,32.227,-21.973,31.250,0
1571370197.847,51.270,39.551,32.227,31.250,-39.062,0
1571370197.851,104.492,41.016,31.250,115.234,19.531,0
1571370197.855,41.016,40.527,30.273,79.102,63.477,0
1571370197.859,-20.996,41.016,29.297,-16.602,22.949,0
1571370197.862,32.227,39.062,29.785,14.160,37.598,0
1571370197.866,103.516,38.086,33.691,86.426,34.180,0
1571370197.870,62.500,42.480,30.762,85.938,67.871,0
1571370197.874,-12.207,43.457,27.344,1.465,65.918,0
1571370197.878,14.160,41.504,31.738,-19.531,13.672,0
1571370197.875,89.355,42.969,33.691,56.152,44.434,0
1571370197.879,87.402,41.504,32.715,104.492,57.617,0
1571370197.883,4.883,37.598,29.297,38.574,62.500,0
1571370197.887,-16.602,38.574,28.320,-29.785,25.879,0
1571370197.891,60.547,36.621,31.250,39.062,10.254,0
1571370197.895,95.215,36.133,32.227,113.281,11.719,0
1571370197.899,22.949,41.504,32.227,59.082,22.949,0
1571370197.902,-15.137,41.016,31.250,-23.438,81.543,0
1571370197.906,48.828,39.551,31.250,24.902,48.828,0
1571370197.910,104.980,37.598,33.203,100.098,1.953,0
1571370197.914,49.805,37.598,32.715,72.754,63.965,0
1571370197.918,-24.414,38.574,31.250,-21.484,26.367,0
1571370197.935,16.113,36.133,32.715,-2.441,-9.766,0
1571370197.939,89.355,35.645,32.715,75.684,21.973,0
1571370197.943,63.477,35.156,29.785,93.262,15.625,0
1571370197.947,-12.207,33.691,28.320,15.625,53.223,0
1571370197.951,0.977,36.621,29.785,-13.184,81.543,0
1571370197.955,81.543,37.109,31.250,64.453,50.781,0
1571370197.959,89.844,37.109,30.762,117.188,28.809,0
1571370197.962,6.836,38.574,29.785,48.828,32.715,0
1571370197.966,-18.555,38.086,29.785,-25.391,77.148,0
1571370197.970,56.641,40.039,30.273,34.668,25.391,0
1571370197.974,102.539,41.504,30.273,109.375,-11.719,0
1571370197.978,34.668,42.480,29.785,62.012,29.297,0
1571370197.975,-18.066,43.945,30.273,-28.809,47.363,0
1571370197.979,40.039,41.992,32.715,14.648,98.145,0
1571370197.983,99.609,41.016,34.668,91.309,62.012,0
1571370197.987,46.875,38.086,35.156,81.055,35.645,0
1571370197.991,-26.367,35.645,34.668,-6.836,36.133,0
1571370197.995,6.836,36.621,33.691,-7.812,24.414,0
1571370197.999,86.426,38.574,37.109,61.035,41.992,0
1571370198.002,70.312,38.086,38.086,88.867,34.180,0
1571370198.006,-10.742,40.039,34.668,20.996,-17.578,0
1571370198.010,-14.160,40.039,38.574,-31.250,9.766,0
1571370198.014,63.477,37.598,40.527,31.250,64.941,0
1571370198.018,88.379,37.598,36.621,95.703,31.250,0
1571370198.015,12.207,39.062,37.109,42.480,-34.180,0
1571370198.019,-27.344,40.039,39.062,-35.156,-32.715,0
1571370198.023,40.527,39.062,38.574,23.438,19.531,0
1571370198.027,93.750,38.574,40.527,100.586,26.855,0
1571370198.031,27.832,36.621,38.086,59.082,24.902,0
1571370198.035,-34.180,36.133,35.156,-36.133,0.000,0
1571370198.039,21.973,36.133,36.133,2.930,21.484,0
1571370198.042,94.727,36.621,35.645,87.402,48.340,0
1571370198.046,49.805,38.086,36.133,78.125,25.391,0
1571370198.050,-25.391,37.109,36.621,-8.301,5.371,0
1571370198.054,6.836,38.086,34.180,-12.207,-0.977,0
1571370198.058,88.379,38.574,34.180,65.918,15.625,0
1571370198.075,84.473,37.598,31.738,109.375,72.266,0
1571370198.079,-1.465,35.156,33.203,41.016,83.008,0
1571370198.083,-17.090,33.691,35.645,-24.414,72.754,0
1571370198.087,68.848,35.645,36.133,41.992,66.895,0
1571370198.091,104.492,37.598,39.062,119.141,27.832,0
1571370198.095,21.484,38.086,37.109,62.988,18.555,0
1571370198.099,-25.391,38.574,35.645,-33.203,27.832,0
1571370198.102,37.598,39.062,36.133,15.137,20.508,0
1571370198.106,89.844,36.621,35.645,90.820,-47.363,0
1571370198.110,30.273,37.598,33.691,58.594,-81.543,0
1571370198.114,-32.227,38.574,32.227,-36.621,23.926,0
1571370198.118,13.672,33.691,33.691,-13.672,69.824,0
1571370198.115,80.566,33.203,34.180,63.965,34.668,0
1571370198.119,48.828,40.039,32.227,73.242,38.574,0
1571370198.123,-26.855,39.551,30.273,0.000,33.203,0
1571370198.127,-2.930,37.598,33.691,-20.508,11.719,0
1571370198.131,81.543,37.109,36.133,49.316,26.855,0
1571370198.135,84.961,36.621,36.133,93.262,80.078,0
1571370198.139,7.324,38.086,34.180,29.785,102.539,0
1571370198.142,-11.230,37.109,30.273,-35.156,0.488,0
1571370198.146,66.406,35.156,31.738,29.785,-28.320,0
1571370198.150,103.027,39.551,32.227,104.492,58.594,0
1571370198.154,23.438,43.945,29.785,50.781,57.617,0
1571370198.158,-28.809,42.480,26.855,-48.828,9.766,0
1571370198.155,31.250,40.527,28.320,5.371,12.207,0
1571370198.159,90.820,40.527,31.738,89.355,40.527,0
1571370198.163,38.574,40.527,29.785,59.082,16.602,0
1571370198.167,-21.973,40.039,28.809,-29.297,62.500,0
1571370198.171,20.508,38.086,31.250,-13.184,46.387,0
1571370198.175,87.891,36.133,31.738,69.336,3.418,0
1571370198.179,63.965,36.133,29.297,95.703,22.949,0
1571370198.182,-15.625,36.621,29.297,20.508,16.602,0
1571370198.186,-7.812,36.621,30.762,-20.996,47.363,0
1571370198.190,70.801,35.645,32.715,53.711,63.477,0
1571370198.194,85.938,35.156,29.785,119.629,13.184,0
1571370198.198,16.602,37.109,26.855,61.035,27.832,0
1571370198.215,-9.766,35.645,29.785,-20.020,56.641,0
1571370198.219,61.035,34.668,29.785,33.691,76.172,0
1571370198.223,103.516,38.574,27.832,109.375,73.242,0
1571370198.227,31.250,37.109,27.344,63.965,82.031,0
1571370198.231,-29.785,36.621,26.855,-33.691,71.777,0
1571370198.235,26.855,37.598,27.832,3.418,32.715,0
1571370198.239,102.539,37.598,29.297,78.613,13.672,0
1571370198.242,56.152,39.551,33.691,71.289,7.812,0
1571370198.246,-18.555,41.992,32.715,-14.160,9.766,0
1571370198.250,19.043,44.434,32.715,-14.160,45.410,0
1571370198.254,97.168,41.016,35.645,67.871,54.688,0
1571370198.258,80.078,40.527,35.156,96.680,0.977,0
1571370198.256,0.977,40.039,35.645,27.344,1.953,0
1571370198.260,1.465,40.527,35.156,-16.113,-3.906,0
1571370198.264,82.031,41.016,36.133,47.852,1.953,0
1571370198.268,103.516,40.527,35.645,115.234,58.594,0
1571370198.272,25.391,40.527,30.762,53.223,59.570,0
1571370198.276,-10.742,42.480,28.809,-33.203,26.855,0
1571370198.280,58.594,45.410,31.250,31.738,16.113,0
1571370198.283,104.004,44.922,31.738,112.305,31.250,0
1571370198.287,33.203,42.969,28.320,74.707,52.246,0
1571370198.291,-33.203,41.504,27.344,-26.855,70.312,0
1571370198.295,20.508,41.992,30.273,5.371,60.547,0
1571370198.299,92.285,38.574,32.227,93.750,29.785,0
1571370198.295,56.152,36.621,31.738,94.727,54.199,0
1571370198.299,-15.137,37.598,30.762,14.160,51.270,0
1571370198.303,0.000,35.156,31.250,-4.395,39.551,0
1571370198.307,69.824,32.227,33.691,67.383,23.438,0
1571370198.311,66.895,32.715,37.109,111.816,17.090,0
1571370198.315,-8.789,34.668,36.621,46.875,63.477,0
1571370198.319,-17.578,33.203,38.086,-9.766,66.406,0
1571370198.322,63.965,33.691,39.551,56.641,8.789,0
1571370198.326,107.422,33.691,38.086,130.371,-28.809,0
1571370198.330,37.598,34.180,35.645,80.566,21.973,0
1571370198.334,-11.719,37.109,33.691,-11.230,54.199,0
1571370198.338,59.082,38.086,34.180,39.062,2.930,0
1571370198.355,118.652,38.574,33.203,116.211,23.438,0
1571370198.359,57.617,41.504,33.203,83.984,53.711,0
1571370198.363,-10.254,40.527,30.762,-13.672,31.250,0
1571370198.367,30.273,37.109,32.227,0.000,25.391,0
1571370198.371,99.121,38.086,32.715,73.242,41.016,0
1571370198.375,65.918,39.551,31.250,75.684,83.496,0
1571370198.379,-15.137,39.062,32.227,-10.254,-0.977,0
1571370198.382,-2.930,38.574,34.668,-37.109,1.465,0
1571370198.386,72.266,37.109,38.086,35.156,54.199,0
1571370198.390,75.684,35.645,39.062,91.309,13.184,0
1571370198.394,-2.441,35.156,37.598,38.086,-1.953,0
1571370198.398,-25.879,34.668,36.621,-28.320,-32.227,0
1571370198.395,52.246,35.156,36.133,40.039,-12.695,0
1571370198.399,99.609,34.668,35.156,122.070,33.203,0
1571370198.403,29.297,37.109,34.668,77.637,15.137,0
1571370198.407,-24.414,40.527,35.645,-14.160,17.090,0
1571370198.411,34.668,37.109,36.621,31.250,24.902,0
1571370198.415,96.191,36.133,37.109,107.910,21.484,0
1571370198.419,41.992,38.086,36.133,85.938,-20.020,0
1571370198.422,-30.273,36.133,37.598,-6.348,-3.418,0
1571370198.426,8.301,34.668,40.039,-0.977,74.219,0
1571370198.430,88.867,37.598,39.062,67.871,30.273,0
1571370198.434,72.266,39.551,38.086,89.844,39.062,0
1571370198.438,-10.742,38.086,39.062,18.555,48.828,0
1571370198.435,-14.160,37.598,40.039,-25.391,20.020,0
1571370198.439,61.035,39.062,38.574,44.434,45.898,0
1571370198.443,76.172,37.598,35.645,107.422,21.484,0
1571370198.447,-1.953,38.086,33.691,43.457,-29.785,0
1571370198.451,-27.344,41.992,30.273,-37.109,-50.781,0
1571370198.455,51.758,43.945,32.227,30.273,2.930,0
1571370198.459,109.863,41.992,34.180,109.863,56.152,0
1571370198.462,45.898,42.969,30.762,71.289,34.180,0
1571370198.466,-14.160,44.922,29.297,-20.020,18.555,0
1571370198.470,41.504,42.480,31.250,22.461,28.809,0
1571370198.474,106.445,41.504,32.227,104.492,77.637,0
1571370198.478,58.105,42.969,29.785,91.309,44.434,0
1571370198.495,-21.973,42.480,28.809,2.930,-8.789,0
1571370198.499,5.371,39.551,29.785,-6.348,29.297,0
1571370198.503,83.496,39.551,33.691,67.383,74.707,0
1571370198.507,71.289,38.086,35.645,106.445,108.887,0
1571370198.511,-14.648,39.062,34.180,35.645,66.895,0
1571370198.515,-25.391,41.016,35.645,-15.137,59.082,0
1571370198.519,57.129,39.551,38.086,46.875,91.309,0
1571370198.522,86.426,40.039,37.109,111.328,67.871,0
1571370198.526,9.277,40.039,34.668,55.176,30.762,0
1571370198.530,-29.297,38.574,35.645,-30.273,33.203,0
1571370198.534,40.527,38.574,38.086,26.855,40.527,0
1571370198.538,98.633,40.039,37.109,104.980,19.531,0
1571370198.535,41.992,39.551,29.785,78.125,21.973,0
1571370198.539,-23.438,39.551,27.832,-17.090,16.602,0
1571370198.543,25.391,41.016,29.297,3.906,34.668,0
1571370198.547,94.238,42.480,30.273,85.449,48.828,0
1571370198.551,56.641,43.457,29.785,82.520,74.707,0
1571370198.555,-14.160,42.480,26.855,-3.418,62.988,0
1571370198.559,12.207,42.969,26.855,-26.367,-20.508,0
1571370198.562,89.844,41.504,29.297,44.434,-10.742,0
1571370198.566,87.891,41.504,29.297,101.562,75.684,0
1571370198.570,5.371,41.992,28.809,28.809,34.180,0
1571370198.574,-12.207,40.527,29.785,-37.598,-22.461,0
1571370198.578,66.895,39.551,28.320,35.645,24.414,0
1571370198.575,102.051,36.621,30.273,104.492,31.250,0
1571370198.579,25.879,38.086,32.227,55.664,55.176,0
1571370198.583,-22.949,38.086,27.344,-36.621,48.340,0
1571370198.587,43.945,36.621,29.297,13.672,13.672,0
1571370198.591,104.980,39.062,33.691,94.238,11.230,0
1571370198.595,43.457,39.551,32.227,65.430,56.641,0
1571370198.599,-23.926,37.109,32.227,-17.090,70.801,0
1571370198.602,20.996,39.551,35.156,-3.418,-11.719,0
1571370198.606,89.355,39.551,40.039,68.848,4.395,0
1571370198.610,55.176,36.621,39.062,85.449,45.410,0
1571370198.614,-24.902,38.086,36.133,6.348,34.668,0
1571370198.618,-10.254,36.621,36.621,-24.414,13.672,0
1571370198.635,68.848,35.156,37.598,43.457,46.387,0
1571370198.639,73.242,38.574,37.109,99.121,41.016,0
1571370198.643,-8.301,40.527,33.691,36.133,11.719,0
1571370198.647,-28.320,39.062,32.715,-40.039,56.152,0
1571370198.651,49.805,39.551,34.668,26.367,18.066,0
1571370198.655,93.750,42.480,33.203,99.609,-28.320,0
1571370198.659,24.414,39.551,35.156,55.664,48.828,0
1571370198.662,-26.367,39.062,35.645,-34.180,116.699,0
1571370198.666,33.691,39.551,31.250,7.812,33.203,0
1571370198.670,96.191,36.133,32.227,86.914,27.344,0
1571370198.674,44.434,35.156,32.715,69.336,56.641,0
1571370198.678,-24.414,36.133,33.203,-18.066,27.832,0
1571370198.675,13.672,33.203,39.062,-9.277,58.105,0
1571370198.679,84.473,34.180,39.551,67.871,42.480,0
1571370198.683,69.336,36.133,35.156,100.098,-15.625,0
1571370198.687,-3.418,37.598,33.691,29.297,-16.113,0
1571370198.691,-0.977,38.574,33.691,-17.578,-9.277,0
1571370198.695,71.777,35.156,34.668,47.363,53.223,0
1571370198.699,89.355,35.156,32.715,109.863,41.016,0
1571370198.702,15.625,38.086,30.273,59.082,-37.598,0
1571370198.706,-20.020,38.574,28.809,-20.508,8.789,0
1571370198.710,47.363,37.109,30.762,31.738,-20.020,0
1571370198.714,98.633,34.668,34.668,105.469,-28.809,0
1571370198.718,33.203,35.156,33.203,68.848,48.828,0
1571370198.715,-25.391,35.156,32.227,-18.555,39.062,0
1571370198.719,28.320,32.715,33.691,17.578,56.641,0
1571370198.723,90.332,36.621,34.180,93.750,101.562,0
1571370198.727,48.828,39.551,32.227,83.984,83.008,0
1571370198.731,-22.949,38.086,30.762,-1.465,42.969,0
1571370198.735,5.371,37.109,30.762,-5.859,91.309,0
1571370198.739,85.449,36.133,32.715,65.918,108.887,0
1571370198.742,83.008,36.621,32.715,104.004,89.844,0
1571370198.746,12.207,37.598,33.691,35.156,27.832,0
1571370198.750,2.930,37.598,34.180,-13.672,9.277,0
1571370198.754,73.242,39.062,34.668,61.035,5.859,0
1571370198.758,104.980,40.039,35.156,129.883,-35.645,0
1571370198.775,30.762,41.016,32.715,71.289,16.113,0
1571370198.779,-14.648,41.016,32.715,-24.902,59.570,0
1571370198.783,58.105,42.480,34.668,28.320,41.016,0
1571370198.787,111.816,39.551,33.691,106.934,48.340,0
1571370198.791,40.527,37.598,29.785,71.777,6.836,0
1571370198.795,-24.414,38.574,30.762,-19.043,-1.465,0
1571370198.799,26.367,39.062,30.273,0.488,35.645,0
1571370198.802,94.727,40.039,31.738,79.102,-5.859,0
1571370198.806,57.129,40.039,30.762,88.379,23.926,0
1571370198.810,-19.531,37.598,26.855,7.324,41.504,0
1571370198.814,3.418,34.668,26.367,-18.066,21.484,0
1571370198.818,80.078,37.598,28.320,47.363,24.414,0
1571370198.815,79.102,35.645,27.832,103.027,70.801,0
1571370198.819,0.977,34.180,27.344,36.133,27.344,0
1571370198.823,-16.113,38.574,27.344,-34.180,-16.602,0
1571370198.827,61.523,37.109,26.855,35.645,8.301,0
1571370198.831,97.168,35.645,29.785,107.910,8.789,0
1571370198.835,25.879,37.598,30.273,59.570,-3.906,0
1571370198.839,-23.926,36.621,30.273,-31.250,-33.691,0
1571370198.842,39.551,38.574,34.180,16.602,-2.441,0
1571370198.846,96.680,40.039,35.645,97.656,44.434,0
1571370198.850,36.621,41.504,31.738,67.383,8.789,0
1571370198.854,-23.926,39.062,32.227,-15.137,5.371,0
1571370198.858,18.555,36.621,34.180,1.465,47.363,0
1571370198.895,96.191,38.086,32.715,74.707,77.148,0
1571370198.899,74.707,39.062,32.227,100.098,36.133,0
1571370198.903,-10.742,37.598,32.227,18.555,-3.418,0
1571370198.907,-2.441,36.133,32.227,-19.531,33.203,0
1571370198.911,80.566,39.062,30.273,52.246,64.941,0
1571370198.915,97.168,43.457,29.785,113.770,44.434,0
1571370198.919,14.648,42.969,31.738,53.223,33.203,0
1571370198.922,-19.043,41.992,34.668,-30.762,65.918,0
1571370198.926,58.105,43.457,37.109,31.250,43.457,0
1571370198.930,105.469,40.527,37.109,106.445,37.109,0
1571370198.934,36.133,39.062,36.621,61.035,36.133,0
1571370198.938,-11.230,40.039,34.180,-22.949,50.293,0
1571370198.917,36.133,37.598,35.156,10.254,34.180,0
1571370198.921,80.566,39.062,37.598,69.336,33.691,0
1571370198.925,34.668,38.574,36.133,60.059,25.391,0
1571370198.929,-18.066,39.062,35.645,-10.254,-63.965,0
1571370198.933,17.578,38.574,37.598,-7.324,-37.109,0
1571370198.937,83.984,37.598,40.039,69.336,29.785,0
1571370198.941,72.266,36.621,38.574,102.539,13.672,0
1571370198.944,-5.859,35.156,37.109,29.785,0.488,0
1571370198.948,-8.789,35.156,39.062,-18.555,32.715,0
1571370198.952,67.383,34.668,39.551,49.805,30.762,0
1571370198.956,93.262,36.621,35.645,112.793,3.906,0
1571370198.960,17.090,38.086,31.250,57.617,7.324,0
1571370198.955,-20.020,37.598,31.738,-29.297,33.203,0
1571370198.959,55.176,39.062,35.156,27.832,66.895,0
1571370198.963,106.934,39.551,37.598,107.422,72.754,0
1571370198.967,35.645,36.621,36.621,66.895,39.551,0
1571370198.971,-27.344,33.691,35.156,-25.391,52.246,0
1571370198.975,33.691,33.691,36.133,14.648,86.426,0
1571370198.979,104.980,35.645,38.086,99.121,63.965,0
1571370198.982,63.477,37.109,35.645,95.215,30.273,0
1571370198.986,-10.742,40.039,32.227,4.883,40.039,0
1571370198.990,12.207,41.504,35.156,-21.973,-30.273,0
1571370198.994,88.867,39.062,40.527,54.688,39.062,0
1571370198.998,83.008,38.574,40.039,107.422,115.234,0
1571370198.996,0.977,35.156,37.598,38.086,79.102,0
1571370199.000,-10.254,34.180,37.109,-27.344,84.961,0
1571370199.004,69.824,37.598,39.062,38.574,81.055,0
1571370199.008,100.586,39.062,39.062,115.723,65.918,0
1571370199.012,24.414,38.574,36.133,67.871,-6.836,0
1571370199.016,-16.602,39.551,35.156,-21.973,-19.531,0
1571370199.020,56.641,39.551,36.621,29.785,45.898,0
1571370199.023,111.816,38.086,40.527,106.445,28.320,0
1571370199.027,49.316,38.086,41.016,80.566,27.832,0
1571370199.031,-11.230,40.039,37.598,-0.488,17.578,0
1571370199.035,35.645,41.992,37.598,16.602,-26.855,0
1571370199.039,101.074,40.527,38.574,89.844,2.441,0
1571370199.055,67.871,39.551,37.109,97.656,14.648,0
1571370199.059,-7.324,41.504,36.133,16.602,14.648,0
1571370199.063,10.254,40.527,35.645,-13.184,27.344,0
1571370199.067,84.473,40.039,35.156,53.223,77.637,0
1571370199.071,82.031,39.551,36.621,105.957,62.500,0
1571370199.075,-3.906,38.574,35.645,42.480,20.020,0
1571370199.079,-25.391,38.086,37.109,-32.715,54.688,0
1571370199.082,58.105,39.062,38.086,31.738,42.969,0
1571370199.086,104.980,41.992,35.645,105.957,11.230,0
1571370199.090,35.645,43.457,35.156,61.035,-38.086,0
1571370199.094,-17.090,44.434,36.133,-25.879,-73.730,0
1571370199.098,46.875,41.992,36.133,18.555,-19.531,0
1571370199.095,109.375,41.504,36.133,104.492,6.836,0
1571370199.099,53.711,43.457,36.133,79.590,51.270,0
1571370199.103,-19.043,41.016,36.133,-24.414,33.691,0
1571370199.107,20.508,41.016,32.715,-10.254,16.602,0
1571370199.111,96.680,41.504,31.738,69.824,61.035,0
1571370199.115,71.289,38.086,32.227,86.426,19.043,0
1571370199.119,-12.695,37.109,31.250,10.254,30.273,0
1571370199.122,-9.277,37.598,33.203,-28.809,22.461,0
1571370199.126,66.895,37.109,34.180,45.410,57.129,0
1571370199.130,82.031,35.645,34.668,109.863,93.750,0
1571370199.134,7.812,36.133,33.203,52.734,36.133,0
1571370199.138,-21.973,37.598,32.715,-30.273,40.527,0
1571370199.155,47.852,35.645,33.203,25.879,7.812,0
1571370199.159,90.332,36.133,35.645,102.051,3.418,0
1571370199.163,20.996,36.621,35.645,59.082,30.762,0
1571370199.167,-35.645,36.621,34.180,-27.832,41.016,0
1571370199.171,20.020,35.156,35.156,5.859,40.527,0
1571370199.175,89.355,36.133,36.621,78.125,28.809,0
1571370199.179,46.387,37.598,36.621,72.754,37.598,0
1571370199.182,-31.250,38.086,37.109,-20.508,-1.953,0
1571370199.186,0.488,37.598,35.645,-18.555,15.137,0
1571370199.190,81.055,36.133,34.668,63.477,70.312,0
1571370199.194,73.242,37.109,36.621,95.703,68.359,0
1571370199.198,-4.883,38.574,34.180,27.344,34.668,0
1571370199.216,-9.277,38.086,32.715,-27.832,5.859,0
1571370199.220,68.359,37.109,35.645,37.598,15.625,0
1571370199.224,92.773,35.156,36.133,104.492,53.711,0
1571370199.228,16.113,35.645,34.180,47.363,12.695,0
1571370199.232,-24.414,36.621,32.227,-38.574,-44.434,0
1571370199.236,45.410,35.156,31.738,21.484,11.230,0
1571370199.240,99.609,35.156,32.715,100.586,49.805,0
1571370199.243,35.156,33.691,29.785,62.500,35.156,0
1571370199.247,-25.391,36.621,29.785,-22.949,9.277,0
1571370199.251,29.785,39.062,31.250,14.160,3.906,0
1571370199.255,98.633,37.598,33.203,85.938,50.781,0
1571370199.259,56.641,35.156,35.645,86.914,40.527,0
1571370199.236,-20.020,34.668,34.668,1.953,-29.785,0
1571370199.240,2.441,37.109,36.621,-23.438,-56.152,0
1571370199.244,79.102,37.109,37.598,57.129,2.441,0
1571370199.248,78.613,37.109,36.621,107.422,40.039,0
1571370199.252,2.441,38.086,38.574,39.062,11.230,0
1571370199.256,-16.113,37.598,35.645,-32.715,2.441,0
1571370199.260,62.988,37.109,36.621,35.156,-2.930,0
1571370199.263,106.934,38.086,39.551,115.723,0.000,0
1571370199.267,32.715,40.039,36.621,62.012,40.527,0
1571370199.271,-23.438,39.551,37.109,-36.621,56.641,0
1571370199.275,34.180,38.086,38.574,8.789,31.250,0
1571370199.279,90.332,38.574,40.039,90.820,42.480,0
1571370199.296,34.180,40.039,37.598,64.941,81.543,0
1571370199.300,-36.133,39.062,33.691,-36.133,8.301,0
1571370199.304,7.324,36.133,36.621,-20.508,-33.203,0
1571370199.308,89.355,35.156,38.574,62.988,48.340,0
1571370199.312,64.941,34.180,34.668,80.566,24.414,0
1571370199.316,-12.695,34.180,32.715,5.859,-31.738,0
1571370199.320,-2.441,34.668,32.715,-27.832,27.832,0
1571370199.323,77.637,33.203,35.645,43.457,56.152,0
1571370199.327,85.449,32.227,35.645,100.586,33.691,0
1571370199.331,10.254,35.645,35.156,41.504,66.895,0
1571370199.335,-7.812,36.621,37.598,-28.809,81.543,0
1571370199.339,60.059,33.691,37.109,29.297,24.414,0
1571370199.336,98.145,35.645,37.598,102.051,47.852,0
1571370199.340,26.367,38.086,39.551,56.152,90.820,0
1571370199.344,-24.414,39.551,38.574,-33.203,60.059,0
1571370199.348,39.551,40.039,39.062,18.555,34.668,0
1571370199.352,102.051,41.016,42.480,104.004,46.875,0
1571370199.356,52.734,40.527,41.504,86.426,21.484,0
1571370199.360,-13.672,42.480,37.109,-2.930,-11.230,0
1571370199.363,21.973,40.527,38.086,0.000,-20.508,0
1571370199.367,88.867,38.086,40.039,72.754,7.812,0
1571370199.371,66.406,40.039,36.133,103.516,14.648,0
1571370199.375,-13.184,40.039,33.691,24.414,41.992,0
1571370199.379,-9.766,41.992,32.715,-24.414,91.309,0
1571370199.377,76.660,42.969,33.691,48.828,27.344,0
1571370199.381,99.609,42.480,35.156,111.816,-18.066,0
1571370199.385,20.996,41.992,33.691,58.105,-36.133,0
1571370199.389,-13.672,40.039,35.156,-24.414,11.230,0
1571370199.393,55.664,39.551,37.109,28.809,41.992,0
1571370199.397,100.586,40.039,37.109,107.422,11.719,0
1571370199.401,36.621,36.621,36.133,70.801,58.594,0
1571370199.404,-26.855,35.156,35.156,-24.902,16.113,0
1571370199.408,21.973,36.621,36.621,5.371,-23.926,0
1571370199.412,94.727,39.062,40.039,82.520,-1.465,0
1571370199.416,49.805,38.574,39.551,72.754,19.043,0
1571370199.420,-22.949,36.621,36.621,-12.695,29.297,0
1571370199.436,2.930,34.668,36.133,-16.602,54.199,0
1571370199.440,75.195,33.691,35.156,51.270,85.449,0
1571370199.444,71.777,36.621,33.691,84.473,63.965,0
1571370199.448,-1.465,40.527,32.715,23.926,25.391,0
1571370199.452,-14.160,38.574,31.738,-36.133,-15.625,0
1571370199.456,64.941,37.598,33.691,25.879,19.043,0
1571370199.460,102.051,36.133,34.180,96.680,65.918,0
1571370199.463,16.602,35.645,30.762,36.133,69.336,0
1571370199.467,-30.273,36.621,30.762,-42.480,41.992,0
1571370199.471,45.410,37.598,30.273,26.367,12.207,0
1571370199.475,100.586,38.086,32.715,107.910,23.438,0
1571370199.479,36.621,37.598,30.762,70.801,39.062,0
1571370199.476,-26.367,37.109,24.902,-25.879,52.246,0
1571370199.480,24.414,37.109,29.297,1.953,39.062,0
1571370199.484,95.215,38.574,31.250,77.148,55.176,0
1571370199.488,59.570,36.133,26.367,75.684,65.918,0
1571370199.492,-20.996,33.203,27.344,-7.324,99.609,0
1571370199.496,-6.836,35.156,28.320,-26.855,121.582,0
1571370199.500,77.148,35.645,27.832,46.875,12.695,0
1571370199.503,82.520,37.109,30.273,96.680,-16.602,0
1571370199.507,5.371,40.039,30.273,37.109,10.254,0
1571370199.511,-15.137,40.527,31.738,-30.273,17.090,0
1571370199.515,61.523,39.551,32.227,28.809,27.832,0
1571370199.519,97.168,36.621,31.738,104.492,12.207,0
1571370199.516,17.578,37.598,30.273,56.152,27.344,0
1571370199.520,-33.203,39.062,28.320,-36.133,55.664,0
1571370199.524,30.273,38.086,27.832,15.625,15.137,0
1571370199.528,88.379,34.668,26.855,89.844,42.969,0
1571370199.532,30.762,34.180,25.879,64.453,27.832,0
1571370199.536,-31.250,37.598,26.367,-22.949,-29.297,0
1571370199.540,16.113,39.551,28.809,-9.766,13.672,0
1571370199.543,85.938,36.621,32.715,65.918,16.602,0
1571370199.547,59.082,37.109,31.738,79.590,-31.738,0
1571370199.551,-20.508,37.598,33.203,3.906,34.668,0
1571370199.555,-12.207,34.668,34.668,-30.273,40.039,0
1571370199.559,70.801,34.668,31.738,43.457,6.836,0
1571370199.575,81.543,35.645,31.738,98.633,82.031,0
1571370199.579,0.488,36.133,30.762,34.668,73.242,0
1571370199.583,-22.949,36.621,30.273,-41.992,5.371,0
1571370199.587,50.293,38.574,32.227,17.578,49.805,0
1571370199.591,91.797,37.598,33.203,96.191,100.098,0
1571370199.595,24.902,35.645,32.715,52.246,61.035,0
1571370199.599,-32.227,36.133,30.762,-46.875,23.926,0
1571370199.602,28.809,36.621,31.738,-3.418,10.742,0
1571370199.606,99.121,36.133,32.715,85.449,0.977,0
1571370199.610,48.828,35.645,28.809,76.172,3.418,0
1571370199.614,-24.902,34.668,30.273,-15.137,30.762,0
1571370199.618,8.301,34.668,34.180,-16.602,36.621,0
1571370199.616,85.938,33.203,34.180,63.965,13.184,0
1571370199.620,74.219,33.203,32.715,91.309,-11.230,0
1571370199.624,-4.883,36.133,31.250,15.137,0.000,0
1571370199.628,-7.812,34.180,32.227,-36.133,24.902,0
1571370199.632,71.777,33.203,34.668,33.691,3.418,0
1571370199.636,97.656,34.180,34.668,108.398,11.230,0
1571370199.640,26.367,34.180,34.180,62.500,14.648,0
1571370199.643,-15.137,36.621,39.062,-29.297,2.441,0
1571370199.647,47.363,35.645,39.062,10.254,27.832,0
1571370199.651,100.098,38.086,34.180,89.355,59.082,0
1571370199.655,34.668,41.016,32.715,53.711,81.543,0
1571370199.659,-24.414,41.016,33.203,-41.504,41.016,0
1571370199.656,24.902,41.016,35.645,-10.254,40.527,0
1571370199.660,93.750,40.527,38.086,69.824,55.176,0
1571370199.664,51.270,40.527,35.645,67.383,42.969,0
1571370199.668,-24.414,40.527,33.691,-14.160,68.359,0
1571370199.672,6.348,38.574,34.180,-20.508,-5.859,0
1571370199.676,87.891,40.039,34.668,57.617,-67.871,0
1571370199.680,84.961,41.504,35.156,97.656,-7.812,0
1571370199.683,1.953,40.039,34.180,28.320,2.930,0
1571370199.687,-7.812,41.504,32.227,-27.832,-42.969,0
1571370199.691,69.336,44.434,34.180,41.504,38.574,0
1571370199.695,99.121,42.969,34.668,115.723,73.242,0
1571370199.699,24.902,39.551,33.691,62.988,19.043,0
1571370199.716,-19.531,38.574,34.180,-26.855,53.711,0
1571370199.720,51.758,37.109,35.645,29.297,48.828,0
1571370199.724,109.863,36.621,36.133,115.234,19.043,0
1571370199.728,44.922,38.574,36.621,85.449,51.758,0
1571370199.732,-23.438,40.527,33.203,-13.184,62.500,0
1571370199.736,25.391,41.016,34.668,6.348,29.785,0
1571370199.740,100.098,40.039,39.062,80.566,38.086,0
1571370199.743,64.941,37.598,36.621,83.984,29.297,0
1571370199.747,-17.578,35.645,33.691,7.812,30.273,0
1571370199.751,1.465,36.621,34.668,-19.531,86.914,0
1571370199.755,76.660,36.621,37.109,50.781,71.777,0
1571370199.759,82.031,37.109,37.109,111.816,71.289,0
1571370199.755,2.930,37.598,37.109,50.781,52.734,0
1571370199.759,-26.855,37.598,37.598,-21.973,45.898,0
1571370199.763,53.223,38.086,35.645,39.062,100.586,0
1571370199.767,96.680,37.598,32.715,106.934,24.902,0
1571370199.771,24.902,36.133,31.250,59.082,20.996,0
1571370199.775,-22.949,39.062,29.297,-27.832,47.363,0
1571370199.779,42.480,41.504,31.738,21.484,-20.996,0
1571370199.782,101.562,40.527,32.227,96.191,-16.113,0
1571370199.786,49.805,43.457,30.273,73.730,12.207,0
1571370199.790,-16.113,42.480,29.297,-14.648,31.738,0
1571370199.794,25.391,40.039,30.273,-8.301,26.367,0
1571370199.798,99.609,40.039,29.785,71.289,5.371,0
1571370199.795,71.777,40.039,27.344,97.656,58.594,0
1571370199.799,-6.836,38.086,25.879,26.367,81.543,0
1571370199.803,-2.441,35.645,28.320,-9.277,66.406,0
1571370199.807,75.684,33.691,33.691,59.082,41.016,0
1571370199.811,91.797,33.203,33.691,118.164,-14.160,0
1571370199.815,15.137,34.668,32.715,51.758,-12.695,0
1571370199.819,-13.672,33.691,30.273,-28.809,62.500,0
1571370199.822,52.246,32.227,30.273,33.691,54.688,0
1571370199.826,93.262,32.715,33.203,102.051,-1.953,0
1571370199.830,22.461,34.180,34.180,54.688,-33.691,0
1571370199.834,-32.227,34.180,33.203,-31.250,15.137,0
1571370199.838,36.133,33.203,33.691,17.578,-7.324,0
1571370199.855,99.609,30.273,35.645,96.680,-20.996,0
1571370199.859,37.598,30.273,36.133,73.730,59.082,0
1571370199.863,-41.016,31.738,35.645,-20.996,68.359,0
1571370199.867,-1.953,32.715,35.156,-22.461,42.480,0
1571370199.871,81.055,34.180,34.180,53.223,15.625,0
1571370199.875,68.848,34.668,34.180,85.449,27.832,0
1571370199.879,-15.137,37.598,33.691,4.395,21.484,0
1571370199.882,-20.508,37.598,34.180,-49.316,-30.273,0
1571370199.886,64.941,37.109,32.227,22.949,-17.090,0
1571370199.890,91.309,35.156,32.227,93.262,38.086,0
1571370199.894,16.113,37.109,31.250,41.992,45.898,0
1571370199.898,-13.672,38.574,28.809,-47.852,-14.160,0
1571370199.895,56.152,39.551,29.785,8.789,-12.695,0
1571370199.899,107.422,41.504,32.715,96.191,53.711,0
1571370199.903,42.480,40.527,29.297,66.406,62.988,0
1571370199.907,-24.414,41.016,26.855,-29.785,49.805,0
1571370199.911,27.344,41.016,32.227,-9.766,8.301,0
1571370199.915,96.191,41.016,32.227,68.359,49.316,0
1571370199.919,58.594,43.457,30.273,70.801,96.191,0
1571370199.922,-14.648,42.480,33.691,-13.184,45.410,0
1571370199.926,6.348,38.574,35.156,-24.414,27.832,0
1571370199.930,86.426,39.551,32.227,49.316,30.273,0
1571370199.934,83.008,40.527,30.273,94.238,49.805,0
1571370199.938,-0.488,40.039,28.809,35.156,26.367,0
1571370199.935,-14.160,41.504,29.297,-23.438,-12.695,0
1571370199.939,61.523,40.039,33.691,45.898,-28.809,0
1571370199.943,92.773,37.598,35.645,122.070,-13.184,0
1571370199.947,20.996,37.598,36.621,72.754,72.754,0
1571370199.951,-24.414,38.574,37.109,-24.902,58.105,0
1571370199.955,41.992,36.621,41.504,24.414,0.000,0
1571370199.959,96.191,36.133,41.504,105.957,23.926,0
1571370199.962,30.762,38.574,35.645,72.754,3.906,0
1571370199.966,-29.785,39.062,32.227,-20.996,-16.602,0
1571370199.970,20.996,37.109,35.645,0.000,100.586,0
1571370199.974,91.797,39.062,36.621,78.125,64.453,0
1571370199.978,63.477,39.551,33.691,91.309,-12.207,0
1571370199.995,-16.113,37.598,33.203,12.695,34.180,0
1571370199.999,-2.441,38.574,34.668,-21.484,27.344,0
1571370200.003,80.566,37.598,35.156,47.852,9.277,0
1571370200.007,86.426,35.645,36.133,104.492,4.883,0
1571370200.011,2.441,38.574,34.668,35.645,21.973,0
1571370200.015,-24.414,38.086,33.691,-46.387,9.277,0
1571370200.019,54.688,37.109,33.691,17.578,2.441,0
1571370200.022,104.980,39.062,35.156,105.469,3.418,0
1571370200.026,36.133,36.621,34.180,63.477,37.109,0
1571370200.030,-16.113,36.621,37.109,-32.227,48.340,0
1571370200.034,44.434,34.668,40.527,16.602,59.570,0
1571370200.038,103.027,32.715,39.062,97.656,54.688,0
1571370200.036,47.852,35.645,36.621,77.148,52.734,0
1571370200.040,-24.902,34.668,37.109,-11.719,64.453,0
1571370200.044,10.742,33.203,40.039,-11.230,25.879,0
1571370200.048,86.914,34.668,39.551,62.988,14.648,0
1571370200.052,69.336,36.133,37.109,91.797,21.484,0
1571370200.056,-10.742,37.598,38.086,17.090,2.441,0
1571370200.060,-10.254,36.621,39.062,-23.438,-16.602,0
1571370200.063,67.871,35.645,40.039,46.875,50.293,0
1571370200.067,88.379,36.133,39.551,109.863,40.039,0
1571370200.071,4.395,37.109,37.109,40.039,-32.227,0
1571370200.075,-30.762,36.621,36.621,-51.270,-76.172,0
1571370200.079,48.828,35.645,35.156,17.090,-26.855,0
1571370200.077,99.609,35.156,33.691,100.098,52.246,0
1571370200.081,29.297,36.133,31.738,59.082,68.359,0
1571370200.085,-31.250,38.574,29.297,-39.062,31.250,0
1571370200.089,24.902,37.598,32.227,-5.371,-17.090,0
1571370200.093,90.820,36.621,34.180,83.008,-21.973,0
1571370200.097,49.316,37.598,29.785,80.078,-49.316,0
1571370200.101,-20.996,39.062,30.762,-0.488,24.414,0
1571370200.104,10.742,41.016,33.203,-10.254,76.660,0
1571370200.108,90.820,41.992,33.691,51.758,-12.695,0
1571370200.112,83.496,40.039,34.180,98.633,16.602,0
1571370200.116,-4.883,37.109,34.180,36.621,63.965,0
1571370200.120,-17.090,34.180,34.180,-18.066,47.852,0
1571370200.136,65.430,32.227,34.668,45.410,62.012,0
1571370200.140,98.145,32.715,34.668,115.723,72.266,0
1571370200.144,26.855,38.086,33.691,64.453,53.711,0
1571370200.148,-15.137,40.039,35.645,-19.531,15.625,0
1571370200.152,53.223,38.086,38.574,42.969,69.336,0
1571370200.156,109.863,40.039,38.574,120.605,88.867,0
1571370200.160,44.922,41.992,38.574,77.148,25.879,0
1571370200.163,-20.996,40.527,40.039,-10.742,33.203,0
1571370200.167,32.715,39.062,38.574,22.949,44.434,0
1571370200.171,104.980,38.574,38.574,97.168,16.602,0
1571370200.175,69.824,38.086,37.598,92.773,11.719,0
1571370200.179,-10.254,37.109,35.156,5.371,57.617,0
1571370200.176,2.930,38.086,34.180,-13.184,48.340,0
1571370200.180,77.148,37.109,35.156,56.641,65.918,0
1571370200.184,78.125,39.062,34.668,105.469,65.430,0
1571370200.188,-2.441,40.039,33.691,33.203,28.320,0
1571370200.192,-20.508,40.527,35.156,-39.551,40.527,0
1571370200.196,60.547,39.551,35.645,29.297,33.691,0
1571370200.200,99.121,38.086,35.156,104.004,21.484,0
1571370200.203,26.367,41.016,35.645,54.688,31.250,0
1571370200.207,-26.367,41.992,33.691,-35.156,29.297,0
1571370200.211,38.086,39.062,31.738,13.672,9.277,0
1571370200.215,101.074,36.133,36.133,95.703,0.977,0
1571370200.219,44.434,37.598,36.621,72.266,-38.086,0
1571370200.216,-22.461,39.062,34.180,-12.207,-45.898,0
1571370200.220,19.043,38.574,36.133,3.418,-24.902,0
1571370200.224,94.727,38.086,35.645,71.777,5.371,0
1571370200.228,66.895,38.086,32.715,88.379,23.438,0
1571370200.232,-17.578,39.062,33.691,14.160,49.805,0
1571370200.236,-13.184,37.598,35.156,-22.949,41.504,0
1571370200.240,66.406,37.109,36.621,44.434,6.348,0
1571370200.243,83.496,40.039,34.180,104.492,46.875,0
1571370200.247,10.742,43.457,33.203,42.969,9.277,0
1571370200.251,-13.184,41.992,34.180,-36.621,26.855,0
1571370200.255,57.129,38.086,36.133,28.320,69.824,0
1571370200.259,101.562,37.598,35.645,106.445,65.918,0
1571370200.276,28.809,41.016,32.715,59.082,37.109,0
1571370200.280,-29.297,41.992,32.715,-32.227,9.766,0
1571370200.284,32.715,38.574,32.715,9.766,2.441,0
1571370200.288,102.539,38.086,33.691,92.285,35.645,0
1571370200.292,46.875,38.574,31.250,71.289,81.543,0
1571370200.296,-28.809,38.574,29.297,-21.484,61.523,0
1571370200.300,10.254,36.133,33.691,-10.742,15.625,0
1571370200.303,85.449,35.156,33.203,66.406,-5.859,0
1571370200.307,70.312,33.691,31.250,94.238,-0.488,0
1571370200.311,-9.766,34.180,32.227,19.531,11.719,0
1571370200.315,-14.160,34.668,32.227,-33.203,24.902,0
1571370200.319,67.871,35.156,30.762,34.180,21.484,0
1571370200.316,93.262,37.598,29.785,103.516,-4.883,0
1571370200.320,13.184,38.086,30.273,48.340,-3.906,0
1571370200.324,-25.391,36.621,28.320,-38.086,-3.418,0
1571370200.328,43.945,33.691,31.250,23.926,22.949,0
1571370200.332,95.215,33.203,34.180,105.469,44.434,0
1571370200.336,28.809,36.133,31.738,67.383,18.066,0
1571370200.340,-29.785,39.062,32.715,-21.973,15.625,0
1571370200.343,26.855,37.598,36.621,14.160,56.152,0
1571370200.347,96.191,36.133,36.133,97.168,75.684,0
1571370200.351,49.805,39.062,35.156,84.961,51.758,0
1571370200.355,-20.020,38.086,36.133,-0.488,41.016,0
1571370200.359,1.465,34.180,36.621,-16.602,18.555,0
1571370200.356,70.801,32.715,38.574,45.410,18.555,0
1571370200.360,80.078,36.621,33.691,94.727,103.027,0
1571370200.364,3.418,37.109,33.691,27.344,134.277,0
1571370200.368,-7.812,35.645,35.645,-37.109,65.918,0
1571370200.372,78.125,35.645,35.156,33.691,53.223,0
1571370200.376,106.934,34.668,35.156,105.957,63.477,0
1571370200.380,27.832,35.645,34.668,52.734,-19.043,0
1571370200.383,-14.160,34.668,34.180,-32.227,-35.645,0
1571370200.387,52.734,33.691,38.574,30.273,39.062,0
1571370200.391,111.328,33.203,39.062,119.141,35.645,0
1571370200.395,45.410,34.180,33.691,83.008,-15.625,0
1571370200.399,-21.484,36.621,33.691,-12.207,20.508,0
1571370200.416,30.273,37.598,34.180,12.695,32.227,0
1571370200.420,105.469,37.109,36.621,91.797,0.488,0
1571370200.424,82.031,38.574,34.668,104.492,55.664,0
1571370200.428,2.930,39.062,33.203,18.555,89.844,0
1571370200.432,6.836,37.598,34.180,-9.766,101.074,0
1571370200.436,90.332,40.039,32.227,62.500,84.473,0
1571370200.440,102.051,40.527,29.297,111.816,60.547,0
1571370200.443,17.578,38.574,29.297,45.898,38.574,0
1571370200.447,-7.812,37.109,32.227,-30.762,3.418,0
1571370200.451,62.988,38.086,35.645,34.668,34.180,0
1571370200.455,101.562,40.039,36.133,109.375,43.945,0
1571370200.459,33.203,36.621,37.598,57.617,37.109,0
1571370200.456,-15.625,38.086,38.086,-30.762,63.965,0
1571370200.460,48.828,37.109,39.551,19.043,32.715,0
1571370200.464,115.234,34.668,40.527,99.609,31.738,0
1571370200.468,60.547,38.086,33.691,69.824,28.809,0
1571370200.472,-14.648,38.086,33.691,-17.578,5.859,0
1571370200.476,24.902,38.574,34.668,1.465,-11.230,0
1571370200.480,87.891,37.598,37.109,63.477,36.133,0
1571370200.483,62.500,39.551,34.668,81.543,96.191,0
1571370200.487,0.000,41.504,28.809,20.508,36.621,0
1571370200.491,4.395,38.574,33.691,-20.508,17.090,0
1571370200.495,73.730,36.621,39.551,43.457,44.922,0
1571370200.499,85.938,37.109,39.062,107.910,20.508,0
1571370200.516,9.277,37.598,36.133,49.805,18.066,0
1571370200.520,-20.508,35.645,33.203,-26.367,-12.695,0
1571370200.524,48.828,34.668,36.621,32.227,2.930,0
1571370200.528,100.586,33.203,40.527,106.445,41.016,0
1571370200.532,28.809,35.156,36.621,66.406,15.625,0
1571370200.536,-30.273,35.156,32.715,-20.996,-7.812,0
1571370200.540,31.738,33.203,33.203,12.207,-15.137,0
1571370200.543,98.633,32.227,37.598,76.172,0.977,0
1571370200.547,51.758,32.715,38.086,79.102,-9.277,0
1571370200.551,-20.996,36.133,33.691,-1.953,-18.555,0
1571370200.555,13.672,39.551,34.180,-0.488,-15.137,0
1571370200.559,93.262,40.039,33.203,74.219,4.395,0
1571370200.556,81.543,36.621,31.250,103.027,38.574,0
1571370200.560,-7.812,36.133,33.691,33.203,43.945,0
1571370200.564,-14.648,40.527,28.320,-25.879,12.695,0
1571370200.568,66.895,37.109,23.926,45.410,18.555,0
1571370200.572,83.984,30.762,32.715,116.699,41.504,0
1571370200.576,22.949,37.598,27.344,82.520,46.387,0
1571370200.580,-18.066,43.945,20.508,-26.855,44.922,0
1571370200.583,27.344,41.016,25.391,-3.906,8.301,0
1571370200.587,95.703,40.039,22.949,90.332,43.457,0
1571370200.591,35.156,45.410,20.996,44.434,55.664,0
1571370200.595,-32.715,47.363,20.996,-43.457,48.828,0
1571370200.599,17.090,37.598,30.762,22.461,97.168,0
1571370200.596,58.105,25.391,45.410,75.684,63.965,0
1571370200.600,2.930,31.250,36.621,43.457,22.949,0
1571370200.604,-48.340,36.133,23.926,-14.648,40.039,0
1571370200.608,-25.879,36.133,26.367,-37.598,18.066,0
1571370200.612,49.805,37.109,29.297,35.645,20.996,0
1571370200.616,55.176,35.645,31.738,77.148,40.527,0
1571370200.620,-33.691,34.180,29.785,11.719,2.930,0
1571370200.623,-38.574,33.691,31.250,-34.180,-14.160,0
1571370200.627,32.715,33.691,36.621,27.344,26.855,0
1571370200.631,62.012,34.668,36.621,101.074,14.160,0
1571370200.635,-0.977,31.250,36.621,53.711,62.012,0
1571370200.639,-31.250,25.879,40.527,-20.508,61.523,0
1571370200.655,28.320,31.738,41.504,37.598,13.672,0
1571370200.659,88.867,25.391,41.016,124.512,50.781,0
1571370200.663,32.715,23.926,42.480,83.008,49.316,0
1571370200.667,-40.527,29.785,38.574,-7.324,22.949,0
1571370200.671,25.391,30.273,35.156,23.438,19.043,0
1571370200.675,104.004,36.621,38.086,100.586,-0.977,0
1571370200.679,69.824,34.180,41.504,119.141,-6.348,0
1571370200.682,-8.789,35.156,35.156,30.762,-10.254,0
1571370200.686,1.953,37.598,33.691,-7.812,49.805,0
1571370200.690,78.613,33.691,40.527,64.453,51.758,0
1571370200.694,90.332,40.527,35.645,119.141,48.340,0
1571370200.698,6.836,40.527,28.320,50.781,86.426,0
1571370200.696,-27.832,37.109,28.320,-34.668,45.898,0
1571370200.700,47.363,40.039,31.738,19.531,35.156,0
1571370200.704,91.797,35.645,33.691,91.797,-15.625,0
1571370200.708,8.789,41.504,25.391,34.668,-46.875,0
1571370200.712,-36.133,41.016,24.414,-49.316,14.160,0
1571370200.716,27.344,32.227,30.762,0.488,45.898,0
1571370200.720,87.891,36.133,26.367,85.938,18.555,0
1571370200.723,42.480,42.969,20.996,69.336,58.594,0
1571370200.727,-34.668,37.109,30.273,-17.578,46.387,0
1571370200.731,0.977,35.645,30.273,-6.836,-4.395,0
1571370200.735,85.449,40.039,25.391,67.383,53.711,0
1571370200.739,80.566,41.016,30.273,85.938,45.410,0
1571370200.736,-3.418,38.574,29.297,9.766,2.441,0
1571370200.740,-2.441,29.785,38.574,-5.371,24.414,0
1571370200.744,75.195,29.297,43.945,64.941,13.184,0
1571370200.748,76.660,32.715,41.016,111.328,35.645,0
1571370200.752,2.930,32.227,44.434,43.945,104.980,0
1571370200.756,-31.738,31.250,42.480,-39.551,148.926,0
1571370200.760,33.691,33.203,37.598,37.109,44.922,0
1571370200.763,87.402,33.203,38.086,104.004,-12.695,0
1571370200.767,17.090,38.086,34.180,41.992,43.945,0
1571370200.771,-53.711,32.227,34.180,-50.781,46.875,0
1571370200.775,12.695,20.996,41.016,10.254,35.156,0
1571370200.779,108.398,31.738,38.086,93.750,17.090,0
1571370200.796,64.453,36.621,35.645,76.660,-30.273,0
1571370200.800,-19.531,29.785,36.621,-18.555,-4.883,0
1571370200.804,0.488,27.832,39.062,-36.133,-2.930,0
1571370200.808,73.730,29.297,41.016,39.551,68.848,0
1571370200.812,87.402,31.738,36.621,94.727,103.027,0
1571370200.816,-3.906,33.203,35.645,18.066,12.207,0
1571370200.820,-20.020,35.156,32.227,-67.871,36.133,0
1571370200.823,74.707,38.086,31.738,11.719,74.707,0
1571370200.827,108.887,37.109,34.180,98.633,50.781,0
1571370200.831,22.949,40.039,29.785,37.598,35.645,0
1571370200.835,-18.555,44.434,28.809,-49.805,10.742,0
1571370200.839,56.152,43.945,31.738,2.441,46.875,0
1571370200.836,109.375,43.945,31.738,79.102,15.137,0
1571370200.840,42.969,45.898,30.762,54.688,-6.836,0
1571370200.844,-33.691,41.016,32.715,-41.992,23.438,0
1571370200.848,23.926,35.645,33.203,-19.043,21.484,0
1571370200.852,92.773,37.598,34.180,66.895,-3.418,0
1571370200.856,51.270,40.527,35.645,68.848,0.977,0
1571370200.860,-26.855,38.574,35.645,-16.602,56.641,0
1571370200.863,-3.906,36.621,36.133,-24.414,29.785,0
1571370200.867,87.402,38.086,39.551,55.664,-34.668,0
1571370200.871,71.777,35.645,43.945,112.793,1.953,0
1571370200.875,-19.531,33.203,43.457,44.434,33.203,0
1571370200.879,-21.973,36.621,39.062,-40.039,57.617,0
1571370200.876,69.824,37.109,41.504,33.203,72.754,0
1571370200.880,96.191,35.645,41.016,112.793,0.488,0
1571370200.884,-0.977,29.785,43.457,70.801,9.766,0
1571370200.888,-37.598,32.227,43.457,-1.465,49.805,1
1571370200.892,39.551,36.621,37.109,30.273,57.617,0
1571370200.896,98.633,34.180,36.133,92.285,32.715,0
1571370200.900,47.363,35.156,35.645,83.008,32.227,0
1571370200.903,-8.789,37.109,35.156,-15.625,20.996,0
1571370200.907,25.879,36.133,30.273,-37.598,35.645,0
1571370200.911,82.031,35.645,33.691,36.133,58.594,0
1571370200.915,64.453,38.086,38.086,77.637,0.488,0
1571370200.919,-1.465,41.992,31.250,-19.043,21.484,0
1571370200.936,1.465,39.551,28.320,-70.801,71.289,0
1571370200.940,66.895,38.574,32.715,16.113,41.992,0
1571370200.944,88.867,41.016,36.133,79.590,41.992,0
1571370200.948,7.324,39.062,35.645,-8.301,38.086,0
1571370200.952,-29.297,38.086,32.715,-82.031,62.988,0
1571370200.956,43.457,37.109,36.621,-5.859,64.453,0
1571370200.960,79.102,34.668,37.598,73.730,20.508,0
1571370200.963,5.371,35.156,33.203,12.207,22.461,0
1571370200.967,-35.156,38.086,33.691,-89.355,4.883,0
1571370200.971,21.973,37.109,34.180,-22.949,20.508,0
1571370200.975,72.266,32.227,32.715,61.035,60.547,0
1571370200.979,27.832,33.691,32.715,42.969,57.129,0
1571370200.976,-37.598,42.480,34.180,-66.406,41.992,0
1571370200.980,-7.812,40.039,36.133,-69.824,-1.953,0
1571370200.984,82.031,40.039,30.273,12.695,5.859,0
1571370200.988,75.684,42.969,29.297,51.758,20.020,0
1571370200.992,-15.137,37.598,35.156,-5.859,18.066,0
1571370200.996,-25.879,36.621,33.691,-62.988,-8.301,0
1571370201.000,51.758,40.039,30.273,0.488,-16.113,0
1571370201.003,81.543,41.504,29.785,82.031,38.086,0
1571370201.007,2.930,41.016,31.250,13.184,41.992,0
1571370201.011,-28.809,41.992,31.250,-92.773,41.016,0
1571370201.015,28.809,38.086,34.180,-17.578,23.438,0
1571370201.019,70.801,36.133,36.621,73.730,14.160,0
1571370201.016,14.160,41.504,34.668,18.555,41.504,0
1571370201.020,-43.457,39.551,32.715,-93.750,39.551,0
1571370201.024,5.371,33.691,35.645,-45.898,12.207,0
1571370201.028,62.012,34.180,36.133,42.969,-25.391,0
1571370201.032,17.090,36.621,32.227,19.043,-38.086,0
1571370201.036,-51.270,35.156,32.715,-67.383,-34.180,0
1571370201.040,-13.184,35.156,34.668,-75.195,19.043,0
1571370201.043,67.383,37.598,31.738,11.719,44.922,0
1571370201.047,33.691,34.668,31.250,57.617,15.137,0
1571370201.051,-59.082,32.227,28.320,-25.391,64.941,0
1571370201.055,-59.570,30.273,27.832,-86.426,19.531,0
1571370201.059,36.133,30.762,32.715,5.371,8.789,0
1571370201.096,79.102,32.227,36.621,89.844,88.379,0
1571370201.100,-9.277,34.668,36.133,17.090,53.711,0
1571370201.104,-52.246,35.156,35.156,-79.102,9.277,0
1571370201.108,25.391,33.691,39.551,16.602,31.738,0
1571370201.112,52.246,29.297,45.410,132.324,-12.695,0
1571370201.116,-2.930,34.668,40.527,54.688,-22.949,0
1571370201.120,-29.785,45.898,34.180,-58.105,14.648,0
1571370201.123,1.465,46.387,37.598,-4.395,33.691,0
1571370201.127,49.805,39.551,42.969,85.938,40.039,0
1571370201.131,31.738,40.527,41.504,79.102,26.855,0
1571370201.135,-43.457,40.527,37.598,-16.113,8.301,0
1571370201.139,-11.230,38.574,33.691,-41.504,16.113,0
1571370201.115,84.961,37.109,36.133,53.711,-8.789,0
1571370201.119,68.359,36.133,40.039,127.930,1.465,0
1571370201.123,-34.180,35.645,35.645,28.320,50.781,0
1571370201.127,-40.039,32.715,30.762,-58.594,72.266,0
1571370201.131,69.824,32.227,30.273,32.715,59.082,0
1571370201.135,110.840,34.668,26.855,120.117,60.547,0
1571370201.139,-2.441,36.621,28.320,60.059,90.332,0
1571370201.142,-53.223,32.227,30.762,-34.668,62.500,0
1571370201.146,21.973,29.785,30.273,23.926,26.367,0
1571370201.150,96.191,33.691,30.273,112.305,4.883,0
1571370201.154,38.086,32.715,31.738,80.566,12.695,0
1571370201.158,-34.668,32.227,32.715,-18.066,59.570,0
1571370201.156,27.344,38.574,30.762,-0.488,13.184,0
1571370201.160,81.543,34.668,33.203,94.238,-18.555,0
1571370201.164,57.617,35.645,29.785,114.258,27.344,0
1571370201.168,-11.230,39.062,26.855,26.367,16.113,0
1571370201.172,0.977,36.621,31.250,-22.949,19.043,0
1571370201.176,75.195,34.668,32.227,55.664,70.312,0
1571370201.180,89.355,34.668,34.180,143.555,20.996,0
1571370201.183,15.625,36.133,36.621,84.473,7.324,0
1571370201.187,-13.184,39.551,34.180,-18.066,38.086,0
1571370201.191,54.199,39.551,37.109,24.414,16.113,0
1571370201.195,87.402,32.227,39.062,126.465,18.066,0
1571370201.199,25.879,29.785,37.109,96.191,-37.109,0
1571370201.215,-23.926,31.250,38.086,-17.578,-13.184,0
1571370201.219,27.344,31.738,40.527,25.391,37.109,0
1571370201.223,89.355,29.297,41.016,103.027,23.438,0
1571370201.227,53.223,32.715,33.691,64.941,34.180,0
1571370201.231,-17.090,34.180,31.738,-21.973,63.477,0
1571370201.235,8.789,29.785,33.691,-1.465,31.738,0
1571370201.239,109.375,36.621,29.785,56.152,4.395,0
1571370201.242,103.516,41.992,29.785,78.613,50.293,0
1571370201.246,17.090,40.039,31.738,18.555,57.617,0
1571370201.250,5.371,38.086,32.227,-31.250,33.691,0
1571370201.254,90.820,40.527,33.203,30.273,12.695,0
1571370201.258,115.234,41.992,31.738,101.074,31.250,0
1571370201.256,25.391,41.992,28.320,30.762,67.383,0
1571370201.260,1.465,41.016,30.273,-60.547,62.012,0
1571370201.264,79.590,38.574,32.227,12.695,24.414,0
1571370201.268,120.605,41.016,33.691,100.586,13.672,0
1571370201.272,47.852,38.086,32.715,57.129,28.320,0
1571370201.276,-10.742,36.133,29.785,-52.246,36.133,0
1571370201.280,43.457,36.133,32.227,-17.090,23.438,0
1571370201.283,108.398,35.645,34.668,62.988,46.387,0
1571370201.287,69.336,38.574,30.273,63.477,83.496,0
1571370201.291,-1.953,40.039,26.855,-23.438,52.734,0
1571370201.295,15.625,35.645,31.250,-41.504,87.402,0
1571370201.299,94.238,35.645,33.203,39.551,92.285,0
1571370201.296,96.680,38.086,30.762,79.590,-4.395,0
1571370201.300,11.230,38.086,28.809,7.812,30.762,0
1571370201.304,-8.301,36.133,28.320,-57.617,44.434,0
1571370201.308,68.848,36.133,28.320,13.672,34.668,0
1571370201.312,105.957,35.156,25.879,90.820,81.055,0
1571370201.316,27.832,35.156,23.438,37.109,62.500,0
1571370201.320,-23.438,37.109,26.367,-61.035,-6.348,0
1571370201.323,51.270,36.621,25.391,-6.348,34.180,0
1571370201.327,105.469,36.133,25.879,83.008,67.383,0
1571370201.331,42.969,34.668,32.715,58.594,-8.301,0
1571370201.335,-19.531,34.180,32.715,-27.344,0.977,0
1571370201.339,28.320,35.156,32.227,-7.324,39.551,0
1571370201.356,109.863,37.598,31.250,72.266,7.812,0
1571370201.360,87.891,38.086,31.250,88.379,1.953,0
1571370201.364,7.324,36.621,34.668,0.488,29.785,0
1571370201.368,6.348,36.621,35.645,-39.551,29.297,0
1571370201.372,77.637,36.621,35.156,32.227,49.805,0
1571370201.376,90.332,39.551,33.691,87.402,98.145,0
1571370201.380,17.090,43.945,32.227,8.789,110.352,0
1571370201.383,-5.859,41.016,33.203,-73.242,47.363,0
1571370201.387,73.730,41.016,34.180,7.812,-30.762,0
1571370201.391,120.605,43.945,31.738,98.145,-16.113,0
1571370201.395,46.387,42.969,30.273,51.270,20.020,0
1571370201.399,-10.254,41.016,29.785,-47.363,62.012,0
1571370201.396,49.316,41.504,31.250,-2.441,14.648,0
1571370201.400,110.352,40.039,32.715,85.938,-19.043,0
1571370201.404,55.176,38.086,34.180,68.848,47.363,0
1571370201.408,-19.531,38.086,32.715,-29.297,45.410,0
1571370201.412,10.742,37.109,31.738,-19.043,41.504,0
1571370201.416,84.473,36.621,34.668,66.406,68.848,0
1571370201.420,66.895,37.598,35.156,92.773,69.336,0
1571370201.423,-12.207,36.133,36.133,14.160,18.066,0
1571370201.427,-1.953,34.180,36.133,-21.973,-20.020,0
1571370201.431,77.148,36.133,34.180,49.805,1.465,0
1571370201.435,97.656,40.039,32.715,103.027,-5.859,0
1571370201.439,20.020,40.039,31.250,45.410,36.133,0
1571370201.436,-23.926,33.691,31.250,-25.879,44.922,0
1571370201.440,48.340,33.203,34.180,26.855,-8.789,0
1571370201.444,96.680,36.133,35.156,96.680,17.090,0
1571370201.448,32.227,33.203,35.156,55.664,20.020,0
1571370201.452,-20.020,28.320,37.598,-31.250,25.879,0
1571370201.456,37.598,30.762,39.062,17.090,51.758,0
1571370201.460,104.980,35.156,36.621,96.191,32.715,0
1571370201.463,52.734,36.133,34.180,72.754,15.625,0
1571370201.467,-23.926,37.109,36.133,-13.184,4.395,0
1571370201.471,17.090,40.039,33.691,-8.789,-17.090,0
1571370201.475,96.191,39.551,31.250,63.965,6.348,0
1571370201.479,80.078,38.086,32.715,96.680,59.570,0
1571370201.496,2.441,39.062,30.762,22.461,22.949,0
1571370201.500,-2.930,41.016,30.273,-30.273,41.016,0
1571370201.504,68.848,37.598,31.738,31.250,38.086,0
1571370201.508,95.215,39.062,31.738,99.609,34.180,0
1571370201.512,22.461,40.527,33.203,46.875,53.711,0
1571370201.516,-16.113,39.551,32.227,-42.480,48.828,0
1571370201.520,57.129,40.527,34.180,19.531,90.820,0
1571370201.523,114.258,39.551,34.180,105.957,75.195,0
1571370201.527,41.504,38.086,31.738,62.500,38.574,0
1571370201.531,-21.484,37.598,30.762,-32.227,57.617,0
1571370201.535,48.340,39.062,27.832,10.254,29.297,0
1571370201.539,105.957,37.598,30.762,81.543,17.578,0
1571370201.536,55.664,37.109,37.109,74.707,62.012,0
1571370201.540,-3.418,38.086,39.062,-1.953,27.832,0
1571370201.544,17.578,39.551,36.621,-20.508,29.785,0
1571370201.548,89.844,40.039,39.551,53.223,40.039,0
1571370201.552,90.332,38.086,39.551,104.980,76.172,0
1571370201.556,6.348,36.621,37.598,34.668,76.660,0
1571370201.560,-9.277,34.180,39.062,-26.855,-29.297,0
1571370201.563,64.941,35.156,41.504,41.016,-37.598,0
1571370201.567,96.191,35.156,40.039,113.770,-6.836,0
1571370201.571,20.996,35.156,37.109,56.152,22.461,0
1571370201.575,-24.414,38.574,38.574,-41.992,46.875,0
1571370201.579,43.457,38.574,40.527,20.996,24.902,0
1571370201.576,106.445,37.598,39.551,111.816,28.320,0
1571370201.580,48.340,37.109,39.551,91.309,25.879,0
1571370201.584,-23.438,36.621,37.598,-0.977,27.832,0
1571370201.588,24.414,37.109,36.621,16.602,-9.277,0
1571370201.592,108.887,35.645,39.062,98.633,-24.902,0
1571370201.596,82.520,33.691,40.527,107.422,56.152,0
1571370201.600,0.977,36.133,39.062,30.273,41.992,0
1571370201.603,4.883,38.574,39.551,-3.906,-38.574,0
1571370201.607,82.520,38.086,40.527,65.430,5.859,0
1571370201.611,95.215,38.574,40.527,118.652,-8.789,0
1571370201.615,11.719,41.016,38.086,44.922,30.273,0
1571370201.619,-14.160,40.527,35.156,-26.367,17.578,0
1571370201.636,62.988,40.039,34.668,44.922,-14.160,0
1571370201.640,103.027,40.039,34.668,114.746,27.344,0
1571370201.644,35.156,41.992,35.156,68.359,7.812,0
1571370201.648,-14.648,46.875,33.203,-25.879,-5.371,0
1571370201.652,47.852,45.410,31.738,19.531,29.297,0
1571370201.656,113.770,40.527,32.715,112.305,49.805,0
1571370201.660,61.523,41.016,33.203,82.520,-7.812,0
1571370201.663,-8.789,37.109,31.738,-6.836,18.066,0
1571370201.667,26.855,36.621,30.762,-5.371,50.781,0
1571370201.671,98.633,37.109,32.227,67.383,56.152,0
1571370201.675,83.496,34.668,31.250,99.609,44.434,0
1571370201.679,3.906,35.645,28.320,18.066,-0.977,0
1571370201.676,0.977,34.668,26.855,-20.996,12.695,0
1571370201.680,80.566,33.691,29.297,49.316,65.430,0
1571370201.684,98.145,37.598,31.250,108.398,50.293,0
1571370201.688,20.020,40.039,30.273,57.129,-6.836,0
1571370201.692,-13.672,36.621,28.320,-22.461,-10.742,0
1571370201.696,56.152,35.645,31.250,41.504,23.438,0
1571370201.700,102.051,40.527,33.203,119.141,0.000,0
1571370201.703,28.320,41.016,33.203,70.801,-25.879,0
1571370201.707,-26.855,39.551,34.180,-15.137,23.926,0
1571370201.711,37.109,39.062,33.691,23.926,45.410,0
1571370201.715,104.004,38.086,31.738,102.539,30.273,0
1571370201.719,57.617,42.969,33.203,91.309,31.250,0
1571370201.736,-20.508,36.621,35.645,1.465,6.836,0
1571370201.740,6.836,31.738,36.621,-2.441,-41.992,0
1571370201.744,92.285,35.156,36.621,68.848,4.883,0
1571370201.748,94.238,33.691,33.203,110.840,66.895,0
1571370201.752,8.301,31.250,29.297,40.039,33.203,0
1571370201.756,-3.418,30.273,28.320,-22.461,85.449,0
1571370201.760,75.195,30.273,32.715,44.434,103.027,0
1571370201.763,102.051,32.715,36.621,111.816,11.719,0
1571370201.767,31.738,36.621,34.180,59.570,17.090,0
1571370201.771,-8.789,36.621,31.738,-32.227,13.672,0
1571370201.775,56.641,36.133,31.738,15.137,56.152,0
1571370201.779,115.234,37.598,33.203,100.098,39.551,0
1571370201.779,53.223,39.062,34.180,66.406,-17.578,0
1571370201.783,-15.625,41.504,32.715,-25.879,31.250,0
1571370201.787,29.785,38.086,30.762,1.953,82.520,0
1571370201.791,96.191,34.180,33.203,81.543,61.035,0
1571370201.795,62.012,32.227,34.180,93.262,33.691,0
1571370201.799,-20.508,33.691,34.180,-0.977,55.176,0
1571370201.803,-3.418,36.133,36.133,-25.391,61.523,0
1571370201.806,76.172,33.203,39.062,48.828,34.668,0
1571370201.810,76.172,32.227,36.621,93.262,30.762,0
1571370201.814,-9.277,32.227,30.762,31.250,54.199,0
1571370201.818,-30.273,33.203,30.273,-39.062,36.621,0
1571370201.822,50.781,35.156,33.203,30.273,6.836,0
1571370201.816,97.168,31.250,36.621,120.605,88.379,0
1571370201.820,27.344,33.203,36.621,70.312,67.871,0
1571370201.824,-25.879,36.621,36.621,-30.273,-17.090,0
1571370201.828,39.062,35.156,39.062,19.531,-0.977,0
1571370201.832,98.633,34.180,41.992,107.910,62.012,0
1571370201.836,37.109,32.715,40.527,78.613,38.574,0
1571370201.840,-27.832,31.250,39.062,-21.973,-30.273,0
1571370201.843,18.555,28.809,41.992,0.977,29.297,0
1571370201.847,92.773,27.344,43.945,83.496,-4.395,0
1571370201.851,73.730,30.273,41.504,104.004,-53.711,0
1571370201.855,-3.906,32.227,39.062,24.902,40.039,0
1571370201.859,-0.488,31.738,38.574,-15.137,36.133,0
1571370201.856,92.773,30.762,41.016,66.406,25.879,0
1571370201.860,106.445,31.738,40.527,125.977,57.617,0
1571370201.864,20.508,34.180,34.180,62.988,52.246,0
1571370201.868,6.348,36.133,29.785,-16.602,37.598,0
1571370201.872,83.008,35.645,30.762,53.223,29.785,0
1571370201.876,123.535,38.086,32.715,136.230,8.301,0
1571370201.880,57.617,42.480,31.738,86.426,0.000,0
1571370201.883,2.441,43.945,32.227,-5.859,20.996,0
1571370201.887,59.570,43.457,32.227,37.109,8.301,0
1571370201.891,125.000,41.504,31.250,117.188,5.371,0
1571370201.895,72.754,44.922,27.832,100.098,56.641,0
1571370201.899,-7.324,44.922,24.414,12.695,54.199,0
1571370201.916,25.879,42.480,26.855,10.254,67.383,0
1571370201.920,102.051,44.434,30.273,76.660,74.219,0
1571370201.924,81.543,44.434,30.273,115.234,32.715,0
1571370201.928,-9.766,42.969,27.344,39.551,-9.766,0
1571370201.932,-21.484,40.039,27.832,-20.020,-42.480,0
1571370201.936,56.152,35.156,28.809,50.781,27.344,0
1571370201.940,77.637,35.156,30.762,117.676,8.301,0
1571370201.943,0.488,39.062,31.250,58.594,-27.344,0
1571370201.947,-32.715,38.086,32.715,-22.949,2.930,0
1571370201.951,45.898,34.180,36.621,40.527,11.719,0
1571370201.955,108.887,36.621,34.180,120.117,32.227,0
1571370201.959,44.434,40.039,35.156,80.566,32.227,0
1571370201.957,-16.113,40.039,36.133,-7.812,23.438,0
1571370201.961,44.922,39.551,32.227,29.297,9.277,0
1571370201.965,114.258,38.086,32.715,108.398,-37.109,0
1571370201.969,69.824,39.551,30.762,98.633,-26.367,0
1571370201.973,-0.977,41.016,27.344,6.836,17.090,0
1571370201.977,26.367,41.016,27.344,-3.906,43.945,0
1571370201.981,97.168,41.016,28.320,69.824,32.715,0
1571370201.984,87.402,39.551,28.320,109.863,27.832,0
1571370201.988,4.883,39.062,27.344,36.621,65.918,0
1571370201.992,-16.602,36.621,28.320,-39.062,32.715,0
1571370201.996,54.199,34.668,29.785,28.809,16.113,0
1571370202.000,85.449,32.715,30.762,107.422,3.418,0
1571370201.996,7.812,30.762,32.227,57.129,-43.457,0
1571370202.000,-34.180,32.715,33.203,-30.273,46.387,3
1571370202.004,37.109,31.250,32.227,21.973,92.285,0
1571370202.008,90.332,29.297,31.250,111.816,21.484,0
1571370202.012,35.156,29.297,28.809,89.355,22.461,0
1571370202.016,-21.973,33.203,27.344,-7.812,13.184,0
1571370202.020,23.926,37.598,26.855,15.137,27.832,0
1571370202.023,101.074,39.551,28.320,92.285,57.617,0
1571370202.027,71.289,44.922,31.250,100.098,58.105,0
1571370202.031,-10.742,46.387,30.762,28.809,59.570,0
1571370202.035,3.906,42.969,31.250,6.836,28.809,0
1571370202.039,81.055,43.945,32.715,71.289,55.176,0
1571370202.056,83.008,45.410,33.691,115.234,25.391,0
1571370202.060,-2.441,43.945,32.715,41.992,11.230,0
1571370202.064,-25.879,43.945,27.344,-36.621,70.801,0
1571370202.068,48.828,41.016,27.344,24.902,29.785,0
1571370202.072,88.379,39.551,28.320,96.191,-20.508,0
1571370202.076,21.484,40.527,26.855,42.480,-21.484,0
1571370202.080,-27.832,40.527,28.320,-44.434,23.438,0
1571370202.083,30.762,38.086,28.320,6.348,33.691,0
1571370202.087,94.727,36.133,28.809,90.820,63.965,0
1571370202.091,43.457,39.551,29.785,71.289,47.363,0
1571370202.095,-25.391,41.992,28.320,-29.297,43.457,0
1571370202.099,18.555,42.969,23.926,-20.508,40.039,0
1571370202.096,95.703,41.992,23.438,61.035,7.812,0
1571370202.100,74.707,43.945,23.926,83.008,42.480,0
1571370202.104,-4.883,44.922,21.484,7.812,63.965,0
1571370202.108,-6.836,42.969,25.391,-29.785,57.129,0
1571370202.112,72.266,41.016,30.762,46.875,25.391,0
1571370202.116,91.797,41.016,31.250,117.676,-15.625,0
1571370202.120,3.418,38.574,34.668,59.570,7.324,0
1571370202.123,-31.738,34.180,36.621,-24.414,58.594,0
1571370202.127,41.504,33.203,35.156,33.203,20.508,0
1571370202.131,90.820,31.738,36.133,116.699,-17.578,0
1571370202.135,28.809,31.738,36.133,72.266,14.648,0
1571370202.139,-28.809,31.738,35.645,-23.438,67.383,0
1571370202.136,33.691,33.203,34.180,16.113,77.637,0
1571370202.140,103.027,33.691,35.645,86.426,21.973,0
1571370202.144,57.129,33.203,35.156,71.289,-4.883,0
1571370202.148,-23.438,36.133,33.203,-16.113,-25.879,0
1571370202.152,-6.348,38.086,33.203,-21.484,-30.273,0
1571370202.156,71.777,35.645,34.668,55.176,-41.016,0
1571370202.160,68.359,34.668,33.691,85.449,-46.875,0
1571370202.163,-15.137,37.598,30.273,4.883,91.797,0
1571370202.167,-17.090,38.574,30.273,-46.875,56.152,0
1571370202.171,63.477,36.621,35.645,32.715,34.180,0
1571370202.175,85.449,36.133,34.180,104.004,67.871,0
1571370202.179,11.719,34.180,33.203,46.875,13.672,0
1571370202.195,-22.461,37.109,31.738,-36.621,89.355,0
1571370202.199,54.199,40.039,30.273,15.137,81.055,0
1571370202.203,104.980,39.062,31.250,96.680,-40.039,0
1571370202.207,26.855,38.574,31.738,51.758,-35.645,0
1571370202.211,-42.969,35.156,32.227,-54.688,35.645,0
1571370202.215,11.230,35.645,31.250,-22.461,105.469,0
1571370202.219,83.496,35.645,29.785,64.453,25.879,0
1571370202.222,44.434,34.180,29.785,68.848,-48.340,0
1571370202.226,-29.297,36.621,31.738,-21.973,43.945,0
1571370202.230,-1.465,36.133,34.180,-32.715,72.266,0
1571370202.234,80.078,36.133,32.715,45.410,8.301,0
1571370202.238,81.543,34.180,34.668,102.051,3.418,0
1571370202.235,2.930,32.715,36.621,50.293,20.996,0
1571370202.239,-18.066,30.762,34.180,-26.367,54.688,0
1571370202.243,50.293,26.367,36.621,31.738,17.578,0
1571370202.247,86.914,27.344,35.645,118.164,-30.273,0
1571370202.251,17.578,30.273,30.273,69.824,10.742,0
1571370202.255,-27.832,30.762,31.738,-22.949,55.664,0
1571370202.259,38.574,32.715,38.086,20.996,90.332,0
1571370202.262,100.586,34.668,40.039,99.121,62.500,0
1571370202.266,42.480,35.156,37.109,68.848,15.625,0
1571370202.270,-30.762,36.621,33.203,-33.691,7.812,0
1571370202.274,20.508,39.062,31.738,-6.348,18.066,0
1571370202.278,95.215,41.016,32.715,67.871,39.062,0
1571370202.297,58.594,45.410,28.320,70.801,52.246,0
1571370202.301,-18.555,44.434,22.949,0.000,40.039,0
1571370202.305,-2.930,39.062,22.461,-28.320,17.578,0
1571370202.309,80.566,42.480,21.484,46.875,9.766,0
1571370202.313,92.773,41.992,24.902,103.516,36.133,0
1571370202.317,13.184,41.504,28.809,34.668,55.176,0
1571370202.321,-15.137,42.969,25.879,-41.504,-25.879,0
1571370202.324,56.641,41.504,27.344,20.996,-45.898,0
1571370202.328,95.215,44.434,30.762,103.516,3.906,0
1571370202.332,27.832,46.387,28.320,64.941,32.715,0
1571370202.336,-16.602,42.480,31.250,-21.973,30.762,0
1571370202.340,47.852,41.992,32.715,27.344,51.270,0
1571370202.336,111.328,43.457,31.738,113.281,84.473,0
1571370202.340,61.035,41.016,34.180,97.656,69.824,0
1571370202.344,-12.695,40.527,34.668,0.977,38.574,0
1571370202.348,26.367,41.504,34.668,5.371,1.953,0
1571370202.352,105.469,39.062,36.621,86.914,50.781,0
1571370202.356,83.496,39.551,38.086,112.793,103.027,0
1571370202.360,0.000,37.598,36.133,36.133,91.309,0
1571370202.363,-0.488,36.133,35.156,-8.789,57.129,0
1571370202.367,80.566,36.133,38.086,63.477,-21.484,0
1571370202.371,94.727,34.668,38.086,130.371,-6.836,0
1571370202.375,2.930,32.715,35.156,64.941,93.750,0
1571370202.379,-35.156,32.715,33.203,-26.367,87.891,0
1571370202.377,41.016,32.715,35.645,34.180,61.523,0
1571370202.381,91.797,36.621,36.133,119.629,54.199,0
1571370202.385,23.926,40.039,32.715,77.148,-16.602,0
1571370202.389,-33.203,39.551,31.738,-22.461,12.207,0
1571370202.393,26.855,39.551,30.762,15.625,79.102,0
1571370202.397,96.680,36.621,30.762,97.168,85.449,0
1571370202.401,56.152,38.086,30.273,93.750,20.020,0
1571370202.404,-11.719,37.598,30.762,13.672,62.500,0
1571370202.408,17.090,37.598,30.762,-0.977,40.039,0
1571370202.412,94.727,38.574,32.715,70.801,-27.832,0
1571370202.416,88.867,36.621,35.645,110.840,3.906,0
1571370202.420,7.812,40.527,33.691,39.062,-11.719,0
1571370202.436,-8.301,41.016,33.203,-16.602,0.488,0
1571370202.440,65.430,39.062,34.668,45.898,32.715,0
1571370202.444,93.750,39.551,34.668,114.258,23.926,0
1571370202.448,15.625,37.598,31.250,53.223,-48.828,0
1571370202.452,-23.438,37.598,27.344,-36.621,-71.777,0
1571370202.456,48.828,42.969,25.879,25.391,20.996,0
1571370202.460,101.074,43.945,28.320,108.398,85.938,0
1571370202.463,37.598,43.945,31.250,68.359,84.473,0
1571370202.467,-27.832,41.504,28.809,-30.273,94.727,0
1571370202.471,20.508,42.480,30.762,-0.977,57.129,0
1571370202.475,93.262,43.457,35.156,85.449,-8.789,0
1571370202.479,56.152,42.480,31.738,87.402,-19.531,0
1571370202.476,-23.438,39.551,32.715,3.906,28.320,0
1571370202.480,-7.812,34.668,38.574,-10.254,63.965,0
1571370202.484,72.266,34.668,37.598,59.570,34.668,0
1571370202.488,71.289,33.691,36.133,104.492,2.441,0
1571370202.492,-15.137,35.156,38.086,31.250,18.555,0
1571370202.496,-33.691,36.133,34.180,-39.062,23.438,0
1571370202.500,46.387,34.180,33.203,32.227,-8.789,0
1571370202.503,88.867,36.133,35.156,106.445,13.184,0
1571370202.507,17.578,36.133,35.645,60.547,40.527,0
1571370202.511,-28.320,36.133,34.668,-24.414,8.301,0
1571370202.515,42.969,38.574,36.621,18.555,11.719,0
1571370202.519,109.863,39.062,39.062,99.121,15.137,0
1571370202.516,53.711,38.574,35.645,86.426,15.137,0
1571370202.520,-14.648,42.480,37.598,-5.859,26.367,0
1571370202.524,37.598,43.945,40.039,-1.953,28.809,0
1571370202.528,113.281,40.527,40.039,73.730,27.832,0
1571370202.532,77.637,41.504,39.551,96.191,-21.973,0
1571370202.536,-0.977,44.434,38.086,17.578,-32.227,0
1571370202.540,3.418,42.480,39.551,-20.508,7.812,0
1571370202.543,81.543,41.504,40.039,43.457,-34.180,0
1571370202.547,95.703,41.016,37.598,96.680,31.738,0
1571370202.551,13.672,40.527,36.621,41.016,84.961,0
1571370202.555,-19.043,41.504,34.180,-30.762,63.477,0
1571370202.559,53.223,40.527,36.133,32.227,31.738,0
1571370202.577,102.539,37.598,37.109,109.375,-5.859,0
1571370202.581,33.203,37.109,35.156,64.453,-26.855,0
1571370202.585,-29.785,36.133,35.645,-28.809,17.090,0
1571370202.589,27.344,37.109,36.133,13.184,47.363,0
1571370202.593,99.121,39.551,33.691,99.121,48.340,0
1571370202.597,51.270,39.062,30.762,84.473,11.719,0
1571370202.601,-26.855,36.621,31.738,-11.230,12.207,0
1571370202.604,7.812,35.156,36.621,-10.254,91.797,0
1571370202.608,89.355,36.621,36.621,68.359,49.316,0
1571370202.612,72.754,38.086,34.668,97.656,-30.762,0
1571370202.616,-3.906,37.598,34.668,27.344,11.719,0
1571370202.620,1.953,35.645,33.203,-19.531,16.113,0
1571370202.616,77.148,34.180,32.227,48.828,26.367,0
1571370202.620,84.961,34.180,34.180,116.699,6.348,0
1571370202.624,5.371,34.668,31.738,58.105,-3.906,0
1571370202.628,-30.273,33.203,29.785,-35.156,16.113,0
1571370202.632,42.480,33.691,30.273,21.484,61.035,0
1571370202.636,108.887,34.180,30.273,110.840,62.500,0
1571370202.640,40.527,31.250,31.250,63.477,-13.184,0
1571370202.643,-27.344,31.250,30.273,-42.480,7.324,0
1571370202.647,33.203,35.156,31.250,-4.395,127.930,0
1571370202.651,96.680,34.668,32.715,78.125,145.020,0
1571370202.655,55.176,35.156,30.273,75.195,82.031,0
1571370202.659,-14.160,38.574,31.250,-4.395,35.156,0
1571370202.657,12.695,36.133,32.715,-11.230,25.879,0
1571370202.661,89.355,33.691,30.762,60.547,21.973,0
1571370202.665,76.172,38.574,28.320,95.703,29.297,0
1571370202.669,-5.371,41.992,25.879,21.973,70.312,0
1571370202.673,-9.766,42.480,25.391,-38.574,28.320,0
1571370202.677,71.289,43.457,27.832,26.367,-24.414,0
1571370202.681,100.586,41.016,27.344,98.145,7.812,0
1571370202.684,20.996,40.527,24.902,47.852,53.711,0
1571370202.688,-26.855,40.527,28.320,-52.246,52.246,0
1571370202.692,45.410,38.574,32.227,6.348,49.316,0
1571370202.696,100.098,38.086,33.691,95.215,52.734,0
1571370202.700,32.715,39.551,30.762,55.176,-9.766,0
1571370202.717,-29.785,40.039,26.367,-41.992,28.809,0
1571370202.721,16.602,36.621,27.832,-17.578,49.805,0
1571370202.725,84.961,33.691,29.297,72.266,45.898,0
1571370202.729,49.316,35.645,28.809,82.520,62.012,0
1571370202.733,-33.691,34.668,24.902,0.000,40.527,0
1571370202.737,-17.090,34.668,24.414,-27.832,59.570,0
1571370202.741,65.918,36.133,27.832,40.039,79.590,0
1571370202.744,69.824,33.691,30.273,104.004,16.113,0
1571370202.748,-5.371,33.691,30.273,48.828,21.973,0
1571370202.752,-21.484,35.156,29.785,-19.531,27.832,0
1571370202.756,58.594,37.598,31.738,43.457,-31.250,0
1571370202.760,99.121,36.621,35.645,114.746,23.926,0
1571370202.757,24.902,35.156,35.156,66.406,20.508,0
1571370202.761,-21.973,36.621,32.715,-20.996,0.488,0
1571370202.765,47.363,34.668,35.156,34.668,20.020,0
1571370202.769,110.840,35.156,35.156,112.793,2.930,0
1571370202.773,56.641,37.109,31.738,86.426,-1.465,0
1571370202.777,-12.695,37.598,30.762,-0.977,-2.441,0
1571370202.781,20.020,38.574,29.297,3.906,26.855,0
1571370202.784,96.680,42.480,27.832,77.637,78.613,0
1571370202.788,74.219,45.898,29.785,94.727,100.586,0
1571370202.792,-11.719,45.898,29.297,3.906,67.871,0
1571370202.796,-7.812,45.410,28.320,-41.016,51.270,0
1571370202.800,66.895,46.387,29.785,31.738,39.062,0
1571370202.796,79.590,43.945,29.785,94.238,12.695,0
1571370202.800,3.418,41.016,28.809,32.227,25.879,0
1571370202.804,-22.461,39.551,29.297,-49.316,-0.488,0
1571370202.808,48.828,37.109,29.785,15.137,-4.883,0
1571370202.812,94.238,39.062,29.785,100.586,53.711,0
1571370202.816,26.367,39.551,27.832,58.105,49.805,0
1571370202.820,-29.297,39.062,29.297,-41.504,28.320,0
1571370202.823,36.621,41.992,32.227,1.465,70.801,0
1571370202.827,108.398,41.016,31.250,81.055,14.648,0
1571370202.831,57.129,39.551,31.250,66.406,-5.859,0
1571370202.835,-20.996,39.551,30.762,-10.742,18.555,0
1571370202.839,14.160,37.109,32.227,-15.137,15.625,0
1571370202.856,90.820,37.598,34.180,51.270,-0.977,0
1571370202.860,75.195,40.527,33.203,92.773,-16.602,0
1571370202.864,-4.395,39.551,33.203,15.625,69.336,0
1571370202.868,-12.207,37.109,34.180,-41.016,40.039,0
1571370202.872,66.895,36.133,34.668,30.762,35.645,0
1571370202.876,95.703,36.621,35.645,107.422,33.691,0
1571370202.880,20.020,40.527,34.668,58.105,6.836,0
1571370202.883,-21.973,40.039,33.691,-35.156,69.336,0
1571370202.887,38.574,36.133,36.133,17.578,63.477,0
1571370202.891,91.309,38.086,35.156,101.074,34.668,0
1571370202.895,31.738,39.551,33.691,63.965,5.371,0
1571370202.899,-23.438,34.180,33.203,-29.785,49.316,0
1571370202.896,30.762,31.250,34.180,-0.488,63.965,0
1571370202.900,94.238,33.691,37.109,81.543,15.625,0
1571370202.904,55.664,34.668,36.621,82.520,2.441,0
1571370202.908,-12.695,38.086,34.180,1.465,20.020,0
1571370202.912,10.742,38.574,37.598,-12.695,0.000,0
1571370202.916,86.426,37.109,38.574,58.105,-16.602,0
1571370202.920,82.520,39.062,36.133,104.980,8.301,0
1571370202.923,0.977,40.527,34.180,25.391,27.832,0
1571370202.927,-10.254,38.574,30.762,-44.922,40.039,0
1571370202.931,71.289,38.086,29.785,24.902,49.805,0
1571370202.935,104.492,39.062,34.668,96.191,31.250,0
1571370202.939,26.855,38.086,33.203,48.340,34.180,0
1571370202.936,-19.043,38.574,28.809,-44.922,60.547,0
1571370202.940,47.852,37.109,31.250,3.906,43.457,0
1571370202.944,103.027,39.062,32.715,90.332,48.340,0
1571370202.948,44.922,39.551,32.227,64.453,36.133,0
1571370202.952,-23.926,39.062,32.715,-21.484,3.418,0
1571370202.956,21.484,38.086,33.203,-1.465,-31.738,0
1571370202.960,90.820,37.598,35.156,80.566,-18.555,0
1571370202.963,59.570,39.062,34.180,98.145,52.734,0
1571370202.967,-17.578,41.016,33.203,11.230,57.129,0
1571370202.971,-12.207,37.598,33.691,-20.020,29.297,0
1571370202.975,60.547,33.203,31.738,56.641,48.828,0
1571370202.979,67.383,35.645,28.809,115.234,65.430,0
1571370202.996,-12.207,35.156,30.273,53.223,76.172,0
1571370203.000,-33.203,32.227,34.668,-17.090,86.426,0
1571370203.004,50.293,32.227,36.133,54.688,96.191,0
1571370203.008,95.703,34.668,36.133,131.348,106.934,0
1571370203.012,26.855,35.645,34.668,85.938,47.852,0
1571370203.016,-17.090,33.691,33.203,-2.441,63.477,0
1571370203.020,41.992,35.156,36.621,34.668,118.652,0
1571370203.023,103.027,35.156,37.109,113.281,83.984,0
1571370203.027,52.246,35.156,34.668,95.703,91.309,0
1571370203.031,-16.602,34.668,35.156,2.930,58.105,0
1571370203.035,25.391,32.227,35.645,8.301,-43.457,0
1571370203.039,99.121,32.227,34.668,83.496,16.113,0
1571370203.036,82.031,35.645,32.715,105.957,107.422,1
1571370203.040,3.418,38.086,29.785,26.855,39.551,0
1571370203.044,1.465,40.527,28.320,-27.832,-11.230,0
1571370203.048,82.520,42.480,26.855,41.016,-9.766,0
1571370203.052,95.703,41.504,24.414,109.375,-11.719,0
1571370203.056,9.766,42.969,23.438,43.945,16.113,0
1571370203.060,-15.137,42.480,24.414,-38.574,24.902,0
1571370203.063,63.477,43.457,29.297,35.645,-9.766,0
1571370203.067,109.863,43.945,31.738,119.629,-0.977,0
1571370203.071,32.715,43.457,30.762,70.801,25.391,0
1571370203.075,-28.320,41.504,32.715,-17.090,54.199,0
1571370203.079,24.414,37.598,31.250,24.902,57.617,0
1571370203.076,92.773,37.598,28.809,103.027,32.227,0
1571370203.080,53.223,38.574,30.273,99.609,18.555,0
1571370203.084,-26.367,37.109,29.297,9.766,41.016,0
1571370203.088,0.977,40.039,27.832,-1.953,72.266,0
1571370203.092,80.566,39.551,31.738,80.566,61.035,0
1571370203.096,64.453,36.621,31.738,115.723,31.738,0
1571370203.100,-18.066,35.156,27.832,37.109,-12.695,0
1571370203.103,-23.926,35.156,27.832,-24.902,-28.320,0
1571370203.107,60.059,37.109,31.250,43.457,41.504,0
1571370203.111,97.168,39.551,32.715,120.605,65.918,0
1571370203.115,20.996,39.551,29.297,63.965,32.227,0
1571370203.119,-19.043,37.598,28.320,-31.738,23.438,0
1571370203.136,43.457,34.668,30.762,20.020,-0.488,0
1571370203.140,88.379,32.227,30.762,98.633,-2.441,0
1571370203.144,22.949,34.668,30.273,61.523,34.668,0
1571370203.148,-33.203,36.133,31.250,-34.668,12.207,0
1571370203.152,24.414,37.109,33.203,-2.441,47.852,0
1571370203.156,95.215,38.574,30.762,78.125,104.004,0
1571370203.160,58.594,40.527,28.320,75.195,33.203,0
1571370203.163,-9.277,38.574,29.297,-7.812,-42.480,0
1571370203.167,14.648,37.109,32.227,-20.996,-36.621,0
1571370203.171,85.938,37.598,35.156,52.734,26.367,0
1571370203.175,84.473,37.109,34.180,100.098,51.758,0
1571370203.179,5.859,39.551,32.227,34.668,9.766,0
1571370203.176,-6.836,40.527,34.180,-36.133,-2.441,0
1571370203.180,68.848,39.062,35.156,36.621,22.461,0
1571370203.184,107.910,40.039,31.250,116.211,46.875,0
1571370203.188,32.715,41.504,29.785,63.965,84.961,0
1571370203.192,-19.043,40.527,32.227,-25.879,59.570,0
1571370203.196,44.434,40.039,33.203,27.344,26.367,0
1571370203.200,105.957,40.039,35.645,113.281,-5.859,0
1571370203.203,45.898,39.551,35.645,88.867,1.953,0
1571370203.207,-29.785,40.527,32.227,-6.348,38.574,0
1571370203.211,14.160,39.062,32.227,0.488,48.340,0
1571370203.215,90.820,37.109,36.133,74.219,54.688,0
1571370203.219,68.848,40.039,32.227,96.680,46.875,0
1571370203.215,-13.184,37.598,29.297,10.742,44.434,0
1571370203.219,-6.836,35.156,28.320,-28.320,94.238,0
1571370203.223,69.824,36.133,27.344,39.062,101.562,0
1571370203.227,76.660,36.133,29.297,91.309,64.941,0
1571370203.231,-3.418,36.621,29.785,37.109,71.289,0
1571370203.235,-31.738,36.621,27.832,-39.062,80.566,0
1571370203.239,41.992,35.156,28.809,26.855,84.473,0
1571370203.242,86.426,34.668,31.738,106.934,65.430,0
1571370203.246,19.043,36.133,30.762,57.617,58.594,0
1571370203.250,-27.344,34.668,31.250,-25.391,79.102,0
1571370203.254,29.785,33.203,33.691,26.855,27.832,0
1571370203.258,98.633,35.156,33.691,109.863,20.996,0
1571370203.276,56.152,35.156,32.227,89.355,26.367,0
1571370203.280,-11.719,36.133,29.297,-0.977,-8.301,0
1571370203.284,26.855,36.133,31.250,12.695,43.457,0
1571370203.288,101.562,33.691,32.227,92.285,24.902,0
1571370203.292,77.148,36.133,26.855,117.676,-9.277,0
1571370203.296,-7.812,36.133,24.902,31.738,-3.418,0
1571370203.300,-3.418,35.645,27.832,-17.578,0.977,0
1571370203.303,79.590,38.574,30.762,62.988,58.594,0
1571370203.307,99.121,39.062,30.273,126.953,72.754,0
1571370203.311,20.996,40.039,27.832,62.500,59.570,0
1571370203.315,-12.207,42.480,29.297,-31.250,24.414,0
1571370203.319,58.594,39.062,31.738,28.809,7.812,0
1571370203.316,111.816,38.574,30.273,124.512,31.250,0
1571370203.320,41.016,40.527,29.297,82.520,44.922,0
1571370203.324,-27.344,38.574,29.785,-16.113,53.223,0
1571370203.328,26.855,39.062,29.297,13.672,67.871,0
1571370203.332,94.238,38.574,30.273,88.867,31.250,0
1571370203.336,44.434,36.133,30.273,84.961,-36.133,0
1571370203.340,-32.715,39.551,27.344,-6.836,-24.414,0
1571370203.343,4.395,37.109,28.809,-15.625,51.758,0
1571370203.347,82.520,37.109,28.809,60.547,73.730,0
1571370203.351,75.195,41.016,27.344,101.562,67.383,0
1571370203.355,-5.371,39.062,27.832,31.250,50.781,0
1571370203.359,-18.555,37.109,26.855,-26.367,47.852,0
1571370203.377,62.988,37.109,27.832,46.875,31.738,0
1571370203.381,96.191,36.621,29.785,112.305,4.395,0
1571370203.385,16.113,33.691,28.320,53.223,17.578,0
1571370203.389,-25.391,32.227,27.344,-32.227,30.762,0
1571370203.393,44.922,32.227,31.738,27.344,-34.668,0
1571370203.397,103.027,30.762,37.109,113.281,-9.766,0
1571370203.401,45.410,32.715,36.621,80.078,52.734,0
1571370203.404,-22.949,35.156,36.133,-18.066,50.781,0
1571370203.408,25.391,35.645,39.551,10.742,58.594,0
1571370203.412,102.539,39.062,37.598,95.703,70.312,0
1571370203.416,67.871,43.457,37.598,101.562,46.875,0
1571370203.420,-10.254,43.457,36.133,11.719,13.184,0
1571370203.416,9.277,42.480,33.691,-15.625,34.180,0
1571370203.420,89.355,41.992,38.086,56.152,8.789,0
1571370203.424,89.355,41.504,39.551,108.887,12.695,0
1571370203.428,5.371,43.945,35.156,41.992,72.754,0
1571370203.432,-11.719,41.992,32.227,-34.668,43.457,0
1571370203.436,62.012,41.016,31.250,25.879,12.207,0
1571370203.440,98.145,45.410,30.762,103.027,-2.441,0
1571370203.443,21.484,45.410,29.297,55.664,25.391,0
1571370203.447,-29.297,43.457,24.902,-37.598,35.156,0
1571370203.451,39.062,42.969,25.391,10.254,71.289,0
1571370203.455,98.145,42.969,28.320,91.797,98.145,0
1571370203.459,40.527,42.969,28.809,66.406,47.363,0
1571370203.456,-25.391,44.434,28.320,-22.461,60.547,0
1571370203.460,24.414,45.410,29.297,-8.789,47.852,0
1571370203.464,97.168,42.969,28.320,69.336,33.203,0
1571370203.468,64.453,41.992,28.320,88.379,81.055,0
1571370203.472,-14.648,42.480,29.785,9.766,87.891,0
1571370203.476,-8.301,40.527,27.832,-21.484,12.695,0
1571370203.480,72.266,38.086,30.762,53.711,26.855,0
1571370203.483,90.332,38.574,33.691,117.188,80.078,0
1571370203.487,9.766,37.109,34.180,60.059,45.410,0
1571370203.491,-19.043,32.227,37.109,-20.020,16.113,0
1571370203.495,56.641,35.156,41.504,44.922,0.977,0
1571370203.499,102.051,35.645,42.969,133.789,9.277,0
1571370203.516,33.203,34.668,42.969,86.914,34.180,0
1571370203.520,-21.484,35.156,39.062,-8.301,50.781,0
1571370203.524,28.320,33.691,41.992,34.180,62.012,0
1571370203.528,91.309,36.133,41.992,109.863,15.625,0
1571370203.532,50.293,37.598,38.086,95.703,-28.320,0
1571370203.536,-23.438,37.109,39.551,5.859,-44.922,0
1571370203.540,10.254,38.086,37.598,5.859,-15.137,0
1571370203.543,85.938,38.574,36.133,77.148,72.266,0
1571370203.547,68.848,40.039,37.598,104.980,81.543,0
1571370203.551,-6.836,41.016,37.109,35.156,34.668,0
1571370203.555,-12.207,41.504,36.133,-20.020,14.648,0
1571370203.559,64.453,40.527,34.668,47.852,32.227,0
1571370203.556,92.285,40.039,31.738,113.281,25.391,0
1571370203.560,11.719,40.527,30.762,56.152,45.898,0
1571370203.564,-22.461,44.434,29.297,-26.855,62.500,0
1571370203.568,50.293,44.922,27.344,32.715,8.301,0
1571370203.572,98.145,40.527,26.367,115.723,14.648,0
1571370203.576,31.250,41.016,23.926,77.637,35.645,0
1571370203.580,-29.785,39.551,22.461,-19.531,11.230,0
1571370203.583,23.438,38.574,21.484,16.602,51.270,0
1571370203.587,94.238,38.086,22.461,95.215,62.012,0
1571370203.591,54.199,37.109,23.438,85.449,29.785,0
1571370203.595,-22.461,37.598,22.461,0.977,34.180,0
1571370203.599,0.977,39.062,22.949,-14.160,-0.488,0
1571370203.596,76.660,38.086,24.902,58.594,-15.625,0
1571370203.600,71.289,35.645,25.879,99.121,-4.883,0
1571370203.604,-10.254,35.156,26.855,33.203,47.852,0
1571370203.608,-19.531,35.645,29.297,-22.461,44.922,0
1571370203.612,65.430,36.133,28.809,44.434,-38.574,0
1571370203.616,96.680,35.156,28.320,110.840,-42.480,0
1571370203.620,20.996,35.645,29.785,57.129,31.738,0
1571370203.623,-14.648,39.062,30.762,-22.949,9.277,0
1571370203.627,49.805,37.109,29.297,33.203,15.625,0
1571370203.631,101.074,33.691,28.320,106.445,34.180,0
1571370203.635,38.086,32.227,30.273,79.102,11.230,0
1571370203.639,-33.203,32.227,30.273,-10.254,51.758,0
1571370203.667,13.672,34.668,29.297,9.277,76.660,0
1571370203.671,86.914,36.621,28.320,81.543,54.199,0
1571370203.675,55.176,36.133,29.785,92.285,7.324,0
1571370203.679,-21.973,34.668,28.809,11.719,21.484,0
1571370203.683,-6.348,37.109,27.832,-20.996,49.805,0
1571370203.687,70.801,37.598,32.715,49.805,28.809,0
1571370203.691,79.102,35.156,33.691,100.098,-25.879,0
1571370203.694,2.441,36.133,31.250,37.109,23.438,0
1571370203.698,-16.602,40.527,30.273,-29.297,83.008,0
1571370203.702,55.176,39.551,32.227,38.086,84.473,0
1571370203.706,94.727,38.574,31.738,118.164,67.871,0
1571370203.710,23.926,38.574,29.785,78.125,46.387,0
1571370203.697,-26.367,37.598,30.762,-9.766,39.062,0
1571370203.701,42.480,37.598,30.762,41.016,83.008,0
1571370203.705,104.492,35.156,30.273,123.535,41.992,0
1571370203.709,48.828,36.133,29.785,98.633,-9.277,0
1571370203.713,-17.578,36.621,27.832,8.789,29.297,0
1571370203.717,20.508,34.180,31.738,21.973,3.906,0
1571370203.721,89.355,34.668,36.621,88.867,-24.414,0
1571370203.724,68.848,36.133,34.668,111.328,3.906,0
1571370203.728,-7.324,36.621,30.762,33.691,13.184,0
1571370203.732,-0.488,35.645,30.273,-12.207,8.789,0
1571370203.736,85.938,37.109,31.250,57.617,21.484,0
1571370203.740,103.027,38.086,31.250,116.211,-2.441,0
1571370203.737,24.902,38.574,33.203,58.594,17.090,0
1571370203.741,-4.395,39.551,34.180,-16.113,62.012,0
1571370203.745,65.918,41.992,34.180,44.434,65.918,0
1571370203.749,110.352,45.898,33.203,117.676,41.016,0
1571370203.753,38.086,43.457,33.203,69.824,42.969,0
1571370203.757,-22.461,41.504,31.738,-24.414,19.043,0
1571370203.761,35.645,42.969,32.715,21.484,25.391,0
1571370203.764,105.469,41.992,34.668,103.516,27.832,0
1571370203.768,54.688,41.016,31.738,85.938,56.641,0
1571370203.772,-23.926,41.992,29.297,-10.742,107.910,0
1571370203.776,6.836,40.527,30.762,-9.766,34.180,0
1571370203.780,83.496,43.457,32.715,74.707,-15.625,0
1571370203.796,72.266,42.480,34.668,104.980,-7.812,0
1571370203.800,-13.672,38.574,32.715,33.691,-3.418,0
1571370203.804,-13.672,40.039,31.250,-17.578,28.320,0
1571370203.808,64.453,39.551,33.203,45.410,60.059,0
1571370203.812,89.844,37.109,32.227,120.117,35.645,0
1571370203.816,20.996,41.992,30.762,68.848,25.879,0
1571370203.820,-17.578,43.945,29.297,-20.996,29.297,0
1571370203.823,57.617,40.527,31.250,27.344,26.855,0
1571370203.827,111.328,38.086,32.227,109.375,-18.066,0
1571370203.831,39.062,35.645,30.762,74.707,11.719,0
1571370203.835,-26.367,38.086,28.320,-25.879,31.250,0
1571370203.839,23.926,37.109,26.367,3.418,-26.855,0
1571370203.836,89.844,35.645,27.832,77.637,6.836,0
1571370203.840,52.246,36.621,28.320,81.055,50.293,0
1571370203.844,-22.461,36.133,30.762,-0.488,52.246,0
1571370203.848,-0.488,36.133,30.762,-12.695,27.344,0
1571370203.852,77.148,37.598,28.809,66.895,21.484,0
1571370203.856,76.172,40.527,29.785,109.375,42.480,0
1571370203.860,-2.441,39.551,29.785,41.016,29.297,0
1571370203.863,-22.461,37.109,29.297,-23.438,28.320,0
1571370203.867,54.688,34.668,31.250,41.016,23.926,0
1571370203.871,91.309,36.133,28.809,115.723,21.484,0
1571370203.875,18.066,38.086,26.855,65.430,61.523,0
1571370203.879,-27.832,38.086,31.250,-25.391,14.648,0
1571370203.877,40.527,37.598,34.180,31.250,-19.043,0
1571370203.881,104.980,37.109,34.668,119.141,-27.832,0
1571370203.885,48.828,35.645,32.715,99.121,5.859,0
1571370203.889,-20.508,35.156,29.785,5.371,52.246,0
1571370203.893,24.902,36.621,33.691,20.996,17.090,0
1571370203.897,95.703,35.645,36.621,98.633,11.719,0
1571370203.901,67.871,38.086,31.738,110.840,5.371,0
1571370203.904,-5.371,41.016,27.832,34.180,9.277,0
1571370203.908,1.953,40.527,28.809,-5.859,38.086,0
1571370203.912,77.637,38.086,33.203,57.617,40.527,0
1571370203.916,89.844,37.109,35.156,120.117,52.246,0
1571370203.920,14.648,40.039,31.250,55.664,104.004,0
1571370203.936,-14.160,37.109,28.809,-22.461,98.633,0
1571370203.940,53.223,34.180,28.809,30.762,104.492,0
1571370203.944,98.145,36.133,26.855,100.098,74.219,0
1571370203.948,24.902,37.598,25.879,56.641,21.973,0
1571370203.952,-28.320,39.062,26.855,-37.109,53.711,0
1571370203.956,38.574,39.062,29.785,14.160,51.270,0
1571370203.960,106.934,38.574,31.250,91.309,18.555,0
1571370203.963,56.641,37.598,27.344,68.359,-0.977,0
1571370203.967,-16.602,38.574,25.391,-16.113,47.363,0
1571370203.971,20.996,41.016,27.344,-7.324,45.410,0
1571370203.975,92.285,41.016,27.832,68.359,4.395,0
1571370203.979,75.195,42.969,26.367,93.750,-1.953,0
1571370203.976,-1.465,43.457,23.438,20.020,-40.527,0
1571370203.980,-5.859,40.527,23.926,-24.414,-9.766,0
1571370203.984,69.336,38.086,26.855,44.434,48.828,0
1571370203.988,89.844,36.621,25.391,107.910,56.152,0
1571370203.992,11.230,36.621,26.367,48.828,50.293,0
1571370203.996,-25.391,37.598,28.809,-32.715,40.527,0
1571370204.000,44.434,37.598,29.297,30.762,77.637,0
1571370204.003,93.262,37.109,31.738,117.676,69.824,0
1571370204.007,28.809,39.062,31.250,82.031,30.762,0
1571370204.011,-33.203,38.086,30.273,-11.230,70.801,0
1571370204.015,22.949,37.598,34.180,25.391,13.184,0
1571370204.019,93.750,37.598,36.133,102.539,-48.828,0
1571370204.016,48.828,37.109,34.180,96.680,-1.953,0
1571370204.020,-17.578,38.086,29.297,13.672,26.855,0
1571370204.024,13.184,37.598,27.832,0.000,87.891,0
1571370204.028,87.402,37.598,28.809,62.500,78.125,0
1571370204.032,79.590,38.574,28.320,100.586,33.691,0
1571370204.036,-3.418,38.574,28.320,33.691,1.465,0
1571370204.040,-14.648,37.109,33.203,-28.809,-31.738,0
1571370204.043,64.453,36.621,35.156,40.039,-4.883,0
1571370204.047,92.285,36.133,33.203,106.445,43.457,0
1571370204.051,12.207,34.668,32.227,44.922,37.109,0
1571370204.055,-27.832,35.156,34.180,-33.691,35.645,0
1571370204.059,46.875,39.551,34.668,31.738,33.203,0
1571370204.076,102.539,41.016,31.738,110.352,-28.809,0
1571370204.080,37.109,41.504,31.738,73.242,-13.184,0
1571370204.084,-24.414,41.992,28.809,-20.508,21.973,1
1571370204.088,28.809,41.504,25.879,2.441,-14.160,0
1571370204.092,96.191,41.016,27.344,80.566,-8.301,0
1571370204.096,59.082,38.574,27.832,89.355,-15.137,0
1571370204.100,-17.090,37.598,28.809,4.395,-17.578,0
1571370204.103,3.906,38.574,31.250,-19.531,38.086,0
1571370204.107,83.496,38.574,32.227,56.152,8.301,0
1571370204.111,83.496,41.504,31.250,108.398,19.043,0
1571370204.115,-0.488,41.016,31.738,40.039,3.418,0
1571370204.119,-26.855,37.109,34.180,-31.738,6.836,0
1571370204.116,50.293,37.598,34.668,39.062,29.785,0
1571370204.120,94.727,38.574,36.621,113.281,-0.488,0
1571370204.124,21.484,38.086,36.621,59.082,19.043,0
1571370204.128,-30.273,40.527,33.203,-31.738,11.230,0
1571370204.132,39.551,41.504,31.250,22.949,4.883,0
1571370204.136,99.121,38.574,33.691,105.469,41.992,0
1571370204.140,41.016,39.551,33.691,83.008,44.922,0
1571370204.143,-22.949,41.016,32.715,-9.766,48.828,0
1571370204.147,22.949,40.527,34.668,-4.883,45.410,0
1571370204.151,95.215,38.574,34.180,75.684,62.988,0
1571370204.155,66.406,36.621,32.715,92.773,56.641,0
1571370204.159,-2.930,38.086,31.738,11.719,13.672,0
1571370204.156,6.348,40.039,30.273,-20.996,2.930,0
1571370204.160,75.684,39.551,31.738,52.734,37.109,0
1571370204.164,88.379,39.062,32.715,115.234,75.195,0
1571370204.168,7.812,39.551,30.762,52.246,27.344,0
1571370204.172,-22.949,36.133,31.738,-27.344,-7.324,0
1571370204.176,48.340,35.645,32.227,30.762,43.945,0
1571370204.180,92.773,38.574,28.320,104.980,50.293,0
1571370204.183,29.297,38.574,25.879,62.500,15.625,0
1571370204.187,-25.879,37.598,24.414,-32.715,20.508,0
1571370204.191,33.203,38.086,27.832,8.301,22.949,0
1571370204.195,101.562,37.109,31.250,93.750,-8.301,0
1571370204.199,51.758,37.598,29.785,80.078,25.391,0
1571370204.216,-20.508,36.621,27.344,-9.766,15.137,0
1571370204.220,11.230,34.180,30.762,-7.812,12.207,0
1571370204.224,87.891,33.203,33.203,72.754,42.480,0
1571370204.228,81.055,37.109,30.273,100.586,5.371,0
1571370204.232,4.883,40.039,29.297,22.949,31.738,0
1571370204.236,0.977,38.574,29.297,-26.855,62.500,0
1571370204.240,71.777,37.598,32.227,40.527,53.223,0
1571370204.243,93.750,37.598,34.668,115.234,16.602,0
1571370204.247,15.137,39.062,34.668,66.406,34.668,0
1571370204.251,-19.531,39.062,33.203,-14.160,13.672,0
1571370204.255,54.199,36.621,34.180,46.875,-9.277,0
1571370204.259,103.027,35.645,34.668,122.559,1.953,0
1571370204.256,39.551,35.156,33.203,81.543,-23.926,0
1571370204.260,-22.461,37.109,34.668,-18.555,4.395,0
1571370204.264,30.762,38.086,34.180,6.348,19.043,0
1571370204.268,97.168,37.598,35.156,85.938,28.320,0
1571370204.272,51.270,34.180,35.645,82.520,70.801,0
1571370204.276,-25.879,36.133,35.156,-8.301,70.801,0
1571370204.280,-1.465,40.039,38.574,-23.438,61.523,0
1571370204.283,73.730,35.645,39.062,49.316,1.465,0
1571370204.287,65.918,32.715,35.156,94.727,-14.160,0
1571370204.291,-10.254,35.645,32.227,28.320,62.988,0
1571370204.295,-18.555,35.645,31.250,-36.621,64.453,0
1571370204.299,62.988,31.738,31.738,29.297,6.836,0
1571370204.296,92.773,29.785,31.738,101.562,-2.930,0
1571370204.300,13.184,32.715,32.227,54.199,5.859,0
1571370204.304,-29.297,34.180,31.738,-35.645,33.203,0
1571370204.308,38.086,36.133,29.785,18.066,53.223,0
1571370204.312,97.656,35.156,29.297,104.004,63.965,0
1571370204.316,39.551,36.133,27.832,74.707,25.391,0
1571370204.320,-20.996,37.598,28.320,-11.719,48.828,0
1571370204.323,29.297,34.180,30.762,5.859,72.754,0
1571370204.327,97.168,31.738,31.250,78.613,34.668,0
1571370204.331,67.383,32.715,34.180,96.191,54.199,0
1571370204.335,-8.789,32.227,33.203,19.531,55.176,0
1571370204.339,6.348,34.668,31.250,-6.836,20.996,0
1571370204.356,90.820,38.086,31.738,62.012,21.973,0
1571370204.360,99.121,38.574,32.227,121.094,14.648,0
1571370204.364,10.742,37.109,33.691,55.176,48.828,0
1571370204.368,-16.113,36.621,32.227,-22.461,24.414,0
1571370204.372,63.477,37.598,32.227,51.758,-23.926,0
1571370204.376,100.098,38.574,34.180,131.348,-7.324,0
1571370204.380,23.926,38.574,35.645,73.730,8.301,0
1571370204.383,-25.879,36.133,37.598,-24.902,53.223,0
1571370204.387,40.527,36.133,35.645,20.020,62.988,0
1571370204.391,100.098,35.645,37.598,99.121,42.969,0
1571370204.395,48.828,36.621,36.133,77.637,-12.695,0
1571370204.399,-16.602,37.109,31.250,-12.695,-6.836,0
1571370204.398,22.461,36.621,33.203,-5.859,41.016,0
1571370204.402,95.703,37.598,36.133,74.219,62.012,0
1571370204.406,73.730,38.086,32.715,98.145,63.477,0
1571370204.410,-2.441,39.062,27.344,14.648,99.609,0
1571370204.414,-0.977,39.062,29.297,-23.438,62.012,0
1571370204.418,75.684,38.574,35.156,49.805,40.527,0
1571370204.422,90.332,37.598,34.668,108.887,71.289,0
1571370204.425,9.766,38.086,32.227,53.223,24.414,0
1571370204.429,-18.066,37.109,33.203,-22.461,39.062,0
1571370204.433,54.688,35.156,35.156,39.062,73.730,0
1571370204.437,103.516,33.203,35.645,113.281,67.383,0
1571370204.441,31.250,32.227,33.691,69.336,53.711,0
1571370204.436,-30.273,36.133,31.738,-21.973,18.066,0
1571370204.440,26.367,36.621,32.227,15.625,-8.301,0
1571370204.444,93.262,32.715,32.715,91.797,-1.465,0
1571370204.448,50.781,36.133,32.227,77.148,31.738,0
1571370204.452,-18.555,40.039,30.762,-2.930,52.246,0
1571370204.456,12.695,41.016,31.738,2.930,38.086,0
1571370204.460,90.820,39.062,37.109,79.102,39.062,0
1571370204.463,77.148,40.039,38.574,117.188,61.035,0
1571370204.467,-4.883,41.504,35.156,32.227,17.578,0
1571370204.471,-3.418,40.039,36.133,-20.508,7.324,0
1571370204.475,77.148,38.574,35.645,62.012,31.738,0
1571370204.479,103.516,36.621,37.598,127.930,42.969,0
1571370204.496,21.973,37.598,36.133,64.453,5.859,0
1571370204.500,-18.555,41.016,33.203,-29.297,17.090,0
1571370204.504,54.199,41.992,30.762,28.809,55.176,0
1571370204.508,106.445,41.016,25.879,111.816,65.430,0
1571370204.512,37.598,41.504,26.367,72.266,31.250,0
1571370204.516,-29.785,41.992,26.855,-21.973,3.418,0
1571370204.520,24.902,42.969,27.832,-0.977,22.461,0
1571370204.523,92.773,41.016,30.762,79.590,-4.395,0
1571370204.527,48.828,38.574,28.320,87.402,-17.578,0
1571370204.531,-21.484,39.551,27.344,5.859,-0.488,0
1571370204.535,5.371,41.016,31.250,-11.719,45.410,0
1571370204.539,85.938,40.527,33.203,55.176,25.391,0
1571370204.537,90.820,41.016,35.156,104.004,16.113,0
1571370204.541,9.766,41.992,33.203,43.457,27.832,0
1571370204.545,-8.301,40.527,32.227,-22.949,7.812,0
1571370204.549,63.965,41.504,33.691,41.016,64.941,0
1571370204.553,100.098,41.016,31.250,117.188,66.895,0
1571370204.557,29.785,38.086,27.832,65.430,-14.160,0
1571370204.561,-16.602,41.504,26.855,-27.832,-12.207,0
1571370204.564,55.176,42.480,26.855,24.414,-6.836,0
1571370204.568,113.770,39.551,26.855,112.793,40.039,0
1571370204.572,49.316,39.551,23.438,76.660,81.543,0
1571370204.576,-19.531,39.551,24.902,-14.648,64.941,0
1571370204.580,29.785,36.621,29.297,13.672,41.504,0
1571370204.576,100.098,36.133,31.738,82.031,-12.695,0
1571370204.580,64.453,35.645,33.203,93.750,6.836,0
1571370204.584,-14.160,34.668,32.227,13.672,57.617,0
1571370204.588,0.488,34.668,29.785,-23.438,86.914,0
1571370204.592,81.055,34.180,31.250,48.828,28.809,0
1571370204.596,85.938,35.156,31.738,109.375,-13.184,0
1571370204.600,1.465,36.621,32.227,42.480,34.668,0
1571370204.603,-23.438,37.109,32.715,-36.133,65.918,0
1571370204.607,51.758,35.645,35.156,31.738,40.527,0
1571370204.611,97.168,34.180,38.086,120.117,24.902,0
1571370204.615,29.785,38.086,36.621,78.125,39.551,0
1571370204.619,-19.531,37.109,34.668,-22.461,50.781,0
1571370204.636,44.434,36.133,32.227,20.508,83.008,0
1571370204.640,102.539,40.039,30.762,107.910,81.055,0
1571370204.644,54.688,38.574,30.273,102.539,46.875,0
1571370204.648,-21.973,37.109,32.227,2.441,-1.953,0
1571370204.652,0.977,38.086,32.715,-9.277,-5.371,0
1571370204.656,79.590,35.156,34.668,71.289,1.465,0
1571370204.660,62.500,36.133,34.180,103.027,60.059,0
1571370204.663,-14.648,37.109,30.762,29.297,88.867,0
1571370204.667,-8.301,33.203,32.227,-15.625,31.250,0
1571370204.671,72.754,34.180,34.180,53.223,20.996,0
1571370204.675,92.773,37.109,33.691,117.188,25.391,0
1571370204.679,13.184,38.574,31.250,59.082,11.230,0
1571370204.676,-23.438,38.086,29.785,-25.391,7.324,0
1571370204.680,49.316,36.133,32.227,33.691,-2.441,0
1571370204.684,98.633,37.598,31.250,111.328,34.668,0
1571370204.688,27.832,36.133,30.762,62.988,85.449,0
1571370204.692,-30.762,34.668,28.809,-33.203,70.312,0
1571370204.696,20.020,34.180,30.762,8.301,41.992,0
1571370204.700,86.914,38.086,33.203,91.797,-2.930,0
1571370204.703,52.734,39.062,30.273,82.031,-7.812,0
1571370204.707,-17.578,35.645,27.832,-7.324,21.484,0
1571370204.711,5.371,36.133,29.297,-8.789,40.039,0
1571370204.715,82.031,40.039,35.156,69.336,30.273,0
1571370204.719,79.102,41.016,35.645,110.840,-35.645,0
1571370204.716,-2.441,39.062,31.250,44.922,-11.719,0
1571370204.720,-12.207,39.062,29.785,-18.066,5.859,0
1571370204.724,65.430,37.598,30.762,48.340,31.250,0
1571370204.728,95.703,38.574,29.785,122.070,65.918,0
1571370204.732,20.996,41.992,29.297,65.918,9.766,0
1571370204.736,-17.090,40.527,29.785,-21.973,32.715,0
1571370204.740,52.246,39.062,31.250,32.715,44.922,0
1571370204.743,100.586,41.504,30.762,111.816,9.766,0
1571370204.747,36.621,40.527,30.273,72.266,14.160,0
1571370204.751,-19.531,39.551,31.250,-14.648,-2.441,0
1571370204.755,30.762,40.527,29.785,15.625,42.969,0
1571370204.759,97.168,39.062,30.273,86.914,72.266,0
1571370204.776,67.871,41.992,29.785,95.703,57.617,0
1571370204.780,-3.418,42.969,27.832,18.066,56.152,0
1571370204.784,9.766,39.551,30.273,-9.277,40.039,0
1571370204.788,85.938,39.551,36.133,58.105,44.922,0
1571370204.792,81.543,39.551,39.062,108.887,51.270,0
1571370204.796,-2.441,40.039,36.133,42.969,14.648,0
1571370204.800,-18.555,40.039,36.621,-33.203,46.875,0
1571370204.803,61.523,38.574,38.086,34.180,80.078,0
1571370204.807,97.168,41.016,36.621,106.934,22.461,0
1571370204.811,22.949,43.945,34.668,57.129,33.203,0
1571370204.815,-23.438,41.504,33.203,-27.832,66.406,0
1571370204.819,42.969,41.016,33.691,17.578,-12.207,0
1571370204.837,107.910,41.016,34.180,99.609,4.395,0
1571370204.841,49.805,38.574,36.133,81.055,54.199,0
1571370204.845,-25.391,36.621,36.133,-4.395,23.926,0
1571370204.849,17.090,38.574,35.645,12.207,27.344,0
1571370204.853,93.262,41.504,37.598,86.914,39.551,0
1571370204.857,68.359,41.992,36.621,104.980,20.508,0
1571370204.861,-16.602,40.039,34.180,20.020,-32.227,0
1571370204.864,-8.789,38.574,34.668,-19.043,-11.719,0
1571370204.868,74.707,40.039,38.086,59.570,11.719,0
1571370204.872,84.961,38.574,40.527,113.281,8.301,0
1571370204.876,1.953,35.645,40.527,49.316,25.879,0
1571370204.880,-21.484,37.598,37.109,-28.320,64.941,0
1571370204.856,56.641,39.062,34.180,26.855,64.453,0
1571370204.860,101.562,39.551,35.156,107.910,9.766,0
1571370204.864,31.250,40.039,32.715,65.430,3.906,0
1571370204.868,-21.973,38.086,31.250,-24.414,76.172,0
1571370204.872,40.039,39.062,35.645,15.137,62.500,0
1571370204.876,101.562,35.645,38.086,92.285,-3.906,0
1571370204.880,54.688,35.645,35.645,86.426,57.617,0
1571370204.883,-7.812,38.086,30.762,0.488,35.156,0
1571370204.887,15.137,36.621,32.715,-2.930,-35.645,0
1571370204.891,79.590,38.086,34.668,56.641,36.621,0
1571370204.895,69.824,38.574,31.738,86.914,20.508,0
1571370204.899,-5.371,41.016,25.879,29.297,-13.184,0
1571370204.917,-8.301,39.551,22.461,-25.879,47.363,0
1571370204.921,70.801,34.668,26.367,36.621,10.742,0
1571370204.925,96.191,36.621,29.297,104.980,19.043,0
1571370204.929,19.043,36.133,27.344,47.852,50.781,0
1571370204.933,-17.090,36.133,25.879,-39.551,5.859,0
1571370204.937,52.246,39.062,24.414,16.602,24.902,0
1571370204.941,99.121,37.109,27.832,99.609,28.809,0
1571370204.944,35.645,37.109,29.297,61.035,18.555,0
1571370204.948,-28.809,39.551,27.344,-32.227,40.039,0
1571370204.952,28.809,40.039,27.832,12.207,46.387,0
1571370204.956,97.656,36.621,30.273,84.473,15.625,0
1571370204.960,45.410,38.086,29.297,72.266,42.969,0
1571370204.960,-27.344,38.574,27.832,-9.277,53.711,0
1571370204.964,-0.488,38.086,27.832,-24.414,57.129,0
1571370204.968,77.148,36.133,27.832,52.246,27.344,0
1571370204.972,76.172,33.203,25.391,96.191,23.438,0
1571370204.976,-3.418,35.645,26.367,22.949,48.340,0
1571370204.980,-20.508,34.668,32.715,-37.598,41.504,0
1571370204.984,58.105,35.156,36.621,28.320,26.367,0
1571370204.987,92.285,37.109,36.621,101.074,11.230,0
1571370204.991,13.672,36.133,34.180,52.246,22.461,0
1571370204.995,-28.320,38.086,34.668,-45.898,54.199,0
1571370204.999,44.922,40.039,35.645,7.812,64.453,0
1571370205.003,101.074,39.551,33.203,96.680,47.363,0
1571370204.996,39.062,38.086,31.250,68.359,44.922,0
1571370205.000,-25.879,35.645,28.809,-27.344,47.363,0
1571370205.004,28.809,35.156,29.297,-3.418,64.941,0
1571370205.008,104.980,37.598,30.762,78.125,43.457,0
1571370205.012,71.289,40.039,28.320,96.191,52.734,0
1571370205.016,-10.254,39.551,27.832,21.973,70.312,0
1571370205.020,-7.324,40.039,27.344,-13.672,56.152,0
1571370205.023,65.430,39.551,29.785,53.711,49.805,0
1571370205.027,71.777,38.086,34.180,105.469,18.066,0
1571370205.031,-3.418,39.062,30.273,43.457,-4.395,0
1571370205.035,-22.461,35.156,29.785,-20.508,36.133,0
1571370205.039,57.617,34.180,31.738,47.852,19.531,0
1571370205.058,99.609,35.645,31.250,116.211,1.465,0
1571370205.062,20.508,36.621,29.297,62.988,64.453,0
1571370205.066,-32.227,39.062,28.809,-24.902,47.363,0
1571370205.070,35.645,37.598,32.715,24.902,-14.160,0
1571370205.074,99.609,38.574,32.227,110.352,5.371,0
1571370205.078,48.828,37.598,32.227,90.820,49.316,0
1571370205.082,-20.508,32.227,34.180,-7.812,41.016,0
1571370205.085,24.414,35.645,33.691,3.418,-3.906,0
1571370205.089,102.539,36.621,35.645,80.078,7.812,0
1571370205.093,78.125,34.180,35.645,100.098,31.250,0
1571370205.097,-3.906,36.621,32.715,24.902,75.684,0
1571370205.101,-1.953,41.504,33.203,-19.043,80.078,0
1571370205.096,79.102,43.457,31.250,55.664,4.883,0
1571370205.100,95.703,40.039,29.297,118.164,2.930,0
1571370205.104,15.137,37.598,29.785,58.594,52.734,0
1571370205.108,-23.438,39.551,28.320,-21.484,8.789,0
1571370205.112,48.828,39.062,29.785,32.715,0.488,0
1571370205.116,100.098,36.621,31.250,113.770,14.648,0
1571370205.120,31.738,38.574,30.273,72.266,19.043,0
1571370205.123,-23.438,41.016,28.809,-26.367,34.668,0
1571370205.127,35.156,41.016,28.809,11.719,45.898,0
1571370205.131,94.727,41.992,26.367,83.984,0.977,0
1571370205.135,47.852,39.551,24.902,75.684,-23.438,0
1571370205.139,-20.996,36.621,23.926,-8.301,61.035,0
1571370205.156,8.301,37.109,27.832,-18.066,78.613,0
1571370205.160,89.355,39.062,30.762,63.477,74.707,0
1571370205.164,78.125,38.086,30.762,103.516,78.613,0
1571370205.168,-5.859,38.574,32.715,30.273,50.293,0
1571370205.172,-8.301,41.016,35.645,-24.902,18.555,1
1571370205.176,70.312,40.527,36.133,43.457,25.391,0
