timestamps,TP9,AF7,AF8,TP10,Right AUX,Marker0
1571370336.155,9.277,54.199,36.133,41.992,26.855,0
1571370336.159,57.617,51.758,36.133,24.902,62.988,0
1571370336.163,85.938,50.781,37.109,22.461,66.895,0
1571370336.167,42.480,53.711,35.156,52.734,47.852,0
1571370336.171,4.395,54.199,34.180,40.039,70.801,0
1571370336.175,46.875,53.711,37.109,34.668,86.914,0
1571370336.179,84.961,54.199,36.133,33.691,59.082,0
1571370336.182,35.645,53.711,37.109,36.621,30.762,0
1571370336.186,-6.348,50.781,38.086,33.691,34.180,0
1571370336.190,30.273,47.852,35.645,33.691,27.832,0
1571370336.194,75.684,46.387,38.574,18.066,0.488,0
1571370336.198,56.152,44.922,41.016,32.227,35.645,0
1571370336.195,0.000,44.922,39.062,44.434,6.836,0
1571370336.199,6.348,45.410,39.551,30.762,-7.324,0
1571370336.203,62.012,50.781,40.039,10.254,37.598,0
1571370336.207,71.289,50.293,40.527,28.320,63.477,0
1571370336.211,16.113,48.340,41.504,57.129,64.453,0
1571370336.215,0.000,48.828,41.992,36.133,19.531,0
1571370336.219,54.199,47.852,43.457,33.203,44.434,0
1571370336.222,85.938,50.781,41.504,38.574,70.312,0
1571370336.226,38.574,54.688,39.551,56.152,10.742,0
1571370336.230,-1.465,54.199,38.086,46.875,-7.812,0
1571370336.234,39.062,49.805,37.598,36.621,70.801,0
1571370336.238,87.891,50.293,39.551,24.902,85.938,0
1571370336.235,58.105,53.711,40.039,39.551,34.180,0
1571370336.239,8.789,54.688,38.574,46.387,-3.906,0
1571370336.243,34.180,54.199,37.598,38.086,13.672,0
1571370336.247,85.449,52.246,40.527,14.648,36.621,0
1571370336.251,78.613,55.176,40.527,39.062,24.902,0
1571370336.255,27.344,58.105,36.133,52.734,14.648,0
1571370336.259,17.578,58.594,35.645,20.020,-17.090,0
1571370336.262,59.082,57.129,36.133,-6.836,-31.250,0
1571370336.266,68.359,56.152,33.203,0.488,38.086,0
1571370336.270,9.766,55.176,29.785,25.391,86.426,0
1571370336.274,-13.672,51.758,30.273,7.812,71.777,0
1571370336.278,44.922,52.734,31.250,4.883,11.719,0
1571370336.295,78.125,53.223,30.273,-0.977,10.254,0
1571370336.299,27.344,50.781,28.809,8.301,87.402,0
1571370336.303,-13.184,49.316,28.809,7.324,45.410,0
1571370336.307,28.809,48.828,33.691,11.719,-17.578,0
1571370336.311,78.125,52.246,33.691,8.789,16.113,0
1571370336.315,46.875,53.711,32.227,27.344,29.785,0
1571370336.319,-3.906,53.223,29.785,33.203,-20.996,0
1571370336.322,18.066,51.758,28.809,26.367,1.465,0
1571370336.326,71.777,51.270,34.180,16.113,-10.742,0
1571370336.330,69.824,50.293,34.668,39.062,5.371,0
1571370336.334,13.672,49.805,36.133,59.082,80.078,0
1571370336.338,3.906,49.805,39.551,40.039,20.020,0
1571370336.355,57.617,49.316,38.086,35.156,23.438,0
1571370336.359,71.289,48.828,37.598,41.504,47.363,0
1571370336.363,15.625,48.340,36.621,63.965,-3.906,0
1571370336.367,-12.695,47.363,32.227,58.105,33.691,0
1571370336.371,37.598,47.852,31.738,50.781,48.340,0
1571370336.375,75.195,48.828,31.250,47.852,37.109,0
1571370336.379,31.250,47.852,27.832,57.129,20.508,0
1571370336.382,-1.953,49.316,25.879,52.246,28.809,0
1571370336.386,37.598,50.293,26.367,54.199,0.000,0
1571370336.390,83.984,51.270,23.926,36.621,49.316,0
1571370336.394,57.617,48.828,22.461,44.922,63.477,0
1571370336.398,5.371,47.363,22.949,54.199,23.438,0
1571370336.375,19.043,51.758,22.461,42.969,32.227,0
1571370336.379,72.266,53.711,25.391,22.949,80.566,0
1571370336.383,72.266,53.711,25.879,37.598,89.355,0
1571370336.387,13.184,52.734,28.809,60.059,-34.180,0
1571370336.391,-3.418,53.223,31.250,40.039,9.766,0
1571370336.395,47.852,54.688,31.738,27.832,64.941,0
1571370336.399,76.660,57.129,30.762,36.621,34.180,0
1571370336.402,25.391,57.129,32.227,56.152,-10.742,0
1571370336.406,-3.418,54.688,36.133,43.457,-43.457,0
1571370336.410,42.480,50.293,38.086,41.992,-46.387,0
1571370336.414,80.078,50.293,39.062,42.480,-12.695,0
1571370336.418,47.852,50.293,37.598,55.176,36.621,0
1571370336.435,2.441,47.852,36.133,58.105,23.926,0
1571370336.439,27.344,48.340,37.598,55.664,1.953,0
1571370336.443,76.660,49.316,37.598,31.250,29.297,0
1571370336.447,56.152,48.340,39.551,47.852,36.621,0
1571370336.451,2.930,48.828,38.086,62.988,30.762,0
1571370336.455,16.602,51.270,36.133,53.711,78.613,0
1571370336.459,65.430,51.758,38.086,31.738,28.809,0
1571370336.462,64.453,51.270,38.086,35.645,21.484,0
1571370336.466,15.625,49.805,36.621,71.289,44.922,0
1571370336.470,1.953,47.363,37.109,53.223,-2.441,0
1571370336.474,50.293,45.898,37.109,40.039,5.371,0
1571370336.478,78.125,47.363,37.109,50.293,41.504,0
1571370336.495,31.738,49.805,37.109,64.941,62.500,0
1571370336.499,-3.906,43.945,37.598,50.781,49.316,0
1571370336.503,39.551,44.922,41.016,45.898,-12.695,0
1571370336.507,83.984,47.363,41.504,30.273,-25.391,0
1571370336.511,43.945,43.945,37.598,43.945,20.020,0
1571370336.515,-10.254,45.410,36.621,55.176,6.836,0
1571370336.519,13.184,45.898,35.645,46.387,0.000,0
1571370336.522,64.453,41.016,35.156,18.066,49.805,0
1571370336.526,48.828,39.062,35.645,28.320,72.266,0
1571370336.530,-7.324,41.504,33.691,47.852,41.992,0
1571370336.534,-0.977,43.945,34.180,32.227,34.180,0
1571370336.538,56.152,46.387,36.133,12.695,11.719,0
1571370336.516,68.848,46.875,32.715,26.367,51.758,0
1571370336.520,15.137,45.898,30.762,57.129,83.008,0
1571370336.524,-2.930,47.852,33.203,41.016,6.836,0
1571370336.528,55.664,48.340,34.180,37.598,-8.789,0
1571370336.532,89.844,47.852,33.203,37.109,18.066,0
1571370336.536,46.387,45.898,33.691,47.363,28.320,0
1571370336.540,2.930,45.410,36.133,44.922,9.766,0
1571370336.543,37.109,47.363,38.086,42.480,24.414,0
1571370336.547,84.473,47.852,35.645,26.367,26.855,0
1571370336.551,51.758,50.293,34.668,39.062,52.734,0
1571370336.555,4.395,52.246,36.133,44.922,55.176,0
1571370336.559,32.227,50.293,36.133,43.457,36.133,0
1571370336.575,82.520,47.363,38.086,30.762,52.734,0
1571370336.579,71.777,48.340,36.133,36.133,27.832,0
1571370336.583,18.555,48.828,37.109,58.594,47.363,0
1571370336.587,12.207,47.852,39.062,49.805,32.715,0
1571370336.591,62.012,48.828,40.527,35.156,1.465,0
1571370336.595,76.172,51.270,39.551,43.457,20.020,0
1571370336.599,20.996,52.734,35.156,50.781,-2.441,0
1571370336.602,-2.930,50.781,34.180,32.227,22.461,0
1571370336.606,46.875,51.758,36.133,29.785,39.551,0
1571370336.610,86.914,51.758,39.062,27.344,19.531,0
1571370336.614,43.457,52.246,35.156,44.922,31.738,0
1571370336.618,-5.371,50.293,33.203,41.504,29.297,0
1571370336.616,29.297,47.363,37.598,41.992,19.043,0
1571370336.620,73.730,45.410,37.109,21.484,23.438,0
1571370336.624,43.457,45.410,34.668,32.227,1.953,0
1571370336.628,-4.883,44.922,36.133,46.875,-20.020,0
1571370336.632,6.836,43.945,37.598,33.203,0.000,0
1571370336.636,54.688,43.945,40.039,15.137,12.695,0
1571370336.640,52.734,41.016,41.992,30.762,21.973,0
1571370336.643,-2.441,39.062,42.969,54.199,-26.367,0
1571370336.647,-5.371,37.598,44.434,44.922,-14.648,0
1571370336.651,57.129,37.109,45.898,35.156,23.926,0
1571370336.655,80.566,39.551,47.363,41.992,51.270,0
1571370336.659,34.668,42.969,47.363,66.895,61.035,0
1571370336.655,6.348,43.457,45.410,56.152,59.082,0
1571370336.659,56.641,45.898,42.480,49.316,32.715,0
1571370336.663,99.609,49.805,38.574,40.039,14.160,0
1571370336.667,48.828,52.734,38.574,54.199,78.613,0
1571370336.671,-1.953,53.223,38.574,49.316,77.637,0
1571370336.675,34.180,46.875,34.668,41.016,40.039,0
1571370336.679,85.449,46.875,35.645,23.438,35.156,0
1571370336.682,61.523,50.781,33.203,34.668,46.875,0
1571370336.686,5.859,50.293,30.273,46.875,64.453,0
1571370336.690,20.996,49.805,31.738,34.180,9.277,0
1571370336.694,78.125,50.293,32.715,19.531,-20.508,0
1571370336.698,70.801,48.340,33.691,29.785,-14.160,0
1571370336.715,10.742,47.363,30.762,55.176,-20.508,0
1571370336.719,-1.953,48.340,28.809,32.715,34.180,0
1571370336.723,54.199,46.387,30.762,16.113,6.836,0
1571370336.727,82.031,45.410,30.762,25.391,27.344,0
1571370336.731,31.250,47.363,33.203,44.922,19.043,0
1571370336.735,-6.836,49.805,34.668,41.504,39.551,0
1571370336.739,35.645,51.758,37.109,39.062,93.750,0
1571370336.742,79.102,49.805,39.551,20.996,67.383,0
1571370336.746,45.898,48.828,35.156,42.969,82.520,0
1571370336.750,3.418,52.246,32.715,57.129,48.340,0
1571370336.754,33.203,53.711,32.715,51.270,29.297,0
1571370336.758,83.496,54.199,31.250,26.855,60.059,0
1571370336.775,66.406,51.270,33.203,34.180,6.348,0
1571370336.779,13.184,52.246,34.668,59.082,8.301,0
1571370336.783,9.277,52.734,35.645,48.828,44.922,0
1571370336.787,57.617,49.316,39.062,34.180,24.414,0
1571370336.791,67.871,51.270,38.574,41.016,21.973,0
1571370336.795,15.625,50.293,35.645,60.547,33.203,0
1571370336.799,-0.977,47.363,36.133,48.828,14.160,0
1571370336.802,48.828,49.316,36.133,42.480,25.879,0
1571370336.806,76.172,48.340,35.156,43.945,58.594,0
1571370336.810,25.391,49.316,32.227,52.246,49.316,0
1571370336.814,-11.719,51.758,31.738,43.945,5.859,0
1571370336.818,30.762,51.270,34.180,49.316,4.395,0
1571370336.795,76.172,50.781,33.691,33.691,63.965,0
1571370336.799,44.922,49.805,30.762,41.504,47.852,0
1571370336.803,0.488,51.758,27.344,44.434,-18.066,0
1571370336.807,27.344,54.199,29.785,40.039,25.391,0
1571370336.811,72.266,51.270,35.156,28.809,67.383,0
1571370336.815,44.922,49.316,34.668,29.297,92.773,0
1571370336.819,-13.184,46.387,31.738,44.434,76.172,0
1571370336.822,-8.301,44.922,33.203,34.180,77.637,0
1571370336.826,45.898,47.852,32.715,13.184,50.293,0
1571370336.830,61.035,46.875,33.203,24.414,6.836,0
1571370336.834,3.906,43.457,35.645,50.781,85.449,0
1571370336.838,-20.508,44.922,33.691,39.062,42.969,0
1571370336.855,34.668,47.852,33.203,35.156,-1.465,0
1571370336.859,65.918,47.852,33.691,21.484,-5.859,0
1571370336.863,16.113,46.875,33.203,39.062,-35.645,0
1571370336.867,-22.949,45.898,31.250,44.922,-5.371,0
1571370336.871,22.461,43.945,33.203,42.969,-20.020,0
1571370336.875,69.824,46.387,34.180,25.879,-6.348,0
1571370336.879,49.805,51.270,31.250,35.156,28.809,0
1571370336.882,7.324,47.363,32.715,51.758,56.152,0
1571370336.886,15.625,46.387,36.133,42.969,72.754,0
1571370336.890,64.453,48.340,33.691,19.531,82.520,0
1571370336.894,62.012,47.852,31.250,31.738,70.312,0
1571370336.898,6.836,50.781,31.738,49.316,34.668,0
1571370336.895,3.906,52.246,31.250,38.574,43.945,0
1571370336.899,60.059,50.293,31.250,26.367,40.039,0
1571370336.903,83.496,50.781,30.273,28.809,-28.320,0
1571370336.907,37.598,52.246,28.320,54.199,-15.625,0
1571370336.911,4.395,52.246,27.344,39.551,16.602,0
1571370336.915,44.922,53.223,27.344,36.133,0.488,0
1571370336.919,84.961,56.641,27.344,29.785,17.090,0
1571370336.922,44.434,57.617,28.809,42.969,45.410,0
1571370336.926,0.977,55.176,30.762,45.410,70.312,0
1571370336.930,33.203,53.223,29.297,37.109,71.777,0
1571370336.934,79.102,51.270,29.785,18.066,43.945,0
1571370336.938,54.688,49.316,30.273,36.621,-14.160,0
1571370336.955,-4.395,47.852,30.762,52.734,-21.973,0
1571370336.959,2.930,47.363,34.668,36.621,17.578,0
1571370336.963,55.664,46.875,34.668,16.113,84.473,0
1571370336.967,59.570,43.457,31.738,29.297,95.215,0
1571370336.971,7.812,41.992,32.227,51.758,-14.648,0
1571370336.975,-5.371,41.992,35.156,36.621,-1.953,0
1571370336.979,45.410,40.039,37.598,19.531,35.645,0
1571370336.982,74.219,41.016,35.156,21.484,-7.812,0
1571370336.986,22.949,42.969,32.715,45.410,-18.555,0
1571370336.990,-14.648,44.922,33.691,40.527,-20.508,0
1571370336.994,31.250,42.969,35.156,38.086,-36.621,0
1571370336.998,71.777,41.016,35.645,26.855,-16.113,0
1571370336.995,33.203,40.527,37.109,42.969,-15.625,0
1571370336.999,-11.719,38.086,37.109,53.711,-5.371,0
1571370337.003,23.438,39.062,35.645,52.246,15.137,0
1571370337.007,76.660,40.527,36.621,30.273,10.742,0
1571370337.011,56.152,39.551,38.086,41.992,-7.324,0
1571370337.015,4.883,41.992,39.062,60.547,37.109,0
1571370337.019,7.812,44.922,43.457,42.480,61.523,0
1571370337.022,64.453,48.340,45.410,20.508,33.691,0
1571370337.026,79.102,49.316,42.480,34.180,37.109,0
1571370337.030,27.832,49.316,41.504,53.223,68.848,0
1571370337.034,15.137,49.805,41.992,41.016,97.168,0
1571370337.038,63.477,52.734,41.016,33.203,65.918,0
1571370337.035,93.750,52.734,38.086,29.785,23.926,0
1571370337.039,50.293,51.758,35.645,55.176,14.160,0
1571370337.043,12.207,52.734,33.203,47.363,12.207,0
1571370337.047,50.781,53.711,31.250,47.852,-11.719,0
1571370337.051,93.262,50.781,33.203,34.180,-25.391,0
1571370337.055,57.617,48.340,32.715,38.086,18.066,0
1571370337.059,6.836,48.340,32.715,47.852,42.969,0
1571370337.062,25.391,47.852,34.668,39.551,41.992,0
1571370337.066,67.871,45.898,34.180,17.578,59.082,0
1571370337.070,50.293,45.898,33.691,25.879,22.461,0
1571370337.074,-8.789,46.387,33.691,41.016,-21.973,0
1571370337.078,-11.230,45.898,37.598,30.762,-23.438,0
1571370337.075,49.805,46.387,42.969,16.113,3.906,0
1571370337.079,72.754,48.828,42.480,29.297,15.137,0
1571370337.083,11.719,49.805,38.574,51.758,39.551,0
1571370337.087,-15.137,47.852,36.133,35.645,84.961,0
1571370337.091,38.574,46.875,36.621,32.227,52.734,0
1571370337.095,74.707,45.410,37.109,30.273,33.691,0
1571370337.099,31.250,45.898,36.133,50.781,83.496,0
1571370337.102,-8.301,49.805,34.668,48.828,53.711,0
1571370337.106,31.738,51.270,35.645,41.504,40.527,0
1571370337.110,83.496,49.316,36.133,27.344,20.020,0
1571370337.114,63.965,43.457,35.645,49.805,16.602,0
1571370337.118,1.953,46.875,31.250,52.246,47.363,0
1571370337.135,0.977,50.781,29.785,24.902,37.598,0
1571370337.139,65.430,47.852,30.762,15.625,30.273,0
1571370337.143,71.777,51.270,28.320,38.086,62.500,0
1571370337.147,13.672,56.152,26.367,59.082,100.586,0
1571370337.151,3.906,55.664,26.855,47.363,99.609,0
1571370337.155,52.734,55.176,28.320,32.227,62.500,0
1571370337.159,69.824,55.176,31.250,28.809,83.984,0
1571370337.162,24.902,52.734,32.227,54.199,100.586,0
1571370337.166,3.418,55.176,27.832,44.922,64.453,0
1571370337.170,44.434,56.641,26.855,41.016,7.812,0
1571370337.174,81.055,56.641,25.879,28.320,-42.969,0
1571370337.178,46.387,57.129,27.344,35.645,-16.602,0
1571370337.175,3.418,56.152,30.762,41.992,5.859,0
1571370337.179,37.598,54.688,29.297,42.480,31.738,0
1571370337.183,86.426,54.688,27.832,23.438,19.531,0
1571370337.187,62.012,56.152,27.344,33.203,17.578,0
1571370337.191,5.371,53.711,25.879,42.969,32.227,0
1571370337.195,10.742,51.758,25.391,25.391,-0.488,0
1571370337.199,57.129,52.734,25.879,-4.883,-17.090,0
1571370337.202,62.012,52.246,25.879,10.742,3.418,0
1571370337.206,10.742,49.805,24.902,40.039,41.504,0
1571370337.210,-6.348,49.805,24.414,16.602,44.434,0
1571370337.214,43.945,48.828,26.855,3.418,-20.020,0
1571370337.218,70.801,48.828,27.344,15.137,14.648,0
1571370337.215,22.461,49.805,26.855,46.875,44.922,0
1571370337.219,-15.625,49.805,27.832,39.551,63.965,0
1571370337.223,30.273,49.316,29.297,33.691,113.770,0
1571370337.227,75.195,46.387,30.273,21.484,96.191,0
1571370337.231,41.992,47.363,28.809,32.227,33.691,0
1571370337.235,4.395,50.781,27.832,43.945,2.930,0
1571370337.239,36.621,48.828,29.297,41.992,11.230,0
1571370337.242,82.031,49.316,29.297,18.066,29.785,0
1571370337.246,63.477,48.828,28.320,28.809,66.406,0
1571370337.250,5.859,47.363,28.320,48.828,38.086,0
1571370337.254,10.254,48.828,27.832,36.133,-21.973,0
1571370337.258,64.941,48.340,27.832,13.184,-16.602,0
1571370337.275,76.172,47.852,25.391,25.391,30.762,0
1571370337.279,28.809,48.340,25.391,48.828,62.012,0
1571370337.283,8.301,52.246,28.809,29.785,58.594,0
1571370337.287,54.199,51.758,29.297,26.367,57.129,0
1571370337.291,83.008,50.293,28.809,29.297,40.527,0
1571370337.295,31.738,50.781,28.320,48.828,52.246,0
1571370337.299,-5.859,49.316,27.344,39.551,35.156,0
1571370337.302,39.062,50.293,29.297,36.621,49.316,0
1571370337.306,79.102,50.781,30.273,26.855,83.496,0
1571370337.310,44.922,50.293,27.344,36.133,63.965,0
1571370337.314,0.488,51.758,25.391,40.039,88.379,0
1571370337.318,27.344,53.711,26.855,27.832,120.605,0
1571370337.315,76.660,53.711,27.344,8.301,50.781,0
1571370337.319,62.012,51.758,26.367,34.180,24.414,0
1571370337.323,11.230,49.805,27.832,62.500,48.340,0
1571370337.327,13.672,47.363,29.785,45.410,13.184,0
1571370337.331,68.359,47.852,28.809,24.902,-0.977,0
1571370337.335,97.168,49.805,28.320,48.828,0.000,0
1571370337.339,41.504,49.316,30.273,73.242,-29.785,0
1571370337.342,0.000,49.316,31.738,43.457,0.000,0
1571370337.346,45.898,49.316,34.180,39.551,19.043,0
1571370337.350,83.008,51.270,35.645,34.668,12.695,0
1571370337.354,40.527,52.734,36.133,49.805,34.180,0
1571370337.358,-4.883,50.781,34.180,50.781,27.832,0
1571370337.355,29.785,46.875,34.668,47.363,-0.977,0
1571370337.359,73.730,45.410,36.133,29.785,20.508,0
1571370337.363,49.316,48.828,33.203,39.062,46.387,0
1571370337.367,5.859,49.316,31.738,51.758,6.836,0
1571370337.371,26.855,46.875,32.715,42.969,-3.418,0
1571370337.375,79.590,47.363,32.227,26.855,25.879,0
1571370337.379,74.219,49.316,29.297,42.480,6.836,0
1571370337.382,17.090,49.316,27.344,59.570,44.922,0
1571370337.386,7.324,48.828,28.809,40.039,79.590,0
1571370337.390,60.547,46.875,30.273,27.344,41.992,0
1571370337.394,81.055,45.898,26.367,28.320,47.852,0
1571370337.398,26.855,48.828,23.926,48.340,15.625,0
1571370337.415,0.488,48.828,24.414,38.086,15.625,0
1571370337.419,55.176,49.316,25.391,33.691,52.734,0
1571370337.423,84.961,50.781,25.391,31.250,75.195,0
1571370337.427,36.133,48.340,24.902,41.504,107.422,0
1571370337.431,0.977,48.340,21.973,43.457,75.684,0
1571370337.435,39.062,49.805,21.973,41.504,6.348,0
1571370337.439,84.473,46.387,23.926,21.484,1.465,0
1571370337.442,64.453,43.945,24.414,40.527,26.367,0
1571370337.446,15.137,45.410,22.949,61.035,71.777,0
1571370337.450,28.320,47.363,22.949,47.852,81.543,0
1571370337.454,83.008,47.363,23.438,18.066,54.688,0
1571370337.458,78.613,47.363,24.902,31.250,-23.438,0
1571370337.455,21.484,46.387,27.344,62.988,-10.742,0
1571370337.459,6.348,45.410,26.367,45.410,71.289,0
1571370337.463,57.129,44.434,26.855,36.133,79.102,0
1571370337.467,81.543,42.969,28.320,35.156,83.496,0
1571370337.471,29.785,44.922,25.879,47.363,10.254,0
1571370337.475,0.977,46.875,25.879,41.992,-50.293,0
1571370337.479,49.316,46.875,26.367,42.480,16.602,0
1571370337.482,84.961,47.363,26.855,32.715,34.180,0
1571370337.486,44.922,49.805,25.391,40.527,1.953,0
1571370337.490,0.000,47.852,23.438,42.480,-25.391,0
1571370337.494,25.879,43.945,25.391,44.922,-14.160,0
1571370337.498,76.660,43.457,26.367,27.344,4.395,0
1571370337.515,61.035,45.410,28.320,39.551,-3.418,0
1571370337.519,1.465,44.922,30.762,50.293,26.855,0
1571370337.523,6.836,47.363,30.762,33.691,8.789,0
1571370337.527,65.430,46.875,30.762,16.602,-4.883,0
1571370337.531,76.172,44.922,31.738,24.414,31.738,0
1571370337.535,21.973,46.387,32.227,50.293,86.426,0
1571370337.539,-1.953,47.852,31.738,36.133,85.938,0
1571370337.542,46.387,48.340,31.738,22.949,51.758,0
1571370337.546,77.637,46.875,33.203,21.484,22.461,0
1571370337.550,24.414,44.434,31.738,41.016,-6.348,0
1571370337.554,-15.625,44.922,30.273,33.691,21.973,0
1571370337.558,29.785,45.898,32.227,27.832,50.781,0
1571370337.555,74.219,43.945,33.203,20.020,36.621,0
1571370337.559,41.504,42.969,33.203,39.062,26.855,0
1571370337.563,-5.371,44.434,33.691,48.828,0.488,0
1571370337.567,19.531,44.434,32.715,39.062,41.504,0
1571370337.571,70.801,44.922,32.227,16.113,52.246,0
1571370337.575,61.035,45.410,29.297,32.715,23.438,0
1571370337.579,8.789,44.922,28.809,59.570,25.391,0
1571370337.582,5.371,45.898,29.297,41.016,-16.113,0
1571370337.586,64.453,47.363,28.809,23.438,17.090,0
1571370337.590,80.566,44.922,32.227,32.715,6.348,0
1571370337.594,21.484,44.434,30.762,53.711,-19.043,0
1571370337.598,-0.488,50.293,26.367,41.504,-10.254,0
1571370337.595,48.340,50.293,26.367,36.133,-13.184,0
1571370337.599,78.613,45.898,25.879,30.762,-2.441,0
1571370337.603,35.645,45.410,22.461,41.016,3.906,0
1571370337.607,-10.254,44.922,23.438,35.645,34.180,0
1571370337.611,24.902,44.434,26.855,35.645,29.297,0
1571370337.615,73.242,46.387,27.832,20.020,-7.812,0
1571370337.619,40.527,45.410,26.855,26.367,23.438,0
1571370337.622,-11.230,42.480,27.832,35.645,6.348,0
1571370337.626,8.301,45.898,25.879,29.297,7.812,0
1571370337.630,59.082,44.434,28.809,7.324,36.621,0
1571370337.634,54.688,40.039,32.715,26.855,43.945,0
1571370337.638,0.977,38.086,29.785,51.270,28.809,0
1571370337.655,-6.348,36.621,25.879,34.180,8.789,0
1571370337.659,52.246,37.109,28.320,24.902,19.531,0
1571370337.663,77.148,40.039,30.762,32.715,48.828,0
1571370337.667,20.508,39.551,29.785,52.246,108.398,0
1571370337.671,-12.207,42.969,29.297,36.133,116.211,0
1571370337.675,35.156,46.875,26.855,28.320,68.848,0
1571370337.679,75.684,41.504,28.320,24.902,42.480,0
1571370337.682,32.715,39.062,29.297,36.133,15.625,0
1571370337.686,-8.301,39.551,29.785,37.109,39.062,0
1571370337.690,30.273,39.551,28.809,38.574,33.203,0
1571370337.694,78.125,40.527,29.297,14.648,23.926,0
1571370337.698,47.852,41.016,27.832,27.832,37.109,0
1571370337.695,-9.766,41.992,26.855,45.898,50.781,0
1571370337.699,2.441,41.016,27.832,30.762,29.297,0
1571370337.703,52.734,42.480,24.902,8.789,29.785,0
1571370337.707,53.711,42.480,22.461,21.973,68.359,0
1571370337.711,1.953,42.480,22.949,46.875,18.066,0
1571370337.715,-8.301,41.992,26.855,34.180,23.926,0
1571370337.719,44.434,42.480,29.785,20.996,29.785,0
1571370337.722,76.660,42.969,27.832,26.367,59.570,0
1571370337.726,30.762,43.457,26.367,49.805,91.797,0
1571370337.730,-4.883,45.410,28.320,38.574,81.055,0
1571370337.734,37.109,46.875,25.391,26.367,7.324,0
1571370337.738,73.242,45.898,25.391,13.672,44.922,0
1571370337.737,35.156,42.480,27.832,26.855,97.656,0
1571370337.741,-8.789,39.551,27.344,32.227,66.895,0
1571370337.745,22.461,40.039,28.809,34.180,54.688,0
1571370337.749,73.242,41.504,29.297,16.113,47.363,0
1571370337.753,58.105,42.969,28.809,28.809,48.828,0
1571370337.757,5.859,42.969,28.320,50.781,45.410,0
1571370337.761,10.742,44.922,27.832,34.668,23.926,0
1571370337.764,62.012,44.434,27.344,11.230,-3.418,0
1571370337.768,68.359,44.434,29.785,22.461,52.734,0
1571370337.772,19.043,44.922,30.762,46.875,0.000,0
1571370337.776,3.906,43.457,24.414,29.785,-31.738,0
1571370337.780,58.594,44.434,24.902,17.090,-2.930,0
1571370337.795,88.867,46.875,28.320,21.484,4.883,0
1571370337.799,33.691,46.387,25.391,37.109,23.438,0
1571370337.803,-10.254,45.410,26.855,27.832,32.227,0
1571370337.807,34.668,46.387,29.785,28.320,25.391,0
1571370337.811,79.102,44.922,27.832,16.602,-27.832,0
1571370337.815,37.598,43.945,25.391,28.320,17.578,0
1571370337.819,-12.695,42.480,28.320,32.715,66.895,0
1571370337.822,14.648,41.992,28.809,26.367,68.848,0
1571370337.826,67.383,41.992,26.367,4.395,23.926,0
1571370337.830,59.082,41.992,26.855,22.949,-28.320,0
1571370337.834,2.441,41.992,29.297,55.664,18.066,0
1571370337.838,-6.348,40.527,31.738,42.969,25.879,0
1571370337.835,51.758,41.016,33.691,21.484,0.488,0
1571370337.839,69.824,42.969,34.180,24.902,-4.883,0
1571370337.843,14.648,41.016,32.227,44.434,-1.953,0
1571370337.847,-7.812,42.969,30.273,37.109,37.598,0
1571370337.851,44.922,44.434,28.809,35.645,76.172,0
1571370337.855,83.008,43.457,28.320,32.715,85.449,0
1571370337.859,38.086,41.992,29.785,44.434,68.848,0
1571370337.862,-6.836,42.969,31.738,39.551,28.809,0
1571370337.866,32.227,42.969,32.227,41.504,40.039,0
1571370337.870,72.754,41.016,31.738,23.438,40.527,0
1571370337.874,40.039,44.434,28.809,26.367,7.812,0
1571370337.878,-6.836,44.922,28.320,31.250,24.902,0
1571370337.875,13.672,42.480,30.762,26.367,100.098,0
1571370337.879,69.824,41.992,33.203,12.695,89.355,0
1571370337.883,64.453,42.480,30.762,27.832,8.789,0
1571370337.887,10.254,44.922,28.809,53.223,6.836,0
1571370337.891,1.953,45.410,28.809,31.250,-7.324,0
1571370337.895,50.781,42.969,30.273,14.648,-19.531,0
1571370337.899,65.430,39.062,31.738,29.785,16.113,0
1571370337.902,13.184,38.086,32.715,52.734,5.371,0
1571370337.906,-14.648,39.551,30.762,37.109,33.203,0
1571370337.910,31.250,36.621,32.715,32.227,96.191,0
1571370337.914,76.660,36.621,35.645,41.016,61.035,0
1571370337.918,26.367,42.480,31.738,49.805,5.859,0
1571370337.955,-29.297,41.504,28.809,31.250,2.930,0
1571370337.959,14.648,41.016,27.832,35.156,42.480,0
1571370337.963,66.406,43.945,30.762,20.508,28.320,0
1571370337.967,32.715,43.457,33.203,24.414,-14.160,0
1571370337.971,-20.508,42.480,30.273,37.598,-30.762,0
1571370337.975,-4.883,41.992,31.738,31.250,-40.527,0
1571370337.979,44.922,42.969,34.180,9.766,-8.301,0
1571370337.982,51.270,44.922,34.668,21.484,30.762,0
1571370337.986,3.418,44.434,30.762,50.293,43.457,0
1571370337.990,-12.207,41.504,30.273,37.109,53.223,0
1571370337.994,36.621,44.922,32.227,24.902,45.898,0
1571370337.998,66.406,48.828,30.762,23.438,65.430,0
1571370337.975,19.043,44.922,29.297,33.691,54.688,0
1571370337.979,-16.113,42.969,28.809,21.973,60.059,0
1571370337.983,29.297,43.457,32.715,20.508,78.613,0
1571370337.987,67.383,42.969,31.738,6.836,61.035,0
1571370337.991,31.250,43.945,26.367,25.879,78.613,0
1571370337.995,-9.277,44.434,26.367,28.320,58.105,0
1571370337.999,20.996,44.434,24.902,23.438,49.316,0
1571370338.002,68.359,44.922,26.855,11.719,55.664,0
1571370338.006,47.852,44.922,29.785,24.902,44.434,0
1571370338.010,-11.230,43.945,28.809,41.504,27.344,0
1571370338.014,-6.348,41.992,29.785,23.926,40.039,0
1571370338.018,48.828,38.574,33.203,4.395,44.434,0
1571370338.015,55.664,38.574,31.738,22.461,22.461,0
1571370338.019,8.301,41.992,28.320,49.805,20.020,0
1571370338.023,-8.301,43.457,27.832,36.621,21.484,0
1571370338.027,41.016,44.434,29.785,20.020,6.348,0
1571370338.031,71.289,41.992,32.227,17.578,33.203,0
1571370338.035,18.555,38.574,31.250,45.898,42.969,0
1571370338.039,-18.555,38.574,31.250,37.109,9.766,0
1571370338.042,27.832,39.062,30.762,31.250,35.645,0
1571370338.046,71.777,38.086,32.715,13.672,36.621,0
1571370338.050,35.156,37.598,34.668,25.391,5.371,0
1571370338.054,-12.207,37.598,32.227,41.504,41.016,0
1571370338.058,13.184,40.527,28.320,33.203,68.848,0
1571370338.075,67.871,41.992,26.855,14.160,67.383,0
1571370338.079,56.152,45.410,27.344,27.344,41.504,0
1571370338.083,-2.441,46.387,26.367,49.316,10.254,0
1571370338.087,-1.465,43.945,24.902,34.668,41.504,0
1571370338.091,55.176,45.410,23.926,12.207,41.504,0
1571370338.095,69.336,46.875,23.926,21.484,52.734,0
1571370338.099,18.555,44.434,23.438,43.457,55.664,0
1571370338.102,-4.395,42.969,21.973,29.297,33.203,0
1571370338.106,45.410,46.875,21.484,20.996,3.418,0
1571370338.110,83.984,46.387,22.461,17.578,21.484,0
1571370338.114,39.551,45.898,22.949,42.480,15.625,0
1571370338.118,-7.324,46.387,23.438,35.156,33.691,0
1571370338.115,30.762,46.875,23.438,31.250,79.102,0
1571370338.119,77.637,47.363,25.879,28.320,36.133,0
1571370338.123,41.016,46.875,26.855,40.039,8.301,0
1571370338.127,-11.230,46.875,26.855,48.828,45.898,0
1571370338.131,12.695,47.852,25.879,39.551,66.406,0
1571370338.135,67.871,46.387,26.855,19.531,-27.832,0
1571370338.139,59.082,45.410,28.320,35.645,36.133,0
1571370338.142,3.418,43.945,25.879,58.594,75.684,0
1571370338.146,-3.906,41.504,24.414,42.480,11.230,0
1571370338.150,51.270,41.504,20.996,23.926,21.484,0
1571370338.154,77.148,41.016,21.973,27.344,14.648,0
1571370338.158,26.367,41.504,23.926,52.734,17.090,0
1571370338.155,0.488,41.016,22.949,42.480,0.000,0
1571370338.159,52.246,41.504,27.344,38.574,10.254,0
1571370338.163,90.820,43.457,25.391,25.879,39.062,0
1571370338.167,43.945,41.992,22.949,37.598,28.320,0
1571370338.171,-7.812,42.480,24.902,40.039,39.062,0
1571370338.175,23.438,43.457,22.461,30.762,47.363,0
1571370338.179,72.754,42.969,21.973,12.695,8.789,0
1571370338.182,48.340,43.457,22.949,25.391,-23.926,0
1571370338.186,-5.371,44.434,21.484,40.039,8.301,0
1571370338.190,14.160,45.410,24.902,30.273,28.320,0
1571370338.194,70.312,43.945,25.879,13.184,17.578,0
1571370338.198,74.219,43.457,26.367,30.762,29.785,0
1571370338.215,22.949,44.434,29.297,56.152,-6.836,0
1571370338.219,2.441,46.387,31.738,40.527,-12.695,0
1571370338.223,53.223,45.410,32.227,28.320,64.453,0
1571370338.227,74.219,42.969,32.715,35.156,40.527,0
1571370338.231,19.531,44.434,32.715,57.129,41.016,0
1571370338.235,-7.324,42.480,30.273,47.363,41.504,0
1571370338.239,39.062,42.480,33.691,38.574,38.574,0
1571370338.242,81.055,42.969,37.598,26.367,65.430,0
1571370338.246,48.828,43.945,34.668,48.828,60.547,0
1571370338.250,4.395,45.898,31.738,51.270,64.453,0
1571370338.254,35.156,45.410,31.250,40.039,47.363,0
1571370338.258,80.566,44.434,32.227,24.414,64.941,0
1571370338.255,56.152,45.898,31.738,37.109,48.828,0
1571370338.259,1.953,46.387,29.785,53.711,12.695,0
1571370338.263,9.277,43.457,28.809,38.574,-10.742,0
1571370338.267,61.523,41.992,30.273,12.695,72.754,0
1571370338.271,72.754,43.457,28.320,26.367,89.355,0
1571370338.275,23.438,43.945,27.832,51.758,62.500,0
1571370338.279,5.859,42.969,27.832,34.180,30.273,0
1571370338.282,56.641,43.457,27.344,23.438,-28.320,0
1571370338.286,81.543,41.504,27.832,25.879,-54.199,0
1571370338.290,30.273,39.551,27.832,48.828,-41.992,0
1571370338.294,-2.441,35.645,26.855,41.992,24.902,0
1571370338.298,43.457,34.180,25.879,44.434,27.832,0
1571370338.315,84.473,31.738,29.297,34.668,10.742,0
1571370338.319,52.734,31.250,31.250,50.293,29.297,0
1571370338.323,4.883,34.668,26.855,54.688,12.695,0
1571370338.327,27.344,34.180,27.344,42.480,6.836,0
1571370338.331,81.543,33.203,30.762,21.973,15.137,0
1571370338.335,65.918,35.645,28.809,31.738,14.160,0
1571370338.339,6.836,36.621,24.902,49.805,64.941,0
1571370338.342,5.371,33.203,24.902,35.645,13.184,0
1571370338.346,57.129,34.180,29.297,13.184,1.465,0
1571370338.350,72.754,37.598,29.297,22.461,-2.930,0
1571370338.354,19.531,37.598,28.809,43.945,-32.227,0
1571370338.358,-5.859,37.109,29.785,19.043,6.348,0
1571370338.355,44.922,39.551,28.809,13.184,-15.625,0
1571370338.359,74.707,39.551,30.762,8.301,9.766,0
1571370338.363,29.297,41.504,28.320,25.879,29.785,0
1571370338.367,-6.836,43.945,23.926,21.484,65.918,0
1571370338.371,31.250,39.551,28.320,17.578,100.586,0
1571370338.375,79.590,39.551,31.738,6.348,56.641,0
1571370338.379,52.246,41.504,30.762,21.484,29.785,0
1571370338.382,7.812,42.969,27.344,33.203,74.219,0
1571370338.386,25.391,45.410,28.320,20.508,112.793,0
1571370338.390,69.824,45.898,29.297,-2.441,73.730,0
1571370338.394,61.523,42.480,29.297,19.043,0.977,0
1571370338.398,8.789,41.504,31.250,48.828,2.930,0
1571370338.395,4.395,40.527,34.180,35.645,25.879,0
1571370338.399,54.688,39.551,37.109,17.090,57.617,0
1571370338.403,69.336,41.504,35.645,5.859,64.941,0
1571370338.407,21.484,43.457,33.691,20.508,27.344,0
1571370338.411,-3.906,42.480,32.715,2.930,18.555,0
1571370338.415,35.156,41.992,31.250,-11.719,45.410,0
1571370338.419,75.195,41.992,31.250,-20.508,58.594,0
1571370338.422,39.551,41.504,32.715,-6.348,82.031,0
1571370338.426,-12.695,41.016,31.250,-10.742,8.789,0
1571370338.430,15.625,40.527,29.785,-26.367,-34.180,0
1571370338.434,62.012,40.039,29.785,-49.316,22.461,0
1571370338.438,43.457,41.504,30.762,-33.691,38.574,0
1571370338.455,-4.883,41.016,31.250,-19.531,2.441,0
1571370338.459,4.883,41.504,32.715,-26.367,6.836,0
1571370338.463,58.594,41.504,35.156,-46.875,4.883,0
1571370338.467,58.105,40.039,34.668,-35.645,29.297,0
1571370338.471,2.441,42.969,30.762,-8.789,87.891,0
1571370338.475,-6.348,42.969,31.738,-21.484,20.996,0
1571370338.479,46.387,41.992,34.180,-29.297,-33.203,0
1571370338.482,75.684,41.992,33.203,-27.832,-3.906,0
1571370338.486,29.785,43.945,31.250,-7.324,28.320,0
1571370338.490,-3.418,43.457,33.203,-18.066,41.016,0
1571370338.494,45.410,41.016,35.645,-22.949,64.453,0
1571370338.498,83.984,41.992,31.250,-29.297,97.168,0
1571370338.495,41.016,44.922,27.832,-18.555,107.910,0
1571370338.499,-1.953,47.363,26.367,-10.254,67.871,0
1571370338.503,32.715,47.852,25.879,-7.812,38.574,0
1571370338.507,81.055,48.340,27.344,-26.855,33.203,0
1571370338.511,61.523,46.387,29.785,-4.883,38.086,0
1571370338.515,13.184,42.969,31.738,21.973,25.391,0
1571370338.519,19.531,41.016,32.227,8.301,-1.953,0
1571370338.522,63.965,41.504,35.156,-13.184,16.602,0
1571370338.526,69.336,42.480,35.645,5.371,-30.273,0
1571370338.530,13.184,42.480,37.109,33.203,-33.691,0
1571370338.534,-11.230,41.992,37.598,10.254,42.969,0
1571370338.538,47.363,40.527,39.062,-9.277,16.602,0
1571370338.535,80.566,41.016,40.527,-7.324,8.301,0
1571370338.539,26.367,42.480,38.574,17.090,47.363,0
1571370338.543,-9.766,42.480,37.598,8.789,46.387,0
1571370338.547,34.180,43.457,35.645,4.395,-5.371,0
1571370338.551,71.777,44.434,35.645,-16.113,-11.230,0
1571370338.555,32.715,44.922,38.574,-6.348,41.504,0
1571370338.559,-11.719,49.805,37.109,4.395,45.410,0
1571370338.562,17.578,49.805,36.621,-1.953,-0.488,0
1571370338.566,68.848,44.434,37.598,-20.508,13.184,0
1571370338.570,53.711,43.945,35.156,-9.277,59.570,0
1571370338.574,6.348,42.480,34.668,10.742,-7.324,0
1571370338.578,15.137,45.898,35.156,3.418,-51.758,0
1571370338.575,68.359,46.875,35.645,-23.926,1.953,0
1571370338.579,75.684,46.387,35.156,-29.297,20.020,0
1571370338.583,19.531,46.387,37.109,-9.277,47.852,0
1571370338.587,1.465,47.852,38.574,-32.227,53.223,0
1571370338.591,57.617,49.316,36.621,-41.504,-1.953,0
1571370338.595,84.473,46.387,36.621,-41.504,65.430,0
1571370338.599,36.621,49.316,33.203,-27.344,111.816,0
1571370338.602,-1.953,47.852,30.762,-36.133,51.758,0
1571370338.606,31.738,43.945,33.203,-45.898,0.000,0
1571370338.610,73.242,46.875,32.715,-55.176,-8.789,0
1571370338.614,41.016,49.805,33.203,-34.180,8.301,0
1571370338.618,-9.277,46.875,34.180,-26.367,0.000,0
1571370338.635,7.812,43.945,32.227,-42.969,-8.301,0
1571370338.639,63.477,47.363,31.738,-64.453,23.926,0
1571370338.643,64.941,51.270,33.691,-41.992,9.277,0
1571370338.647,11.230,51.270,35.156,-11.719,62.012,0
1571370338.651,0.488,47.852,34.668,-29.785,61.523,0
1571370338.655,51.758,47.852,32.715,-52.734,16.602,0
1571370338.659,73.242,49.805,32.227,-55.664,51.758,0
1571370338.662,21.484,48.828,33.691,-32.715,-5.371,0
1571370338.666,-6.348,45.898,33.691,-43.945,-10.254,0
1571370338.670,42.969,46.387,33.691,-50.781,40.527,0
1571370338.674,77.637,48.340,30.762,-54.199,41.992,0
1571370338.678,34.668,48.340,30.762,-39.551,61.523,0
1571370338.675,-4.883,47.852,32.227,-38.574,6.836,0
1571370338.679,27.344,46.387,32.227,-42.480,17.578,0
1571370338.683,72.266,43.457,34.180,-56.152,35.645,0
1571370338.687,48.340,44.922,34.668,-31.738,28.320,0
1571370338.691,1.465,45.898,33.203,-12.207,-5.371,0
1571370338.695,16.113,47.363,32.715,-19.531,-23.926,0
1571370338.699,72.754,48.828,34.180,-32.715,-21.973,0
1571370338.702,77.637,46.387,33.203,-16.602,7.324,0
1571370338.706,20.508,44.922,31.250,7.812,80.566,0
1571370338.710,2.441,45.898,33.203,-9.766,36.133,0
1571370338.714,52.734,45.898,34.668,-19.531,9.277,0
1571370338.718,73.730,43.945,36.133,-9.277,15.137,0
1571370338.716,22.461,42.969,34.180,15.625,10.254,0
1571370338.720,-5.859,44.434,30.273,8.789,26.855,0
1571370338.724,37.109,45.410,30.762,-0.488,19.531,0
1571370338.728,81.055,43.945,33.203,-11.719,-3.906,0
1571370338.732,48.340,44.434,33.691,12.695,-11.719,0
1571370338.736,-1.465,44.434,32.227,21.973,-37.109,0
1571370338.740,23.438,43.457,34.180,20.020,-5.371,0
1571370338.743,68.848,44.434,36.133,-0.488,95.703,0
1571370338.747,55.176,45.410,35.645,15.137,88.867,0
1571370338.751,8.301,44.922,34.668,47.363,-2.930,0
1571370338.755,13.672,41.504,35.645,35.156,-5.371,0
1571370338.759,66.406,41.016,35.645,11.719,73.730,0
1571370338.776,74.707,42.969,34.668,24.414,86.914,0
1571370338.780,25.879,43.945,35.156,54.688,65.430,0
1571370338.784,5.371,44.922,37.109,35.156,25.391,0
1571370338.788,51.270,44.922,42.480,22.949,13.184,0
1571370338.792,82.520,46.387,41.992,26.855,17.578,0
1571370338.796,31.250,48.340,37.109,40.039,3.906,0
1571370338.800,-4.883,47.363,38.086,32.227,64.941,0
1571370338.803,45.410,46.875,39.551,37.598,124.023,0
1571370338.807,94.238,45.410,38.086,30.273,57.129,0
1571370338.811,54.199,43.457,36.133,41.504,36.621,0
1571370338.815,-3.418,42.480,36.133,41.992,66.895,0
1571370338.819,23.926,42.969,35.645,33.691,15.625,0
1571370338.816,76.660,43.945,36.621,14.648,-9.277,0
1571370338.820,57.617,42.480,38.574,32.715,24.902,0
1571370338.824,5.859,42.969,37.598,61.523,54.199,0
1571370338.828,14.160,45.410,35.156,40.039,24.902,0
1571370338.832,62.988,43.945,35.645,19.531,5.371,0
1571370338.836,64.453,41.016,36.621,34.180,20.996,0
1571370338.840,12.207,42.969,35.156,55.664,77.148,0
1571370338.843,-6.836,45.898,35.645,28.320,68.359,0
1571370338.847,42.480,44.434,37.109,14.648,18.066,0
1571370338.851,76.660,42.969,36.621,14.160,31.738,0
1571370338.855,34.668,43.945,37.598,33.691,8.301,0
1571370338.859,-6.348,42.969,39.062,40.039,-11.719,0
1571370338.856,33.691,41.992,40.527,32.227,22.461,0
1571370338.860,82.031,41.504,41.504,12.695,24.902,0
1571370338.864,51.270,41.016,39.062,34.668,17.578,0
1571370338.868,4.883,42.969,35.156,41.504,27.344,0
1571370338.872,25.391,46.387,34.668,30.273,53.223,0
1571370338.876,76.660,48.340,35.156,5.859,44.922,0
1571370338.880,75.684,45.898,32.715,17.090,-23.438,0
1571370338.883,18.066,44.434,31.738,37.109,0.977,0
1571370338.887,10.254,44.922,33.203,21.484,66.895,0
1571370338.891,70.801,43.945,30.273,17.578,14.648,0
1571370338.895,88.379,44.434,31.250,24.414,12.207,0
1571370338.899,33.691,44.434,31.738,47.363,34.668,0
1571370338.916,4.395,46.387,28.320,41.504,3.418,0
1571370338.920,51.758,46.875,31.738,37.598,42.969,0
1571370338.924,89.844,44.922,33.691,30.762,45.898,0
1571370338.928,45.898,44.922,33.691,47.363,52.734,0
1571370338.932,0.488,44.434,33.203,45.898,72.266,0
1571370338.936,34.180,44.922,35.645,41.992,52.246,0
1571370338.940,81.055,44.922,37.109,25.879,51.758,0
1571370338.943,53.223,43.457,36.133,40.039,22.949,0
1571370338.947,1.465,43.457,35.156,51.758,26.367,0
1571370338.951,19.043,41.992,35.645,41.504,20.508,0
1571370338.955,69.824,43.457,37.109,19.043,31.738,0
1571370338.959,67.871,43.945,37.598,30.762,78.125,0
1571370338.956,12.207,41.504,39.062,61.523,28.809,0
1571370338.960,7.324,43.457,37.598,43.457,57.617,0
1571370338.964,61.035,43.457,38.086,26.855,84.473,0
1571370338.968,85.449,44.434,37.598,34.180,-6.836,0
1571370338.972,37.109,47.363,36.133,59.082,0.488,0
1571370338.976,0.488,47.363,36.133,44.922,36.133,0
1571370338.980,49.805,45.898,36.133,32.227,27.344,0
1571370338.983,85.449,42.969,39.551,24.902,42.480,0
1571370338.987,37.109,41.992,40.039,43.457,55.176,0
1571370338.991,-3.906,45.898,38.086,40.039,19.043,0
1571370338.995,30.273,47.363,41.504,39.062,54.199,0
1571370338.999,81.055,42.969,42.480,25.879,67.871,0
1571370338.996,66.406,38.086,38.086,41.992,21.973,0
1571370339.000,10.254,31.250,36.621,63.965,55.176,0
1571370339.004,16.113,25.391,37.109,43.457,66.406,0
1571370339.008,70.312,20.020,37.109,21.484,-5.371,0
1571370339.012,74.219,13.184,36.621,38.574,-3.418,0
1571370339.016,12.695,6.348,37.598,62.500,67.871,0
1571370339.020,-5.859,0.977,40.527,46.387,54.199,0
1571370339.023,52.734,-2.441,42.480,28.809,41.504,0
1571370339.027,81.055,-3.906,42.480,27.832,44.434,0
1571370339.031,30.273,-7.812,38.574,48.340,14.160,0
1571370339.035,-4.395,-13.672,36.621,32.715,25.879,0
1571370339.039,38.574,-18.555,37.598,28.809,28.320,0
1571370339.056,76.660,-25.391,37.598,17.578,16.602,0
1571370339.060,33.203,-28.809,38.086,30.273,10.742,0
1571370339.064,-11.719,-30.762,38.086,34.180,-1.953,0
1571370339.068,18.555,-34.668,41.016,27.344,-3.418,0
1571370339.072,66.406,-36.621,40.527,9.277,-8.301,0
1571370339.076,57.129,-36.621,38.574,25.391,-22.461,0
1571370339.080,4.883,-39.062,37.598,47.363,-21.484,0
1571370339.083,0.488,-42.969,39.551,25.879,19.043,0
1571370339.087,53.711,-45.898,40.039,8.789,25.879,0
1571370339.091,71.289,-44.434,37.109,31.738,20.020,0
1571370339.095,14.160,-42.480,36.133,52.246,17.090,0
1571370339.099,-8.301,-44.434,36.133,28.809,-7.324,0
1571370339.096,44.922,-44.922,33.691,24.414,20.996,0
1571370339.100,75.195,-45.410,34.668,24.902,25.391,0
1571370339.104,31.738,-47.363,35.645,48.340,59.082,0
1571370339.108,-3.418,-46.387,36.133,42.969,37.109,0
1571370339.112,38.574,-46.387,39.551,34.668,23.926,0
1571370339.116,83.008,-46.875,36.621,20.996,86.426,0
1571370339.120,47.852,-48.340,36.621,37.598,26.855,0
1571370339.123,-4.395,-52.246,39.062,52.246,12.695,0
1571370339.127,12.695,-51.758,36.621,34.668,80.566,0
1571370339.131,63.965,-51.758,37.109,9.277,62.012,0
1571370339.135,61.523,-55.176,39.062,33.691,18.555,0
1571370339.139,10.742,-56.152,40.527,63.965,-1.465,0
1571370339.156,9.766,-53.223,38.574,43.457,11.719,0
1571370339.160,59.082,-52.246,38.574,23.926,53.223,0
1571370339.164,67.871,-55.664,39.551,35.156,68.848,0
1571370339.168,8.301,-57.129,37.109,55.176,70.801,0
1571370339.172,-11.230,-55.176,36.133,46.875,49.805,0
1571370339.176,41.016,-56.152,36.621,47.363,56.641,0
1571370339.180,77.148,-59.082,35.645,40.039,60.059,0
1571370339.183,34.180,-59.570,35.156,49.805,31.250,0
1571370339.187,-8.789,-59.082,35.645,46.875,27.832,0
1571370339.191,27.344,-59.570,35.645,51.758,55.664,0
1571370339.195,73.242,-60.547,35.156,38.086,28.809,0
1571370339.199,46.875,-62.988,35.645,53.711,20.508,0
1571370339.196,-6.836,-61.035,34.668,68.359,8.301,0
1571370339.200,10.254,-62.012,34.180,54.688,51.758,0
1571370339.204,62.988,-63.477,36.621,35.645,50.781,0
1571370339.208,59.570,-58.594,37.598,52.246,30.762,0
1571370339.212,3.906,-58.594,35.645,77.148,63.477,0
1571370339.216,-5.859,-60.059,36.133,60.059,89.844,0
1571370339.220,47.852,-62.012,36.133,38.574,46.387,0
1571370339.223,73.730,-61.035,35.156,41.016,-13.672,0
1571370339.227,26.855,-58.105,33.691,65.918,23.438,0
1571370339.231,-3.418,-60.059,33.203,56.152,53.223,0
1571370339.235,41.992,-60.547,36.133,45.410,62.012,0
1571370339.239,78.613,-59.570,38.086,32.715,44.434,0
1571370339.236,38.574,-58.105,36.621,54.688,22.949,0
1571370339.240,-2.930,-59.082,34.668,60.547,64.941,0
1571370339.244,28.809,-58.105,35.645,54.688,95.215,0
1571370339.248,73.242,-58.594,36.621,31.250,23.926,0
1571370339.252,49.316,-58.594,34.668,39.551,-15.137,0
1571370339.256,0.488,-57.129,32.227,57.617,13.184,0
1571370339.260,5.859,-59.570,34.668,46.875,35.156,0
1571370339.263,52.734,-60.547,36.133,28.320,57.617,0
1571370339.267,61.523,-60.059,37.109,44.434,52.734,0
1571370339.271,14.160,-56.152,37.598,67.383,10.742,0
1571370339.275,0.977,-54.688,37.109,51.270,-62.500,0
1571370339.279,52.734,-56.152,38.574,45.898,-23.438,0
1571370339.296,83.984,-54.199,38.086,50.781,30.273,0
1571370339.300,36.133,-54.199,39.551,71.777,17.090,0
1571370339.304,2.441,-54.199,41.992,59.082,-29.297,0
1571370339.308,51.758,-53.223,44.434,60.059,-23.926,0
1571370339.312,90.332,-53.223,41.016,44.922,20.020,0
1571370339.316,47.852,-50.781,36.621,53.711,48.340,0
1571370339.320,-7.812,-48.828,37.598,55.176,50.293,0
1571370339.323,16.602,-48.340,37.109,40.039,-6.836,0
1571370339.327,68.359,-48.340,34.180,27.832,-27.344,0
1571370339.331,52.734,-49.316,34.180,41.992,-2.930,0
1571370339.335,-3.418,-50.781,34.180,61.035,38.086,0
1571370339.339,-3.906,-51.270,37.109,44.434,55.176,0
1571370339.336,54.199,-49.805,39.062,22.461,53.711,0
1571370339.340,69.824,-49.805,39.551,37.598,55.176,0
1571370339.344,17.090,-50.293,37.598,64.941,62.500,0
1571370339.348,-6.836,-50.293,34.180,50.293,45.898,0
1571370339.352,40.527,-49.805,33.203,39.062,22.461,0
1571370339.356,73.242,-45.898,34.180,39.062,36.133,0
1571370339.360,27.832,-45.410,32.715,59.082,44.434,0
1571370339.363,-10.742,-46.387,31.250,49.316,-3.906,0
1571370339.367,32.715,-45.410,32.227,49.805,-13.672,0
1571370339.371,76.660,-47.363,33.691,33.203,7.812,0
1571370339.375,40.527,-47.363,33.203,33.203,42.480,0
1571370339.379,-9.766,-43.457,34.180,48.340,23.438,0
1571370339.376,8.301,-43.945,37.109,44.922,28.320,0
1571370339.380,56.641,-45.898,38.086,19.043,87.402,0
1571370339.384,46.875,-49.316,35.156,34.180,68.848,0
1571370339.388,-2.930,-47.363,31.738,54.688,-3.906,0
1571370339.392,10.254,-44.922,31.250,47.852,-19.043,0
1571370339.396,58.105,-44.434,35.645,33.203,-20.996,0
1571370339.400,66.895,-45.410,40.527,42.480,-13.184,0
1571370339.403,20.508,-43.945,41.016,71.777,31.738,0
1571370339.407,-1.953,-41.504,39.062,50.781,31.738,0
1571370339.411,51.270,-42.969,38.086,49.805,20.020,0
1571370339.415,86.426,-42.969,40.039,51.758,-27.344,0
1571370339.419,41.016,-42.969,41.992,67.871,21.484,0
1571370339.435,-4.395,-41.504,40.039,61.035,82.031,0
1571370339.439,29.297,-40.039,39.062,52.734,38.086,0
1571370339.443,78.613,-41.016,41.504,40.527,62.012,0
1571370339.447,54.199,-37.598,40.039,52.734,59.082,0
1571370339.451,2.930,-35.156,39.551,61.035,23.438,0
1571370339.455,18.555,-37.598,41.504,44.922,56.152,0
1571370339.459,73.242,-36.133,39.062,17.578,94.727,0
1571370339.462,72.754,-35.645,39.062,29.297,14.648,0
1571370339.466,15.625,-40.039,38.086,56.641,7.324,0
1571370339.470,5.371,-37.109,34.180,39.551,46.387,0
1571370339.474,60.547,-32.227,35.156,20.508,9.766,0
1571370339.478,82.031,-32.227,36.133,23.438,24.414,0
1571370339.475,27.832,-31.738,33.691,44.922,43.457,0
1571370339.479,2.441,-28.809,33.203,33.691,34.180,0
1571370339.483,55.664,-26.367,33.203,32.715,56.152,0
1571370339.487,93.262,-28.320,33.203,20.996,50.781,0
1571370339.491,46.875,-31.250,32.715,37.109,25.391,0
1571370339.495,2.930,-29.297,30.273,46.387,43.457,0
1571370339.499,40.039,-26.855,28.809,41.992,49.805,0
1571370339.502,85.938,-27.344,32.227,25.391,38.574,0
1571370339.506,62.012,-30.273,34.180,38.574,54.199,0
1571370339.510,11.719,-29.297,31.250,60.059,-11.230,0
1571370339.514,17.090,-26.367,34.180,47.852,4.883,0
1571370339.518,66.895,-27.832,38.086,29.297,102.051,0
1571370339.515,71.289,-30.762,37.598,47.852,41.504,0
1571370339.519,17.090,-28.809,33.691,69.336,12.207,0
1571370339.523,1.465,-26.855,32.715,48.828,3.418,0
1571370339.527,47.852,-26.855,37.109,33.691,-18.066,0
1571370339.531,81.055,-22.949,36.621,31.738,12.207,0
1571370339.535,34.180,-23.438,33.203,50.781,54.199,0
1571370339.539,-2.930,-22.949,32.715,40.039,58.105,0
1571370339.542,39.551,-22.949,32.227,37.598,-27.832,0
1571370339.546,77.148,-22.949,31.738,22.949,-11.719,0
1571370339.550,42.480,-22.461,34.180,35.645,56.152,0
1571370339.554,-1.953,-23.926,31.738,51.758,31.738,0
1571370339.558,24.902,-23.926,30.762,38.574,19.043,0
1571370339.595,73.242,-23.438,30.762,12.695,16.113,0
1571370339.599,63.477,-20.020,33.691,34.668,-5.859,0
1571370339.603,20.508,-16.113,35.156,62.988,-9.766,0
1571370339.607,17.578,-17.090,31.738,45.410,2.930,0
1571370339.611,68.359,-17.578,31.738,25.879,38.574,0
1571370339.615,79.590,-15.137,32.715,43.457,29.785,0
1571370339.619,20.996,-13.672,32.227,63.965,58.594,0
1571370339.622,0.000,-15.137,33.203,44.922,65.918,0
1571370339.626,50.293,-16.113,35.156,43.945,67.383,0
1571370339.630,84.473,-18.066,34.180,39.062,46.875,0
1571370339.634,34.668,-17.090,34.180,56.152,-2.930,0
1571370339.638,-6.836,-16.602,35.156,57.129,16.602,0
1571370339.615,33.691,-20.508,32.715,51.270,37.598,0
1571370339.619,78.613,-21.484,35.156,37.598,57.617,0
1571370339.623,47.363,-20.020,35.645,48.340,43.457,0
1571370339.627,-2.930,-18.066,34.180,61.035,-0.977,0
1571370339.631,24.414,-18.066,37.598,56.641,-19.043,0
1571370339.635,74.707,-17.090,38.086,34.180,17.090,0
1571370339.639,67.871,-15.625,37.109,46.387,35.156,0
1571370339.642,13.672,-18.555,37.109,62.012,66.406,0
1571370339.646,4.883,-22.461,39.551,47.852,11.230,0
1571370339.650,57.129,-21.973,38.574,32.715,-22.949,0
1571370339.654,76.660,-20.508,39.062,40.039,-4.395,0
1571370339.658,21.484,-22.461,42.480,66.406,-3.418,0
1571370339.655,-5.859,-21.484,37.598,48.828,30.762,0
1571370339.659,50.293,-20.508,36.621,44.922,73.242,0
1571370339.663,78.125,-22.461,35.156,38.086,21.973,0
1571370339.667,24.902,-22.461,30.273,44.922,36.621,0
1571370339.671,-10.254,-23.438,33.203,50.293,88.867,0
1571370339.675,29.297,-24.902,37.109,49.316,3.906,1
1571370339.679,70.312,-22.461,37.109,25.879,-18.066,0
1571370339.682,46.875,-18.555,35.156,45.898,22.461,0
1571370339.686,2.441,-21.484,36.621,67.383,41.504,0
1571370339.690,16.113,-23.926,38.574,57.129,62.012,0
1571370339.694,66.895,-24.414,38.086,31.738,14.648,0
1571370339.698,66.406,-27.344,39.062,46.387,-0.977,0
1571370339.715,6.836,-27.832,40.527,70.312,2.441,0
1571370339.719,-6.836,-26.855,38.574,46.875,46.875,0
1571370339.723,56.152,-22.461,38.086,29.785,14.160,0
1571370339.727,80.566,-21.973,36.133,36.133,20.508,0
1571370339.731,21.484,-24.902,34.668,62.500,75.195,0
1571370339.735,-9.277,-25.879,33.691,49.805,79.102,0
1571370339.739,42.969,-23.926,32.715,34.180,56.152,0
1571370339.742,82.520,-25.879,32.715,21.484,6.836,0
1571370339.746,34.668,-27.344,31.738,38.086,-4.395,0
1571370339.750,-7.812,-23.438,32.715,47.852,31.250,0
1571370339.754,26.855,-23.926,33.691,43.457,47.852,0
1571370339.758,69.336,-25.879,34.180,17.090,38.086,0
1571370339.755,49.805,-27.832,35.156,29.297,62.012,0
1571370339.759,0.977,-27.344,36.133,47.363,3.906,0
1571370339.763,15.137,-25.879,36.133,37.598,-21.484,0
1571370339.767,69.336,-25.879,35.645,19.043,21.484,0
1571370339.771,66.895,-24.902,33.691,32.715,3.906,0
1571370339.775,17.090,-22.949,31.738,60.059,2.930,0
1571370339.779,2.441,-22.949,32.227,40.039,79.102,0
1571370339.782,53.223,-22.949,31.738,33.691,84.473,0
1571370339.786,83.496,-22.461,33.691,40.039,27.344,0
1571370339.790,28.809,-23.926,30.762,52.734,60.059,0
1571370339.794,-5.859,-23.438,25.879,41.016,77.148,0
1571370339.798,42.480,-20.996,27.344,41.016,64.453,0
1571370339.795,83.496,-21.484,30.762,36.133,93.262,0
1571370339.799,43.457,-23.438,32.715,54.199,67.871,0
1571370339.803,-7.812,-25.391,33.203,56.641,-15.625,0
1571370339.807,20.508,-26.367,34.180,48.340,0.488,0
1571370339.811,70.312,-26.855,33.691,30.273,44.434,0
1571370339.815,51.758,-27.344,32.227,43.457,28.320,0
1571370339.819,0.488,-27.344,31.250,61.035,48.340,0
1571370339.822,3.906,-26.367,31.250,41.504,24.414,0
1571370339.826,59.082,-30.762,30.273,8.789,-4.395,0
1571370339.830,69.336,-32.715,29.297,20.020,-0.488,0
1571370339.834,10.742,-33.691,30.762,53.711,-36.621,0
1571370339.838,-11.719,-36.621,34.180,34.180,-32.715,0
1571370339.856,37.598,-38.086,37.109,25.391,35.156,0
1571370339.860,71.777,-37.598,35.645,23.438,47.363,0
1571370339.864,26.855,-37.109,36.133,40.527,61.035,0
1571370339.868,-11.230,-40.039,37.109,40.039,35.156,0
1571370339.872,33.691,-43.457,40.039,37.109,22.949,0
1571370339.876,83.496,-43.945,41.504,21.973,43.457,0
1571370339.880,46.875,-43.945,39.062,25.391,33.203,0
1571370339.883,-8.301,-41.992,36.621,30.762,34.180,0
1571370339.887,13.672,-41.504,35.156,26.855,16.602,0
1571370339.891,69.336,-41.992,34.180,5.859,26.855,0
1571370339.895,58.594,-39.551,33.203,22.461,55.176,0
1571370339.899,1.953,-38.574,34.180,42.480,58.105,0
1571370339.895,2.930,-36.621,36.621,24.414,56.152,0
1571370339.899,50.781,-35.645,36.621,4.883,40.039,0
1571370339.903,70.801,-37.109,34.668,15.137,41.504,0
1571370339.907,24.414,-35.156,30.762,46.387,71.289,0
1571370339.911,-6.836,-31.738,30.762,33.203,30.273,0
1571370339.915,43.457,-26.855,32.715,25.391,34.668,0
1571370339.919,81.055,-21.484,31.738,29.785,-15.625,0
1571370339.922,36.133,-19.531,31.250,51.270,-15.625,0
1571370339.926,-4.883,-19.531,33.691,48.828,16.113,0
1571370339.930,31.250,-17.578,34.668,35.645,14.160,0
1571370339.934,77.148,-17.090,33.691,12.695,36.133,0
1571370339.938,52.246,-19.531,33.203,40.527,59.570,0
1571370339.936,-2.930,-20.996,32.715,56.641,40.039,0
1571370339.940,6.348,-18.066,35.645,42.480,47.852,0
1571370339.944,61.523,-16.602,35.645,17.578,43.945,0
1571370339.948,64.453,-17.578,33.203,28.320,43.945,0
1571370339.952,6.836,-16.113,32.227,60.547,71.289,0
1571370339.956,-2.441,-17.578,33.691,41.016,29.785,0
1571370339.960,51.758,-20.508,34.180,24.414,11.230,0
1571370339.963,69.824,-23.926,32.715,23.926,-21.973,0
1571370339.967,20.996,-24.414,33.691,45.410,22.461,0
1571370339.971,-6.348,-21.973,34.180,43.945,29.297,0
1571370339.975,39.551,-19.043,35.645,41.504,22.949,0
1571370339.979,82.520,-14.648,34.668,35.645,60.547,0
1571370339.996,44.434,-9.277,32.227,42.969,17.578,0
1571370340.000,0.977,-8.301,33.691,37.598,28.809,0
1571370340.004,33.691,-8.301,34.180,40.527,35.156,0
1571370340.008,79.590,-5.371,32.715,26.367,53.711,0
1571370340.012,54.688,-1.953,33.691,38.574,47.852,0
1571370340.016,-2.441,2.930,34.668,60.059,17.578,0
1571370340.020,6.348,5.371,33.691,47.363,26.855,0
1571370340.023,65.918,7.324,35.156,30.762,4.395,0
1571370340.027,72.266,10.742,36.133,50.781,12.207,0
1571370340.031,18.066,12.695,34.180,76.172,83.496,0
1571370340.035,2.930,12.695,35.645,57.617,53.223,0
1571370340.039,54.688,14.160,37.598,46.387,-1.953,0
1571370340.037,79.590,16.113,33.691,55.664,9.766,0
1571370340.041,27.344,14.648,32.715,78.613,-10.742,0
1571370340.045,-6.348,15.625,32.715,69.824,46.875,0
1571370340.049,41.504,20.996,31.250,62.012,47.852,0
1571370340.053,81.055,20.508,33.691,45.898,-22.461,0
1571370340.057,44.922,20.020,32.227,55.176,1.953,0
1571370340.061,0.000,20.020,32.227,65.918,0.000,0
1571370340.064,26.367,20.508,35.645,61.523,-11.719,0
1571370340.068,79.590,21.484,35.645,38.574,-5.371,0
1571370340.072,61.035,18.555,34.668,47.852,20.508,0
1571370340.076,6.348,13.184,37.109,69.824,37.598,0
1571370340.080,15.137,12.695,34.180,57.617,16.602,0
1571370340.076,67.383,11.230,32.227,38.086,66.895,0
1571370340.080,78.125,6.836,31.250,44.434,92.285,0
1571370340.084,29.785,7.324,27.344,69.336,43.457,0
1571370340.088,7.812,3.418,27.832,56.641,-5.859,0
1571370340.092,58.594,0.000,30.762,45.410,50.781,0
1571370340.096,92.773,1.465,31.250,42.969,71.777,0
1571370340.100,42.969,-4.883,31.250,54.688,8.301,0
1571370340.103,2.441,-7.812,27.344,45.410,9.766,0
1571370340.107,39.551,-9.766,26.855,37.109,-33.203,0
1571370340.111,81.055,-16.602,31.250,27.832,-37.109,0
1571370340.115,55.176,-20.020,27.832,48.340,38.086,0
1571370340.119,14.648,-22.461,28.809,62.500,29.785,0
1571370340.137,30.273,-26.367,34.668,51.758,49.805,0
1571370340.141,78.613,-26.855,34.180,29.785,61.035,0
1571370340.145,70.801,-30.273,31.250,49.805,27.832,0
1571370340.149,16.602,-32.227,30.273,72.754,-0.488,0
1571370340.153,9.766,-31.738,29.785,54.199,-15.137,0
1571370340.157,58.594,-33.203,30.273,38.574,-0.977,0
1571370340.161,76.660,-34.180,30.273,45.410,9.277,0
1571370340.164,25.391,-37.598,30.273,66.895,6.348,0
1571370340.168,-1.953,-38.086,32.715,55.664,33.691,0
1571370340.172,48.828,-33.203,30.762,50.293,99.609,0
1571370340.176,88.379,-31.738,26.855,43.945,78.125,0
1571370340.180,37.109,-31.250,26.855,50.781,31.250,0
1571370340.176,-9.277,-27.344,29.297,47.852,46.875,0
1571370340.180,27.344,-24.902,32.715,50.781,59.570,0
1571370340.184,72.266,-24.902,32.227,30.273,84.473,0
1571370340.188,42.969,-22.461,27.344,42.969,46.387,0
1571370340.192,-11.719,-20.996,27.344,57.129,63.477,0
1571370340.196,12.695,-20.020,30.762,41.016,65.430,0
1571370340.200,67.871,-17.090,29.785,19.043,-3.418,0
1571370340.203,53.223,-15.137,28.809,26.367,20.020,0
1571370340.207,0.488,-15.625,31.250,53.223,80.078,0
1571370340.211,-3.906,-18.555,30.273,40.527,71.777,0
1571370340.215,48.340,-20.508,30.762,21.973,6.348,0
1571370340.219,74.707,-20.508,31.250,26.367,-12.695,0
1571370340.216,27.832,-20.996,32.715,47.852,64.941,0
1571370340.220,0.000,-16.602,35.156,42.969,80.078,0
1571370340.224,45.898,-11.719,36.133,42.969,97.656,0
1571370340.228,85.938,-7.324,36.621,33.691,53.223,0
1571370340.232,44.922,-1.465,35.156,55.176,39.062,0
1571370340.236,-5.371,1.953,35.645,56.641,54.199,0
1571370340.240,30.762,5.371,37.598,52.734,0.000,0
1571370340.243,81.055,8.789,36.621,34.668,-7.324,0
1571370340.247,56.152,9.766,37.598,44.434,-1.953,0
1571370340.251,2.930,9.277,40.039,67.383,16.113,0
1571370340.255,13.184,13.184,39.062,55.664,-20.020,0
1571370340.259,70.312,17.090,38.574,35.156,-26.367,0
1571370340.276,73.242,18.066,40.527,48.340,33.691,0
1571370340.280,16.113,21.973,37.109,70.801,46.387,0
1571370340.284,4.395,28.809,36.133,56.152,34.668,0
1571370340.288,61.035,33.691,39.062,49.316,59.570,0
1571370340.292,83.984,32.227,39.551,48.828,41.016,0
1571370340.296,30.273,34.668,38.574,63.477,27.832,0
1571370340.300,-1.953,40.527,39.062,49.805,62.988,0
1571370340.303,45.898,42.480,41.992,46.875,41.016,0
1571370340.307,96.191,43.945,39.551,43.945,45.898,0
1571370340.311,57.129,45.410,35.645,57.617,61.523,0
1571370340.315,-4.883,47.852,35.156,53.711,-1.953,0
1571370340.319,18.555,48.828,34.668,45.898,-25.391,0
1571370340.316,70.312,49.805,35.156,28.809,20.508,0
1571370340.320,56.152,52.734,32.227,39.062,42.480,0
1571370340.324,2.441,55.176,28.320,57.617,29.297,0
1571370340.328,4.395,54.199,29.297,48.340,-15.137,0
1571370340.332,56.641,50.293,30.762,35.156,31.738,0
1571370340.336,69.824,48.828,29.785,46.875,69.336,0
1571370340.340,21.973,50.781,28.809,66.406,35.156,0
1571370340.343,1.465,49.805,33.203,54.688,41.016,0
1571370340.347,47.852,48.340,34.180,47.363,93.262,0
1571370340.351,79.102,47.852,33.203,41.504,81.543,0
1571370340.355,33.203,50.293,32.715,55.176,36.621,0
1571370340.359,1.465,50.781,32.715,55.176,27.344,0
1571370340.356,41.992,49.316,37.109,60.059,26.367,0
1571370340.360,83.008,52.734,38.086,40.039,26.855,0
1571370340.364,46.875,54.688,38.086,47.363,19.043,0
1571370340.368,-3.906,54.688,38.574,61.035,30.273,0
1571370340.372,13.672,56.152,37.109,50.781,-4.883,0
1571370340.376,58.105,55.176,37.598,24.902,41.504,0
1571370340.380,49.805,51.758,38.574,41.016,84.473,0
1571370340.383,-6.836,53.223,40.039,58.105,42.480,0
1571370340.387,-8.301,53.711,39.062,34.668,26.367,0
1571370340.391,49.805,50.781,38.574,18.066,14.648,0
1571370340.395,65.430,53.711,39.062,24.414,-8.301,0
1571370340.399,15.625,55.176,37.109,49.316,-33.691,0
1571370340.416,-14.648,51.270,37.598,41.992,2.930,0
1571370340.420,36.621,53.711,40.527,34.668,78.125,0
1571370340.424,81.055,56.152,39.062,30.762,64.453,0
1571370340.428,36.621,54.688,36.621,48.828,25.879,0
1571370340.432,-1.953,53.711,34.668,47.363,12.695,0
1571370340.436,33.691,56.152,35.156,43.457,24.902,0
1571370340.440,79.590,56.641,35.156,17.090,67.871,0
1571370340.443,60.059,55.664,30.762,25.879,58.105,0
1571370340.447,11.719,57.617,31.738,52.734,40.039,0
1571370340.451,23.438,56.641,30.273,45.898,61.523,0
1571370340.455,68.848,56.641,25.391,14.160,86.426,0
1571370340.459,63.965,57.129,27.344,20.020,41.504,0
1571370340.456,11.719,58.105,29.297,49.805,6.348,0
1571370340.460,3.906,60.059,30.762,42.480,43.457,0
1571370340.464,52.246,57.617,31.738,25.391,9.766,0
1571370340.468,73.730,54.199,32.227,29.785,14.160,0
1571370340.472,33.691,54.199,34.180,58.105,73.242,0
1571370340.476,0.488,52.734,33.691,48.828,53.223,0
1571370340.480,36.133,48.828,34.668,45.410,7.324,0
1571370340.483,74.707,46.875,39.551,40.527,14.160,0
1571370340.487,39.551,45.898,37.598,53.223,12.207,0
1571370340.491,-6.836,46.875,33.203,48.828,28.320,0
1571370340.495,22.949,46.387,37.598,44.434,62.988,0
1571370340.499,70.312,45.898,39.551,26.367,60.059,0
1571370340.496,49.805,45.410,38.086,33.691,39.551,0
1571370340.500,-2.441,41.992,36.621,55.664,57.129,0
1571370340.504,1.953,41.992,34.668,41.016,85.449,0
1571370340.508,50.781,40.527,33.691,14.648,5.859,0
1571370340.512,50.293,39.551,32.227,24.902,-44.434,0
1571370340.516,-0.488,40.039,30.762,49.805,13.184,0
1571370340.520,-12.695,39.062,30.762,33.203,33.691,0
1571370340.523,37.598,38.574,28.809,7.324,62.500,0
1571370340.527,66.895,38.574,30.273,7.324,112.793,0
1571370340.531,26.367,36.621,31.250,45.898,95.703,0
1571370340.535,-2.930,35.645,30.762,45.898,28.320,0
1571370340.539,41.016,33.691,31.738,42.969,-16.113,0
1571370340.555,81.543,31.250,32.227,32.227,27.344,0
1571370340.559,43.457,30.762,28.809,48.828,26.855,0
1571370340.563,-4.883,29.785,27.832,60.059,31.250,0
1571370340.567,21.973,27.832,33.203,53.223,-2.441,0
1571370340.571,77.148,27.344,36.133,32.715,-61.523,0
1571370340.575,68.848,27.832,34.180,50.293,-30.273,0
1571370340.579,14.648,24.902,33.691,68.359,-20.996,0
1571370340.582,10.254,22.461,35.645,50.781,0.000,0
1571370340.586,58.105,21.484,37.109,20.508,60.059,0
1571370340.590,65.918,18.555,38.574,27.344,54.199,0
1571370340.594,15.625,16.602,35.645,53.711,38.086,0
1571370340.598,-4.395,17.578,35.156,28.320,57.129,0
1571370340.596,47.363,16.113,34.668,24.902,60.059,0
1571370340.600,77.637,13.672,31.738,24.902,14.160,0
1571370340.604,23.926,13.184,28.320,40.527,27.344,0
1571370340.608,-15.625,11.719,26.367,37.598,76.660,0
1571370340.612,23.438,9.277,29.785,34.180,67.871,0
1571370340.616,65.430,3.906,31.250,17.090,33.691,0
1571370340.620,33.691,-0.977,29.297,27.832,15.625,0
1571370340.623,-10.742,-3.418,30.762,44.922,42.969,0
1571370340.627,17.090,-4.883,30.762,38.574,50.293,0
1571370340.631,73.242,-6.348,31.738,14.648,10.742,0
1571370340.635,64.453,-4.883,33.691,36.621,-7.324,0
1571370340.639,8.301,-3.906,33.691,67.871,-9.277,0
1571370340.635,13.184,-3.906,31.738,57.129,22.949,0
1571370340.639,66.895,-6.348,32.715,31.250,34.668,0
1571370340.643,78.125,-9.766,36.621,35.645,7.812,0
1571370340.647,26.855,-10.254,34.180,64.453,-12.695,0
1571370340.651,1.953,-14.648,34.668,50.781,33.691,0
1571370340.655,50.293,-17.090,37.109,44.922,107.422,0
1571370340.659,83.008,-18.066,36.621,35.156,72.266,0
1571370340.662,35.156,-17.090,33.691,45.410,46.387,0
1571370340.666,-4.883,-15.625,31.250,44.434,9.766,0
1571370340.670,35.645,-21.973,32.715,44.434,-4.883,0
1571370340.674,81.543,-25.879,35.645,22.461,38.086,0
1571370340.678,54.688,-27.832,34.180,19.531,-9.277,0
1571370340.696,4.883,-30.273,31.738,25.391,20.508,0
1571370340.700,13.184,-27.832,35.645,5.371,2.441,0
1571370340.704,63.477,-22.949,39.551,-22.949,-21.973,0
1571370340.708,65.430,-17.090,38.574,-8.789,55.176,0
1571370340.712,9.766,-12.207,37.109,15.625,18.555,0
1571370340.716,-0.977,-10.254,40.039,8.789,12.207,0
1571370340.720,55.176,-6.348,41.016,2.930,-1.953,0
1571370340.723,79.102,-1.953,39.062,5.371,29.785,0
1571370340.727,24.414,2.930,36.133,28.320,64.941,0
1571370340.731,-5.371,8.301,33.691,19.531,-23.438,0
1571370340.735,34.668,11.719,38.086,12.695,14.648,0
1571370340.739,73.242,13.184,39.551,3.906,58.594,0
1571370340.735,38.574,16.113,36.621,20.508,59.082,3
1571370340.739,0.488,19.531,34.180,29.785,61.035,0
1571370340.743,36.621,20.020,34.180,24.902,49.805,0
1571370340.747,77.148,21.484,34.180,1.953,46.387,0
1571370340.751,50.293,23.926,33.203,18.066,14.160,0
1571370340.755,1.953,26.367,31.738,38.574,40.527,0
1571370340.759,11.230,26.855,31.738,24.902,1.953,0
1571370340.762,62.500,27.344,34.180,1.465,-52.734,0
1571370340.766,70.312,29.785,33.691,18.066,-3.906,0
1571370340.770,18.555,30.762,35.645,43.457,37.109,0
1571370340.774,5.859,27.832,38.574,33.691,37.109,0
1571370340.778,65.918,30.273,37.109,25.879,47.363,0
1571370340.796,88.379,33.203,37.109,22.461,73.242,0
1571370340.800,29.297,31.738,38.574,43.945,9.277,0
1571370340.804,-2.441,33.203,35.645,43.457,46.875,0
1571370340.808,43.945,33.203,35.645,41.016,87.891,0
1571370340.812,83.008,36.621,34.668,23.438,-17.578,0
1571370340.816,42.969,36.133,33.203,32.227,36.621,0
1571370340.820,-4.395,33.691,32.227,37.109,94.727,0
1571370340.823,26.855,37.109,32.715,32.227,18.066,0
1571370340.827,81.055,39.551,35.156,11.230,7.324,0
1571370340.831,58.105,41.504,32.715,20.508,41.504,0
1571370340.835,3.906,41.992,31.738,40.527,4.883,0
1571370340.839,6.836,41.016,35.645,27.832,22.949,0
1571370340.835,60.547,41.016,37.598,11.230,35.645,0
1571370340.839,76.172,41.016,37.598,19.043,5.371,0
1571370340.843,21.484,39.551,36.621,43.945,20.508,0
1571370340.847,-4.883,41.016,33.203,34.668,24.414,0
1571370340.851,45.410,45.410,34.180,27.832,30.762,0
1571370340.855,81.055,47.363,36.621,28.320,23.438,0
1571370340.859,33.691,47.363,37.109,51.758,49.805,0
1571370340.862,-9.277,47.363,37.598,46.387,104.980,0
1571370340.866,30.762,48.828,38.086,38.574,79.102,0
1571370340.870,78.125,48.340,37.109,25.879,22.949,0
1571370340.874,46.875,49.805,35.645,29.297,26.855,0
1571370340.878,0.977,52.246,35.645,41.504,20.508,0
1571370340.875,23.926,50.781,39.062,45.410,-16.113,0
1571370340.879,73.730,53.711,39.062,22.949,19.043,0
1571370340.883,62.012,54.199,35.645,41.016,36.133,0
1571370340.887,7.812,52.246,35.645,64.453,40.039,0
1571370340.891,8.789,53.711,35.156,52.734,-12.207,0
1571370340.895,64.453,55.176,35.156,37.598,-17.090,0
1571370340.899,80.566,54.199,37.598,37.598,51.270,0
1571370340.902,29.297,55.664,36.133,63.965,2.930,0
1571370340.906,4.395,58.594,34.668,49.316,-7.324,0
1571370340.910,50.293,59.570,37.598,37.109,0.977,0
1571370340.914,84.961,61.035,38.086,31.250,33.691,0
1571370340.918,41.016,59.570,36.133,48.340,44.434,0
1571370340.935,1.953,61.035,35.156,50.781,-13.184,0
1571370340.939,38.086,63.965,35.645,41.992,-33.691,0
1571370340.943,83.008,63.965,36.133,21.484,30.762,0
1571370340.947,52.734,62.988,36.133,29.785,25.391,0
1571370340.951,2.930,62.012,37.598,47.363,-1.953,0
1571370340.955,18.555,62.012,39.551,44.922,13.184,0
1571370340.959,67.383,59.082,39.062,19.531,46.387,0
1571370340.962,64.941,56.641,39.551,33.691,43.457,0
1571370340.966,17.090,57.617,40.039,63.477,49.805,0
1571370340.970,13.184,60.059,38.574,52.734,113.281,0
1571370340.974,61.035,57.129,38.574,33.691,74.707,0
1571370340.978,83.008,57.129,38.086,31.250,34.668,0
1571370340.976,30.273,58.105,38.086,56.152,8.789,0
1571370340.980,-0.488,56.641,37.109,44.922,28.809,0
1571370340.984,46.387,55.664,37.109,36.621,49.805,0
1571370340.988,82.520,56.641,36.621,38.086,74.219,0
1571370340.992,45.898,59.570,35.156,55.176,50.781,0
1571370340.996,1.465,59.570,35.645,58.105,22.461,0
1571370341.000,33.691,60.059,36.133,58.594,40.527,0
1571370341.003,83.008,61.523,35.645,37.598,-9.766,0
1571370341.007,63.477,64.453,34.668,44.922,10.742,0
1571370341.011,13.184,62.012,32.715,65.430,86.914,0
1571370341.015,17.578,59.570,34.180,50.781,20.996,0
1571370341.019,71.289,62.988,36.133,19.043,2.441,0
1571370341.019,79.102,62.988,35.156,33.203,39.551,0
1571370341.023,20.508,58.594,34.180,64.941,-22.461,0
1571370341.027,0.488,60.059,35.156,47.852,-49.805,0
1571370341.031,52.246,60.547,39.551,43.457,-1.953,0
1571370341.035,81.543,57.129,41.992,44.922,52.246,0
1571370341.039,31.250,55.664,40.527,56.152,34.668,0
1571370341.043,-7.324,53.711,39.062,47.363,-4.395,0
1571370341.046,42.969,55.176,37.109,41.504,-13.184,0
1571370341.050,88.867,57.617,37.109,25.879,-15.137,0
1571370341.054,44.922,53.711,37.109,22.949,43.457,0
1571370341.058,-3.418,50.293,36.621,17.090,70.801,0
1571370341.062,28.320,49.316,38.086,7.324,38.574,0
1571370341.076,81.055,47.852,36.621,-20.996,38.086,0
1571370341.080,68.359,46.875,35.156,-14.160,54.688,0
1571370341.084,20.020,48.828,37.598,2.441,47.852,0
1571370341.088,24.902,47.363,39.551,-16.113,68.359,0
1571370341.092,74.219,42.480,38.086,-40.039,109.375,0
1571370341.096,80.566,43.945,37.598,-35.156,119.629,0
1571370341.100,24.902,44.922,38.574,-13.672,33.691,0
1571370341.103,6.348,41.504,37.598,-35.156,15.137,0
1571370341.107,60.059,41.992,37.598,-46.875,7.324,0
1571370341.111,93.262,42.480,39.062,-42.480,-19.531,0
1571370341.115,50.781,40.527,38.574,-19.531,42.969,0
1571370341.119,10.742,40.039,33.691,-23.438,64.941,0
1571370341.117,44.434,38.086,35.156,-26.367,10.254,0
1571370341.121,86.426,36.621,40.039,-41.992,-41.016,0
1571370341.125,54.199,34.668,41.992,-26.855,-20.996,0
1571370341.129,6.348,33.203,42.969,-9.277,22.949,0
1571370341.133,30.273,32.715,41.992,-19.043,14.648,0
1571370341.137,81.055,33.203,41.504,-47.852,-12.695,0
1571370341.141,67.871,33.691,41.016,-33.691,-14.160,0
1571370341.144,5.859,33.203,42.480,-7.324,50.293,0
1571370341.148,-2.930,32.715,42.969,-28.320,39.062,0
1571370341.152,51.270,35.156,41.504,-46.875,26.855,0
1571370341.156,70.312,35.645,42.969,-41.504,55.176,0
1571370341.160,22.461,33.691,41.504,-15.137,15.625,0
1571370341.156,-1.953,32.715,37.598,-25.391,-6.348,0
1571370341.160,47.363,32.715,37.598,-32.715,-15.625,0
1571370341.164,81.055,34.668,39.551,-36.621,83.496,0
1571370341.168,27.344,35.645,40.527,-23.926,93.262,0
1571370341.172,-15.137,36.621,39.062,-19.531,-6.836,0
1571370341.176,26.367,36.133,40.039,-16.602,22.949,0
1571370341.180,72.754,35.156,42.480,-31.738,95.215,0
1571370341.183,50.293,32.227,39.551,-14.648,48.828,0
1571370341.187,-2.441,32.715,36.621,-3.418,53.223,0
1571370341.191,14.160,37.109,36.133,-13.184,81.055,0
1571370341.195,72.266,36.133,35.645,-31.738,8.301,0
1571370341.199,68.848,36.621,35.156,-22.461,7.812,0
1571370341.216,11.719,39.551,35.156,5.371,49.316,0
1571370341.220,-0.977,38.086,35.645,-11.230,48.828,0
1571370341.224,51.270,35.645,35.645,-22.949,33.203,0
1571370341.228,77.148,37.109,33.203,-15.625,50.293,0
1571370341.232,24.414,34.668,29.785,7.324,-21.484,0
1571370341.236,-1.465,33.691,30.762,8.301,4.883,0
1571370341.240,46.387,36.133,32.227,3.418,54.199,0
1571370341.243,72.754,33.691,33.203,-17.090,18.066,0
1571370341.247,27.344,29.297,32.715,-1.465,28.809,0
1571370341.251,-10.254,30.273,32.227,6.348,-20.508,0
1571370341.255,25.879,28.809,32.715,1.465,6.836,0
1571370341.259,72.754,23.438,33.691,-18.066,83.008,0
1571370341.256,55.664,21.973,33.691,-3.906,81.055,0
1571370341.260,7.324,20.020,33.203,16.113,55.176,0
1571370341.264,12.207,18.555,33.691,10.742,31.738,0
1571370341.268,61.523,19.531,31.250,-13.184,59.082,0
1571370341.272,61.035,19.531,29.297,-11.230,77.148,0
1571370341.276,9.277,17.578,30.762,16.113,41.504,0
1571370341.280,-3.418,18.555,32.715,0.977,22.461,0
1571370341.283,41.504,18.555,36.621,-13.672,-15.137,0
1571370341.287,70.312,15.137,38.086,-8.789,31.738,0
1571370341.291,25.879,12.695,34.668,15.137,76.172,0
1571370341.295,-11.719,10.254,33.203,6.836,-34.180,0
1571370341.299,28.809,9.766,36.621,3.418,-36.621,0
1571370341.297,71.289,10.742,39.551,-3.418,42.969,0
1571370341.301,35.645,9.277,40.039,9.277,32.715,0
1571370341.305,-9.766,7.324,40.039,18.066,-14.648,0
1571370341.309,18.555,7.324,42.969,14.648,-27.832,0
1571370341.313,71.289,7.812,42.480,-3.906,28.320,0
1571370341.317,62.012,8.301,42.969,14.160,55.176,0
1571370341.321,9.766,7.324,41.992,39.551,50.293,0
1571370341.324,10.742,4.395,41.016,26.855,-2.930,0
1571370341.328,62.500,4.395,41.016,2.441,19.531,0
1571370341.332,74.707,6.836,40.039,14.160,78.613,0
1571370341.336,25.391,8.789,36.621,38.574,30.762,0
1571370341.340,2.930,10.742,35.645,18.555,28.320,0
1571370341.356,56.641,13.184,35.156,12.695,44.434,0
1571370341.360,91.309,16.113,33.691,6.836,34.180,0
1571370341.364,41.504,18.555,31.738,20.020,64.941,0
1571370341.368,0.977,20.508,31.250,16.602,52.734,0
1571370341.372,34.180,19.043,32.227,8.789,29.785,0
1571370341.376,73.730,20.020,32.715,-9.766,19.043,0
1571370341.380,43.457,27.832,28.809,1.953,17.578,0
1571370341.383,-5.371,27.832,26.855,13.672,49.316,0
1571370341.387,17.578,26.367,31.738,6.348,78.125,0
1571370341.391,72.754,28.320,30.762,-18.066,65.430,0
1571370341.395,58.594,24.902,30.273,-5.859,39.062,0
1571370341.399,0.488,24.902,33.203,22.949,44.434,0
1571370341.398,-2.930,26.855,35.156,12.695,72.754,0
1571370341.402,46.387,24.902,36.621,-5.859,58.105,0
1571370341.406,63.477,23.438,35.156,0.488,58.105,0
1571370341.410,15.137,23.926,35.156,24.902,67.383,0
1571370341.414,-7.324,23.926,35.645,14.648,11.719,0
1571370341.418,41.016,22.949,34.668,14.648,-1.465,0
1571370341.422,72.266,20.508,38.086,11.230,6.836,0
1571370341.425,26.367,18.066,38.574,28.320,-39.551,0
1571370341.429,-11.230,19.531,35.156,31.738,-8.789,0
1571370341.433,28.809,21.484,35.156,32.715,4.395,0
1571370341.437,86.426,20.020,35.156,20.020,2.930,0
1571370341.441,55.664,19.531,36.133,28.809,59.570,0
1571370341.436,-1.953,23.438,37.598,34.180,32.715,0
1571370341.440,20.508,23.438,37.598,21.484,-21.973,0
1571370341.444,67.383,20.996,37.109,4.883,-2.441,0
1571370341.448,60.547,20.996,35.645,17.578,46.875,0
1571370341.452,9.766,21.484,33.203,41.504,67.871,0
1571370341.456,-0.488,22.461,31.738,17.578,37.598,0
1571370341.460,51.270,24.414,34.180,-2.441,-7.324,0
1571370341.463,75.684,26.367,31.738,5.371,23.926,0
1571370341.467,23.438,31.250,26.367,21.973,49.805,0
1571370341.471,-4.883,30.762,28.809,15.137,54.688,0
1571370341.475,42.969,31.250,26.855,14.160,80.566,0
1571370341.479,83.496,35.156,27.344,4.883,94.727,0
1571370341.497,41.504,36.133,26.367,23.438,104.004,0
1571370341.501,-6.836,36.133,20.996,28.809,87.402,0
1571370341.505,27.344,36.621,24.414,23.926,39.062,0
1571370341.509,78.125,39.551,25.879,1.465,-0.977,0
1571370341.513,59.082,41.992,23.926,12.695,5.859,0
1571370341.517,2.441,41.992,25.879,32.715,-16.113,0
1571370341.521,7.812,40.527,27.344,13.184,-28.320,0
1571370341.524,62.500,38.086,26.367,-7.812,39.551,0
1571370341.528,68.359,39.062,27.344,9.277,139.648,0
1571370341.532,13.184,41.992,29.297,33.203,67.383,0
1571370341.536,-3.418,42.480,30.762,23.926,-22.949,0
1571370341.540,53.223,41.992,35.645,14.648,1.953,0
1571370341.536,81.543,40.527,37.598,15.137,6.348,0
1571370341.540,23.926,42.969,39.062,33.691,36.133,0
1571370341.544,-15.625,46.387,39.551,17.578,24.414,0
1571370341.548,28.809,44.434,37.598,18.555,21.973,0
1571370341.552,74.219,46.875,35.156,12.207,27.344,0
1571370341.556,42.480,49.805,33.203,23.438,-14.648,0
1571370341.560,-5.859,50.293,33.203,29.785,28.809,0
1571370341.563,20.020,50.293,35.156,25.879,67.871,0
1571370341.567,74.219,49.805,34.180,10.742,15.137,0
1571370341.571,54.199,51.270,29.297,18.066,2.441,0
1571370341.575,-5.859,50.293,28.809,35.645,44.434,0
1571370341.579,-1.465,50.293,29.297,24.902,46.387,0
1571370341.576,55.176,49.805,34.180,4.883,-6.348,0
1571370341.580,68.848,48.340,34.668,15.625,14.648,0
1571370341.584,16.113,45.410,32.227,37.598,47.363,0
1571370341.588,-7.324,42.480,30.762,18.066,25.879,0
1571370341.592,38.574,39.062,30.273,7.812,39.062,0
1571370341.596,67.383,34.668,30.273,2.441,32.227,0
1571370341.600,23.926,33.691,29.297,17.578,32.227,0
1571370341.603,-13.672,30.762,29.785,16.113,33.691,0
1571370341.607,23.926,27.832,33.691,15.137,14.648,0
1571370341.611,72.266,25.391,35.645,1.953,-21.484,0
1571370341.615,44.922,24.902,31.738,19.043,-34.180,0
1571370341.619,-5.371,25.879,30.762,40.527,5.859,0
1571370341.635,14.160,26.855,32.227,36.133,22.461,0
1571370341.639,71.777,22.949,33.691,15.137,29.297,0
1571370341.643,69.824,20.508,34.180,30.762,34.668,0
1571370341.647,10.254,22.461,32.715,51.758,45.898,0
1571370341.651,8.301,22.949,32.227,44.434,-2.441,0
1571370341.655,66.406,23.926,34.180,27.344,2.441,0
1571370341.659,75.195,21.973,36.621,21.973,40.039,0
1571370341.662,19.043,19.043,36.621,42.480,45.898,0
1571370341.666,-10.742,14.648,37.109,31.738,44.434,0
1571370341.670,33.203,13.672,38.574,23.926,52.734,0
1571370341.674,73.730,20.020,32.715,16.602,13.672,0
1571370341.678,34.668,23.926,32.227,30.762,-24.902,0
1571370341.675,-5.859,23.438,34.180,24.902,-12.207,0
1571370341.679,36.133,23.926,34.180,17.090,7.324,0
1571370341.683,79.102,27.344,32.227,0.000,-0.488,0
1571370341.687,50.781,27.832,30.762,10.742,8.301,0
1571370341.691,3.906,28.320,31.738,25.879,107.910,0
1571370341.695,17.090,29.785,31.738,9.277,82.520,0
1571370341.699,70.312,28.809,32.715,-13.672,44.922,0
1571370341.702,69.336,29.297,34.180,7.812,116.211,0
1571370341.706,10.254,30.273,35.156,35.645,105.469,0
1571370341.710,-2.441,32.227,34.668,19.531,89.355,0
1571370341.714,54.688,34.180,36.133,5.371,55.664,0
1571370341.718,83.984,33.203,36.621,23.438,35.156,0
1571370341.715,32.227,36.621,34.180,54.688,4.395,0
1571370341.719,-0.977,40.527,33.203,41.016,-36.621,0
1571370341.723,47.363,41.504,35.156,32.715,-15.137,0
1571370341.727,87.402,43.457,36.621,17.578,17.090,0
1571370341.731,46.387,43.457,35.645,30.762,12.207,0
1571370341.735,-0.977,42.969,36.133,34.668,15.137,0
1571370341.739,31.250,45.898,38.086,29.785,6.836,0
1571370341.742,78.125,49.316,38.574,10.742,39.551,0
1571370341.746,57.617,51.270,37.598,24.414,98.633,0
1571370341.750,5.859,53.711,33.691,46.387,62.500,0
1571370341.754,10.742,55.176,31.738,39.062,29.785,0
1571370341.758,63.965,53.223,34.180,21.973,28.320,0
1571370341.776,69.336,53.711,34.180,25.391,-3.906,0
1571370341.780,14.648,58.105,34.180,44.922,12.207,0
1571370341.784,1.465,62.012,34.668,37.109,35.645,0
1571370341.788,49.316,62.012,34.180,26.855,39.551,0
1571370341.792,70.801,60.547,34.668,25.879,47.852,0
1571370341.796,22.461,60.059,34.180,45.410,1.953,0
1571370341.800,-7.812,60.059,35.156,37.598,12.695,0
1571370341.803,40.039,63.477,35.645,40.039,23.438,0
1571370341.807,79.102,65.918,34.180,31.738,-0.488,0
1571370341.811,39.551,62.988,34.180,38.086,19.043,0
1571370341.815,-11.719,62.988,34.668,46.387,23.438,0
1571370341.819,18.066,64.453,35.156,41.504,52.734,0
1571370341.815,70.801,65.430,34.668,14.160,25.879,0
1571370341.819,56.152,65.918,32.227,26.367,-28.320,0
1571370341.823,3.906,67.871,32.715,50.293,1.953,0
1571370341.827,1.953,69.824,34.180,36.133,61.035,0
1571370341.831,48.340,69.824,34.668,8.789,54.688,0
1571370341.835,62.988,69.824,33.203,17.090,17.090,0
1571370341.839,16.602,70.312,30.762,41.504,18.066,1
1571370341.842,-4.395,68.848,31.250,27.832,2.441,0
1571370341.846,45.410,67.383,33.203,26.367,15.625,0
1571370341.850,76.660,67.383,32.227,18.555,63.477,0
1571370341.854,30.273,67.871,31.250,34.668,65.918,0
1571370341.858,-10.742,69.824,30.762,38.086,31.250,0
1571370341.855,30.273,71.289,28.809,35.645,12.695,0
1571370341.859,73.730,67.383,29.297,19.531,7.812,0
1571370341.863,41.504,65.918,32.227,28.809,-3.906,0
1571370341.867,-2.930,66.895,34.180,45.898,5.859,0
1571370341.871,21.484,66.406,34.668,46.875,65.430,0
1571370341.875,68.359,65.918,35.156,19.531,42.969,0
1571370341.879,57.129,65.430,36.621,33.691,20.508,0
1571370341.882,7.324,65.918,33.203,58.105,26.367,0
1571370341.886,5.859,66.895,35.645,44.434,44.434,0
1571370341.890,62.988,67.383,37.598,34.180,101.074,0
1571370341.894,81.055,65.430,34.180,39.551,125.977,0
1571370341.898,26.855,63.965,35.645,62.988,101.562,0
1571370341.915,-4.883,62.012,34.668,42.480,65.430,0
1571370341.919,37.109,59.082,32.227,35.645,14.160,0
1571370341.923,68.359,59.082,35.156,28.809,13.672,0
1571370341.927,23.438,57.129,36.621,43.945,61.035,0
1571370341.931,-20.508,52.246,34.668,41.016,59.570,0
1571370341.935,17.090,50.781,35.645,31.250,43.945,0
1571370341.939,68.848,49.316,38.086,18.066,62.988,0
1571370341.942,47.852,48.340,36.133,30.273,0.488,0
1571370341.946,-5.859,45.898,35.156,46.387,15.625,0
1571370341.950,7.812,44.922,36.133,37.109,58.594,0
1571370341.954,64.941,42.969,36.621,10.254,29.297,0
1571370341.958,63.965,40.039,38.086,26.855,79.102,0
1571370341.956,8.301,39.551,39.062,56.152,29.297,0
1571370341.960,-0.977,40.039,35.156,41.992,-10.742,0
1571370341.964,58.105,41.992,34.668,26.367,48.828,0
1571370341.968,82.031,41.504,34.668,27.832,43.945,0
1571370341.972,26.855,38.574,35.156,54.688,6.348,0
1571370341.976,-6.348,35.156,38.086,44.922,12.695,0
1571370341.980,42.480,35.156,39.551,38.086,8.789,0
1571370341.983,80.078,35.156,39.062,23.926,24.414,0
1571370341.987,41.504,32.715,32.715,34.668,-5.859,0
1571370341.991,-1.465,31.250,28.809,38.574,-15.625,0
1571370341.995,28.320,31.250,30.762,34.668,21.484,0
1571370341.999,80.078,32.227,29.297,13.184,20.020,0
1571370341.995,69.336,32.227,30.273,26.367,-10.742,0
1571370341.999,16.113,32.227,31.250,48.340,22.949,0
1571370342.003,17.090,26.855,31.250,35.645,69.336,0
1571370342.007,65.430,23.438,33.691,11.719,48.340,0
1571370342.011,68.359,22.461,34.180,21.484,20.508,0
1571370342.015,12.207,19.043,33.691,44.922,37.109,0
1571370342.019,-7.324,16.602,34.180,25.879,7.812,0
1571370342.022,47.363,16.113,35.156,13.184,-23.438,0
1571370342.026,77.637,12.695,36.133,12.695,22.461,0
1571370342.030,27.344,8.789,33.691,34.668,29.297,0
1571370342.034,-16.113,7.812,30.762,26.855,20.508,0
1571370342.038,26.855,8.789,31.738,25.391,59.570,0
1571370342.056,76.172,8.301,34.180,21.973,44.434,0
1571370342.060,41.504,6.348,34.668,37.109,4.883,0
1571370342.064,-7.812,4.883,32.227,48.340,25.879,0
1571370342.068,19.043,2.930,32.715,40.039,64.941,0
1571370342.072,68.848,0.977,34.180,17.578,24.414,0
1571370342.076,56.152,1.465,32.715,33.691,39.062,0
1571370342.080,5.859,-0.977,34.668,56.152,64.941,0
1571370342.083,8.789,-3.418,37.109,43.945,12.207,0
1571370342.087,65.430,-4.395,34.668,20.508,8.301,0
1571370342.091,78.125,-8.301,34.180,28.320,13.672,0
1571370342.095,23.438,-7.812,36.133,55.664,58.594,0
1571370342.099,7.324,-6.348,35.645,42.480,96.680,0
1571370342.098,56.641,-7.812,32.715,36.621,78.125,0
1571370342.102,82.031,-8.301,31.738,26.367,20.996,0
1571370342.106,40.527,-13.672,36.133,40.039,-28.320,0
1571370342.110,-0.977,-17.578,38.086,41.992,31.250,0
1571370342.114,35.645,-18.555,38.086,40.039,4.883,0
1571370342.118,81.543,-18.066,40.039,24.414,-7.324,0
1571370342.122,46.875,-17.090,38.574,35.645,35.156,0
1571370342.125,5.859,-17.090,35.156,51.270,50.293,0
1571370342.129,24.902,-15.137,35.645,42.969,62.500,0
1571370342.133,70.312,-11.719,36.133,13.184,43.457,0
1571370342.137,63.477,-11.230,33.691,29.785,5.859,0
1571370342.141,7.324,-10.742,32.227,50.293,-21.973,0
1571370342.156,4.883,-8.301,34.180,30.273,-10.742,0
1571370342.160,63.477,-5.371,34.180,17.578,28.809,0
1571370342.164,83.496,-3.418,33.203,23.438,44.434,0
1571370342.168,27.344,-0.488,35.645,46.387,12.207,0
1571370342.172,-7.324,4.883,33.203,32.715,-8.789,0
1571370342.176,40.039,9.766,32.227,29.297,-14.160,0
1571370342.180,81.055,12.207,35.156,28.809,-33.203,0
1571370342.183,38.574,12.207,33.203,39.551,66.895,0
1571370342.187,-3.906,12.207,33.203,39.062,104.980,0
1571370342.191,35.156,16.602,34.180,36.133,91.309,0
1571370342.195,85.938,19.043,33.691,16.113,85.938,0
1571370342.199,59.082,20.508,32.227,31.738,107.910,0
1571370342.197,0.488,23.926,28.809,44.434,43.945,0
1571370342.201,14.160,25.879,32.715,37.598,-2.930,0
1571370342.205,73.730,25.879,36.133,17.578,65.918,0
1571370342.209,75.684,26.855,35.645,32.227,32.715,0
1571370342.213,20.996,27.344,34.180,60.059,-15.137,0
1571370342.217,8.789,26.855,33.203,38.574,51.270,0
1571370342.221,56.641,27.344,35.645,20.996,80.566,0
1571370342.224,75.195,26.855,37.109,21.484,-34.180,0
1571370342.228,23.438,29.297,35.156,48.340,-40.039,0
1571370342.232,-7.812,29.785,34.668,41.992,9.277,0
1571370342.236,42.480,25.391,34.180,30.762,4.883,0
1571370342.240,89.355,27.832,35.156,16.602,11.719,0
1571370342.237,50.781,30.273,34.668,38.574,37.109,0
1571370342.241,-0.488,27.832,35.156,48.828,45.410,0
1571370342.245,29.785,26.367,35.645,48.340,47.363,0
1571370342.249,78.613,27.344,36.133,33.203,41.504,0
1571370342.253,57.617,32.227,37.598,46.387,41.504,0
1571370342.257,3.418,36.133,36.133,59.570,40.527,0
1571370342.261,12.207,36.621,38.086,46.387,56.641,0
1571370342.264,71.777,39.062,41.504,27.344,56.641,0
1571370342.268,76.660,41.016,40.039,30.273,16.113,0
1571370342.272,20.508,41.992,38.086,51.758,79.590,0
1571370342.276,7.324,45.410,38.086,40.527,121.094,0
1571370342.280,59.082,48.828,39.551,32.227,41.504,0
1571370342.297,82.520,48.340,40.039,31.250,24.414,0
1571370342.301,32.715,49.316,35.156,45.898,6.836,0
1571370342.305,-2.441,52.734,35.156,34.180,-11.719,0
1571370342.309,39.062,55.664,35.645,26.367,46.387,0
1571370342.313,82.031,57.129,32.227,17.090,66.406,0
1571370342.317,48.828,56.152,31.738,31.738,50.293,0
1571370342.321,-1.953,56.641,30.273,40.039,58.105,0
1571370342.324,19.043,58.594,33.203,32.227,41.504,0
1571370342.328,72.754,60.547,33.203,4.395,-24.414,0
1571370342.332,57.617,60.547,30.762,18.066,12.695,0
1571370342.336,4.395,61.523,33.691,43.457,71.777,0
1571370342.340,10.742,63.477,35.645,32.715,86.426,0
1571370342.336,62.988,65.430,34.668,10.742,39.062,0
1571370342.340,73.242,64.453,35.156,22.949,-3.418,0
1571370342.344,20.020,65.918,35.645,54.199,-9.277,0
1571370342.348,2.930,74.707,36.133,41.992,-79.590,0
1571370342.352,54.688,74.707,34.668,33.691,-10.254,0
1571370342.356,85.938,70.312,34.668,22.949,40.039,0
1571370342.360,41.016,72.266,32.715,39.062,59.570,0
1571370342.363,3.418,74.219,31.738,38.574,74.219,0
1571370342.367,41.504,73.730,31.738,28.809,29.297,0
1571370342.371,86.914,76.172,27.344,13.184,29.785,0
1571370342.375,56.641,79.590,26.367,22.461,35.645,0
1571370342.379,3.418,79.590,26.367,30.762,45.410,0
1571370342.396,25.391,76.172,27.344,29.297,42.480,0
1571370342.400,82.520,78.125,29.297,6.348,-20.996,0
1571370342.404,75.684,82.031,29.297,16.602,-13.672,0
1571370342.408,16.113,81.543,26.855,38.086,55.664,0
1571370342.412,0.000,80.566,25.879,24.414,59.570,0
1571370342.416,54.688,79.102,27.832,11.230,57.617,0
1571370342.420,75.684,81.543,32.227,22.461,39.062,0
1571370342.423,24.902,80.566,33.691,54.688,14.648,0
1571370342.427,1.953,78.613,30.762,43.945,91.309,0
1571370342.431,46.387,80.566,31.250,35.156,83.496,0
1571370342.435,81.055,78.613,33.203,32.227,20.996,0
1571370342.439,40.527,77.637,31.250,50.293,43.945,0
1571370342.436,0.000,78.125,30.273,52.734,41.992,0
1571370342.440,32.227,75.684,33.691,41.992,20.508,0
1571370342.444,75.195,73.242,33.203,20.508,28.809,0
1571370342.448,49.805,75.195,32.227,33.691,20.020,0
1571370342.452,3.418,79.590,31.738,48.340,36.621,0
1571370342.456,14.648,79.102,29.297,42.969,41.016,0
1571370342.460,65.918,79.102,31.738,19.043,47.852,0
1571370342.463,65.918,81.055,34.668,31.738,74.707,0
1571370342.467,12.695,81.055,34.668,65.430,77.148,0
1571370342.471,6.348,80.078,34.180,50.781,55.664,0
1571370342.475,60.059,79.102,33.691,32.227,39.551,0
1571370342.479,77.637,79.590,33.691,31.250,47.363,0
1571370342.477,22.949,81.055,32.227,46.387,20.020,0
1571370342.481,-6.348,81.055,28.809,39.551,9.766,0
1571370342.485,39.551,81.543,29.785,33.203,4.883,0
1571370342.489,83.008,81.055,32.227,21.973,-2.930,0
1571370342.493,41.992,82.520,27.832,36.133,17.578,0
1571370342.497,1.953,82.520,28.809,40.527,53.711,0
1571370342.501,34.668,82.520,31.738,34.180,73.730,0
1571370342.504,75.684,81.543,32.227,11.719,113.770,0
1571370342.508,53.223,80.566,32.715,31.738,104.980,0
1571370342.512,-3.906,81.543,29.785,51.270,25.391,0
1571370342.516,1.465,78.613,29.785,33.691,9.277,0
1571370342.520,55.664,75.684,33.691,17.090,21.973,0
1571370342.516,62.012,75.195,33.691,33.691,-37.598,0
1571370342.520,10.742,74.707,31.738,61.523,-17.090,0
1571370342.524,-4.395,73.242,32.715,46.387,33.203,0
1571370342.528,44.922,73.242,34.180,26.367,-0.977,0
1571370342.532,74.707,74.707,34.668,24.414,31.250,0
1571370342.536,27.344,73.242,35.156,43.945,-48.828,0
1571370342.540,-9.277,71.289,34.180,39.551,-53.223,0
1571370342.543,34.668,67.383,34.668,35.645,-0.488,0
1571370342.547,79.590,66.895,38.086,20.020,26.855,0
1571370342.551,37.109,65.918,41.016,32.715,64.941,0
1571370342.555,-16.602,62.500,36.133,43.457,-13.672,0
1571370342.559,14.160,61.035,36.133,38.574,0.000,0
1571370342.597,66.406,62.988,36.621,12.207,79.102,0
1571370342.601,50.293,66.406,31.250,21.484,72.754,0
1571370342.605,3.906,69.336,29.297,49.316,-22.949,0
1571370342.609,11.719,71.777,29.297,30.762,-15.625,0
1571370342.613,63.477,70.312,28.809,7.324,70.312,0
1571370342.617,74.219,68.359,29.785,18.066,70.801,0
1571370342.621,21.973,70.801,29.785,40.527,74.219,0
1571370342.624,-2.441,71.289,29.785,25.879,62.500,0
1571370342.628,49.316,71.289,32.227,21.973,-17.090,0
1571370342.632,89.844,70.801,32.227,29.297,-28.809,0
1571370342.636,44.434,70.801,31.250,48.340,28.320,0
1571370342.640,4.395,72.266,29.785,40.039,16.113,0
1571370342.617,46.387,72.266,29.297,39.062,52.734,0
1571370342.621,87.891,73.242,34.668,23.438,97.168,0
1571370342.625,50.781,72.266,36.621,39.062,41.504,0
1571370342.629,0.000,69.336,33.691,49.316,-18.066,0
1571370342.633,21.484,69.824,32.715,37.598,-50.293,0
1571370342.637,66.406,68.359,34.180,19.043,46.875,0
1571370342.641,60.059,68.848,35.156,33.203,108.398,0
1571370342.644,7.324,67.871,33.691,50.781,0.977,0
1571370342.648,-5.371,67.383,34.180,30.273,21.973,0
1571370342.652,47.363,67.383,35.156,12.695,23.926,0
1571370342.656,66.406,64.941,36.133,19.043,-25.391,0
1571370342.660,17.090,67.383,33.691,47.852,20.508,0
1571370342.656,-7.812,65.430,32.227,40.039,20.020,0
1571370342.660,42.480,62.500,36.621,33.691,26.855,0
1571370342.664,82.031,67.383,39.062,27.344,30.273,0
1571370342.668,40.527,69.336,40.527,37.109,-12.695,0
1571370342.672,-3.418,65.918,40.039,34.180,40.039,0
1571370342.676,31.738,66.406,36.621,34.668,85.938,0
1571370342.680,84.961,67.871,36.133,21.484,36.133,0
1571370342.683,58.105,65.918,35.645,35.156,-6.348,0
1571370342.687,2.930,63.477,36.133,48.828,58.105,0
1571370342.691,18.555,62.500,37.598,38.086,39.062,0
1571370342.695,72.266,62.012,36.621,19.531,11.719,0
1571370342.699,72.754,63.965,35.645,28.320,71.289,0
1571370342.716,19.043,66.406,35.645,55.664,54.688,0
1571370342.720,-3.418,64.453,34.180,45.410,36.133,0
1571370342.724,42.969,62.500,33.203,26.855,42.480,0
1571370342.728,69.824,63.477,34.668,29.785,44.922,0
1571370342.732,23.438,62.012,37.598,51.758,36.133,0
1571370342.736,-5.371,60.059,39.062,45.898,23.926,0
1571370342.740,38.574,62.012,37.598,33.203,14.648,0
1571370342.743,79.590,61.035,39.551,16.113,-27.344,0
1571370342.747,46.875,60.059,40.039,45.898,-44.922,0
1571370342.751,4.395,61.523,39.551,52.246,20.508,0
1571370342.755,29.785,61.523,40.039,47.363,78.125,0
1571370342.759,76.660,61.523,39.062,34.668,93.262,0
1571370342.756,57.617,61.035,38.574,50.293,63.965,0
1571370342.760,4.395,61.035,39.062,67.383,53.711,0
1571370342.764,15.137,59.570,38.574,49.805,49.316,0
1571370342.768,68.359,58.594,40.527,27.344,5.371,0
1571370342.772,67.871,57.129,41.504,36.133,-21.484,0
1571370342.776,10.742,55.664,37.109,63.965,0.977,0
1571370342.780,-7.812,56.641,34.668,51.758,20.996,0
1571370342.783,43.457,55.664,36.133,36.621,41.992,0
1571370342.787,73.242,53.223,37.109,40.039,30.273,0
1571370342.791,21.973,51.758,36.621,61.035,-17.578,0
1571370342.795,-14.648,55.176,38.086,47.852,0.000,0
1571370342.799,31.250,56.641,39.062,48.340,-21.484,0
1571370342.796,73.242,55.176,37.598,39.551,20.508,0
1571370342.800,42.969,55.176,36.133,54.199,16.113,0
1571370342.804,0.977,58.105,33.691,62.988,3.418,0
1571370342.808,27.832,58.594,34.180,53.223,43.457,0
1571370342.812,81.055,60.059,35.645,33.203,-21.484,0
1571370342.816,71.289,66.406,33.203,47.852,-38.574,0
1571370342.820,21.973,65.918,31.250,65.918,42.480,0
1571370342.823,20.996,63.965,30.762,53.711,62.988,0
1571370342.827,69.824,66.895,29.297,31.738,16.602,0
1571370342.831,85.449,65.918,28.809,37.109,12.207,0
1571370342.835,36.621,63.477,27.832,63.477,2.441,0
1571370342.839,10.742,63.965,28.320,51.270,-8.789,0
1571370342.855,53.223,64.941,31.250,41.016,7.324,0
1571370342.859,82.520,62.500,30.273,32.227,8.301,0
1571370342.863,40.527,61.035,31.250,48.340,19.043,0
1571370342.867,5.371,61.523,32.715,47.363,52.734,0
1571370342.871,35.645,60.059,30.273,42.480,19.531,0
1571370342.875,71.289,58.105,30.762,27.344,-5.371,0
1571370342.879,41.016,57.129,31.250,39.062,53.223,0
1571370342.882,-4.395,55.176,31.250,48.340,73.730,0
1571370342.886,17.578,50.293,32.715,46.387,34.180,0
1571370342.890,65.430,49.805,33.203,25.879,27.832,0
1571370342.894,61.523,49.805,32.715,39.551,25.879,0
1571370342.898,9.277,49.805,32.227,62.988,-9.277,0
1571370342.895,2.441,48.340,33.691,47.852,14.160,0
1571370342.899,62.012,48.340,35.645,34.180,31.738,1
1571370342.903,84.473,47.363,34.668,45.898,54.199,0
1571370342.907,30.273,43.457,33.691,74.219,44.434,0
1571370342.911,-2.441,44.434,34.180,59.570,-14.160,0
1571370342.915,44.922,43.457,37.598,53.711,10.254,0
1571370342.919,87.402,42.480,39.062,49.805,54.688,0
1571370342.922,45.410,42.969,36.133,63.965,6.348,0
1571370342.926,3.906,43.457,37.598,67.383,33.203,0
1571370342.930,37.109,43.945,39.551,60.059,87.402,0
1571370342.934,78.125,39.551,40.039,37.109,36.621,0
1571370342.938,50.293,34.180,41.016,50.781,15.625,0
1571370342.935,-0.977,35.645,39.062,68.359,-15.137,0
1571370342.939,15.137,35.156,42.480,62.500,-11.719,0
1571370342.943,72.754,32.715,41.504,41.992,52.246,0
1571370342.947,74.707,33.203,40.527,52.246,70.801,0
1571370342.951,19.043,33.691,42.480,76.660,50.293,0
1571370342.955,2.930,32.715,39.551,64.453,32.715,0
1571370342.959,57.617,33.691,39.551,48.828,13.184,0
1571370342.962,81.055,36.133,38.086,46.875,30.273,0
1571370342.966,25.879,34.180,37.598,57.617,77.148,0
1571370342.970,1.953,35.156,37.598,47.363,27.344,0
1571370342.974,56.152,37.109,38.086,54.688,-10.742,0
1571370342.978,94.727,37.598,38.086,46.875,-13.184,0
1571370342.995,51.270,38.574,35.156,59.082,38.086,0
1571370342.999,8.789,40.039,36.621,62.988,55.176,0
1571370343.003,42.480,41.016,35.156,56.641,33.203,0
1571370343.007,89.355,36.133,34.180,36.621,7.812,0
1571370343.011,74.707,36.133,34.668,48.340,38.086,0
1571370343.015,25.391,37.598,33.203,74.707,93.262,0
1571370343.019,28.320,35.645,32.715,58.105,38.086,0
1571370343.022,78.125,34.668,34.668,31.738,8.301,0
1571370343.026,86.914,37.109,35.156,50.293,11.230,0
1571370343.030,35.645,39.062,35.156,74.707,25.391,0
1571370343.034,19.043,39.551,33.691,59.082,44.922,0
1571370343.038,69.824,37.598,35.645,45.898,26.367,0
1571370343.035,91.309,34.180,37.598,42.969,4.395,0
1571370343.039,37.109,32.227,35.645,66.895,-19.531,0
1571370343.043,0.977,28.809,32.715,62.988,5.859,0
1571370343.047,41.992,28.320,34.668,59.570,58.105,0
1571370343.051,82.031,29.785,39.551,46.875,39.062,0
1571370343.055,47.363,31.250,38.574,56.152,45.410,0
1571370343.059,8.789,33.203,39.062,71.777,43.457,0
1571370343.062,34.180,30.762,43.457,64.453,1.953,0
1571370343.066,79.590,29.297,42.480,36.133,-32.715,0
1571370343.070,70.801,29.785,39.551,47.363,-10.254,0
1571370343.074,10.254,31.738,39.551,63.477,16.602,0
1571370343.078,11.230,30.273,39.551,56.641,42.480,0
1571370343.096,68.359,26.367,40.039,37.109,67.383,0
1571370343.100,81.055,28.320,37.109,41.016,44.434,0
1571370343.104,32.715,32.227,34.668,62.012,111.328,0
1571370343.108,12.695,30.762,37.109,44.434,38.574,0
1571370343.112,55.176,29.785,36.621,46.875,-11.230,0
1571370343.116,82.031,30.762,35.645,47.363,-1.953,0
1571370343.120,33.203,29.297,35.645,61.035,-68.848,0
1571370343.123,-7.812,28.809,33.203,58.594,31.738,0
1571370343.127,26.855,26.367,36.133,48.828,52.734,0
1571370343.131,70.312,22.461,38.574,34.180,15.137,0
1571370343.135,42.969,21.484,35.645,52.734,-19.531,0
1571370343.139,0.000,19.531,35.156,71.777,-43.945,0
1571370343.156,18.555,18.555,33.691,59.570,12.695,0
1571370343.160,65.430,18.555,31.738,34.180,17.090,0
1571370343.164,62.988,18.555,33.691,54.688,35.645,0
1571370343.168,15.137,22.461,35.645,79.102,41.016,0
1571370343.172,10.254,20.020,38.574,63.477,2.441,0
1571370343.176,62.988,15.625,39.551,44.922,-2.930,0
1571370343.180,82.520,15.137,35.156,47.363,10.742,0
1571370343.183,30.273,12.695,33.691,70.312,63.965,0
1571370343.187,3.418,13.184,32.715,54.199,103.027,0
1571370343.191,50.293,15.137,33.203,48.828,53.223,0
1571370343.195,86.914,14.648,35.645,46.875,34.668,0
1571370343.199,41.992,15.137,35.645,55.664,86.426,0
1571370343.176,0.000,14.648,38.574,55.176,62.012,0
1571370343.180,38.574,13.672,38.574,57.129,95.703,0
1571370343.184,84.473,11.230,37.598,38.086,87.891,0
1571370343.188,57.129,10.254,37.109,44.434,1.465,0
1571370343.192,4.395,9.766,34.180,58.105,23.926,0
1571370343.196,15.625,8.789,34.180,48.340,71.777,0
1571370343.200,64.941,8.789,32.715,26.855,92.285,0
1571370343.203,71.777,12.207,30.273,42.480,54.688,0
1571370343.207,19.043,13.184,31.250,67.383,-7.812,0
1571370343.211,3.418,8.301,31.738,48.828,29.297,0
1571370343.215,56.152,6.836,30.762,32.227,111.328,0
1571370343.219,78.125,6.348,30.762,32.715,86.426,0
1571370343.216,25.879,6.348,30.273,55.664,45.410,0
1571370343.220,-5.371,4.395,32.715,46.387,99.609,0
1571370343.224,35.156,2.930,34.180,36.621,85.938,0
1571370343.228,75.195,4.883,35.645,22.949,47.363,0
1571370343.232,36.621,2.930,37.109,41.504,79.102,0
1571370343.236,-12.207,-2.441,35.645,50.781,70.801,0
1571370343.240,17.578,-4.395,37.109,33.691,34.668,0
1571370343.243,64.941,-1.465,38.574,6.836,69.824,0
1571370343.247,39.062,1.465,38.086,20.020,39.551,0
1571370343.251,-10.742,2.441,38.574,41.992,15.137,0
1571370343.255,6.836,0.488,38.086,38.086,44.434,0
1571370343.259,59.570,-1.465,35.645,12.695,27.344,0
1571370343.296,66.406,-2.441,35.645,29.297,-5.371,0
1571370343.300,20.020,-5.371,35.645,66.406,29.297,0
1571370343.304,5.371,-8.301,35.645,55.664,63.477,0
1571370343.308,55.176,-5.859,36.133,43.457,-7.324,0
1571370343.312,83.008,-4.883,38.086,37.598,-19.043,0
1571370343.316,32.227,-3.418,36.133,53.223,0.488,0
1571370343.320,0.488,-0.977,33.203,52.246,-20.996,0
1571370343.323,50.781,-0.977,35.645,57.617,49.316,0
1571370343.327,88.867,0.488,33.203,39.551,70.801,0
1571370343.331,46.875,3.418,29.297,47.852,33.691,0
1571370343.335,-4.883,3.418,31.738,59.082,74.219,0
1571370343.339,19.043,4.395,34.668,53.711,25.879,0
1571370343.319,74.219,8.301,35.645,26.855,14.160,0
1571370343.323,60.059,9.766,33.203,40.039,14.160,0
1571370343.327,8.301,12.695,34.668,61.035,-31.738,0
1571370343.331,11.230,13.672,34.668,43.945,-37.109,0
1571370343.335,58.594,13.672,34.180,19.043,-4.883,0
1571370343.339,69.336,17.578,36.621,26.367,47.852,0
1571370343.343,17.090,22.461,37.109,59.082,34.180,0
1571370343.346,-1.953,24.414,37.109,45.898,-24.414,0
1571370343.350,50.781,27.832,36.133,38.086,6.836,0
1571370343.354,83.496,29.297,36.133,34.180,50.293,0
1571370343.358,37.598,29.785,32.715,49.316,10.254,0
1571370343.362,-0.488,32.715,30.762,50.781,18.555,0
1571370343.356,37.598,32.715,31.250,43.457,20.508,0
1571370343.360,77.148,32.715,32.715,26.855,43.945,0
1571370343.364,47.852,36.133,32.715,39.062,75.684,0
1571370343.368,3.906,39.062,33.203,52.734,27.344,0
1571370343.372,20.996,39.551,35.645,51.270,-10.254,0
1571370343.376,67.871,40.527,36.133,24.414,25.879,0
1571370343.380,65.430,42.480,36.133,41.504,6.348,0
1571370343.383,14.160,42.969,33.691,68.359,13.184,0
1571370343.387,7.324,45.898,32.715,46.875,98.145,0
1571370343.391,62.988,49.316,35.645,30.273,14.160,0
1571370343.395,82.031,53.711,36.133,35.645,-53.223,0
1571370343.399,28.809,53.711,37.109,62.500,39.551,0
1571370343.416,-1.465,53.711,35.156,47.363,67.871,0
1571370343.420,41.992,57.129,33.691,37.598,3.418,0
1571370343.424,76.172,57.129,34.668,34.180,1.953,0
1571370343.428,35.645,58.594,35.156,45.410,21.973,0
1571370343.432,-1.953,64.453,32.227,49.316,4.395,0
1571370343.436,32.227,66.406,28.809,41.992,45.410,0
1571370343.440,80.078,64.941,31.738,15.625,58.105,0
1571370343.443,63.965,66.406,34.668,39.551,-4.883,0
1571370343.447,14.160,64.941,32.715,60.547,-23.926,0
1571370343.451,15.625,59.570,33.203,42.969,-7.324,0
1571370343.455,57.617,62.012,30.762,11.230,0.488,0
1571370343.459,60.547,66.406,28.809,23.926,31.738,0
1571370343.456,15.137,66.406,31.250,55.664,45.898,0
1571370343.460,5.371,66.895,32.227,40.039,80.078,0
1571370343.464,59.570,64.453,34.180,30.273,79.590,0
1571370343.468,84.473,64.941,34.180,33.691,-1.953,0
1571370343.472,28.320,67.383,29.785,57.617,14.648,0
1571370343.476,-4.883,64.941,31.250,50.781,61.523,0
1571370343.480,43.945,63.965,34.180,46.387,54.199,0
1571370343.483,83.984,63.965,35.645,40.527,23.926,0
1571370343.487,44.434,66.406,34.180,57.617,26.855,0
1571370343.491,1.953,67.871,34.668,59.082,33.691,0
1571370343.495,30.762,64.453,37.109,50.293,46.387,0
1571370343.499,76.172,65.918,34.180,24.414,-0.488,0
1571370343.496,59.570,66.895,31.738,40.527,-36.133,0
1571370343.500,7.324,67.871,31.250,64.941,53.711,0
1571370343.504,12.207,67.871,33.691,48.340,72.754,0
1571370343.508,67.383,66.895,35.156,26.855,19.531,0
1571370343.512,81.543,68.848,36.133,38.574,12.695,0
1571370343.516,27.832,69.824,39.551,67.871,6.348,0
1571370343.520,5.859,69.824,42.480,58.594,1.953,0
1571370343.523,54.199,71.777,39.551,37.109,32.227,0
1571370343.527,84.473,75.195,36.621,29.297,20.996,0
1571370343.531,39.551,74.219,37.109,53.223,65.430,0
1571370343.535,-2.441,75.195,35.645,48.340,93.750,0
1571370343.539,40.039,77.148,34.668,42.480,26.855,0
1571370343.556,83.496,78.613,34.668,27.344,11.719,0
1571370343.560,43.945,78.125,32.715,35.645,41.504,0
1571370343.564,-7.812,75.195,31.250,42.969,3.418,0
1571370343.568,18.066,73.242,31.250,40.039,-32.715,0
1571370343.572,72.266,73.730,31.250,16.113,13.672,0
1571370343.576,57.129,72.754,29.785,23.926,29.785,0
1571370343.580,0.488,71.777,27.344,44.922,35.156,0
1571370343.583,0.000,72.266,28.320,36.621,67.871,0
1571370343.587,50.293,69.824,31.738,16.602,65.918,0
1571370343.591,63.965,69.336,32.227,24.902,52.246,0
1571370343.595,11.719,68.848,30.273,52.246,21.484,0
1571370343.599,-8.301,68.359,31.250,34.180,-2.441,0
1571370343.596,47.852,69.336,34.668,31.738,1.465,0
1571370343.600,84.473,68.359,38.086,40.039,15.137,0
1571370343.604,35.156,68.359,36.621,61.523,16.113,0
1571370343.608,-6.836,67.383,36.621,61.035,42.480,0
1571370343.612,31.738,63.965,38.086,52.246,86.914,0
1571370343.616,74.707,64.453,38.086,27.832,46.387,0
1571370343.620,46.875,67.871,37.109,43.457,38.574,0
1571370343.623,3.906,67.871,34.668,56.152,41.016,0
1571370343.627,24.414,68.848,34.668,41.992,-2.930,0
1571370343.631,68.359,70.801,35.156,8.789,-7.324,0
1571370343.635,66.406,70.801,34.668,21.484,59.082,0
1571370343.639,19.043,73.242,34.668,53.223,36.133,0
1571370343.657,10.742,73.242,34.668,38.086,30.273,0
1571370343.661,60.547,72.266,33.203,18.066,68.359,0
1571370343.665,73.730,73.730,34.180,19.531,108.887,0
1571370343.669,22.949,74.707,33.691,40.527,103.027,0
1571370343.673,0.000,77.148,34.668,34.180,38.086,0
1571370343.677,47.363,77.148,37.598,27.832,0.000,0
1571370343.681,81.543,73.730,37.109,19.531,-25.879,0
1571370343.684,40.039,73.242,33.203,33.691,20.020,0
1571370343.688,1.953,70.312,35.645,36.621,23.438,0
1571370343.692,35.645,68.359,36.133,44.922,32.227,0
1571370343.696,79.102,70.801,35.645,26.367,59.570,0
1571370343.700,56.641,71.289,38.086,38.086,34.180,0
1571370343.699,2.930,68.848,39.062,53.223,7.324,0
1571370343.703,11.230,64.941,40.527,39.062,59.570,0
1571370343.707,62.988,64.453,41.504,18.555,68.359,0
1571370343.711,60.547,66.895,40.527,27.832,12.695,0
1571370343.715,6.836,67.383,37.598,52.734,36.133,0
1571370343.719,-1.953,65.430,34.668,42.480,52.734,0
1571370343.723,48.828,65.430,40.527,27.832,26.855,0
1571370343.726,75.195,66.895,42.480,27.832,83.984,0
1571370343.730,30.273,69.824,36.133,48.340,98.633,0
1571370343.734,1.465,68.359,35.645,45.410,15.625,0
1571370343.738,41.504,63.477,37.109,37.598,38.086,0
1571370343.742,83.984,66.895,36.621,21.973,95.215,0
1571370343.756,50.293,68.848,33.691,46.387,2.930,0
1571370343.760,2.441,69.336,33.691,51.270,-2.441,0
1571370343.764,27.832,69.336,34.180,37.109,69.336,0
1571370343.768,80.078,67.383,33.691,10.742,48.340,0
1571370343.772,61.523,68.359,32.715,25.879,50.293,0
1571370343.776,1.953,68.359,32.715,50.293,13.672,0
1571370343.780,14.648,68.359,37.109,40.039,5.371,0
1571370343.783,70.312,69.336,36.133,22.461,-1.953,0
1571370343.787,71.777,71.777,30.762,31.738,40.039,0
1571370343.791,22.949,70.801,32.227,55.664,66.406,0
1571370343.795,10.254,68.359,34.180,50.781,-11.719,0
1571370343.799,54.688,69.824,33.203,43.945,19.043,0
1571370343.777,77.637,67.383,34.180,41.992,34.668,0
1571370343.781,27.832,65.918,33.203,58.105,-36.621,0
1571370343.785,-10.254,67.871,33.691,51.758,-28.320,0
1571370343.789,35.156,68.359,33.203,51.758,11.230,0
1571370343.793,79.590,67.871,33.691,37.109,67.383,0
1571370343.797,44.922,67.871,33.203,49.316,70.312,0
1571370343.801,-3.418,66.895,31.738,57.129,45.410,0
1571370343.804,25.879,64.941,35.156,49.805,60.547,0
1571370343.808,82.031,64.941,36.621,28.809,86.426,0
1571370343.812,68.848,66.895,34.668,43.457,96.191,0
1571370343.816,14.160,66.406,34.668,68.848,22.949,0
1571370343.820,11.719,67.383,35.156,49.805,-35.645,0
1571370343.836,67.871,68.359,38.086,25.879,-25.879,0
1571370343.840,85.449,67.383,41.016,38.086,3.906,0
1571370343.844,37.109,66.895,39.062,67.383,72.754,0
1571370343.848,9.766,67.871,36.133,52.246,93.262,0
1571370343.852,49.805,65.430,35.645,35.156,53.223,0
1571370343.856,78.613,63.965,34.180,17.578,-14.160,0
1571370343.860,33.691,68.848,31.250,30.762,-10.254,0
1571370343.863,-2.441,69.824,32.715,39.551,66.895,0
1571370343.867,44.434,67.871,34.180,38.574,13.672,0
1571370343.871,91.797,65.918,33.691,16.602,-30.273,0
1571370343.875,53.223,65.430,32.715,25.879,6.348,0
1571370343.879,4.883,65.918,33.203,43.457,10.742,0
1571370343.876,21.973,61.523,32.715,40.039,40.527,0
1571370343.880,69.824,62.500,32.227,17.578,-4.395,0
1571370343.884,66.895,66.406,30.762,29.297,-62.012,0
1571370343.888,13.672,64.453,29.785,54.688,-17.090,0
1571370343.892,5.371,61.523,32.227,43.945,24.902,0
1571370343.896,55.664,60.547,32.715,26.855,11.230,0
1571370343.900,75.195,62.988,33.203,31.738,43.945,0
1571370343.903,20.508,65.430,36.621,55.664,29.297,0
1571370343.907,-7.324,62.988,36.621,43.457,7.324,0
1571370343.911,44.434,62.012,35.156,34.668,13.672,0
1571370343.915,82.520,64.453,36.621,26.855,70.312,0
1571370343.919,41.992,63.477,36.133,38.574,84.961,0
1571370343.935,0.000,64.453,34.668,38.574,27.344,0
1571370343.939,37.109,65.918,37.109,41.016,-22.949,0
1571370343.943,89.355,63.477,37.109,20.996,22.461,0
1571370343.947,65.918,60.059,35.156,29.297,61.035,0
1571370343.951,9.277,61.523,32.227,50.781,43.945,0
1571370343.955,20.996,63.965,33.203,41.504,43.457,0
1571370343.959,71.777,62.500,32.227,12.695,81.543,0
1571370343.962,65.430,62.012,32.227,16.113,115.723,0
1571370343.966,9.277,64.941,31.738,41.992,51.758,0
1571370343.970,-0.488,63.965,31.250,34.180,8.301,0
1571370343.974,51.270,63.477,33.203,22.949,54.688,0
1571370343.978,72.266,65.430,33.203,20.996,-40.039,0
1571370343.976,22.461,63.965,33.203,40.039,-95.703,0
1571370343.980,-5.859,62.500,32.715,38.086,-37.598,0
1571370343.984,41.504,61.035,32.715,39.062,37.598,0
1571370343.988,81.055,62.012,33.691,25.879,58.594,0
1571370343.992,35.156,62.012,34.668,38.574,-8.301,0
1571370343.996,-10.254,61.035,36.133,50.781,-4.395,0
1571370344.000,26.367,62.500,35.156,49.805,-41.992,0
1571370344.003,71.777,59.570,34.668,25.391,-25.391,1
1571370344.007,53.711,56.641,34.180,32.227,25.391,0
1571370344.011,1.953,59.082,34.180,55.664,10.742,0
1571370344.015,6.836,61.523,36.133,42.969,66.895,0
1571370344.019,57.617,58.105,37.109,17.090,0.488,0
1571370344.016,62.012,57.617,38.086,30.762,-20.996,0
1571370344.020,10.742,60.059,40.039,57.617,41.504,0
1571370344.024,-9.277,58.594,38.574,46.875,0.977,0
1571370344.028,44.922,57.129,36.621,40.039,69.824,0
1571370344.032,80.078,55.664,36.133,36.621,86.426,0
1571370344.036,22.461,59.570,33.203,50.293,-9.277,0
1571370344.040,-17.578,60.547,32.715,44.922,7.324,0
1571370344.043,32.227,56.152,34.180,45.410,18.555,0
1571370344.047,78.613,56.641,35.156,27.832,37.109,0
1571370344.051,46.875,57.617,33.691,39.062,39.062,0
1571370344.055,0.000,55.176,32.715,51.758,9.277,0
1571370344.059,27.832,54.199,33.203,46.875,14.160,0
1571370344.077,80.566,56.152,33.203,28.809,20.996,0
1571370344.081,63.965,56.152,33.203,38.574,-5.859,0
1571370344.085,8.789,55.664,34.180,57.129,-40.527,0
1571370344.089,9.766,57.617,37.109,41.992,29.297,0
1571370344.093,58.105,56.152,37.598,21.973,20.996,0
1571370344.097,67.383,52.246,36.621,34.668,49.316,0
1571370344.101,10.742,52.734,38.086,60.059,145.508,0
1571370344.104,-12.695,53.223,37.109,51.758,78.613,0
1571370344.108,38.574,53.223,35.645,45.410,37.109,0
1571370344.112,70.312,54.688,36.133,36.621,51.758,0
1571370344.116,25.879,53.711,36.133,57.129,8.789,0
1571370344.120,-11.230,52.734,33.691,61.035,20.996,0
1571370344.115,31.250,51.758,35.156,56.641,50.293,0
1571370344.119,79.102,49.316,37.598,38.574,17.090,0
1571370344.123,44.922,49.805,34.668,47.852,-35.156,0
1571370344.127,-3.418,49.805,34.180,65.918,19.531,0
1571370344.131,20.508,49.805,34.180,56.641,-1.465,0
1571370344.135,74.707,50.293,35.645,35.645,-49.805,0
1571370344.139,68.359,51.270,37.109,51.270,4.395,0
1571370344.142,13.184,55.176,34.668,69.824,33.691,0
1571370344.146,10.742,56.152,34.180,56.152,48.828,0
1571370344.150,60.059,57.129,35.156,38.086,37.109,0
1571370344.154,73.242,58.594,33.691,37.109,39.551,0
1571370344.158,20.996,57.617,33.691,55.664,91.797,0
1571370344.155,-6.836,59.082,35.156,47.363,81.055,0
1571370344.159,41.992,59.082,35.156,49.805,29.785,0
1571370344.163,74.219,54.688,35.645,40.527,46.875,0
1571370344.167,25.391,51.758,35.156,53.711,43.945,0
1571370344.171,-13.672,52.246,32.715,58.105,83.984,0
1571370344.175,21.484,52.246,34.668,49.805,95.703,0
1571370344.179,71.289,55.176,39.062,34.668,26.367,0
1571370344.182,53.223,57.129,35.156,51.758,46.875,0
1571370344.186,0.488,57.617,31.250,62.988,51.270,0
1571370344.190,10.254,58.105,33.691,49.805,51.270,0
1571370344.194,63.965,56.152,35.156,28.809,92.285,0
1571370344.198,63.477,52.246,33.203,45.898,88.379,0
1571370344.215,13.184,54.688,30.762,76.660,67.871,0
1571370344.219,10.254,58.594,30.762,64.941,101.562,0
1571370344.223,63.965,60.059,32.227,46.387,113.770,0
1571370344.227,83.984,62.988,32.227,39.551,69.336,0
1571370344.231,33.203,61.523,32.715,62.988,52.246,0
1571370344.235,-0.488,59.082,32.227,60.059,44.922,0
1571370344.239,40.039,57.617,34.668,51.270,9.277,0
1571370344.242,79.590,57.129,39.062,35.645,41.504,0
1571370344.246,41.992,59.570,37.109,53.223,85.938,0
1571370344.250,-3.906,58.105,37.109,68.359,53.223,0
1571370344.254,25.879,56.641,38.574,63.965,30.273,0
1571370344.258,74.219,55.176,35.645,41.992,67.383,0
1571370344.256,55.176,55.176,34.668,46.387,76.660,0
1571370344.260,5.371,57.617,36.133,69.824,76.660,0
1571370344.264,18.555,57.617,35.645,67.871,70.801,0
1571370344.268,74.707,56.641,36.621,41.992,-2.441,0
1571370344.272,76.660,55.664,36.621,51.758,-2.441,0
1571370344.276,24.414,54.199,36.133,76.172,45.410,0
1571370344.280,9.766,54.199,37.109,70.312,12.207,0
1571370344.283,56.641,54.688,36.621,64.941,32.227,0
1571370344.287,85.938,53.711,36.133,61.035,86.426,0
1571370344.291,37.109,51.270,35.156,76.172,13.672,0
1571370344.295,0.977,53.711,36.621,61.523,-43.945,0
1571370344.299,41.992,53.223,39.551,62.500,-18.066,0
1571370344.297,82.031,52.734,41.016,56.152,18.555,0
1571370344.301,48.340,53.711,41.016,66.406,48.828,0
1571370344.305,1.953,53.223,41.504,78.613,48.828,0
1571370344.309,27.832,52.734,41.992,71.289,18.066,0
1571370344.313,82.031,50.293,41.016,42.969,45.898,0
1571370344.317,73.730,52.246,40.527,56.152,63.965,0
1571370344.321,20.508,54.688,40.039,82.031,28.320,0
1571370344.324,18.066,55.664,38.086,66.406,17.578,0
1571370344.328,73.730,57.617,36.133,38.574,27.832,0
1571370344.332,90.332,59.082,34.668,48.828,33.203,0
1571370344.336,35.156,62.500,33.691,79.102,34.180,0
1571370344.340,9.766,63.965,34.668,62.500,7.812,0
1571370344.357,59.570,61.035,32.227,49.316,-11.230,0
1571370344.361,90.332,61.523,32.227,40.039,-5.371,0
1571370344.365,38.574,63.477,35.156,57.617,7.812,0
1571370344.369,-3.906,60.059,35.156,60.547,55.176,0
1571370344.373,33.203,59.570,32.227,56.152,99.121,0
1571370344.377,76.172,62.012,29.297,35.645,79.102,0
1571370344.381,44.434,61.035,29.297,39.551,56.152,0
1571370344.384,0.977,59.570,30.273,54.199,44.922,0
1571370344.388,20.996,53.711,34.180,58.594,17.090,0
1571370344.392,62.988,54.688,34.180,32.715,16.602,0
1571370344.396,57.129,57.617,31.738,43.945,49.316,0
1571370344.400,0.977,56.641,32.227,71.777,20.996,0
1571370344.396,-6.836,57.129,34.668,56.641,-21.973,0
1571370344.400,48.828,57.129,36.621,35.645,2.441,0
1571370344.404,68.848,55.176,37.598,41.016,11.719,0
1571370344.408,17.090,53.223,39.062,68.848,-17.578,0
1571370344.412,-11.230,53.223,39.062,52.246,-19.531,0
1571370344.416,40.527,52.734,36.621,47.363,1.465,0
1571370344.420,75.195,49.805,40.039,42.969,62.012,0
1571370344.423,30.762,48.828,39.551,57.129,73.730,0
1571370344.427,-10.742,50.293,35.645,64.941,26.367,0
1571370344.431,24.414,52.734,39.062,60.547,24.414,0
1571370344.435,76.172,54.199,42.480,38.574,2.930,0
1571370344.439,54.688,53.223,39.062,52.734,20.508,0
1571370344.438,1.953,54.199,36.621,69.824,46.875,0
1571370344.442,18.066,53.711,36.621,60.547,45.410,0
1571370344.446,74.219,54.688,35.156,36.133,13.184,0
1571370344.450,76.660,57.129,36.133,47.363,18.066,0
1571370344.454,23.926,57.617,36.621,74.219,41.016,0
1571370344.458,13.184,57.129,34.180,58.594,29.297,0
1571370344.462,65.430,55.664,35.156,40.039,18.066,0
1571370344.465,86.426,54.688,36.621,38.086,11.719,0
1571370344.469,31.250,54.199,34.180,54.199,7.812,0
1571370344.473,-6.836,50.781,35.645,47.363,35.645,0
1571370344.477,36.133,49.316,37.109,46.875,-1.465,0
1571370344.481,79.590,52.246,36.621,37.109,-10.254,0
1571370344.496,45.898,52.734,36.621,56.152,58.594,0
1571370344.500,3.906,51.270,39.062,68.848,41.992,0
1571370344.504,18.555,50.781,41.504,60.059,-7.812,0
1571370344.508,56.641,49.805,40.527,22.949,11.719,0
1571370344.512,49.316,50.293,39.551,36.133,9.766,0
1571370344.516,-2.441,50.781,37.109,59.570,61.523,0
1571370344.520,2.441,44.922,34.668,45.898,113.281,0
1571370344.523,55.664,40.527,38.574,24.414,71.777,0
1571370344.527,65.918,42.969,38.086,37.598,71.777,0
1571370344.531,15.137,45.898,33.203,70.801,109.863,0
1571370344.535,1.953,44.922,35.156,57.129,80.078,0
1571370344.539,52.246,45.410,35.645,43.945,46.875,0
1571370344.536,89.355,46.387,35.156,42.480,64.453,0
1571370344.540,44.922,42.480,36.133,59.570,-16.113,0
1571370344.544,2.441,43.457,38.086,57.617,-26.855,0
1571370344.548,41.016,44.922,35.156,54.688,-8.301,0
1571370344.552,80.566,42.480,34.180,38.086,-43.945,0
1571370344.556,50.293,41.016,36.133,53.711,7.812,0
1571370344.560,1.465,39.062,36.133,68.848,-11.719,0
1571370344.563,24.902,41.016,38.086,63.477,47.363,0
1571370344.567,72.266,42.480,39.551,38.086,74.707,0
1571370344.571,57.129,43.945,39.551,47.852,16.602,0
1571370344.575,6.836,45.898,40.039,67.383,13.184,0
1571370344.579,8.301,47.363,37.598,58.594,54.688,0
1571370344.578,63.477,46.875,36.621,37.598,72.754,0
1571370344.582,81.543,43.945,38.574,38.574,59.082,0
1571370344.586,30.762,48.340,36.133,64.453,62.012,0
1571370344.590,8.301,50.781,34.668,49.316,77.637,0
1571370344.594,56.152,49.316,35.156,36.133,49.316,0
1571370344.598,81.543,52.246,33.203,24.414,-3.906,0
1571370344.602,33.691,52.246,31.250,37.598,33.203,0
1571370344.605,-4.883,51.758,32.227,41.992,40.039,0
1571370344.609,39.062,51.758,32.715,37.109,55.664,0
1571370344.613,86.426,50.781,35.645,20.996,5.371,0
1571370344.617,59.082,49.805,36.133,32.227,5.371,0
1571370344.621,13.184,49.316,30.762,48.340,45.410,0
1571370344.637,25.879,48.828,32.227,49.316,19.043,0
1571370344.641,73.242,46.387,34.180,28.809,34.180,0
1571370344.645,68.359,44.434,34.668,44.434,21.973,0
1571370344.649,15.625,47.852,34.668,65.918,-5.371,0
1571370344.653,8.301,49.805,33.691,50.293,20.508,0
1571370344.657,59.082,49.805,34.668,37.598,51.270,0
1571370344.661,73.730,48.340,38.086,36.133,36.133,0
1571370344.664,20.508,43.945,38.574,60.059,53.223,0
1571370344.668,-9.277,42.480,39.551,52.734,75.195,0
1571370344.672,37.109,41.992,41.992,43.457,61.035,0
1571370344.676,81.055,39.551,39.062,39.551,49.316,0
1571370344.680,37.109,38.086,36.621,51.758,20.508,0
1571370344.677,-3.906,39.551,39.062,52.246,-75.684,0
1571370344.681,36.133,39.062,41.016,48.340,-21.973,0
1571370344.685,77.148,37.109,39.551,26.855,31.250,0
1571370344.689,51.758,35.645,38.574,42.480,-21.484,0
1571370344.693,4.883,35.156,37.109,54.199,90.332,0
1571370344.697,16.113,33.203,36.621,40.039,172.363,0
1571370344.701,71.777,30.273,37.598,16.113,109.375,0
1571370344.704,72.266,29.297,39.551,24.902,29.297,0
1571370344.708,15.625,24.414,40.527,57.617,43.945,0
1571370344.712,3.906,20.508,41.992,41.992,5.859,0
1571370344.716,54.688,15.625,44.922,25.391,-36.133,0
1571370344.720,78.613,15.625,41.504,25.879,20.508,0
1571370344.716,30.273,15.137,40.527,48.828,-2.441,0
1571370344.720,-3.906,10.254,40.039,53.223,-11.230,0
1571370344.724,41.016,9.766,39.062,51.758,-0.977,0
1571370344.728,87.402,7.812,40.039,33.203,9.766,0
1571370344.732,53.711,2.930,37.598,39.551,45.410,0
1571370344.736,-4.395,-2.441,36.621,45.410,51.270,0
1571370344.740,18.066,-3.418,34.668,41.992,24.414,0
1571370344.743,71.289,-3.906,36.133,17.578,-9.277,0
1571370344.747,58.594,-11.230,41.016,32.227,-10.254,0
1571370344.751,12.207,-15.137,40.039,61.035,-6.348,0
1571370344.755,13.184,-16.113,37.109,54.199,-17.090,0
1571370344.759,61.523,-20.508,39.062,35.645,66.895,0
1571370344.777,70.801,-22.949,38.086,42.480,111.816,0
1571370344.781,16.113,-22.949,33.691,63.477,18.555,0
1571370344.785,-0.977,-23.926,31.250,50.293,50.781,0
1571370344.789,53.711,-28.809,33.691,38.574,117.676,0
1571370344.793,82.031,-31.738,35.156,36.621,50.781,0
1571370344.797,25.391,-33.691,34.180,53.223,35.156,0
1571370344.801,-19.043,-34.180,33.691,39.062,50.781,0
1571370344.804,20.020,-33.203,34.180,31.250,16.602,0
1571370344.808,65.918,-32.227,33.203,17.578,0.977,0
1571370344.812,34.668,-29.785,32.715,34.668,-18.066,0
1571370344.816,-9.766,-27.832,32.715,49.805,35.156,0
1571370344.820,19.531,-26.855,31.250,45.410,34.668,0
1571370344.816,71.289,-26.855,34.668,19.043,7.324,0
1571370344.820,61.523,-24.414,35.645,34.668,60.059,0
1571370344.824,5.371,-21.973,34.668,61.523,33.691,0
1571370344.828,6.348,-23.926,35.645,43.945,5.859,0
1571370344.832,60.059,-21.973,35.645,22.461,24.414,0
1571370344.836,72.266,-20.020,37.109,27.832,82.520,0
1571370344.840,28.320,-18.066,37.598,56.152,62.988,0
1571370344.843,7.812,-16.602,35.156,43.945,22.461,0
1571370344.847,49.316,-15.625,33.691,35.645,8.789,0
1571370344.851,81.543,-10.742,36.621,33.203,-7.324,0
1571370344.855,37.109,-8.789,37.109,49.316,48.340,0
1571370344.859,-5.859,-5.371,35.156,51.270,41.504,0
1571370344.856,34.180,0.977,35.645,47.852,9.277,0
1571370344.860,82.520,1.465,33.691,29.785,35.156,0
1571370344.864,56.152,1.953,31.250,33.691,41.504,0
1571370344.868,8.789,3.906,35.156,44.922,24.414,0
1571370344.872,20.508,9.277,35.645,49.805,13.672,0
1571370344.876,66.895,15.137,33.691,27.832,-0.488,0
1571370344.880,61.523,17.578,36.133,40.039,5.371,0
1571370344.883,4.883,20.508,35.156,62.988,65.918,0
1571370344.887,1.465,22.461,34.180,47.363,45.898,0
1571370344.891,56.641,25.879,38.086,37.109,14.648,0
1571370344.895,76.172,30.762,37.598,43.945,-22.461,0
1571370344.899,25.879,32.715,33.203,64.453,23.438,0
1571370344.916,-8.301,32.227,33.203,44.922,103.516,0
1571370344.920,38.574,31.738,35.645,33.691,70.312,0
1571370344.924,78.613,34.668,34.668,27.344,11.719,0
1571370344.928,39.062,37.598,37.598,45.898,39.062,0
1571370344.932,-4.395,37.598,37.598,49.316,39.062,0
1571370344.936,31.738,40.039,37.109,44.922,14.160,0
1571370344.940,81.055,43.457,37.109,25.391,40.527,0
1571370344.943,53.711,42.480,36.133,43.945,39.551,0
1571370344.947,2.441,45.410,36.133,66.406,1.465,0
1571370344.951,16.113,46.875,33.203,56.152,20.996,0
1571370344.955,64.453,46.875,32.227,32.715,12.695,0
1571370344.959,65.430,49.316,34.668,40.527,-9.277,0
1571370344.956,20.020,49.316,33.691,69.824,9.277,0
1571370344.960,7.812,51.758,36.133,56.641,7.324,0
1571370344.964,60.547,53.711,37.598,41.016,8.789,0
1571370344.968,83.496,55.664,34.180,39.062,-7.812,0
