timestamps,TP9,AF7,AF8,TP10,Right AUX,Marker0
1571370041.616,122.070,40.527,40.039,142.578,36.621,0
1571370041.620,52.246,42.480,35.645,111.328,3.418,0
1571370041.624,-33.203,40.039,32.715,-55.664,-11.719,0
1571370041.628,7.324,39.062,33.203,-67.871,42.480,0
1571370041.632,97.656,40.527,33.203,72.754,93.262,0
1571370041.636,81.543,41.992,30.273,117.188,57.617,0
1571370041.640,-6.836,41.504,31.738,-20.996,3.906,0
1571370041.643,-3.906,39.062,34.180,-99.121,9.277,0
1571370041.647,88.867,41.504,32.715,24.414,41.016,0
1571370041.651,109.863,44.922,32.227,125.977,52.734,0
1571370041.655,10.254,44.434,30.273,17.090,13.184,0
1571370041.659,-28.320,43.945,28.809,-102.539,10.742,0
1571370041.656,68.848,42.480,30.762,10.254,65.430,0
1571370041.660,138.672,41.016,33.691,160.156,72.266,0
1571370041.664,46.875,47.852,31.250,74.707,-2.441,0
1571370041.668,-37.598,47.852,31.738,-98.145,-35.156,0
1571370041.672,36.621,45.410,31.738,-27.832,-18.555,0
1571370041.676,114.258,47.363,30.762,111.816,-5.859,0
1571370041.680,55.664,44.434,29.785,101.562,32.715,0
1571370041.683,-30.762,43.457,27.832,-48.828,53.711,0
1571370041.687,5.859,45.410,29.785,-70.312,22.949,0
1571370041.691,100.098,43.945,33.203,76.660,34.180,0
1571370041.695,91.797,41.016,34.180,141.113,103.027,0
1571370041.699,-4.883,42.969,32.227,6.348,97.168,0
1571370041.716,-18.555,42.969,32.227,-88.379,70.312,0
1571370041.720,76.172,41.992,32.715,32.715,48.828,0
1571370041.724,112.305,42.969,32.715,150.879,28.320,0
1571370041.728,18.555,44.434,33.691,45.410,68.848,0
1571370041.732,-34.668,43.945,32.227,-104.004,148.926,0
1571370041.736,45.898,42.480,32.715,-13.672,69.824,0
1571370041.740,117.188,40.527,33.691,123.535,7.324,0
1571370041.743,40.039,42.480,31.738,68.848,52.734,0
1571370041.747,-38.574,42.969,29.297,-86.426,51.270,0
1571370041.751,21.484,42.480,29.297,-50.293,43.945,0
1571370041.755,105.469,43.945,30.762,91.309,5.859,0
1571370041.759,62.500,43.457,29.297,96.680,15.625,0
1571370041.756,-23.926,43.945,30.273,-41.504,57.129,0
1571370041.760,1.465,42.480,30.273,-80.078,31.250,0
1571370041.764,92.285,42.480,32.227,49.316,46.387,0
1571370041.768,99.121,44.922,30.762,137.695,23.438,0
1571370041.772,2.930,44.922,26.367,16.113,16.602,0
1571370041.776,-25.391,46.387,30.762,-103.027,-16.113,0
1571370041.780,69.336,46.387,31.738,3.906,16.602,0
1571370041.783,117.676,43.457,32.715,134.277,4.395,0
1571370041.787,25.879,46.875,34.668,54.199,-22.461,0
1571370041.791,-32.227,48.828,34.668,-98.145,22.949,0
1571370041.795,46.875,43.457,40.039,-10.254,-2.930,0
1571370041.799,122.559,43.457,40.039,133.789,-4.395,0
1571370041.816,56.641,45.410,35.156,90.332,52.734,0
1571370041.820,-30.762,44.434,33.691,-55.664,94.727,0
1571370041.824,20.508,41.992,35.156,-42.969,51.758,0
1571370041.828,111.328,41.016,32.715,99.121,-10.254,0
1571370041.832,85.938,42.969,31.250,136.230,26.367,0
1571370041.836,-13.184,41.992,31.738,-10.742,53.711,0
1571370041.840,-11.719,41.016,29.785,-79.102,10.254,0
1571370041.843,85.938,42.969,32.715,47.363,28.809,0
1571370041.847,102.051,41.504,36.621,149.902,58.594,0
1571370041.851,4.395,40.527,33.691,32.227,40.527,0
1571370041.855,-32.715,43.457,31.738,-102.051,2.930,0
1571370041.859,54.688,45.410,32.227,9.277,33.203,0
1571370041.856,111.816,42.480,31.738,145.020,82.031,0
1571370041.860,26.855,40.527,30.273,66.406,65.918,0
1571370041.864,-43.457,40.527,26.367,-94.238,21.484,0
1571370041.868,25.879,39.551,25.879,-30.762,10.254,0
1571370041.872,106.445,40.039,29.785,121.094,5.859,0
1571370041.876,48.340,40.039,28.809,100.098,1.465,0
1571370041.880,-39.551,38.086,27.344,-56.152,8.789,0
1571370041.883,3.418,37.109,29.297,-67.383,72.266,0
1571370041.887,100.098,38.574,28.809,67.871,88.379,0
1571370041.891,85.449,40.527,30.762,125.488,18.555,0
1571370041.895,-13.184,41.504,30.762,-12.207,83.984,0
1571370041.899,-18.066,40.527,31.738,-97.656,114.746,0
1571370041.896,81.543,41.992,34.668,37.109,42.480,0
1571370041.900,125.977,44.434,31.738,162.598,3.418,0
1571370041.904,33.203,41.504,32.715,63.965,21.973,0
1571370041.908,-41.504,40.527,32.715,-97.168,48.828,0
1571370041.912,36.621,40.527,30.762,-4.883,-14.160,0
1571370041.916,108.398,35.156,35.156,148.926,-7.324,0
1571370041.920,26.367,33.691,37.598,77.637,28.320,0
1571370041.923,-49.316,33.691,36.133,-84.473,3.906,0
1571370041.927,17.578,30.273,33.691,-33.691,29.785,0
1571370041.931,102.051,33.203,35.156,110.840,41.016,0
1571370041.935,55.176,35.645,36.621,114.746,16.113,0
1571370041.939,-35.645,35.645,34.668,-30.762,-10.254,0
1571370041.956,-6.348,37.598,35.645,-61.523,-8.789,0
1571370041.960,86.426,38.574,34.668,73.242,-4.883,0
1571370041.964,80.078,37.598,31.738,148.438,32.227,0
1571370041.968,-8.789,38.574,31.738,19.043,83.984,0
1571370041.972,-16.113,40.039,31.738,-87.402,2.930,0
1571370041.976,79.102,41.504,35.156,41.992,47.852,0
1571370041.980,115.234,41.016,36.133,168.457,42.969,0
1571370041.983,24.902,43.457,35.645,66.895,-27.344,0
1571370041.987,-26.367,43.457,33.691,-78.613,70.801,0
1571370041.991,52.734,40.527,31.250,12.695,64.941,0
1571370041.995,124.023,42.969,32.715,152.344,17.090,0
1571370041.999,49.316,46.875,32.227,101.562,57.129,0
1571370041.996,-32.227,45.898,31.738,-54.199,53.223,0
1571370042.000,29.297,46.875,34.180,-27.832,5.371,0
1571370042.004,115.234,45.898,35.645,115.723,-19.531,0
1571370042.008,76.172,41.016,36.621,136.719,36.133,0
1571370042.012,-11.719,44.434,33.203,-2.930,44.434,0
1571370042.016,-0.488,42.969,32.715,-60.059,48.828,0
1571370042.020,87.402,40.527,34.668,64.453,65.430,0
1571370042.023,100.098,42.480,32.227,157.715,-13.672,0
1571370042.027,12.207,45.410,32.715,43.945,-10.254,0
1571370042.031,-16.602,45.898,34.180,-73.730,12.207,0
1571370042.035,72.266,45.898,33.203,32.715,52.734,0
1571370042.039,117.188,43.457,36.621,160.156,47.363,0
1571370042.036,22.949,41.992,35.645,80.566,13.184,0
1571370042.040,-40.527,43.945,33.203,-69.336,56.641,0
1571370042.044,37.598,42.969,33.203,0.977,50.293,0
1571370042.048,117.188,41.504,33.203,137.207,20.508,0
1571370042.052,54.688,41.504,32.715,107.910,19.043,0
1571370042.056,-34.668,39.551,34.180,-41.016,50.293,0
1571370042.060,7.324,40.039,36.621,-36.133,-0.977,0
1571370042.063,97.168,39.062,38.086,105.469,38.574,0
1571370042.067,74.219,39.551,37.109,146.484,30.273,0
1571370042.071,-17.578,42.969,32.227,1.953,0.488,0
1571370042.075,-12.207,42.480,31.738,-75.195,44.922,0
1571370042.079,80.566,40.527,33.691,53.223,43.457,0
1571370042.096,105.469,41.504,34.180,159.180,-29.297,0
1571370042.100,6.836,41.504,33.203,51.758,-23.438,0
1571370042.104,-37.598,42.480,32.227,-87.402,45.898,0
1571370042.108,56.152,41.992,35.156,11.230,21.973,0
1571370042.112,117.188,43.945,35.645,149.902,-0.977,0
1571370042.116,39.062,42.969,33.691,80.566,47.852,0
1571370042.120,-33.203,41.504,29.297,-78.125,41.504,0
1571370042.123,41.992,42.969,29.785,-30.762,30.273,0
1571370042.127,128.418,42.969,34.180,115.723,60.059,0
1571370042.131,65.430,39.062,32.227,101.074,14.160,0
1571370042.135,-31.250,40.039,29.785,-50.781,-8.789,0
1571370042.139,-0.977,39.062,33.203,-63.477,66.406,0
1571370042.136,92.773,37.598,34.180,74.707,102.539,0
1571370042.140,84.473,40.039,34.668,145.996,80.566,0
1571370042.144,-5.859,40.039,36.133,25.391,74.707,0
1571370042.148,-17.090,40.527,36.621,-69.824,26.855,0
1571370042.152,74.707,40.039,34.180,52.246,20.996,0
1571370042.156,115.723,41.992,32.715,170.410,11.719,0
1571370042.160,27.832,40.039,35.156,68.848,-14.648,0
1571370042.163,-22.949,40.039,36.621,-66.895,16.113,0
1571370042.167,57.129,41.992,37.109,31.250,18.555,0
1571370042.171,122.559,40.527,36.133,171.387,15.137,0
1571370042.175,44.434,40.527,32.227,104.980,35.645,0
1571370042.179,-28.320,41.504,31.738,-53.711,8.301,0
1571370042.176,36.133,41.504,33.691,-7.812,24.902,0
1571370042.180,121.094,37.598,32.715,129.395,7.812,0
1571370042.184,83.496,36.133,29.297,131.836,42.969,0
1571370042.188,-8.301,41.504,27.832,-17.090,53.223,0
1571370042.192,11.230,42.969,30.273,-51.270,16.113,0
1571370042.196,106.934,41.992,29.785,81.543,24.414,0
1571370042.200,110.352,42.969,32.715,161.621,3.906,0
1571370042.203,10.742,45.410,31.738,41.016,-36.133,0
1571370042.207,-17.578,44.922,29.785,-80.078,-49.805,0
1571370042.211,73.242,45.410,33.203,39.062,25.391,0
1571370042.215,119.141,42.480,35.645,177.734,104.980,0
1571370042.219,28.809,41.504,33.203,88.867,39.551,0
1571370042.236,-30.762,46.387,32.715,-65.430,-11.230,0
1571370042.240,48.828,42.969,32.715,14.160,50.293,0
1571370042.244,119.629,40.039,30.273,157.715,62.500,0
1571370042.248,45.898,41.992,30.762,109.863,26.367,0
1571370042.252,-32.227,43.457,25.879,-40.039,-2.930,0
1571370042.256,21.484,42.969,26.855,-21.484,44.922,0
1571370042.260,105.469,42.969,31.250,106.934,43.457,0
1571370042.263,77.148,45.898,30.273,138.672,18.066,0
1571370042.267,-10.254,48.828,29.297,6.348,-26.367,0
1571370042.271,-0.977,48.340,28.809,-58.105,-44.922,0
1571370042.275,90.820,46.875,33.691,63.477,34.668,0
1571370042.279,105.957,48.340,31.250,157.227,94.238,0
1571370042.296,10.742,45.410,25.879,42.480,11.230,0
1571370042.300,-25.879,42.969,28.809,-83.008,-20.996,0
1571370042.304,61.523,46.387,32.715,24.902,-36.621,0
1571370042.308,118.652,45.898,33.691,149.902,-11.230,0
1571370042.312,34.668,46.875,30.273,64.941,37.598,0
1571370042.316,-34.668,46.387,29.297,-86.914,37.109,0
1571370042.320,35.645,44.434,29.297,-20.996,26.855,0
1571370042.323,109.863,44.922,26.367,124.023,14.648,0
1571370042.327,55.176,44.922,26.855,99.609,41.016,0
1571370042.331,-31.250,43.945,29.297,-54.199,39.062,0
1571370042.335,6.348,42.969,33.203,-60.547,-28.320,0
1571370042.339,101.562,41.504,34.180,70.801,54.688,0
1571370042.316,82.031,44.922,30.273,118.164,112.793,0
1571370042.320,-14.160,43.945,30.273,-24.414,76.660,0
1571370042.324,-15.625,41.016,30.762,-109.375,94.238,0
1571370042.328,72.266,41.504,29.785,20.020,33.203,0
1571370042.332,99.609,40.527,30.273,137.695,15.137,0
1571370042.336,7.324,38.574,29.785,35.156,5.371,0
1571370042.340,-36.133,41.016,30.273,-112.305,42.969,0
1571370042.343,55.664,41.504,34.668,-12.207,73.242,0
1571370042.347,118.164,41.992,38.086,137.695,12.207,0
1571370042.351,38.086,44.434,36.621,67.383,39.551,0
1571370042.355,-33.691,41.992,33.203,-90.820,49.316,0
1571370042.359,29.785,39.551,33.203,-44.434,16.113,0
1571370042.376,112.305,39.551,30.273,103.027,4.395,0
1571370042.380,63.965,41.504,26.855,102.539,0.000,0
1571370042.384,-31.250,41.992,30.762,-52.246,-29.785,0
1571370042.388,-0.977,43.945,32.227,-72.754,-17.578,0
1571370042.392,98.145,45.898,32.227,63.477,24.414,0
1571370042.396,89.355,43.945,31.738,135.742,-1.953,0
1571370042.400,-12.207,44.922,29.297,5.371,-14.648,0
1571370042.403,-25.879,46.387,30.273,-102.539,41.504,0
1571370042.407,69.824,43.945,33.691,26.367,69.824,0
1571370042.411,104.980,41.504,33.691,147.461,44.922,0
1571370042.415,13.184,44.434,32.227,45.898,59.082,0
1571370042.419,-35.645,47.363,30.273,-103.027,18.555,0
1571370042.416,46.875,44.434,32.227,-15.137,-14.648,0
1571370042.420,117.676,44.434,37.109,133.789,19.043,0
1571370042.424,47.852,44.434,36.133,87.891,48.828,0
1571370042.428,-31.250,41.992,33.691,-65.918,31.738,0
1571370042.432,24.902,42.969,34.180,-41.016,-25.391,0
1571370042.436,108.398,41.504,36.133,102.539,-13.184,0
1571370042.440,68.848,41.016,33.203,126.465,62.988,0
1571370042.443,-24.902,40.527,26.855,-18.066,22.461,0
1571370042.447,-2.441,39.062,28.320,-68.848,1.465,0
1571370042.451,94.238,41.504,30.762,64.453,63.965,0
1571370042.455,101.074,43.945,30.762,145.508,73.730,0
1571370042.459,8.301,41.504,29.785,32.227,70.312,0
1571370042.456,-27.344,39.062,28.809,-87.891,87.402,0
1571370042.460,57.129,38.086,29.297,25.879,68.359,0
1571370042.464,105.469,35.645,28.809,165.039,-2.441,0
1571370042.468,17.578,36.621,30.273,73.730,-33.203,0
1571370042.472,-41.992,34.180,27.832,-79.590,5.371,0
1571370042.476,38.574,36.133,25.391,-7.324,45.410,0
1571370042.480,119.141,37.109,28.320,137.695,46.387,0
1571370042.483,58.105,36.621,31.250,106.445,30.273,0
1571370042.487,-30.762,37.109,27.832,-57.129,15.137,0
1571370042.491,16.113,38.574,24.902,-48.340,23.438,0
1571370042.495,105.469,41.504,31.250,91.309,20.020,0
1571370042.499,78.613,40.527,33.203,130.859,50.293,0
1571370042.516,-17.578,39.551,27.344,-5.371,18.555,0
1571370042.520,-17.578,40.039,27.344,-81.543,0.977,0
1571370042.524,82.031,40.527,27.832,44.434,49.316,0
1571370042.528,99.609,38.574,26.855,142.578,38.574,0
1571370042.532,4.883,39.062,27.344,31.250,-1.953,0
1571370042.536,-32.227,41.016,27.344,-99.609,-36.133,0
1571370042.540,49.316,41.016,27.832,-1.465,15.625,0
1571370042.543,109.375,43.457,31.250,135.742,50.293,0
1571370042.547,27.344,45.898,29.785,67.871,-12.207,0
1571370042.551,-42.480,45.410,27.344,-83.496,-45.410,0
1571370042.555,28.809,41.504,30.762,-18.066,-30.762,0
1571370042.559,110.352,39.551,34.668,128.418,43.945,0
1571370042.556,54.688,39.062,35.156,109.375,79.590,0
1571370042.560,-37.109,40.527,32.715,-35.645,20.020,0
1571370042.564,0.000,41.016,34.668,-40.039,-13.672,0
1571370042.568,96.191,39.551,39.551,95.703,5.859,0
1571370042.572,89.355,42.969,35.645,151.855,34.668,0
1571370042.576,-7.324,42.480,34.668,25.879,42.480,0
1571370042.580,-19.531,41.992,39.062,-63.477,5.371,0
1571370042.583,82.520,43.945,38.086,52.246,35.156,0
1571370042.587,116.211,44.434,36.621,166.504,38.086,0
1571370042.591,12.207,45.898,33.691,62.988,-5.371,0
1571370042.595,-34.180,45.898,35.156,-84.961,-4.395,0
1571370042.599,51.270,43.457,34.180,9.277,36.621,0
1571370042.596,119.629,44.434,30.273,151.855,35.645,0
1571370042.600,44.922,44.922,30.762,91.309,24.414,0
1571370042.604,-30.273,46.387,29.785,-64.453,-13.184,0
1571370042.608,32.715,47.852,32.227,-24.414,-12.207,0
1571370042.612,113.281,44.434,35.156,114.746,50.781,0
1571370042.616,65.918,42.969,35.156,120.605,49.316,0
1571370042.620,-25.391,42.480,35.156,-25.391,56.641,0
1571370042.623,-6.836,40.039,32.715,-64.941,70.801,0
1571370042.627,89.844,41.992,29.785,66.895,58.594,0
1571370042.631,94.238,45.898,28.320,147.461,35.156,0
1571370042.635,-2.930,44.434,28.320,31.738,14.160,0
1571370042.639,-16.602,44.434,27.344,-75.684,21.973,0
1571370042.656,74.219,42.480,26.855,39.062,52.734,0
1571370042.660,109.863,42.969,29.297,162.598,10.254,0
1571370042.664,25.391,45.410,28.809,73.242,-0.977,0
1571370042.668,-31.250,44.922,25.391,-71.777,45.410,0
1571370042.672,44.922,44.922,28.809,10.254,28.809,0
1571370042.676,124.023,44.922,32.227,158.203,-5.371,0
1571370042.680,52.734,42.969,32.227,108.398,21.973,0
1571370042.683,-32.715,40.039,32.227,-52.734,75.684,0
1571370042.687,20.020,37.598,35.156,-19.531,101.562,0
1571370042.691,108.887,39.062,37.109,123.047,43.457,0
1571370042.695,82.520,41.992,36.133,146.484,-32.227,0
1571370042.699,-12.695,41.992,34.668,0.488,-35.645,0
1571370042.696,-7.812,41.016,31.738,-62.500,3.906,0
1571370042.700,81.055,39.551,31.738,65.430,46.875,0
1571370042.704,94.238,36.621,31.738,156.738,9.766,0
1571370042.708,0.977,40.039,26.367,38.086,-7.812,0
1571370042.712,-28.809,41.016,26.855,-89.844,76.172,0
1571370042.716,58.594,38.574,30.762,12.695,81.543,0
1571370042.720,108.398,39.062,30.273,143.555,36.133,0
1571370042.723,24.414,41.992,31.250,64.941,55.664,0
1571370042.727,-39.551,41.016,31.738,-91.309,11.230,0
1571370042.731,32.227,41.504,32.715,-28.809,-7.324,0
1571370042.735,111.816,42.969,34.180,114.746,-9.766,0
1571370042.739,56.641,44.434,31.738,94.238,21.973,0
1571370042.736,-27.344,44.922,31.250,-58.105,67.383,0
1571370042.740,13.184,43.457,33.691,-51.758,86.914,0
1571370042.744,98.633,42.480,35.645,85.449,85.449,0
1571370042.748,72.754,42.969,37.598,129.395,76.660,0
1571370042.752,-21.973,41.504,35.645,0.977,74.707,0
1571370042.756,-18.555,41.504,34.180,-85.449,34.180,0
1571370042.760,79.590,41.992,35.156,39.062,-30.762,0
1571370042.763,105.957,39.551,34.180,145.508,8.301,0
1571370042.767,10.742,40.039,33.691,33.203,38.086,0
1571370042.771,-30.762,41.016,32.227,-93.262,-2.930,0
1571370042.775,55.176,41.016,31.738,15.137,14.160,0
1571370042.779,113.281,40.527,30.762,156.738,15.137,0
1571370042.796,32.715,41.504,29.785,82.031,3.906,0
1571370042.800,-36.621,41.016,28.809,-72.266,75.195,0
1571370042.804,31.250,38.574,27.344,-13.184,52.734,0
1571370042.808,113.770,37.598,29.785,125.000,34.668,0
1571370042.812,61.523,35.645,29.785,116.211,34.668,0
1571370042.816,-29.785,37.598,28.320,-34.668,77.637,0
1571370042.820,-1.953,41.016,30.762,-70.801,40.527,0
1571370042.823,93.262,37.598,34.180,67.383,-41.992,0
1571370042.827,88.867,37.109,31.250,147.461,18.066,0
1571370042.831,-7.324,38.086,30.762,18.066,22.461,0
1571370042.835,-21.484,38.574,30.762,-82.520,50.781,0
1571370042.839,70.801,38.574,27.832,36.133,15.625,0
1571370042.836,107.910,38.086,28.320,155.762,6.836,0
1571370042.840,20.020,38.086,30.762,64.941,73.242,0
1571370042.844,-34.180,37.109,30.762,-78.125,18.555,0
1571370042.848,46.875,38.574,30.762,6.836,43.945,0
1571370042.852,120.605,38.574,31.250,150.391,109.863,0
1571370042.856,44.434,39.551,30.762,95.703,59.570,0
1571370042.860,-32.715,45.898,25.879,-59.082,35.156,0
1571370042.863,27.344,43.457,26.367,-20.508,30.762,0
1571370042.867,124.512,40.527,26.367,124.023,-31.250,0
1571370042.871,93.262,43.945,24.414,137.695,44.434,0
1571370042.875,-9.766,44.434,25.879,-8.301,96.680,0
1571370042.879,-8.301,43.945,29.785,-61.523,87.402,0
1571370042.876,86.914,43.457,31.250,72.754,90.332,0
1571370042.880,104.492,41.016,31.738,169.434,34.180,0
1571370042.884,6.348,43.457,29.297,45.410,63.965,0
1571370042.888,-21.973,41.992,28.320,-70.801,12.207,0
1571370042.892,69.336,37.109,32.227,46.875,-50.293,0
1571370042.896,115.234,39.062,35.156,180.664,2.441,0
1571370042.900,29.785,39.551,32.227,94.727,44.922,0
1571370042.903,-29.785,41.504,27.832,-55.664,26.367,0
1571370042.907,45.898,40.039,30.273,23.926,6.348,0
1571370042.911,122.559,41.016,33.203,172.852,14.648,0
1571370042.915,60.547,44.434,31.250,139.648,20.508,0
1571370042.919,-20.508,39.551,31.738,-11.230,55.176,0
1571370042.936,26.367,40.039,34.668,4.883,39.551,0
1571370042.940,113.281,38.574,35.645,144.043,32.715,0
1571370042.944,81.543,39.062,34.180,175.293,20.508,0
1571370042.948,-15.137,41.504,30.762,30.273,-17.090,0
1571370042.952,-6.348,41.992,31.738,-39.551,57.129,0
1571370042.956,89.844,42.480,31.738,83.984,80.566,0
1571370042.960,104.492,42.480,32.227,176.270,93.750,0
1571370042.963,11.719,41.504,35.156,62.500,59.570,0
1571370042.967,-21.484,40.527,34.668,-62.500,43.945,0
1571370042.971,62.500,36.621,36.621,37.109,0.488,0
1571370042.975,115.234,34.180,36.621,168.457,-3.418,0
1571370042.979,32.227,35.645,33.203,92.285,14.160,0
1571370042.976,-34.180,37.598,30.273,-62.988,35.645,0
1571370042.980,32.227,39.551,29.785,-1.953,62.500,0
1571370042.984,107.910,40.527,31.250,133.301,-26.855,0
1571370042.988,52.246,43.945,29.297,111.816,7.324,0
1571370042.992,-32.227,44.922,28.809,-32.227,77.637,0
1571370042.996,10.742,42.480,31.738,-35.156,62.988,0
1571370043.000,102.539,41.504,35.645,101.074,49.805,0
1571370043.003,86.426,41.992,34.180,147.461,35.156,0
1571370043.007,-11.719,42.969,28.809,18.555,-47.363,0
1571370043.011,-20.996,42.480,29.785,-72.266,-53.223,0
1571370043.015,73.730,41.992,31.738,40.527,-79.102,0
1571370043.019,110.352,41.992,30.762,158.691,-67.383,0
1571370043.016,16.602,40.039,25.879,56.152,20.020,0
1571370043.020,-33.691,38.086,26.367,-80.078,15.137,0
1571370043.024,54.688,37.598,31.738,16.602,9.766,0
1571370043.028,121.094,38.574,31.738,150.879,-25.391,0
1571370043.032,41.016,41.016,28.809,90.820,-1.465,0
1571370043.036,-36.621,41.016,27.832,-66.406,5.371,0
1571370043.040,26.367,41.016,26.855,-19.531,-16.113,0
1571370043.043,111.328,42.480,30.273,126.953,30.273,0
1571370043.047,63.965,42.969,34.180,124.023,7.324,0
1571370043.051,-20.996,43.457,32.227,-17.578,-4.395,0
1571370043.055,8.301,41.992,31.250,-47.363,9.766,0
1571370043.059,99.609,39.062,32.715,80.078,-11.719,0
1571370043.076,94.727,41.016,31.738,150.391,-23.926,0
1571370043.080,-1.465,43.945,31.738,23.926,53.711,0
1571370043.084,-21.484,44.922,32.715,-78.125,124.512,0
1571370043.088,70.312,41.992,34.668,31.250,102.051,0
1571370043.092,109.863,39.551,36.133,145.020,18.555,0
1571370043.096,20.508,41.504,34.180,52.246,-19.531,0
1571370043.100,-35.645,38.574,33.691,-97.656,17.090,0
1571370043.103,40.527,36.621,35.156,-9.277,39.551,0
1571370043.107,108.887,39.062,35.645,133.789,-16.113,0
1571370043.111,34.668,41.016,34.668,84.961,-2.930,0
1571370043.115,-41.016,42.480,35.156,-66.406,69.824,0
1571370043.119,17.578,41.992,36.133,-41.992,83.496,0
1571370043.116,107.422,42.480,35.156,95.215,59.570,0
1571370043.120,74.707,45.410,35.645,114.746,47.852,0
1571370043.124,-17.090,45.410,35.645,-20.996,65.918,0
1571370043.128,-1.465,41.504,35.645,-76.172,47.852,0
1571370043.132,88.867,41.016,37.598,50.293,25.391,0
1571370043.136,100.098,41.992,33.691,145.996,23.438,0
1571370043.140,1.953,42.969,30.273,27.832,29.297,0
1571370043.143,-28.320,42.969,30.273,-96.191,73.242,0
1571370043.147,65.430,44.434,31.738,17.578,36.133,0
1571370043.151,115.723,46.387,35.156,148.926,13.184,0
1571370043.155,28.809,43.457,37.598,60.059,45.410,0
1571370043.159,-30.273,42.969,36.133,-86.426,70.312,0
1571370043.156,42.969,44.434,34.180,-15.625,49.316,0
1571370043.160,117.188,42.480,34.180,123.047,-6.348,0
1571370043.164,58.594,40.527,34.668,92.773,34.180,0
1571370043.168,-25.879,43.945,35.645,-58.105,62.500,0
1571370043.172,17.578,44.434,35.156,-55.176,44.434,0
1571370043.176,114.746,40.527,35.156,83.496,34.180,0
1571370043.180,96.191,45.410,32.715,131.348,16.113,0
1571370043.183,-8.301,47.363,31.250,-15.625,24.414,0
1571370043.187,-12.207,44.434,28.809,-97.656,27.344,0
1571370043.191,83.008,44.434,31.250,37.598,36.621,0
1571370043.195,105.957,45.898,33.203,149.414,51.270,0
1571370043.199,14.160,45.410,32.227,41.504,8.301,0
1571370043.216,-28.809,44.434,31.250,-94.238,7.812,0
1571370043.220,56.152,43.945,32.227,8.301,41.016,0
1571370043.224,109.863,42.480,35.645,145.020,15.137,0
1571370043.228,28.320,41.992,34.668,76.660,-0.977,0
1571370043.232,-35.156,43.945,34.668,-78.613,-18.066,0
1571370043.236,29.297,43.945,34.180,-23.926,25.879,0
1571370043.240,110.352,42.480,35.156,119.141,62.500,0
1571370043.243,62.500,42.480,33.203,107.422,27.344,0
1571370043.247,-26.367,41.016,31.738,-41.016,65.430,0
1571370043.251,4.395,40.527,34.180,-58.105,61.035,0
1571370043.255,93.750,44.434,35.645,77.148,25.879,0
1571370043.259,81.055,41.504,37.109,136.719,39.062,0
1571370043.256,-15.625,39.062,36.133,11.719,38.086,0
1571370043.260,-27.344,41.016,33.203,-82.031,-8.301,0
1571370043.264,62.988,39.551,32.715,37.109,6.348,0
1571370043.268,101.562,38.086,34.668,156.738,-11.719,0
1571370043.272,18.066,38.086,33.203,53.223,-20.996,0
1571370043.276,-32.715,39.551,32.715,-91.797,71.289,0
1571370043.280,48.828,42.969,36.133,6.836,84.473,0
1571370043.283,127.441,43.945,36.621,153.809,19.531,0
1571370043.287,51.758,42.969,34.668,93.750,21.973,0
1571370043.291,-34.180,43.457,34.668,-72.754,38.574,0
1571370043.295,26.367,44.434,35.156,-38.574,-20.996,0
1571370043.299,112.793,42.969,37.109,112.305,19.043,0
1571370043.296,75.195,38.574,33.203,128.418,47.852,0
1571370043.300,-24.902,37.109,29.297,-20.508,9.277,0
1571370043.304,-10.742,40.527,30.762,-68.359,-2.441,0
1571370043.308,85.938,41.504,29.297,64.941,57.129,0
1571370043.312,88.379,39.551,29.785,150.879,90.332,0
1571370043.316,-5.371,42.480,29.785,29.297,58.105,0
1571370043.320,-24.902,43.457,30.273,-89.355,14.160,0
1571370043.323,68.359,43.945,31.250,12.207,27.832,0
1571370043.327,117.188,41.504,35.645,146.484,59.570,0
1571370043.331,30.273,40.039,38.086,77.637,29.297,0
1571370043.335,-35.156,42.969,35.645,-70.312,37.598,0
1571370043.339,37.598,43.457,34.180,12.695,56.152,0
1571370043.356,110.840,41.504,33.691,148.926,46.875,0
1571370043.360,45.410,41.016,32.715,95.703,2.441,0
1571370043.364,-35.645,41.992,32.715,-57.129,-22.461,0
1571370043.368,15.625,41.504,32.227,-41.992,-23.438,0
1571370043.372,100.586,42.969,32.715,97.168,11.719,0
1571370043.376,71.777,43.945,33.691,126.953,21.973,0
1571370043.380,-21.484,45.410,34.180,-16.602,41.504,0
1571370043.383,-11.719,44.922,34.180,-81.543,57.129,0
1571370043.387,85.938,46.387,32.715,48.340,-5.371,0
1571370043.391,105.957,45.898,32.715,151.367,-0.977,0
1571370043.395,7.812,43.945,29.785,24.414,-9.277,0
1571370043.399,-34.668,41.504,28.320,-117.676,48.828,0
1571370043.396,49.316,40.527,27.832,-5.371,66.406,0
1571370043.400,106.934,41.504,29.297,130.371,12.695,0
1571370043.404,28.809,40.527,29.297,54.199,40.527,0
1571370043.408,-35.645,41.992,26.855,-104.004,45.410,0
1571370043.412,35.645,42.480,30.273,-46.875,0.000,0
1571370043.416,115.723,41.992,32.227,107.422,41.016,0
1571370043.420,62.012,42.480,30.273,93.750,56.641,0
1571370043.423,-28.320,41.992,28.320,-59.570,25.391,0
1571370043.427,6.836,41.992,30.273,-70.312,27.344,0
1571370043.431,101.074,42.969,32.715,63.965,-3.906,0
1571370043.435,84.961,42.480,33.203,131.348,20.020,0
1571370043.439,-12.207,43.457,32.715,0.977,21.973,0
1571370043.456,-12.207,42.969,33.203,-92.285,-13.184,0
1571370043.460,78.125,42.969,32.715,29.297,16.113,0
1571370043.464,104.004,41.504,34.180,145.020,-0.977,0
1571370043.468,11.719,38.574,33.691,44.922,-8.789,0
1571370043.472,-32.227,41.504,32.227,-96.680,29.297,0
1571370043.476,59.570,43.457,34.668,3.906,41.016,0
1571370043.480,123.047,42.480,36.133,144.043,89.844,0
1571370043.483,38.574,44.434,34.180,68.848,79.102,0
1571370043.487,-34.180,45.410,32.715,-92.285,26.367,0
1571370043.491,31.738,41.992,34.180,-44.922,30.273,0
1571370043.495,109.375,39.551,34.668,96.191,-3.418,0
1571370043.499,58.594,42.969,31.738,96.191,18.555,0
1571370043.496,-25.391,44.434,30.273,-53.711,34.180,0
1571370043.500,6.836,42.480,28.809,-86.914,16.113,0
1571370043.504,98.633,42.480,29.297,48.340,20.996,0
1571370043.508,97.656,41.992,30.762,123.047,22.949,0
1571370043.512,-0.488,42.969,29.297,-4.883,44.434,0
1571370043.516,-21.484,41.016,29.297,-109.375,4.395,0
1571370043.520,72.754,40.039,30.762,18.066,15.137,0
1571370043.523,121.094,40.527,33.691,154.785,46.875,0
1571370043.527,32.227,39.551,34.668,62.012,15.137,0
1571370043.531,-24.414,40.039,34.180,-85.449,14.648,0
1571370043.535,51.270,40.527,36.621,5.859,50.293,0
1571370043.539,117.676,37.109,39.062,154.297,35.156,0
1571370043.536,49.805,36.133,38.086,117.188,-2.441,0
1571370043.540,-24.902,40.039,38.086,-33.691,41.504,0
1571370043.544,26.855,38.086,39.551,-15.137,57.129,0
1571370043.548,112.793,37.598,39.551,122.070,2.441,0
1571370043.552,82.520,38.574,36.621,145.020,-22.949,0
1571370043.556,-13.184,37.109,31.250,-5.371,-5.859,0
1571370043.560,0.000,38.574,34.668,-68.359,29.785,0
1571370043.563,96.680,38.574,40.527,63.965,62.500,0
1571370043.567,107.910,38.574,37.109,156.250,44.434,0
1571370043.571,11.719,38.086,36.133,36.621,31.738,0
1571370043.575,-14.160,39.062,36.621,-86.426,19.043,0
1571370043.579,74.219,40.527,32.227,21.973,14.648,0
1571370043.596,118.164,41.992,32.227,153.320,46.875,0
1571370043.600,28.320,43.945,29.785,64.941,-16.602,0
1571370043.604,-38.086,42.480,26.367,-99.121,-35.645,0
1571370043.608,36.133,41.504,30.273,-30.273,-7.812,0
1571370043.612,114.746,40.527,32.227,113.770,-16.113,0
1571370043.616,50.293,39.062,29.785,84.961,26.367,0
1571370043.620,-40.039,40.527,27.344,-64.453,83.496,0
1571370043.623,2.930,40.527,28.809,-62.500,74.219,0
1571370043.627,94.238,40.039,32.715,82.520,22.461,0
1571370043.631,75.684,39.062,32.715,136.719,38.086,0
1571370043.635,-21.484,39.551,31.250,1.953,19.531,0
1571370043.639,-21.484,39.551,33.203,-76.660,-2.441,0
1571370043.636,74.219,39.062,34.180,53.223,31.738,0
1571370043.640,91.797,40.527,34.668,158.203,18.555,0
1571370043.644,2.930,40.039,39.551,48.340,59.570,0
1571370043.648,-31.250,38.574,38.086,-81.543,101.562,0
1571370043.652,49.805,39.062,36.621,24.414,48.828,0
1571370043.656,110.352,37.109,37.598,161.621,-38.574,0
1571370043.660,32.227,37.598,38.574,88.867,-17.090,0
1571370043.663,-31.738,39.551,35.156,-66.406,70.312,0
1571370043.667,34.180,39.551,30.762,-15.137,43.457,0
1571370043.671,109.863,39.062,30.273,130.859,-21.484,0
1571370043.675,60.547,38.574,31.250,119.141,-11.230,0
1571370043.679,-30.762,41.016,30.762,-37.598,61.035,0
1571370043.676,0.488,41.504,28.809,-51.270,31.250,0
1571370043.680,98.633,38.086,30.762,85.938,27.832,0
1571370043.684,94.727,40.039,32.227,153.809,80.078,0
1571370043.688,-0.488,41.504,31.250,21.973,23.926,0
1571370043.692,-13.184,42.480,32.227,-74.707,23.926,0
1571370043.696,86.426,43.457,35.156,51.758,71.289,0
1571370043.700,119.141,41.504,35.156,166.504,58.105,0
1571370043.703,19.043,40.527,29.785,68.359,3.906,0
1571370043.707,-27.832,41.504,28.320,-78.613,11.230,0
1571370043.711,62.500,42.480,30.762,12.695,33.203,0
1571370043.715,128.418,43.457,30.273,157.715,-2.930,0
1571370043.719,46.875,44.922,28.809,97.168,7.324,0
1571370043.736,-31.250,44.434,28.809,-61.035,68.848,0
1571370043.740,28.320,40.527,27.344,-23.926,80.566,0
1571370043.744,109.375,41.016,28.320,121.582,79.102,0
1571370043.748,64.453,40.527,30.762,127.441,36.621,0
1571370043.752,-24.902,37.598,31.738,-29.297,10.742,0
1571370043.756,-6.348,37.109,32.227,-69.336,10.254,0
1571370043.760,80.078,37.109,32.715,67.383,13.672,0
1571370043.763,85.449,37.598,35.645,149.902,45.898,0
1571370043.767,-9.277,35.645,34.180,32.227,8.789,0
1571370043.771,-29.785,35.156,33.691,-79.590,21.973,0
1571370043.775,62.988,35.645,36.621,35.156,20.996,0
1571370043.779,110.352,35.645,33.691,162.109,-36.621,0
1571370043.776,32.227,39.062,33.203,73.242,-43.457,0
1571370043.780,-26.367,42.969,34.180,-77.148,45.898,0
1571370043.784,47.852,47.363,32.227,-0.977,71.777,0
1571370043.788,125.488,48.828,33.203,145.020,14.648,0
1571370043.792,57.617,48.340,29.297,102.539,44.922,0
1571370043.796,-18.555,50.293,24.414,-52.734,27.832,0
1571370043.800,32.227,45.410,25.879,-35.645,-22.461,0
1571370043.803,117.676,40.527,26.367,105.469,10.742,0
1571370043.807,85.938,42.969,27.832,141.113,-36.621,0
1571370043.811,-16.602,44.434,28.809,-0.488,-46.387,0
1571370043.815,-10.742,41.992,27.832,-72.754,6.836,0
1571370043.819,85.449,41.016,31.738,60.059,54.688,0
1571370043.816,99.609,39.551,33.691,163.086,79.102,0
1571370043.820,2.441,37.598,31.250,49.805,16.602,0
1571370043.824,-28.809,39.062,29.297,-79.102,-11.719,0
1571370043.828,62.988,39.062,32.715,20.996,27.832,0
1571370043.832,113.281,39.062,35.156,153.320,60.547,0
1571370043.836,24.414,42.969,30.273,74.707,22.949,0
1571370043.840,-38.574,42.969,29.297,-79.590,-18.555,0
1571370043.843,34.180,41.016,33.691,-21.484,-26.367,0
1571370043.847,110.840,39.551,35.156,120.117,20.996,0
1571370043.851,53.711,40.527,34.668,97.656,91.309,0
1571370043.855,-37.109,42.969,33.691,-55.176,54.688,0
1571370043.859,0.977,39.551,35.156,-61.523,14.648,0
1571370043.876,98.633,38.086,37.109,79.102,47.363,0
1571370043.880,82.520,39.551,35.156,137.207,71.289,0
1571370043.884,-15.625,37.598,34.668,-4.395,20.996,0
1571370043.888,-20.996,35.156,38.086,-96.191,36.133,0
1571370043.892,75.684,37.598,37.109,32.227,24.414,0
1571370043.896,108.887,39.062,34.180,146.484,-6.348,0
1571370043.900,11.719,37.109,32.227,36.621,2.441,0
1571370043.903,-39.062,38.574,30.273,-113.281,25.391,0
1571370043.907,46.387,38.574,32.227,-11.230,61.523,0
1571370043.911,107.910,39.551,32.715,133.301,44.922,0
1571370043.915,28.809,39.551,32.715,64.941,-13.184,0
1571370043.919,-40.039,40.527,34.180,-95.215,-7.812,0
1571370043.916,20.020,41.992,35.156,-54.688,70.801,0
1571370043.920,94.727,40.527,34.180,92.773,43.457,0
1571370043.924,52.246,43.945,34.668,101.562,7.812,0
1571370043.928,-34.180,45.410,35.645,-48.340,55.664,0
1571370043.932,-4.395,41.504,33.203,-80.078,71.289,0
1571370043.936,91.797,38.086,32.715,55.664,121.582,0
1571370043.940,90.332,40.039,33.691,129.395,78.613,0
1571370043.943,-1.953,42.969,33.203,1.953,-4.883,0
1571370043.947,-17.090,41.992,32.227,-109.375,-0.977,0
1571370043.951,72.266,40.039,33.691,11.230,-5.859,0
1571370043.955,111.328,42.480,32.715,131.836,22.461,0
1571370043.959,19.531,44.922,29.297,37.109,39.551,0
1571370043.958,-33.691,43.945,29.297,-104.004,50.293,0
1571370043.962,46.875,41.992,31.738,-21.973,67.871,0
1571370043.966,111.328,41.992,33.691,127.930,37.598,0
1571370043.970,34.668,41.016,35.156,74.219,60.059,0
1571370043.974,-44.922,38.086,32.715,-92.285,38.086,0
1571370043.978,8.301,40.527,32.227,-52.734,-36.621,0
1571370043.982,94.238,41.992,35.645,95.703,21.484,0
1571370043.985,57.129,39.551,33.691,117.188,-5.371,0
1571370043.989,-31.738,39.062,31.250,-23.926,-8.301,0
1571370043.993,-5.371,39.062,27.832,-77.148,19.531,0
1571370043.997,86.426,37.109,29.297,55.664,-8.301,0
1571370044.001,93.262,37.598,33.691,151.367,3.418,0
1571370044.016,1.953,41.992,29.785,32.227,-15.137,0
1571370044.020,-20.996,42.480,30.273,-98.633,8.301,0
1571370044.024,71.289,40.527,35.156,17.090,21.484,0
1571370044.028,122.070,40.527,36.133,158.691,38.086,0
1571370044.032,32.227,41.504,33.203,72.266,9.277,0
1571370044.036,-32.227,43.457,30.762,-83.984,12.207,0
1571370044.040,42.480,43.945,30.273,-19.531,77.148,0
1571370044.043,118.652,42.969,30.273,117.188,36.621,0
1571370044.047,60.059,42.969,31.738,90.820,28.320,0
1571370044.051,-23.438,42.969,30.762,-61.523,77.148,0
1571370044.055,20.508,43.457,29.785,-61.035,45.410,0
1571370044.059,100.586,40.527,28.320,68.359,17.090,0
1571370044.056,64.941,39.062,24.414,108.398,-36.621,0
1571370044.060,-30.762,39.551,24.902,-26.855,-25.391,0
1571370044.064,-26.855,39.062,25.391,-104.980,67.383,0
1571370044.068,71.289,41.016,26.367,26.367,64.941,0
1571370044.072,98.145,42.480,27.832,139.160,37.598,0
1571370044.076,0.488,40.527,29.297,30.273,54.688,0
1571370044.080,-43.457,39.062,30.273,-106.445,34.180,0
1571370044.083,46.387,38.574,29.785,3.418,45.898,0
1571370044.087,112.305,37.109,34.180,149.902,22.461,0
1571370044.091,32.715,38.574,36.133,71.777,39.062,0
1571370044.095,-36.133,39.551,34.668,-90.332,26.367,0
1571370044.099,38.086,39.551,36.621,-22.461,-46.875,0
1571370044.096,124.512,41.992,36.621,131.836,-14.160,0
1571370044.100,67.871,42.969,33.691,122.559,-13.672,0
1571370044.104,-26.367,41.016,34.180,-30.762,5.859,0
1571370044.108,8.301,38.574,34.180,-45.410,72.754,0
1571370044.112,104.980,40.527,34.668,97.656,45.410,0
1571370044.116,95.215,41.016,33.203,168.457,17.578,0
1571370044.120,-1.465,40.039,28.809,38.086,3.418,0
1571370044.123,-9.766,39.551,30.273,-64.453,14.160,0
1571370044.127,82.520,41.504,35.645,52.734,20.508,0
1571370044.131,114.258,41.016,38.574,174.316,23.926,0
1571370044.135,20.996,40.039,40.527,83.008,3.418,0
1571370044.139,-30.273,41.504,38.086,-57.617,-1.465,0
1571370044.156,51.758,42.969,34.668,30.273,45.898,0
1571370044.160,123.535,42.969,36.133,166.992,41.992,0
1571370044.164,44.434,43.457,36.621,106.934,-7.324,0
1571370044.168,-43.457,40.039,37.598,-53.711,25.879,0
1571370044.172,15.137,38.574,37.109,-19.531,46.387,0
1571370044.176,100.098,39.551,34.668,119.629,22.949,0
1571370044.180,55.176,38.574,31.738,124.023,-2.930,0
1571370044.183,-33.203,41.016,31.738,-23.926,-31.250,0
1571370044.187,1.953,41.992,34.668,-60.059,-2.441,0
1571370044.191,98.633,42.480,35.156,73.242,53.223,0
1571370044.195,95.703,41.992,32.227,157.715,28.320,0
1571370044.199,0.488,41.016,33.203,38.574,46.875,0
1571370044.196,-18.066,43.457,33.203,-76.660,45.898,0
1571370044.200,77.637,43.457,29.785,39.062,43.945,0
1571370044.204,118.164,43.945,31.738,168.457,99.609,0
1571370044.208,23.926,44.922,31.250,76.660,90.820,0
1571370044.212,-30.762,46.387,31.738,-77.637,16.602,0
1571370044.216,47.852,44.922,32.715,0.000,-21.973,0
1571370044.220,120.117,43.457,33.203,143.555,39.062,0
1571370044.223,49.316,41.992,33.203,99.609,31.738,0
1571370044.227,-35.645,42.480,29.785,-51.758,14.648,0
1571370044.231,18.066,43.945,28.320,-27.832,33.691,0
1571370044.235,107.422,41.992,31.738,114.746,40.527,0
1571370044.239,78.613,41.992,32.715,143.555,21.484,0
1571370044.236,-17.578,41.992,29.785,2.441,-13.184,0
1571370044.240,-8.301,40.527,30.762,-53.711,20.508,0
1571370044.244,79.590,39.062,33.203,73.730,15.137,0
1571370044.248,93.262,38.574,31.738,171.387,3.906,0
1571370044.252,3.906,39.551,27.832,58.105,27.344,0
1571370044.256,-31.738,38.086,28.320,-70.312,50.781,0
1571370044.260,55.664,37.109,29.785,37.598,60.059,0
1571370044.263,110.352,41.504,29.297,169.922,35.156,0
1571370044.267,24.902,41.992,30.273,86.426,35.645,0
1571370044.271,-39.551,37.109,28.809,-63.965,19.531,0
1571370044.275,39.551,37.598,27.344,1.953,-27.832,0
1571370044.279,120.117,40.039,29.785,139.160,-25.879,0
1571370044.296,54.199,38.086,30.273,116.211,9.766,0
1571370044.300,-31.250,39.551,28.320,-37.598,52.246,0
1571370044.304,11.230,41.016,26.367,-36.133,86.426,0
1571370044.308,98.145,39.551,28.809,103.516,82.031,0
1571370044.312,78.125,38.086,29.297,154.785,96.680,0
1571370044.316,-20.996,37.109,27.832,22.949,74.219,0
1571370044.320,-26.855,36.133,25.879,-72.266,62.988,0
1571370044.323,72.754,38.086,29.785,54.688,83.984,0
1571370044.327,106.934,41.504,31.738,173.828,31.738,0
1571370044.331,11.719,43.457,29.785,65.430,22.949,0
1571370044.335,-35.156,44.922,30.273,-67.383,10.742,0
1571370044.339,47.363,43.945,31.250,31.738,-13.672,0
1571370044.336,106.934,40.039,30.762,169.434,-1.953,0
1571370044.340,31.738,41.016,28.320,102.539,46.387,0
1571370044.344,-39.551,41.504,28.809,-56.641,20.508,0
1571370044.348,27.344,39.551,30.762,-6.348,11.719,0
1571370044.352,109.863,39.551,33.691,136.719,45.410,0
1571370044.356,60.547,40.527,33.203,129.883,38.574,0
1571370044.360,-30.273,41.992,29.785,-22.461,82.031,0
1571370044.363,-1.953,40.527,31.250,-51.270,31.250,0
1571370044.367,89.844,37.109,35.156,86.914,27.344,0
1571370044.371,77.637,39.062,32.715,148.926,45.898,0
1571370044.375,-18.066,39.551,28.809,12.695,27.344,0
1571370044.379,-25.391,37.109,28.809,-83.984,67.871,0
1571370044.376,74.707,40.039,28.809,36.621,41.504,0
1571370044.380,111.816,41.992,30.273,158.691,-39.062,0
1571370044.384,17.090,40.527,31.250,60.547,-60.547,0
1571370044.388,-32.715,41.504,32.715,-83.008,-32.227,0
1571370044.392,51.758,41.504,34.180,1.465,18.555,0
1571370044.396,120.605,40.527,36.621,137.207,14.160,0
1571370044.400,43.457,41.016,35.156,91.309,17.578,0
1571370044.403,-39.551,41.992,31.738,-66.406,53.711,0
1571370044.407,18.555,42.969,33.203,-35.156,-0.977,0
1571370044.411,103.027,42.480,35.645,107.910,74.219,0
1571370044.415,63.965,41.992,32.715,125.488,72.266,0
1571370044.419,-32.227,41.016,34.668,-9.277,-24.414,0
1571370044.436,-16.113,41.016,37.109,-58.594,19.043,0
1571370044.440,78.125,39.551,36.621,71.777,39.551,0
1571370044.444,81.055,39.551,35.156,157.227,36.133,0
1571370044.448,-11.719,39.551,34.668,36.621,9.766,0
1571370044.452,-38.086,39.551,37.109,-74.219,14.160,0
1571370044.456,52.734,38.574,38.086,38.086,13.672,0
1571370044.460,107.422,37.109,38.086,159.668,2.441,0
1571370044.463,23.438,38.086,38.086,67.383,13.672,0
1571370044.467,-38.086,40.039,35.156,-85.449,22.461,0
1571370044.471,34.668,39.062,37.109,-10.254,15.137,0
1571370044.475,108.887,36.621,37.598,132.324,1.465,0
1571370044.479,42.480,39.551,35.156,96.191,22.461,0
1571370044.476,-41.992,39.551,34.668,-59.082,27.832,0
1571370044.480,10.254,38.086,34.180,-47.363,17.578,0
1571370044.484,101.562,36.621,35.645,94.727,71.289,0
1571370044.488,78.613,39.062,32.227,133.789,42.480,0
1571370044.492,-10.742,42.480,24.414,-3.418,28.809,0
1571370044.496,-5.371,41.992,25.391,-75.195,46.387,0
1571370044.500,82.031,41.992,27.832,50.781,-5.371,0
1571370044.503,98.633,41.016,27.344,155.762,-5.859,0
1571370044.507,5.859,40.527,25.391,44.434,22.949,0
1571370044.511,-34.180,40.039,25.391,-92.285,58.105,0
1571370044.515,57.617,39.062,25.391,17.090,116.699,0
1571370044.519,117.676,39.062,26.855,163.574,54.199,0
1571370044.516,35.156,39.551,25.879,92.285,27.344,0
1571370044.520,-34.668,38.086,23.926,-59.082,39.062,0
1571370044.524,28.320,39.551,26.855,3.418,26.367,0
1571370044.528,108.398,40.527,30.762,139.648,48.828,0
1571370044.532,55.176,37.109,32.715,121.094,50.781,0
1571370044.536,-32.715,39.062,26.855,-23.438,23.438,0
1571370044.540,8.789,36.621,27.832,-26.855,-6.348,0
1571370044.543,104.004,35.156,31.250,110.840,63.965,0
1571370044.547,94.238,37.598,31.250,163.574,63.477,0
1571370044.551,-0.488,39.062,33.691,43.457,57.129,0
1571370044.555,-23.438,40.039,34.180,-52.246,83.984,0
1571370044.559,61.523,40.527,35.156,52.734,17.578,0
1571370044.576,97.168,39.062,40.039,171.387,-0.977,0
1571370044.580,8.789,41.016,40.039,71.777,6.836,0
1571370044.584,-39.062,38.574,37.109,-73.242,-0.488,0
1571370044.588,43.457,32.227,38.574,17.578,65.430,0
1571370044.592,112.793,34.668,38.574,154.297,70.801,0
1571370044.596,33.691,39.551,36.621,88.379,60.059,0
1571370044.600,-42.969,40.039,34.180,-73.730,47.363,0
1571370044.603,23.438,40.527,34.668,-24.414,15.625,0
1571370044.607,109.375,42.480,35.645,122.559,32.227,0
1571370044.611,71.289,43.457,34.180,125.488,18.066,0
1571370044.615,-15.137,44.922,29.297,-16.602,41.016,0
1571370044.619,6.348,45.898,29.785,-51.758,50.781,0
1571370044.616,97.656,42.480,32.227,74.219,21.484,0
1571370044.620,100.098,40.039,34.180,151.367,27.832,0
1571370044.624,9.277,44.434,33.203,33.691,35.645,0
1571370044.628,-13.184,41.504,33.203,-71.289,68.359,0
1571370044.632,80.078,40.527,36.133,44.922,66.406,0
1571370044.636,123.535,42.969,37.109,167.969,-10.742,0
1571370044.640,23.926,41.016,35.645,83.496,-4.395,0
1571370044.643,-35.645,39.062,35.645,-56.152,27.344,0
1571370044.647,42.969,39.551,37.109,22.461,28.320,0
1571370044.651,111.328,39.551,37.598,159.668,20.508,0
1571370044.655,43.945,39.551,38.086,118.164,-4.883,0
1571370044.659,-37.109,39.551,38.086,-40.039,11.719,0
1571370044.656,19.531,39.551,37.598,-21.484,-5.859,0
1571370044.660,106.934,40.527,38.574,115.234,-9.277,0
1571370044.664,73.242,41.504,40.039,131.348,35.645,0
1571370044.668,-22.461,41.504,38.086,-7.812,83.008,0
1571370044.672,-9.766,42.480,38.086,-64.941,38.574,0
1571370044.676,90.820,43.945,40.527,53.711,-14.648,0
1571370044.680,105.957,42.480,38.574,147.461,33.691,0
1571370044.683,9.766,40.527,36.133,22.461,22.949,0
1571370044.687,-16.602,41.016,36.133,-103.516,2.441,0
1571370044.691,75.684,41.992,38.574,17.090,19.043,0
1571370044.695,123.047,40.527,40.039,144.043,64.453,0
1571370044.699,38.086,40.527,35.645,56.152,61.035,0
1571370044.716,-28.809,42.480,30.762,-101.074,10.254,0
1571370044.720,40.039,43.945,31.738,-33.691,-3.418,0
1571370044.724,119.629,43.945,32.715,107.910,15.137,0
1571370044.728,55.176,44.922,32.715,81.543,13.184,0
1571370044.732,-34.180,45.898,32.227,-71.289,19.531,0
1571370044.736,13.672,42.969,32.715,-75.684,-13.672,0
1571370044.740,110.352,43.945,35.156,62.012,-57.129,0
1571370044.743,87.402,45.410,34.180,116.211,-29.297,0
1571370044.747,-18.555,41.992,34.180,-15.625,40.527,0
1571370044.751,-22.461,41.504,36.621,-90.820,90.820,0
1571370044.755,70.801,43.457,33.691,35.156,48.340,0
1571370044.759,96.191,40.527,34.180,138.184,20.508,0
1571370044.756,8.301,39.062,37.598,38.574,51.758,0
1571370044.760,-34.668,39.551,34.668,-90.820,52.246,0
1571370044.764,49.316,35.645,37.598,16.602,74.219,0
1571370044.768,106.445,34.668,41.016,154.297,83.008,0
1571370044.772,28.809,37.109,37.598,85.449,14.160,0
1571370044.776,-37.598,38.086,34.668,-66.406,-44.922,0
1571370044.780,32.715,34.180,36.133,-9.277,-18.066,0
1571370044.783,124.023,32.715,39.551,141.113,54.199,0
1571370044.787,64.453,36.133,38.574,122.559,57.129,0
1571370044.791,-41.992,36.133,37.109,-47.363,40.039,0
1571370044.795,-10.742,33.691,38.086,-66.406,46.387,0
1571370044.799,87.402,32.227,38.086,78.125,18.066,0
1571370044.796,88.379,36.133,38.086,146.973,30.762,0
1571370044.800,-0.488,40.039,34.668,20.508,114.746,0
1571370044.804,-8.789,41.016,31.738,-72.754,92.285,0
1571370044.808,83.984,40.039,34.180,44.434,59.570,0
1571370044.812,122.070,40.527,35.156,162.109,55.664,0
1571370044.816,36.133,44.922,34.180,68.848,44.434,0
1571370044.820,-14.648,46.387,32.227,-71.289,59.570,0
1571370044.823,64.453,48.828,33.203,15.137,71.777,0
1571370044.827,131.348,48.340,33.691,156.250,45.410,0
1571370044.831,56.641,44.434,31.250,110.840,-3.418,0
1571370044.835,-20.996,46.387,30.762,-40.527,14.648,0
1571370044.839,38.086,45.410,35.645,-6.348,48.828,0
1571370044.856,115.723,42.480,38.574,134.277,31.250,0
1571370044.860,73.242,41.992,35.156,147.461,-47.363,0
1571370044.864,-23.926,41.016,29.785,-4.395,-24.902,0
1571370044.868,-10.254,39.062,26.367,-60.059,52.246,0
1571370044.872,83.984,37.598,27.832,68.359,9.277,0
1571370044.876,87.891,40.527,28.809,153.809,-10.254,0
1571370044.880,-0.488,40.527,29.785,36.133,67.871,0
1571370044.883,-25.879,38.086,30.762,-81.543,36.621,0
1571370044.887,60.059,37.109,32.227,25.391,12.207,0
1571370044.891,108.398,38.086,33.203,151.855,13.184,0
1571370044.895,20.508,39.062,32.715,62.988,28.320,0
1571370044.899,-42.480,37.598,32.227,-92.773,87.891,0
1571370044.896,36.133,36.621,33.203,-11.230,83.008,0
1571370044.900,117.188,38.086,36.133,134.277,42.480,0
1571370044.904,54.199,39.062,35.156,93.750,15.625,0
1571370044.908,-22.949,40.039,31.250,-56.641,-22.461,0
1571370044.912,26.855,40.039,31.250,-41.992,-33.691,0
1571370044.916,109.375,38.574,31.250,94.727,-9.277,0
1571370044.920,80.566,37.598,26.367,123.535,-5.371,0
1571370044.923,-15.137,37.109,28.320,-10.254,22.461,0
1571370044.927,-14.160,38.574,27.832,-77.637,-25.879,0
1571370044.931,77.637,38.574,28.320,37.598,-26.367,0
1571370044.935,98.633,40.039,31.250,138.184,5.859,0
1571370044.939,8.301,42.969,29.785,23.926,-8.789,0
1571370044.956,-35.156,38.574,30.273,-104.980,46.387,0
1571370044.960,45.410,38.574,31.738,9.766,88.867,0
1571370044.964,106.934,40.039,33.691,145.020,94.727,0
1571370044.968,31.250,41.016,32.227,71.777,69.336,0
1571370044.972,-29.785,43.945,29.297,-82.031,35.156,0
1571370044.976,41.016,44.434,30.273,-24.902,53.711,0
1571370044.980,118.164,44.434,28.809,124.023,34.180,0
1571370044.983,53.223,45.410,27.344,102.539,53.223,0
1571370044.987,-36.133,46.875,29.297,-50.781,48.340,0
1571370044.991,2.441,43.457,30.273,-60.547,18.066,0
1571370044.995,90.332,42.969,30.273,75.195,9.766,0
1571370044.999,74.707,45.898,30.273,137.695,3.418,0
1571370044.996,-21.484,44.922,31.250,0.488,25.391,0
1571370045.000,-25.391,42.969,32.227,-89.844,34.180,0
1571370045.004,73.242,42.969,30.273,32.715,35.645,0
1571370045.008,102.539,42.969,29.785,144.043,41.504,0
1571370045.012,1.953,41.016,28.809,41.504,11.230,0
1571370045.016,-50.781,39.062,30.762,-100.098,0.488,0
1571370045.020,34.668,38.086,35.156,-4.883,39.062,0
1571370045.023,102.539,37.598,33.691,132.324,-15.137,0
1571370045.027,29.297,38.574,33.691,68.359,-4.395,0
1571370045.031,-36.133,38.574,33.691,-76.172,70.801,0
1571370045.035,27.832,37.109,34.180,-35.156,54.199,0
1571370045.039,108.887,36.133,35.645,98.145,21.484,0
1571370045.036,63.965,37.598,34.180,108.887,43.457,0
1571370045.040,-28.809,36.133,33.691,-41.016,14.160,0
1571370045.044,-0.977,34.668,33.203,-70.312,-43.457,0
1571370045.048,95.703,39.551,31.250,69.336,-35.645,0
1571370045.052,92.285,39.551,29.297,145.508,-22.461,0
1571370045.056,-3.418,37.598,29.297,27.344,48.340,0
1571370045.060,-22.461,38.574,29.785,-77.637,91.797,0
1571370045.063,75.195,40.527,31.250,41.504,92.773,0
1571370045.067,113.281,41.016,32.715,166.504,62.500,0
1571370045.071,14.648,41.016,33.203,65.430,25.879,0
1571370045.075,-39.062,40.039,33.691,-80.566,36.133,0
1571370045.079,40.527,38.086,34.180,9.766,18.555,0
1571370045.096,109.375,37.598,31.738,149.414,-23.926,0
1571370045.100,39.062,38.574,29.297,103.027,-0.488,0
1571370045.104,-38.574,40.039,30.762,-45.410,13.184,0
1571370045.108,16.113,40.039,33.203,-26.855,-18.066,0
1571370045.112,102.051,40.527,31.738,106.445,5.371,0
1571370045.116,65.918,41.016,29.297,129.883,10.742,0
1571370045.120,-23.926,39.551,27.344,-14.648,-0.977,0
1571370045.123,-9.277,40.527,29.297,-79.590,30.762,0
1571370045.127,83.496,42.969,35.156,46.875,13.184,0
1571370045.131,94.727,43.457,34.668,145.508,12.695,0
1571370045.135,3.906,42.969,29.785,32.715,3.906,0
1571370045.139,-22.461,42.480,27.832,-92.773,0.977,0
1571370045.136,66.406,40.527,31.250,15.625,32.227,0
1571370045.140,110.352,40.527,31.250,147.461,38.086,0
1571370045.144,20.996,39.062,29.297,68.848,22.461,0
1571370045.148,-40.039,39.551,30.762,-77.148,39.551,0
1571370045.152,35.156,40.039,31.250,-1.953,37.598,0
1571370045.156,115.234,38.574,30.762,140.625,37.109,0
1571370045.160,55.664,40.039,30.273,108.887,37.598,0
1571370045.163,-31.738,41.992,31.738,-38.574,-5.371,0
1571370045.167,13.184,38.574,33.691,-26.367,-11.719,0
1571370045.171,99.121,35.156,35.156,112.793,32.715,0
1571370045.175,72.266,36.133,35.156,149.414,94.238,0
1571370045.179,-19.531,36.133,35.156,14.160,92.285,0
1571370045.176,-15.625,32.715,37.109,-49.316,31.250,0
1571370045.180,81.543,34.668,39.062,79.590,24.902,0
1571370045.184,108.887,36.621,37.109,182.617,63.477,0
1571370045.188,16.602,36.621,34.668,76.172,50.293,0
1571370045.192,-21.973,35.156,32.715,-58.105,0.488,0
1571370045.196,58.594,36.133,35.156,38.086,-58.594,0
1571370045.200,119.141,38.086,35.156,172.363,-12.207,0
1571370045.203,37.598,37.109,33.691,104.004,28.320,0
1571370045.207,-39.551,40.039,30.273,-56.641,43.457,0
1571370045.211,35.156,40.527,28.809,-4.883,70.801,0
1571370045.215,125.977,39.551,32.227,147.461,24.414,0
1571370045.219,65.918,41.504,32.227,127.930,8.301,0
1571370045.236,-33.691,41.504,30.273,-36.133,-8.789,0
1571370045.240,0.488,41.504,31.250,-54.199,15.625,0
1571370045.244,96.191,42.969,31.738,77.148,113.281,0
1571370045.248,87.891,42.480,32.227,138.672,76.660,0
1571370045.252,-9.766,39.062,30.762,10.254,-6.836,0
1571370045.256,-24.414,39.062,27.344,-86.914,22.949,0
1571370045.260,68.359,39.062,26.855,31.250,41.504,0
1571370045.263,106.445,39.551,31.738,147.949,28.320,0
1571370045.267,18.066,39.551,34.180,62.988,18.066,0
1571370045.271,-36.133,41.992,28.809,-67.871,14.160,0
1571370045.275,43.945,40.039,30.273,24.902,23.926,0
1571370045.279,112.793,35.156,33.691,158.691,12.695,0
1571370045.276,39.551,35.156,32.227,101.562,-8.301,0
1571370045.280,-36.621,36.621,29.785,-47.852,11.230,0
1571370045.284,25.391,34.180,29.785,-9.766,56.641,0
1571370045.288,114.258,34.668,31.738,129.883,29.785,0
1571370045.292,76.660,39.062,30.273,134.766,8.301,0
1571370045.296,-10.742,37.598,29.785,-6.348,52.246,0
1571370045.300,12.207,36.133,30.273,-44.434,29.785,0
1571370045.303,99.121,39.551,31.250,79.590,13.184,0
1571370045.307,102.539,40.527,30.273,158.203,35.156,0
1571370045.311,9.277,36.133,28.320,35.645,34.180,0
1571370045.315,-15.137,36.621,27.344,-83.008,29.785,0
1571370045.319,83.008,37.109,32.715,30.273,24.414,0
1571370045.316,132.812,35.156,33.691,166.992,40.039,0
1571370045.320,39.062,37.598,28.809,79.590,23.438,0
1571370045.324,-22.949,40.527,28.809,-63.965,8.301,0
1571370045.328,52.734,39.551,30.762,9.766,-20.020,0
1571370045.332,122.559,36.621,33.203,150.879,-23.926,0
1571370045.336,53.711,36.621,34.180,111.816,45.410,0
1571370045.340,-37.598,36.133,30.273,-52.246,82.520,0
1571370045.343,4.395,34.180,31.250,-41.016,41.504,0
1571370045.347,92.285,33.691,35.645,88.379,41.504,0
1571370045.351,68.359,37.109,35.156,123.535,62.012,0
1571370045.355,-20.020,38.086,34.180,-4.883,31.250,0
1571370045.359,-16.113,38.086,37.598,-63.477,-38.086,0
1571370045.376,73.242,39.551,39.551,68.359,40.527,0
1571370045.380,91.309,39.062,39.551,161.621,81.543,0
1571370045.384,-0.488,37.109,35.156,44.922,2.930,0
1571370045.388,-32.227,39.062,32.715,-81.055,49.805,0
1571370045.392,61.523,39.551,34.180,19.531,30.762,0
1571370045.396,115.723,39.062,30.273,148.926,29.785,0
1571370045.400,24.902,40.039,27.832,65.430,46.387,0
1571370045.403,-43.945,40.039,27.344,-94.727,34.180,0
1571370045.407,27.832,42.480,25.391,-25.879,69.824,0
1571370045.411,103.027,41.504,27.344,115.234,63.965,0
1571370045.415,47.852,39.062,31.738,86.914,53.711,0
1571370045.419,-32.715,39.551,29.785,-63.965,40.527,0
1571370045.416,7.812,37.598,31.738,-62.500,3.906,0
1571370045.420,92.285,37.109,34.668,74.219,26.855,0
1571370045.424,69.824,38.086,31.250,124.023,34.668,0
1571370045.428,-21.484,39.551,26.855,-13.184,-5.371,0
1571370045.432,-18.555,41.016,26.367,-98.633,10.254,0
1571370045.436,74.707,38.086,30.762,35.156,36.621,0
1571370045.440,107.910,36.133,33.691,152.832,24.902,0
1571370045.443,16.602,36.133,33.203,50.781,6.836,0
1571370045.447,-37.598,37.598,30.762,-89.844,43.945,0
1571370045.451,46.387,40.039,30.762,5.859,82.520,0
1571370045.455,112.305,38.574,35.645,148.926,64.941,0
1571370045.459,30.762,34.668,36.621,88.379,14.648,0
1571370045.456,-40.527,36.621,36.133,-55.176,39.062,0
1571370045.460,23.438,39.062,35.156,-4.883,39.062,0
1571370045.464,102.051,38.086,33.203,129.883,15.625,0
1571370045.468,60.059,37.598,34.180,129.883,23.926,0
1571370045.472,-24.902,38.574,29.785,-12.695,32.227,0
1571370045.476,-2.930,39.551,25.391,-44.434,94.727,0
1571370045.480,88.867,41.504,30.273,84.473,58.105,0
1571370045.483,84.961,40.039,33.691,160.156,50.293,0
1571370045.487,-12.695,39.062,32.715,35.156,44.434,0
1571370045.491,-21.973,39.062,36.133,-67.871,-11.230,0
1571370045.495,79.102,39.551,38.086,55.176,-3.418,0
1571370045.499,122.559,40.039,33.203,173.828,32.715,0
1571370045.516,31.738,39.551,32.715,77.148,22.461,0
1571370045.520,-24.414,41.504,32.227,-67.383,13.672,0
1571370045.524,53.711,42.480,29.785,18.555,-3.906,0
1571370045.528,122.070,41.992,29.785,161.621,9.277,0
1571370045.532,46.387,41.504,28.809,106.934,14.648,0
1571370045.536,-32.227,43.457,27.344,-46.875,-6.348,0
1571370045.540,25.391,42.480,30.273,-19.043,3.418,0
1571370045.543,111.328,40.527,33.203,115.234,17.090,0
1571370045.547,74.707,38.574,32.715,138.184,17.090,0
1571370045.551,-18.066,38.086,31.250,0.000,-17.090,0
1571370045.555,0.488,40.039,33.691,-49.316,0.977,0
1571370045.559,88.867,39.062,35.645,81.543,24.414,0
1571370045.556,95.703,37.598,35.156,169.922,-14.160,0
1571370045.560,2.930,39.062,35.645,53.223,2.930,0
1571370045.564,-25.879,38.574,34.668,-62.500,23.438,0
1571370045.568,68.848,38.086,31.738,48.828,23.926,0
1571370045.572,116.699,36.621,32.715,176.758,58.594,0
1571370045.576,25.391,37.598,29.297,89.844,77.637,0
1571370045.580,-33.691,39.062,27.344,-55.176,90.820,0
1571370045.583,40.527,36.621,30.273,11.719,56.641,0
1571370045.587,115.234,37.598,32.227,146.484,-6.348,0
1571370045.591,48.828,41.992,30.762,114.258,10.742,0
1571370045.595,-37.109,41.992,26.855,-38.086,88.867,0
1571370045.599,16.602,40.527,28.320,-25.879,82.031,0
1571370045.596,106.445,41.016,31.250,104.492,10.254,0
1571370045.600,83.008,39.062,31.738,143.066,-20.996,0
1571370045.604,-10.742,37.598,31.738,10.254,26.367,0
1571370045.608,-12.207,40.039,31.250,-68.848,55.176,0
1571370045.612,74.707,37.598,30.762,58.105,66.895,0
1571370045.616,96.680,38.086,31.250,163.574,47.852,0
1571370045.620,5.859,40.039,31.250,54.199,8.789,0
1571370045.623,-35.156,38.574,30.273,-70.801,2.930,0
1571370045.627,51.758,37.598,31.738,27.344,0.000,0
1571370045.631,117.188,37.109,34.180,158.203,21.973,0
1571370045.635,41.992,39.062,32.227,92.773,19.531,0
1571370045.639,-34.180,41.992,30.273,-52.246,67.383,0
1571370045.656,25.391,39.551,33.691,1.953,53.223,0
1571370045.660,92.285,38.086,34.668,123.047,-8.789,0
1571370045.664,35.645,37.109,31.250,103.027,17.578,0
1571370045.668,-39.062,36.621,30.762,-38.574,15.137,0
1571370045.672,1.953,39.062,28.809,-47.852,-41.992,0
1571370045.676,90.820,37.598,31.250,86.426,22.949,0
1571370045.680,83.496,34.668,34.668,141.602,62.500,0
1571370045.683,-13.184,36.133,33.691,9.766,22.949,0
1571370045.687,-26.855,34.668,33.203,-81.055,28.320,0
1571370045.691,69.824,34.668,34.668,41.992,-16.602,0
1571370045.695,107.422,39.062,36.621,159.668,-32.715,0
1571370045.699,18.555,40.527,35.645,60.547,-14.648,0
1571370045.697,-31.250,41.504,33.691,-71.289,2.930,0
1571370045.701,49.805,40.039,34.180,19.531,35.156,0
1571370045.705,118.652,36.133,31.738,159.180,17.090,0
1571370045.709,41.016,36.133,28.809,98.633,38.086,0
1571370045.713,-33.691,39.551,30.273,-62.012,30.762,0
1571370045.717,29.297,41.016,30.273,-25.391,-20.996,0
1571370045.721,112.793,39.062,32.715,108.398,-32.715,0
1571370045.724,70.312,37.598,33.691,116.211,16.113,0
1571370045.728,-20.020,39.551,30.273,-30.762,9.277,0
1571370045.732,2.930,39.551,29.297,-72.754,10.254,0
1571370045.736,95.703,36.133,31.738,63.477,30.273,0
1571370045.740,97.168,38.086,34.180,140.137,59.570,0
1571370045.736,0.977,41.992,31.738,17.578,42.480,0
1571370045.740,-19.531,40.039,29.785,-92.285,22.949,0
1571370045.744,72.266,40.039,31.250,16.602,53.711,0
1571370045.748,111.328,41.504,35.645,146.484,50.781,0
1571370045.752,17.578,39.551,36.133,57.617,60.547,0
1571370045.756,-37.598,40.527,32.227,-91.309,31.738,0
1571370045.760,41.504,39.551,33.691,-8.789,-33.203,0
1571370045.763,108.887,35.156,35.645,130.859,3.906,0
1571370045.767,41.016,38.086,32.227,80.566,25.391,0
1571370045.771,-35.645,41.016,30.762,-72.754,24.414,0
1571370045.775,20.020,41.016,33.203,-43.945,33.691,0
1571370045.779,107.910,39.062,34.180,97.168,78.613,0
1571370045.796,74.707,40.039,31.738,126.953,91.797,0
1571370045.800,-19.043,42.480,29.297,-15.137,53.223,0
1571370045.804,-6.348,39.062,27.832,-73.242,63.965,0
1571370045.808,88.379,36.133,27.832,61.523,60.547,0
1571370045.812,103.027,41.504,27.344,153.320,77.637,0
1571370045.816,9.766,44.922,24.414,35.156,77.637,0
1571370045.820,-27.832,43.457,24.414,-101.074,69.824,0
1571370045.823,59.082,41.992,27.832,5.859,49.805,0
1571370045.827,112.305,41.016,29.297,146.484,-31.250,0
1571370045.831,22.461,39.551,30.273,68.359,-4.883,0
1571370045.835,-46.875,39.062,28.320,-81.055,16.602,0
1571370045.839,27.832,37.109,29.297,-13.672,41.504,0
1571370045.836,110.840,37.598,31.738,127.441,61.035,0
1571370045.840,49.316,40.527,30.762,101.562,42.969,0
1571370045.844,-40.039,38.574,31.250,-51.758,14.160,0
1571370045.848,0.000,36.621,33.691,-49.316,37.598,0
1571370045.852,86.914,39.062,34.180,88.867,48.340,0
1571370045.856,70.312,41.504,30.762,131.836,8.789,0
1571370045.860,-19.043,41.016,29.785,5.371,2.930,0
1571370045.863,-19.531,39.062,29.785,-71.289,-12.695,0
1571370045.867,76.172,38.086,28.809,49.316,-23.926,0
1571370045.871,100.586,37.109,29.297,151.367,-14.160,0
1571370045.875,6.836,38.574,28.320,42.480,20.996,0
1571370045.879,-32.227,41.016,28.809,-80.566,75.195,0
1571370045.876,55.176,41.016,32.715,22.949,77.148,0
1571370045.880,122.070,41.016,35.645,161.621,10.254,0
1571370045.884,46.387,40.527,35.645,89.355,-14.160,0
1571370045.888,-26.367,42.480,33.203,-68.848,43.457,0
1571370045.892,39.062,42.969,31.738,-15.137,29.785,0
1571370045.896,124.512,42.969,32.227,123.047,-2.441,0
1571370045.900,75.195,43.457,31.738,113.281,23.438,0
1571370045.903,-20.020,43.945,31.250,-34.668,20.020,0
1571370045.907,6.348,43.457,30.762,-61.035,35.156,0
1571370045.911,99.609,41.016,34.180,78.125,41.992,0
1571370045.915,94.727,41.016,37.109,152.832,27.344,0
1571370045.919,-2.441,40.039,34.668,29.297,-7.812,0
1571370045.936,-20.508,42.480,34.668,-80.078,-18.066,0
1571370045.940,72.266,43.457,38.574,30.762,22.949,0
1571370045.944,111.328,39.062,38.086,156.738,31.250,0
1571370045.948,14.160,38.574,35.645,61.035,59.082,0
1571370045.952,-44.434,38.086,34.668,-87.891,26.855,0
1571370045.956,41.504,37.109,37.109,-3.418,21.484,0
1571370045.960,114.258,40.527,36.133,129.883,77.148,0
1571370045.963,50.293,41.016,33.691,86.426,27.832,0
1571370045.967,-20.508,41.016,35.156,-62.988,29.297,0
1571370045.971,24.414,41.016,37.598,-42.480,31.250,0
1571370045.975,102.051,38.086,37.598,85.938,8.301,0
1571370045.979,71.777,35.156,34.668,105.469,10.742,0
1571370045.979,-18.066,35.156,31.250,-28.809,20.508,0
1571370045.983,-5.859,34.180,28.809,-78.125,-7.324,0
1571370045.987,83.984,33.203,28.809,49.805,-29.297,0
1571370045.991,93.750,36.133,28.320,135.742,24.414,0
1571370045.995,1.465,34.668,27.832,25.391,18.555,0
1571370045.999,-27.344,34.180,27.344,-87.891,16.113,0
1571370046.003,58.594,33.691,32.227,22.949,29.297,0
1571370046.006,107.422,32.715,34.180,155.273,51.758,0
1571370046.010,20.996,34.668,32.715,67.871,86.426,0
1571370046.014,-47.363,38.086,34.668,-88.867,69.336,0
1571370046.018,33.691,39.062,34.668,-8.301,16.113,0
1571370046.022,116.211,38.086,35.156,137.207,-11.230,0
1571370046.016,50.781,37.598,34.668,100.586,13.184,0
1571370046.020,-31.250,36.621,31.738,-51.758,21.973,0
1571370046.024,10.254,39.551,34.180,-43.945,7.324,0
1571370046.028,98.145,40.039,34.668,93.750,-19.043,0
1571370046.032,72.266,38.086,33.691,128.418,6.348,0
1571370046.036,-27.344,40.039,33.691,-13.672,71.289,0
1571370046.040,-20.996,40.039,35.645,-83.984,58.594,0
1571370046.043,76.660,38.574,35.645,30.762,73.730,0
1571370046.047,96.191,40.527,34.180,123.047,65.918,0
1571370046.051,0.488,41.992,34.180,13.672,46.875,0
1571370046.055,-35.645,41.016,32.715,-111.816,60.547,0
1571370046.059,53.711,38.574,30.273,-3.906,110.840,0
1571370046.076,111.816,40.039,27.344,127.441,86.914,0
1571370046.080,33.691,40.527,29.297,51.758,69.824,0
1571370046.084,-35.645,41.992,28.809,-99.609,132.324,0
1571370046.088,34.668,40.527,29.785,-41.504,47.852,0
1571370046.092,123.047,36.133,31.738,100.586,42.969,0
1571370046.096,62.988,35.645,32.715,82.520,88.867,0
1571370046.100,-35.156,37.598,34.180,-68.359,75.195,0
1571370046.103,6.348,39.551,36.621,-74.219,54.199,0
1571370046.107,101.074,37.109,40.527,68.848,57.617,0
1571370046.111,88.379,37.109,39.062,124.023,53.711,0
1571370046.115,-9.277,39.062,33.691,-9.277,-29.785,0
1571370046.119,-16.602,40.527,32.715,-98.145,-25.391,0
1571370046.136,81.055,40.039,35.156,26.367,30.762,0
1571370046.140,107.910,41.016,34.180,140.625,49.805,0
1571370046.144,12.207,41.504,31.738,39.062,34.180,0
1571370046.148,-36.133,41.504,28.809,-93.750,25.879,0
1571370046.152,45.410,42.480,29.297,0.977,8.301,0
1571370046.156,113.281,41.992,31.738,140.625,14.160,0
1571370046.160,38.086,42.480,32.715,81.055,41.992,0
1571370046.163,-37.109,39.551,31.250,-76.172,19.531,0
1571370046.167,35.156,37.109,33.691,-22.949,-13.672,0
1571370046.171,122.559,38.086,36.621,117.188,2.441,0
1571370046.175,72.754,41.504,34.668,114.258,-24.902,0
1571370046.179,-21.484,41.504,35.156,-21.973,-59.082,0
1571370046.156,1.953,40.039,36.133,-56.641,-28.320,0
1571370046.160,91.309,42.480,35.645,65.918,-68.848,0
1571370046.164,92.285,41.504,36.621,140.625,-50.781,0
1571370046.168,2.441,39.551,34.180,18.066,14.160,0
1571370046.172,-15.625,42.969,32.715,-92.285,-26.367,0
1571370046.176,78.613,45.410,32.715,22.949,-23.926,0
1571370046.180,119.141,42.480,33.691,153.320,33.203,0
1571370046.183,30.762,42.969,32.715,59.082,36.133,0
1571370046.187,-24.902,42.969,32.227,-88.379,8.789,0
1571370046.191,54.199,43.945,34.180,0.000,16.602,0
1571370046.195,127.930,45.410,34.668,135.254,35.645,0
1571370046.199,55.176,42.480,34.668,92.285,-14.648,0
1571370046.216,-30.762,41.016,34.668,-52.246,-22.461,0
1571370046.220,24.902,41.504,37.598,-28.809,31.250,0
1571370046.224,115.723,39.062,40.039,112.793,41.992,0
1571370046.228,78.125,40.039,37.109,134.277,65.430,0
1571370046.232,-16.602,40.039,32.227,-7.324,87.402,0
1571370046.236,-8.301,38.086,33.691,-69.824,56.641,0
1571370046.240,81.055,39.062,36.621,51.270,24.902,0
1571370046.243,99.609,39.551,36.133,150.391,12.695,0
1571370046.247,4.883,40.527,36.133,36.133,61.035,0
1571370046.251,-26.367,40.527,34.180,-87.891,75.684,0
1571370046.255,67.383,38.574,32.715,16.602,32.715,0
1571370046.259,119.629,40.039,36.621,145.020,59.570,0
1571370046.256,35.156,39.062,38.086,77.148,88.867,0
1571370046.260,-26.855,39.551,37.109,-68.848,24.902,0
1571370046.264,37.109,45.410,37.598,-19.531,14.648,0
1571370046.268,103.027,45.410,35.645,104.492,59.082,0
1571370046.272,47.852,44.434,33.203,77.637,-4.395,0
1571370046.276,-32.715,42.480,31.738,-65.918,7.812,0
1571370046.280,9.277,41.016,32.715,-68.848,22.461,0
1571370046.283,102.539,39.551,35.645,68.359,9.277,0
1571370046.287,83.496,40.527,33.203,123.535,27.832,0
1571370046.291,-15.625,40.527,31.250,-19.531,46.875,0
1571370046.295,-12.695,39.551,31.250,-99.609,46.387,0
1571370046.299,82.031,41.016,30.273,29.785,25.879,0
1571370046.296,104.004,44.434,31.250,138.672,17.578,0
1571370046.300,9.277,43.457,29.785,29.785,10.742,0
1571370046.304,-32.227,41.016,29.297,-103.027,-2.930,1
1571370046.308,55.176,43.945,31.250,3.418,48.828,0
1571370046.312,112.793,43.945,32.715,134.277,62.988,0
1571370046.316,35.156,43.945,33.203,66.895,27.344,0
1571370046.320,-33.203,44.922,32.715,-78.613,20.996,0
1571370046.323,32.227,42.480,33.203,-30.273,66.895,0
1571370046.327,112.305,41.504,36.133,110.840,97.656,0
1571370046.331,55.664,42.969,34.180,106.934,72.754,0
1571370046.335,-38.574,41.504,33.691,-46.875,64.941,0
1571370046.339,-5.371,40.527,35.156,-70.801,50.781,0
1571370046.356,90.332,42.969,33.203,59.082,28.809,0
1571370046.360,89.355,41.016,32.227,124.512,59.082,0
1571370046.364,-4.395,41.992,30.762,-3.418,56.641,0
1571370046.368,-19.531,43.945,29.297,-101.562,-19.531,0
1571370046.372,73.730,42.480,31.250,20.020,3.906,0
1571370046.376,109.863,42.480,32.715,136.230,33.691,0
1571370046.380,19.531,43.457,30.273,38.574,28.320,0
1571370046.383,-31.250,42.969,28.809,-100.586,32.715,0
1571370046.387,53.223,41.016,28.809,-5.859,69.336,0
1571370046.391,120.117,42.480,30.273,129.395,58.594,0
1571370046.395,42.969,45.410,27.832,63.965,-23.438,0
1571370046.399,-34.668,46.875,26.855,-99.121,1.465,0
1571370046.416,23.438,44.922,33.203,-58.105,49.805,0
1571370046.420,106.445,42.480,34.180,92.773,8.301,0
1571370046.424,66.406,44.434,34.180,110.352,28.809,0
1571370046.428,-26.367,43.457,29.785,-27.344,39.551,0
1571370046.432,-8.301,39.551,31.250,-70.312,3.418,0
1571370046.436,84.473,39.551,35.645,62.500,67.383,0
1571370046.440,90.332,40.527,34.180,150.879,50.781,0
1571370046.443,0.488,40.039,36.133,35.156,8.301,0
1571370046.447,-22.461,40.039,36.621,-75.195,30.273,0
1571370046.451,70.312,42.969,34.180,27.832,22.461,0
1571370046.455,115.234,41.992,33.691,149.902,-5.859,0
1571370046.459,22.949,40.527,34.180,70.312,13.184,0
1571370046.438,-39.062,44.434,31.250,-77.637,-14.160,0
1571370046.442,33.691,45.410,31.250,0.488,22.461,0
1571370046.446,108.887,43.945,35.156,135.254,46.387,0
1571370046.450,51.758,45.898,33.691,94.238,-17.578,0
1571370046.454,-27.344,44.434,29.297,-55.664,19.043,0
1571370046.458,19.043,42.480,27.344,-45.898,33.691,0
1571370046.462,105.469,43.457,28.320,88.379,17.578,0
1571370046.465,77.637,44.922,28.809,121.094,35.645,0
1571370046.469,-17.090,42.969,29.297,-17.090,73.730,0
1571370046.473,-16.113,42.480,27.832,-83.008,32.227,0
1571370046.477,76.172,41.992,30.273,41.016,11.230,0
1571370046.481,99.121,41.504,32.227,138.184,55.664,0
1571370046.496,2.441,43.945,31.250,16.602,74.707,0
1571370046.500,-33.691,47.363,31.738,-116.699,52.734,0
1571370046.504,51.270,46.387,32.715,-4.883,37.109,0
1571370046.508,99.609,43.945,32.715,124.512,42.969,0
1571370046.512,11.230,43.457,31.250,49.805,5.859,0
1571370046.516,-55.664,43.457,28.809,-99.609,-7.324,0
1571370046.520,20.508,42.480,32.227,-40.039,14.160,0
1571370046.523,99.609,39.062,34.668,112.305,25.879,0
1571370046.527,39.062,38.574,33.691,101.074,-5.371,0
1571370046.531,-47.363,38.574,32.715,-43.457,9.766,0
1571370046.535,-7.812,38.086,34.668,-50.293,49.805,0
1571370046.539,88.867,39.062,34.668,87.891,95.215,0
1571370046.536,78.125,37.598,35.156,149.414,73.242,0
1571370046.540,-13.672,39.062,33.691,17.090,-20.996,0
1571370046.544,-14.160,39.062,31.250,-67.871,-59.082,0
1571370046.548,77.637,37.598,33.691,56.152,4.883,0
1571370046.552,103.516,39.062,32.715,165.039,32.227,0
1571370046.556,15.137,43.457,31.250,67.871,31.738,0
1571370046.560,-28.320,41.992,30.762,-67.383,45.410,0
1571370046.563,57.129,41.504,30.762,25.391,30.762,0
1571370046.567,122.070,42.969,31.250,153.809,27.344,0
1571370046.571,47.852,43.457,31.738,82.520,3.418,0
1571370046.575,-34.180,43.945,32.227,-63.965,-32.227,0
1571370046.579,20.508,41.016,32.227,-15.625,0.977,0
1571370046.596,108.887,38.574,31.738,119.629,16.113,0
1571370046.600,56.152,40.039,29.297,116.699,22.461,0
1571370046.604,-39.062,40.527,29.785,-30.762,-0.488,0
1571370046.608,-10.254,37.598,30.762,-60.547,-22.949,0
1571370046.612,85.938,36.621,32.715,70.801,45.898,0
1571370046.616,82.520,36.621,31.738,138.184,30.273,0
1571370046.620,-13.184,36.133,30.273,14.160,14.648,0
1571370046.623,-30.273,38.574,32.227,-89.844,51.758,0
1571370046.627,62.012,38.086,34.180,34.180,66.406,0
1571370046.631,104.980,35.645,36.133,162.109,59.570,0
1571370046.635,15.137,37.598,33.691,69.336,34.668,0
1571370046.639,-36.133,38.574,33.203,-78.125,28.320,0
1571370046.636,46.387,39.551,35.645,9.766,-7.812,0
1571370046.640,119.629,41.992,37.598,151.855,-25.391,0
1571370046.644,50.293,40.039,35.645,101.074,25.391,0
1571370046.648,-30.762,39.551,31.250,-46.387,44.434,0
1571370046.652,27.832,41.016,33.691,-20.996,-0.488,0
1571370046.656,113.281,41.504,35.645,105.957,16.602,0
1571370046.660,74.219,40.527,33.691,123.535,43.945,0
1571370046.663,-18.066,40.527,32.715,-13.184,46.875,0
1571370046.667,-3.906,40.039,31.250,-69.824,92.285,0
1571370046.671,91.309,41.504,31.738,54.688,59.082,0
1571370046.675,106.445,42.969,29.297,140.625,54.688,0
1571370046.679,4.883,42.480,28.809,25.879,52.246,0
1571370046.676,-34.180,41.992,31.250,-86.914,0.488,0
1571370046.680,57.129,41.016,32.227,21.484,17.090,0
1571370046.684,107.422,41.992,33.203,147.461,51.758,0
1571370046.688,22.461,40.527,33.203,63.965,20.020,0
1571370046.692,-38.574,40.039,32.227,-85.449,-6.836,0
1571370046.696,35.156,40.039,35.645,-13.672,-0.977,0
1571370046.700,113.281,40.039,35.156,125.000,20.996,0
1571370046.703,55.176,39.551,31.738,89.844,42.480,0
1571370046.707,-34.180,40.039,31.250,-59.570,86.426,0
1571370046.711,8.301,42.969,30.762,-50.781,46.387,0
1571370046.715,105.957,42.969,31.738,89.844,6.836,0
1571370046.719,87.402,43.457,32.227,143.066,23.926,0
1571370046.736,0.977,45.898,34.668,16.113,50.781,0
1571370046.740,5.859,41.992,35.645,-59.082,32.227,0
1571370046.744,97.168,41.016,34.180,62.012,-46.387,0
1571370046.748,116.699,42.480,34.180,164.062,9.277,0
1571370046.752,17.578,41.016,35.645,57.617,23.926,0
1571370046.756,-21.973,43.457,33.203,-74.219,-11.719,0
1571370046.760,63.477,42.480,32.227,25.391,0.000,0
1571370046.763,120.605,40.039,34.668,154.297,9.277,0
1571370046.767,35.645,40.039,33.203,84.473,35.645,0
1571370046.771,-35.156,38.086,33.691,-62.012,34.668,0
1571370046.775,33.203,38.574,36.133,-7.324,17.578,0
1571370046.779,117.188,40.527,37.598,131.836,-14.648,0
1571370046.776,64.453,41.016,39.551,119.141,40.039,0
1571370046.780,-22.949,42.480,38.086,-27.344,2.441,0
1571370046.784,8.789,42.969,37.109,-43.457,31.738,0
1571370046.788,91.797,40.527,39.062,79.590,48.340,0
1571370046.792,81.055,38.574,36.133,134.766,12.695,0
1571370046.796,-14.648,41.016,33.691,6.836,26.367,0
1571370046.800,-26.367,40.527,33.203,-90.332,40.039,0
1571370046.803,68.848,37.598,31.250,30.273,19.043,0
1571370046.807,104.004,36.133,33.203,150.879,8.301,0
1571370046.811,11.230,38.086,29.785,56.152,24.902,0
1571370046.815,-38.574,40.039,30.273,-83.008,31.250,0
1571370046.819,42.969,37.598,36.621,7.812,10.254,0
1571370046.816,107.422,36.621,38.086,146.484,-1.465,0
1571370046.820,37.109,40.039,34.180,90.332,3.906,0
1571370046.824,-32.715,43.457,30.762,-52.246,-22.461,0
1571370046.828,22.461,40.527,33.691,-15.137,9.277,0
1571370046.832,111.816,38.086,33.203,119.141,52.734,0
1571370046.836,78.125,39.062,28.320,131.836,109.375,0
1571370046.840,-18.555,40.039,29.297,-16.602,71.289,0
1571370046.843,-3.906,40.527,32.227,-57.617,39.551,0
1571370046.847,80.078,39.551,31.738,69.336,66.895,0
1571370046.851,85.449,41.992,33.691,149.902,58.594,0
1571370046.855,-1.953,42.480,31.738,41.992,5.371,0
1571370046.859,-27.832,39.062,27.832,-69.336,20.020,0
1571370046.877,64.941,38.574,30.273,41.992,22.461,0
1571370046.881,115.723,40.527,32.715,164.062,-40.527,0
1571370046.885,27.344,39.551,30.762,75.684,12.695,0
1571370046.889,-36.133,39.062,30.273,-75.684,46.387,0
1571370046.893,37.109,40.527,32.227,-2.930,47.363,0
1571370046.897,117.188,42.480,34.180,139.648,45.898,0
1571370046.901,58.105,40.527,32.227,92.773,17.090,0
1571370046.904,-27.832,41.504,29.785,-69.824,59.082,0
1571370046.908,17.090,46.875,30.762,-59.570,17.578,0
1571370046.912,95.215,42.969,31.250,75.195,24.902,0
1571370046.916,68.359,40.527,30.762,119.629,36.133,0
1571370046.920,-18.555,41.504,29.297,-16.113,-0.977,0
1571370046.916,-10.742,43.457,27.832,-84.473,60.059,0
1571370046.920,81.543,43.457,30.762,43.457,70.312,0
1571370046.924,95.215,40.039,32.227,141.602,54.688,0
1571370046.928,2.930,40.527,28.809,40.527,94.238,0
1571370046.932,-35.645,41.992,27.832,-79.590,69.824,0
1571370046.936,52.734,42.969,30.762,28.320,88.379,0
1571370046.940,113.281,42.969,32.227,158.203,87.891,0
1571370046.943,33.203,39.062,32.715,75.684,32.227,0
1571370046.947,-37.598,38.574,34.180,-72.266,14.648,0
1571370046.951,20.020,40.527,35.645,-16.113,0.488,0
1571370046.955,98.633,40.039,35.156,111.816,3.906,0
1571370046.959,47.852,40.039,33.203,83.984,3.906,0
1571370046.956,-36.133,39.062,34.180,-70.801,36.621,0
1571370046.960,1.953,36.621,36.133,-78.613,7.812,0
1571370046.964,93.750,35.156,37.109,57.129,21.484,0
1571370046.968,80.078,37.598,36.621,111.816,13.184,0
1571370046.972,-14.648,40.039,33.203,-22.949,-55.176,0
1571370046.976,-20.020,41.016,30.273,-115.234,6.836,0
1571370046.980,75.195,39.551,33.203,7.324,73.242,0
1571370046.983,105.469,38.574,33.691,122.070,62.500,0
1571370046.987,10.254,38.574,30.762,11.719,39.551,0
1571370046.991,-38.086,40.527,28.320,-143.066,-4.883,0
1571370046.995,46.387,38.574,31.738,-45.898,3.418,0
1571370046.999,110.840,38.574,34.180,107.910,87.891,0
1571370047.017,36.621,40.039,32.227,47.852,97.656,0
1571370047.021,-36.133,36.133,31.250,-108.398,64.941,0
1571370047.025,21.484,34.180,28.809,-69.336,13.672,0
1571370047.029,101.074,36.621,29.785,75.684,13.184,0
1571370047.033,54.199,37.109,31.250,85.938,21.973,0
1571370047.037,-36.621,38.574,28.809,-65.430,30.273,0
1571370047.041,-12.207,40.039,28.320,-100.586,46.387,0
1571370047.044,80.566,37.598,31.250,30.762,-15.625,0
1571370047.048,82.520,37.109,32.715,104.980,-35.645,0
1571370047.052,-9.766,38.086,30.273,-12.207,-35.645,0
1571370047.056,-20.508,37.109,29.297,-107.910,-52.246,0
1571370047.060,66.406,36.133,31.250,8.301,-8.789,0
1571370047.056,103.516,38.086,32.715,127.441,19.043,0
1571370047.060,14.648,41.504,29.297,36.621,28.809,0
1571370047.064,-42.969,41.016,27.344,-104.980,73.730,0
1571370047.068,41.504,39.062,29.297,-19.043,84.961,0
1571370047.072,113.770,41.504,31.738,121.582,46.875,0
1571370047.076,41.992,40.527,32.227,71.777,21.973,0
1571370047.080,-33.203,36.133,30.273,-80.078,34.668,0
1571370047.083,20.020,38.086,28.809,-51.270,-10.254,0
1571370047.087,100.586,38.086,28.320,83.496,-9.277,0
1571370047.091,63.965,37.109,26.367,100.098,30.273,0
1571370047.095,-27.344,39.062,23.926,-51.270,58.594,0
1571370047.099,-7.812,41.016,25.391,-103.516,9.766,0
1571370047.096,88.867,38.574,28.320,34.180,36.133,0
1571370047.100,99.121,37.109,28.809,122.070,95.215,0
1571370047.104,3.906,40.527,27.344,12.207,55.664,0
1571370047.108,-26.367,41.992,29.785,-104.004,50.293,0
1571370047.112,64.453,42.480,32.715,4.395,31.738,0
1571370047.116,113.281,41.504,31.738,140.137,31.738,0
1571370047.120,24.902,41.016,32.715,56.152,23.438,0
1571370047.123,-37.109,42.480,31.250,-91.309,12.207,0
1571370047.127,34.180,42.969,31.250,-26.367,71.289,0
1571370047.131,107.910,37.598,34.668,109.863,100.098,0
1571370047.135,47.363,39.062,30.273,87.891,58.105,0
1571370047.139,-35.156,42.969,26.367,-68.359,6.348,0
1571370047.157,7.324,40.039,30.273,-60.059,54.688,0
1571370047.161,92.285,41.016,31.738,70.312,59.570,0
1571370047.165,72.266,41.016,29.785,110.840,-11.230,0
1571370047.169,-18.066,40.527,27.344,-9.277,11.719,0
1571370047.173,-5.859,41.992,27.832,-83.008,-30.273,0
1571370047.177,94.238,38.574,29.297,38.574,-22.461,0
1571370047.181,116.211,39.062,29.785,139.648,33.203,0
1571370047.184,22.949,43.945,31.738,34.668,56.152,0
1571370047.188,-20.996,45.410,28.809,-96.680,51.270,0
1571370047.192,60.547,44.434,28.809,0.977,-1.953,0
1571370047.196,116.699,44.922,32.715,137.695,-17.090,0
1571370047.200,33.203,44.922,30.273,63.477,-32.715,0
1571370047.196,-38.574,41.992,27.344,-85.938,-23.926,0
1571370047.200,26.367,41.992,29.297,-27.344,21.973,0
1571370047.204,104.492,41.992,30.762,114.746,53.711,0
1571370047.208,50.293,40.039,30.762,101.562,30.273,0
1571370047.212,-45.410,40.039,31.738,-57.129,8.789,0
1571370047.216,-9.766,41.992,30.762,-71.777,43.457,0
1571370047.220,85.938,41.504,32.227,71.777,73.242,0
1571370047.223,75.684,39.551,36.133,131.348,44.434,0
1571370047.227,-16.602,37.109,36.621,5.371,22.461,0
1571370047.231,-24.414,40.527,33.691,-89.355,55.664,0
1571370047.235,71.777,43.457,35.645,26.367,69.336,0
1571370047.239,104.980,40.527,38.574,147.461,1.953,0
1571370047.236,9.277,40.527,34.180,49.316,-34.180,0
1571370047.240,-41.504,40.527,34.180,-89.844,-3.418,0
1571370047.244,44.434,38.574,33.203,1.953,29.297,0
1571370047.248,113.770,41.016,33.203,141.113,22.461,0
1571370047.252,37.598,41.992,33.691,84.961,3.906,0
1571370047.256,-37.598,42.480,33.203,-67.383,9.766,0
1571370047.260,26.367,41.504,32.227,-28.320,-45.410,0
1571370047.263,113.281,39.062,28.320,104.004,-22.949,0
1571370047.267,68.848,43.457,26.367,104.492,11.230,0
1571370047.271,-25.879,46.387,25.391,-32.715,-8.789,0
1571370047.275,-1.953,41.504,23.926,-60.547,33.203,0
1571370047.279,94.727,41.992,23.438,74.707,28.809,0
1571370047.296,97.168,43.945,24.902,156.738,-6.836,0
1571370047.300,-2.930,41.992,24.414,40.039,22.461,0
1571370047.304,-26.855,41.504,23.926,-63.477,4.395,0
1571370047.308,60.059,42.969,25.879,48.828,50.781,0
1571370047.312,103.027,42.480,26.855,164.062,48.340,0
1571370047.316,16.113,41.016,27.832,73.730,12.695,0
1571370047.320,-45.898,41.016,26.855,-72.266,30.762,0
1571370047.323,32.227,40.039,27.832,7.812,-7.324,0
1571370047.327,107.910,39.551,29.785,146.973,1.465,0
1571370047.331,43.457,39.062,29.785,103.516,51.758,0
1571370047.335,-30.273,42.969,28.809,-48.340,73.730,0
1571370047.339,21.973,42.480,29.785,-33.691,35.645,0
1571370047.336,105.957,36.133,35.156,99.121,10.742,0
1571370047.340,71.289,35.156,35.156,124.023,24.902,0
1571370047.344,-25.391,35.645,31.250,-16.602,-1.465,0
1571370047.348,-15.137,35.156,35.645,-80.078,-14.160,0
1571370047.352,79.102,34.668,38.086,41.992,19.531,0
1571370047.356,92.285,35.645,35.156,161.621,53.711,0
1571370047.360,0.488,37.598,36.621,87.891,79.590,0
1571370047.363,-27.832,38.086,35.156,-24.414,45.410,0
1571370047.367,59.570,37.598,29.785,86.426,13.184,0
1571370047.371,107.422,35.645,27.344,217.285,34.668,0
1571370047.375,19.531,37.109,28.809,129.883,17.578,0
1571370047.379,-45.410,39.062,27.344,-28.809,1.953,0
1571370047.376,27.344,41.016,24.902,35.156,24.902,0
1571370047.380,107.910,42.480,25.391,169.922,-25.391,0
1571370047.384,49.805,40.527,26.367,138.672,-55.664,0
1571370047.388,-33.691,41.992,25.879,-11.719,22.461,0
1571370047.392,9.766,44.434,28.809,-17.090,77.637,0
1571370047.396,96.680,41.992,34.180,107.910,46.387,0
1571370047.400,70.312,41.016,33.691,148.926,44.434,0
1571370047.403,-26.367,44.434,32.227,11.230,40.039,0
1571370047.407,-25.879,46.387,31.738,-78.613,28.320,0
1571370047.411,66.406,42.480,34.668,48.340,23.926,0
1571370047.415,98.633,40.527,35.156,165.039,82.031,0
1571370047.419,9.277,42.480,34.180,56.641,110.840,0
1571370047.436,-32.227,46.387,33.203,-83.008,64.941,0
1571370047.440,63.965,45.410,30.273,25.879,18.066,0
1571370047.444,125.488,39.062,33.203,166.992,-6.836,0
1571370047.448,29.785,39.551,34.668,78.613,-18.555,0
1571370047.452,-46.875,37.598,33.203,-82.031,-0.488,0
1571370047.456,28.809,34.180,35.645,-16.113,-16.602,0
1571370047.460,116.211,35.645,38.086,122.070,1.465,0
1571370047.463,64.453,34.668,38.086,117.676,6.348,0
1571370047.467,-22.461,33.203,36.133,-22.949,4.395,0
1571370047.471,4.883,37.598,36.621,-57.129,36.621,0
1571370047.475,87.891,39.551,34.180,74.707,20.020,0
1571370047.479,80.566,35.156,34.668,143.066,3.906,0
1571370047.476,-17.578,37.109,37.109,18.555,-2.441,0
1571370047.480,-29.785,37.598,35.156,-79.590,-4.883,0
1571370047.484,64.453,35.645,34.180,31.738,1.953,0
1571370047.488,105.957,36.621,33.691,153.809,-3.418,0
1571370047.492,22.949,36.133,33.203,59.082,-36.133,0
1571370047.496,-29.785,37.598,34.180,-87.891,63.477,0
1571370047.500,51.758,35.156,35.156,2.441,131.836,0
1571370047.503,126.953,36.133,37.109,138.672,57.617,0
1571370047.507,58.594,40.039,36.133,88.379,32.715,0
1571370047.511,-28.320,39.062,32.715,-66.895,59.082,0
1571370047.515,27.832,38.574,34.180,-41.504,81.055,0
1571370047.519,117.188,39.062,35.156,99.609,67.383,0
1571370047.516,82.031,38.574,36.133,119.629,35.156,0
1571370047.520,-10.254,39.551,35.645,-21.973,48.340,0
1571370047.524,1.465,38.574,35.156,-77.637,50.293,0
1571370047.528,93.262,38.574,38.086,51.270,15.137,3
1571370047.532,99.121,38.574,38.574,140.625,25.391,0
1571370047.536,0.488,38.574,34.668,23.438,7.812,0
1571370047.540,-27.344,37.598,34.180,-89.355,10.742,0
1571370047.543,66.895,40.039,35.156,17.578,29.785,0
1571370047.547,122.070,40.527,35.645,142.090,27.832,0
1571370047.551,35.156,39.551,31.738,59.082,76.660,0
1571370047.555,-33.203,41.504,28.809,-90.332,47.363,0
1571370047.559,44.922,40.527,30.273,-7.812,3.418,0
1571370047.576,121.094,38.086,32.227,130.859,22.461,0
1571370047.580,53.223,38.086,28.809,95.215,36.133,0
1571370047.584,-34.180,40.527,24.902,-57.129,38.574,0
1571370047.588,12.695,41.016,29.297,-51.758,33.203,0
1571370047.592,106.445,40.039,31.250,87.402,12.207,0
1571370047.596,78.125,40.039,31.250,123.535,57.129,0
1571370047.600,-20.508,42.480,31.250,-14.160,102.539,0
1571370047.603,-14.160,42.969,30.762,-83.008,94.238,0
1571370047.607,80.078,41.504,33.203,42.480,43.945,0
1571370047.611,102.539,39.062,31.738,145.996,66.406,0
1571370047.615,9.277,39.062,29.785,38.086,88.379,0
1571370047.619,-23.926,41.504,30.273,-94.727,2.441,0
1571370047.616,60.547,39.551,30.273,1.465,20.508,0
1571370047.620,112.793,39.062,29.297,130.859,6.348,0
1571370047.624,31.738,41.016,29.297,62.500,-54.688,0
1571370047.628,-39.551,43.457,28.809,-93.262,-31.738,0
1571370047.632,34.180,41.016,28.809,-34.668,22.949,0
1571370047.636,117.676,37.109,29.785,114.258,29.785,0
1571370047.640,62.012,39.551,29.785,98.145,2.441,0
1571370047.643,-26.367,41.504,30.762,-55.664,68.359,0
1571370047.647,8.301,38.086,34.180,-69.336,74.707,0
1571370047.651,94.238,37.109,35.645,59.570,66.406,0
1571370047.655,81.543,38.086,35.156,118.652,81.055,0
1571370047.659,-9.766,39.062,33.203,-1.953,83.496,0
1571370047.656,-21.484,38.574,35.156,-93.750,39.062,0
1571370047.660,67.871,37.598,37.109,26.855,-20.996,0
1571370047.664,103.516,39.062,35.156,145.508,41.504,0
1571370047.668,9.766,40.527,36.133,44.434,54.199,0
1571370047.672,-41.016,40.039,37.598,-97.168,31.250,0
1571370047.676,44.922,39.062,35.156,-5.859,44.434,0
1571370047.680,109.375,41.504,34.668,135.254,63.477,0
1571370047.683,31.250,41.016,34.668,69.336,65.430,0
1571370047.687,-46.875,40.527,30.762,-99.609,53.223,0
1571370047.691,14.648,39.551,29.297,-52.246,-11.230,0
1571370047.695,102.539,39.062,34.180,96.680,-6.348,0
1571370047.699,59.570,39.551,32.227,104.004,55.176,0
1571370047.716,-35.156,39.062,29.785,-43.457,69.824,0
1571370047.720,-12.695,39.551,32.227,-86.914,24.902,0
1571370047.724,81.543,40.039,31.738,47.363,0.977,0
1571370047.728,83.984,40.527,32.227,125.000,20.996,0
1571370047.732,-8.789,39.551,31.250,4.883,32.227,0
1571370047.736,-30.762,38.086,29.785,-107.422,20.020,0
1571370047.740,67.383,40.039,33.203,0.488,-15.625,0
1571370047.743,119.629,41.992,34.668,135.254,-25.391,0
1571370047.747,20.508,41.504,34.668,48.340,-1.953,0
1571370047.751,-42.969,41.992,34.668,-96.680,8.301,0
1571370047.755,35.645,40.527,33.691,-13.672,36.133,0
1571370047.759,108.887,37.109,33.691,126.953,38.574,0
1571370047.756,41.992,37.109,36.133,86.914,13.184,0
1571370047.760,-42.480,37.109,34.180,-62.988,35.156,0
1571370047.764,16.113,35.156,34.180,-42.480,8.301,0
1571370047.768,104.980,36.621,35.645,94.727,-21.484,0
1571370047.772,70.801,39.551,35.645,124.512,-3.906,0
1571370047.776,-23.438,40.039,37.109,-9.766,50.781,0
1571370047.780,-8.789,41.504,37.109,-65.430,57.617,0
1571370047.783,85.938,39.551,39.551,57.129,60.059,0
1571370047.787,101.074,39.551,37.109,150.391,70.801,0
1571370047.791,10.742,43.457,34.668,29.785,21.484,0
1571370047.795,-27.344,43.457,38.574,-98.145,42.969,0
1571370047.799,57.129,42.969,38.574,17.090,39.551,0
1571370047.796,113.281,43.945,36.621,151.855,-8.789,0
1571370047.800,29.785,42.480,32.227,71.777,3.418,0
1571370047.804,-43.457,43.457,31.250,-85.449,22.949,0
1571370047.808,24.414,41.992,35.645,-19.531,25.879,0
1571370047.812,103.027,40.039,33.691,124.023,6.836,0
1571370047.816,48.828,41.992,31.250,99.609,-25.391,0
1571370047.820,-36.133,43.945,32.715,-46.387,-15.625,0
1571370047.823,0.000,43.457,34.180,-50.293,15.625,0
1571370047.827,94.727,41.504,38.574,86.426,43.457,0
1571370047.831,77.148,42.480,37.598,141.602,76.172,0
1571370047.835,-20.996,41.992,31.738,10.742,47.852,0
1571370047.839,-19.043,42.480,29.785,-68.848,30.273,0
1571370047.856,78.125,42.969,29.785,48.828,-20.020,0
1571370047.860,108.398,41.992,30.273,157.715,-22.949,0
1571370047.864,14.648,40.527,27.832,52.734,11.230,0
1571370047.868,-34.180,43.457,25.391,-81.543,16.602,0
1571370047.872,51.270,43.457,29.297,19.531,5.859,0
1571370047.876,108.398,40.039,34.180,152.344,-24.902,0
1571370047.880,29.297,39.062,33.203,86.914,-48.828,0
1571370047.883,-36.133,42.480,31.250,-56.152,-9.277,0
1571370047.887,31.738,41.992,30.273,-0.977,68.848,0
1571370047.891,113.770,37.109,30.273,134.766,86.426,0
1571370047.895,54.688,39.062,27.344,117.188,57.129,0
1571370047.899,-33.691,43.457,25.879,-31.738,39.062,0
1571370047.896,2.441,40.039,26.855,-44.922,10.254,0
1571370047.900,98.145,38.086,25.879,88.379,29.785,0
1571370047.904,91.309,37.598,25.879,150.879,24.414,0
1571370047.908,-3.418,36.621,26.367,22.949,-27.832,0
1571370047.912,-15.625,35.156,23.926,-74.707,11.230,0
1571370047.916,75.684,35.156,24.902,42.969,67.383,0
1571370047.920,112.793,37.109,26.367,157.227,31.250,0
1571370047.923,20.508,38.086,23.926,59.082,-0.488,0
1571370047.927,-30.273,39.551,21.973,-83.984,-3.418,0
1571370047.931,53.223,41.504,24.902,5.371,12.207,0
1571370047.935,126.953,41.504,27.344,147.949,41.504,0
1571370047.939,54.199,40.039,24.414,92.285,51.758,0
1571370047.937,-24.902,41.504,22.461,-59.082,68.848,0
1571370047.941,30.273,41.992,26.367,-24.902,64.453,0
1571370047.945,112.793,40.527,27.832,110.352,45.410,0
1571370047.949,75.684,41.504,23.438,125.977,39.551,0
1571370047.953,-20.020,40.527,25.391,-16.602,42.969,0
1571370047.957,-4.395,39.551,27.344,-61.523,10.254,0
1571370047.961,95.215,43.457,24.902,71.777,51.758,0
1571370047.964,97.168,45.410,23.438,148.438,20.508,0
1571370047.968,-1.953,42.480,24.414,22.949,6.348,0
1571370047.972,-20.996,39.551,25.879,-77.637,75.684,0
1571370047.976,67.383,40.527,25.879,36.621,31.250,0
1571370047.980,108.887,40.039,25.391,153.809,-1.465,0
1571370047.996,25.879,40.039,26.367,65.918,-11.719,0
1571370048.000,-33.203,38.574,24.902,-79.590,-18.066,0
1571370048.004,40.527,38.574,25.879,0.977,31.250,0
1571370048.008,118.164,39.551,25.879,139.648,39.551,0
1571370048.012,54.199,38.574,23.438,97.168,28.320,0
1571370048.016,-28.809,40.527,22.949,-49.316,46.875,0
1571370048.020,20.508,43.457,26.855,-34.180,14.648,0
1571370048.023,108.398,41.992,31.738,104.492,34.668,0
1571370048.027,78.125,38.086,28.809,130.371,43.945,0
1571370048.031,-22.949,40.039,26.367,-12.695,-16.113,0
1571370048.035,-18.066,40.527,28.320,-74.219,48.828,0
1571370048.039,75.684,39.551,29.785,45.898,24.414,0
1571370048.037,94.238,41.992,28.809,141.602,-51.758,0
1571370048.041,-3.418,41.016,28.320,31.250,41.016,0
1571370048.045,-40.039,41.016,26.367,-90.820,76.660,0
1571370048.049,51.758,42.480,26.367,15.625,18.555,0
1571370048.053,109.863,41.504,29.785,143.066,-2.441,0
1571370048.057,32.227,41.504,27.344,73.730,43.457,0
1571370048.061,-31.738,42.969,25.879,-78.125,90.332,0
1571370048.064,37.598,43.457,30.762,-17.090,74.219,0
1571370048.068,115.234,42.480,30.273,120.605,55.176,0
1571370048.072,52.246,41.992,25.391,90.820,29.297,0
1571370048.076,-41.504,40.527,23.438,-50.293,19.043,0
1571370048.080,-12.207,39.551,24.902,-58.105,44.434,0
1571370048.096,76.660,39.062,26.855,72.754,28.320,0
1571370048.100,67.383,35.645,30.273,136.230,-0.488,0
1571370048.104,-25.879,36.133,29.785,5.859,25.879,0
1571370048.108,-32.715,38.574,27.832,-83.984,-14.648,0
1571370048.112,62.012,38.574,28.320,32.715,-6.348,0
1571370048.116,96.680,38.086,28.809,140.137,24.902,0
1571370048.120,7.324,38.086,28.809,44.434,12.207,0
1571370048.123,-41.504,41.016,27.832,-95.703,71.777,0
1571370048.127,44.922,41.992,28.320,0.488,9.766,0
1571370048.131,114.258,40.527,30.273,141.113,-13.184,0
1571370048.135,33.691,39.551,32.715,75.195,76.172,0
1571370048.139,-43.457,41.504,30.273,-75.684,73.242,0
1571370048.137,22.949,43.457,30.762,-33.691,58.594,0
1571370048.141,103.516,40.039,31.738,100.586,15.137,0
1571370048.145,51.270,39.062,32.715,92.773,-29.785,0
1571370048.149,-39.062,40.039,32.227,-62.012,-35.156,0
1571370048.153,-8.789,40.527,32.715,-91.309,-16.602,0
1571370048.157,87.402,39.551,33.691,40.527,43.457,0
1571370048.161,88.379,40.039,30.762,109.375,49.805,0
1571370048.164,0.000,41.992,27.832,-15.137,98.145,0
1571370048.168,-18.555,40.527,26.855,-124.023,154.785,0
1571370048.172,69.824,39.551,31.250,0.000,104.004,0
1571370048.176,107.910,41.504,33.691,124.512,9.766,0
1571370048.180,15.625,40.527,29.785,26.855,45.898,0
1571370048.176,-40.527,36.133,28.809,-118.164,88.379,0
1571370048.180,35.645,32.715,31.738,-31.250,29.297,0
1571370048.184,106.934,32.715,35.156,115.723,65.918,0
1571370048.188,36.621,31.738,37.109,68.848,50.293,0
1571370048.192,-41.992,31.738,31.738,-87.891,-6.836,0
1571370048.196,16.113,33.691,31.738,-63.477,47.852,0
1571370048.200,101.074,34.668,36.133,78.125,78.125,0
1571370048.203,66.895,35.645,36.621,106.934,45.410,0
1571370048.207,-26.855,36.133,36.133,-37.598,30.273,0
1571370048.211,-9.766,39.062,34.668,-93.750,19.043,0
1571370048.215,87.891,39.062,33.691,36.133,53.223,0
1571370048.219,96.680,35.645,33.203,124.512,53.711,0
1571370048.236,5.371,37.109,29.785,15.625,23.438,0
1571370048.240,-25.879,37.598,30.762,-103.516,25.391,0
1571370048.244,59.082,37.109,35.156,4.395,59.082,0
1571370048.248,113.770,38.086,36.621,140.625,86.914,0
1571370048.252,33.203,38.086,32.715,64.941,94.238,0
1571370048.256,-31.738,36.621,31.250,-84.473,12.207,0
1571370048.260,37.598,39.551,34.668,-18.555,-39.551,0
1571370048.263,104.980,41.504,33.691,108.398,8.789,0
1571370048.267,44.434,41.504,35.156,75.195,1.953,0
1571370048.271,-32.715,41.992,35.156,-67.871,-2.930,0
1571370048.275,8.789,41.992,33.691,-57.617,-64.941,0
1571370048.279,99.609,42.969,35.645,78.613,-46.387,0
1571370048.277,81.543,43.945,35.156,123.535,35.645,0
1571370048.281,-11.230,43.457,36.621,-8.789,16.602,0
1571370048.285,-9.277,41.504,39.062,-84.961,16.602,0
1571370048.289,81.543,39.551,39.551,44.922,0.977,0
1571370048.293,103.516,40.039,39.062,157.715,19.531,0
1571370048.297,9.766,41.016,37.598,52.246,60.547,0
1571370048.301,-36.133,38.574,36.621,-88.379,12.207,0
1571370048.304,47.852,34.668,38.574,13.184,-19.531,0
1571370048.308,106.445,34.668,40.527,153.320,52.734,0
1571370048.312,26.855,36.621,37.598,80.566,45.898,0
1571370048.316,-41.992,37.598,37.598,-80.566,54.199,0
1571370048.320,31.738,37.109,38.574,-37.598,56.152,0
1571370048.316,120.605,38.574,35.156,107.422,32.227,0
1571370048.320,66.406,40.039,32.715,98.145,33.691,0
1571370048.324,-27.832,42.969,30.762,-57.617,-1.465,0
1571370048.328,0.488,44.434,27.832,-84.961,-25.879,0
1571370048.332,92.773,44.922,28.809,48.828,14.648,0
1571370048.336,87.402,45.410,28.809,120.605,-8.301,0
1571370048.340,-10.254,43.945,29.297,-9.277,-1.465,0
1571370048.343,-22.461,43.945,32.227,-101.074,65.918,0
1571370048.347,78.125,45.410,32.227,21.484,46.387,0
1571370048.351,117.676,46.387,32.715,136.719,51.270,0
1571370048.355,23.438,45.410,29.297,51.758,106.445,0
1571370048.359,-31.738,42.480,28.320,-83.984,75.684,0
1571370048.376,49.805,41.504,31.250,4.395,10.254,0
1571370048.380,122.559,43.457,29.785,145.996,21.973,0
1571370048.384,54.199,47.363,28.809,89.844,42.969,0
1571370048.388,-24.414,46.875,29.297,-71.289,78.613,0
1571370048.392,32.715,41.992,29.297,-37.109,106.934,0
1571370048.396,113.770,40.039,27.344,102.051,63.965,0
1571370048.400,67.871,41.992,27.832,107.910,3.418,0
1571370048.403,-25.879,41.504,29.297,-48.828,7.324,0
1571370048.407,-3.418,38.574,28.809,-90.332,70.312,0
1571370048.411,83.496,38.086,31.250,45.898,17.578,0
1571370048.415,84.473,38.574,32.715,128.418,-17.578,0
1571370048.419,-9.277,40.039,28.320,4.395,-15.137,0
1571370048.416,-37.598,41.504,28.320,-114.258,-0.977,0
1571370048.420,46.387,37.598,33.203,0.000,41.016,0
1571370048.424,87.402,34.668,35.645,129.395,26.367,0
1571370048.428,0.977,34.668,33.691,44.434,38.574,0
1571370048.432,-55.664,35.156,31.738,-106.934,61.523,0
1571370048.436,26.855,35.156,35.645,-34.180,2.441,0
1571370048.440,110.352,34.668,38.574,117.188,-11.230,0
1571370048.443,49.316,38.086,36.621,85.449,11.230,0
1571370048.447,-24.902,41.992,34.668,-62.012,-10.742,0
1571370048.451,31.738,41.992,34.180,-45.410,41.992,0
1571370048.455,124.512,46.875,32.715,88.867,21.973,0
1571370048.459,98.145,51.270,29.297,127.930,5.371,0
1571370048.458,4.883,51.758,24.902,-6.836,46.875,0
1571370048.462,12.695,47.852,23.438,-76.660,-8.301,0
1571370048.466,104.492,47.852,24.414,49.316,8.301,0
1571370048.470,113.770,45.898,24.902,145.508,30.273,0
1571370048.474,16.602,42.969,26.367,31.738,-14.648,0
1571370048.478,-21.973,46.387,29.297,-97.656,28.809,0
1571370048.482,62.500,43.457,32.715,6.836,53.223,0
1571370048.485,116.211,41.016,33.691,140.625,3.418,0
1571370048.489,31.250,42.969,31.250,62.500,6.836,0
1571370048.493,-35.645,43.945,27.832,-90.332,54.199,0
1571370048.497,40.039,41.504,28.320,-25.879,46.387,0
1571370048.501,125.488,39.551,30.273,127.930,30.762,0
1571370048.517,51.270,38.086,33.203,96.191,59.082,0
1571370048.521,-55.664,36.133,32.227,-80.566,27.832,0
1571370048.525,-14.648,35.156,30.273,-84.473,-19.531,0
1571370048.529,87.402,36.133,34.180,68.848,12.207,0
1571370048.533,75.195,38.086,32.715,127.930,47.852,0
1571370048.537,-18.555,35.156,31.250,-8.301,91.797,0
1571370048.541,-23.926,34.668,34.668,-106.445,62.988,0
1571370048.544,73.730,35.645,35.156,17.578,32.227,0
1571370048.548,110.840,36.133,35.645,145.508,11.230,0
1571370048.552,13.672,35.645,38.574,48.828,6.348,0
1571370048.556,-38.086,32.227,38.086,-95.215,55.176,0
1571370048.560,52.246,34.180,37.598,-0.488,74.219,0
1571370048.556,121.094,37.109,34.180,149.902,42.969,0
1571370048.560,44.434,39.062,27.832,84.473,-7.324,0
1571370048.564,-32.227,38.574,28.320,-70.801,0.488,0
1571370048.568,23.926,34.180,33.691,-25.391,17.578,0
1571370048.572,104.492,34.180,34.668,112.305,-37.109,0
1571370048.576,59.082,36.133,31.738,123.535,-13.672,0
1571370048.580,-28.320,39.062,31.250,-19.043,-2.441,0
1571370048.583,-2.441,40.039,32.227,-52.246,0.488,0
1571370048.587,93.262,39.062,34.180,76.660,40.039,0
1571370048.591,95.215,40.527,30.273,146.484,9.277,0
1571370048.595,-1.953,39.551,27.344,16.113,-21.484,0
1571370048.599,-19.531,39.062,29.297,-95.703,-29.297,0
1571370048.596,70.312,42.480,28.320,20.996,-5.859,0
1571370048.600,105.957,42.480,30.273,141.602,83.496,0
1571370048.604,17.090,44.922,29.297,49.316,115.723,0
1571370048.608,-39.062,44.922,26.367,-95.215,70.312,0
1571370048.612,40.039,41.504,28.809,-15.625,23.438,0
1571370048.616,109.863,42.969,26.367,124.023,35.156,0
1571370048.620,37.598,42.480,26.367,71.777,70.801,0
1571370048.623,-42.969,42.969,28.809,-85.938,1.465,0
1571370048.627,7.324,45.410,28.809,-62.012,-2.441,0
1571370048.631,94.238,43.457,31.738,81.543,34.668,0
1571370048.635,63.477,40.527,32.715,113.770,17.578,0
1571370048.639,-29.785,41.016,31.250,-29.785,15.137,0
1571370048.656,-7.812,41.016,33.203,-81.543,25.391,0
1571370048.660,86.426,38.574,36.133,57.129,45.898,0
1571370048.664,95.215,38.086,34.668,154.297,72.266,0
1571370048.668,5.859,41.016,32.715,41.504,86.426,0
1571370048.672,-25.391,45.410,30.762,-82.031,20.508,0
1571370048.676,67.871,45.898,28.809,28.809,-3.906,0
1571370048.680,116.699,44.434,31.738,157.227,24.902,0
1571370048.683,27.832,44.434,33.203,70.801,-6.836,0
1571370048.687,-32.227,43.457,31.250,-70.801,-3.418,0
1571370048.691,38.574,40.039,31.738,0.488,-9.766,0
1571370048.695,113.770,36.621,34.668,140.137,-52.246,0
1571370048.699,50.293,37.109,33.203,114.258,-0.488,0
1571370048.696,-36.133,37.109,30.762,-40.527,57.129,0
1571370048.700,6.348,35.156,35.156,-39.062,83.984,0
1571370048.704,94.727,35.156,35.156,92.773,66.895,0
1571370048.708,74.219,33.691,31.738,130.859,47.852,0
1571370048.712,-16.113,36.133,30.273,-4.883,53.223,4
1571370048.716,-11.719,41.016,28.809,-81.055,18.066,0
1571370048.720,76.660,39.551,26.855,43.457,-13.184,0
1571370048.723,98.633,39.551,28.320,144.043,53.223,0
1571370048.727,9.277,41.016,26.367,41.992,88.379,0
1571370048.731,-26.855,44.434,23.438,-92.285,30.273,0
1571370048.735,65.918,44.922,27.344,-1.465,39.551,0
1571370048.739,125.000,43.457,28.809,135.742,52.734,0
1571370048.737,40.527,42.969,26.855,59.082,45.898,0
1571370048.741,-32.227,42.969,25.879,-94.727,28.320,0
1571370048.745,28.320,41.016,25.879,-34.668,70.312,0
1571370048.749,106.934,39.551,29.297,105.469,73.242,0
1571370048.753,51.758,42.480,28.320,93.750,19.043,0
1571370048.757,-39.062,41.992,20.996,-61.523,35.156,0
1571370048.761,-2.441,41.016,23.438,-79.102,48.340,0
1571370048.764,99.121,42.480,27.832,61.523,15.137,0
1571370048.768,94.238,41.992,25.391,123.047,42.480,0
1571370048.772,-0.488,41.504,26.855,-0.488,95.215,0
1571370048.776,-7.324,41.992,28.320,-89.355,57.617,0
1571370048.780,80.566,41.016,28.809,34.180,36.133,0
1571370048.796,107.910,40.039,32.227,162.109,48.828,0
1571370048.800,15.625,41.992,29.785,59.570,41.016,0
1571370048.804,-32.715,40.527,29.297,-94.238,2.441,0
1571370048.808,50.781,39.551,31.250,-4.883,38.086,0
1571370048.812,119.629,40.039,30.762,137.695,58.594,0
1571370048.816,42.969,39.062,31.250,80.078,-9.277,0
1571370048.820,-33.203,39.551,29.297,-81.543,-12.207,0
1571370048.823,28.809,38.086,27.832,-48.340,25.391,0
1571370048.827,116.211,39.062,26.855,98.145,38.086,0
1571370048.831,69.336,41.504,28.320,108.887,34.180,0
1571370048.835,-26.855,39.062,27.832,-35.156,12.695,0
1571370048.839,0.000,37.598,28.809,-74.707,17.578,0
1571370048.836,100.586,37.598,30.762,54.688,-11.230,0
1571370048.840,106.934,38.086,28.809,139.648,11.230,0
1571370048.844,12.207,41.992,28.320,19.531,66.406,0
1571370048.848,-9.766,42.969,26.367,-101.562,5.859,0
1571370048.852,80.078,43.457,28.320,12.695,55.664,0
1571370048.856,119.629,41.504,29.297,144.531,64.941,0
1571370048.860,26.855,41.992,26.367,52.246,-20.020,0
1571370048.863,-29.785,45.410,24.414,-95.215,8.301,0
1571370048.867,49.805,44.434,27.832,-11.230,-3.418,0
1571370048.871,116.699,41.016,31.738,131.348,1.465,0
1571370048.875,46.387,41.504,31.250,91.797,49.316,0
1571370048.879,-31.738,42.480,29.785,-62.988,32.715,0
1571370048.876,22.949,40.039,28.320,-44.434,4.395,0
1571370048.880,109.375,39.062,30.762,94.727,17.578,0
1571370048.884,75.195,40.527,30.273,125.977,17.578,0
1571370048.888,-23.438,37.598,31.738,-12.695,31.250,0
1571370048.892,-13.672,36.621,31.250,-79.590,76.660,0
1571370048.896,83.496,40.039,32.715,49.805,56.152,0
1571370048.900,98.633,40.527,33.691,157.227,16.113,0
1571370048.903,3.906,42.969,32.227,36.621,8.301,0
1571370048.907,-31.250,42.969,29.785,-108.398,17.578,0
1571370048.911,57.129,40.039,26.855,-2.441,-22.949,0
1571370048.915,107.910,40.527,29.785,137.207,-31.738,0
1571370048.919,23.926,41.016,34.180,67.871,20.508,0
1571370048.936,-36.621,40.527,32.227,-80.566,39.062,0
1571370048.940,35.156,39.551,31.738,-19.043,4.883,0
1571370048.944,112.305,41.504,34.180,123.535,12.207,0
1571370048.948,58.594,41.504,33.203,103.027,-15.625,0
1571370048.952,-25.879,39.551,32.227,-53.223,-33.203,0
1571370048.956,9.277,38.574,32.227,-61.523,53.223,0
1571370048.960,94.727,39.551,34.180,69.824,61.523,0
1571370048.963,79.102,37.109,37.109,125.488,42.969,0
1571370048.967,-14.648,33.691,33.691,2.930,21.973,0
1571370048.971,-19.043,36.621,29.785,-82.520,24.414,0
1571370048.975,79.102,40.527,32.715,42.480,27.344,0
1571370048.979,109.375,42.480,35.156,152.832,-16.602,0
1571370048.976,13.672,41.504,34.180,49.805,58.594,0
1571370048.980,-29.785,41.016,33.691,-87.402,34.180,0
1571370048.984,56.641,41.016,34.180,9.766,23.926,0
1571370048.988,114.258,38.086,35.645,152.832,86.914,0
1571370048.992,33.691,37.598,34.668,82.031,46.387,0
1571370048.996,-37.598,37.109,34.180,-82.520,62.988,0
1571370049.000,24.902,36.621,35.645,-33.203,2.441,0
1571370049.003,108.887,38.086,35.645,108.887,-66.406,0
1571370049.007,63.965,39.062,36.133,108.398,-18.555,0
1571370049.011,-28.809,40.527,32.227,-45.898,41.992,0
1571370049.015,-4.883,39.551,34.180,-77.637,96.680,0
1571370049.019,88.867,38.086,38.086,63.477,37.598,0
1571370049.016,84.473,37.598,36.133,138.184,23.926,0
1571370049.020,-15.137,38.574,33.203,15.137,53.711,0
1571370049.024,-30.762,40.527,32.227,-94.238,29.297,0
1571370049.028,66.895,41.016,32.715,17.090,68.848,0
1571370049.032,105.957,40.527,34.668,145.020,56.152,0
1571370049.036,13.672,43.457,31.250,55.176,-3.418,0
1571370049.040,-44.922,43.945,29.785,-93.750,34.180,0
1571370049.043,32.227,39.551,31.738,-16.113,40.039,0
1571370049.047,105.957,36.133,30.273,122.559,20.508,0
1571370049.051,33.203,36.621,29.785,77.637,-2.930,0
1571370049.055,-45.898,37.598,28.809,-77.637,-34.180,0
1571370049.059,15.625,36.621,30.273,-42.480,-22.461,0
1571370049.076,102.539,38.574,34.180,99.121,31.738,0
1571370049.080,65.430,41.992,33.203,116.699,45.898,0
1571370049.084,-27.832,40.039,31.738,-16.602,14.160,0
1571370049.088,-15.625,36.133,30.273,-68.848,-1.953,0
1571370049.092,80.566,36.133,28.320,64.453,37.109,0
1571370049.096,88.867,34.180,28.809,152.832,47.363,0
1571370049.100,-6.836,33.691,31.738,31.250,43.457,0
1571370049.103,-28.809,33.691,30.762,-78.613,93.262,0
1571370049.107,59.570,30.762,28.320,33.691,53.711,0
1571370049.111,106.934,31.738,29.785,161.133,58.105,0
1571370049.115,23.438,34.180,29.297,73.730,107.910,0
1571370049.119,-39.062,32.715,27.344,-79.102,72.266,0
1571370049.117,41.016,34.668,28.320,-0.977,-13.672,0
1571370049.121,124.512,36.621,27.344,139.160,29.297,0
1571370049.125,61.523,38.086,26.855,109.375,80.566,0
1571370049.129,-25.391,40.039,27.344,-50.781,22.949,0
1571370049.133,18.066,39.551,25.391,-53.223,-19.531,0
1571370049.137,107.910,41.504,27.832,93.262,-6.836,0
1571370049.141,87.402,43.457,29.785,136.719,-3.906,0
1571370049.144,-7.812,41.992,26.855,-4.883,17.090,0
1571370049.148,-7.812,40.527,29.297,-86.426,36.621,0
1571370049.152,83.984,41.992,33.203,30.273,48.340,0
1571370049.156,111.816,44.434,31.738,135.742,18.555,0
1571370049.160,21.484,42.969,28.320,33.203,-8.789,0
1571370049.156,-25.391,42.969,27.344,-101.562,33.203,0
1571370049.160,56.641,44.434,26.367,-5.859,55.176,0
1571370049.164,113.281,45.410,25.391,128.418,29.297,0
1571370049.168,33.203,43.945,24.414,60.059,-4.395,0
1571370049.172,-34.668,42.969,24.414,-92.773,-7.324,0
1571370049.176,31.250,42.969,26.855,-35.645,49.805,0
1571370049.180,112.793,42.480,31.250,109.375,67.383,0
1571370049.183,59.570,41.992,33.691,93.750,-1.465,0
1571370049.187,-31.738,42.969,33.691,-54.199,40.527,0
1571370049.191,4.395,41.504,32.227,-65.918,64.941,0
1571370049.195,97.656,38.086,31.250,72.754,20.020,0
1571370049.199,89.844,39.062,32.227,135.742,46.875,0
1571370049.216,-4.395,41.504,28.809,3.418,43.457,0
1571370049.220,-13.672,43.945,27.832,-87.402,35.156,0
1571370049.224,80.566,41.992,29.785,31.738,35.645,0
1571370049.228,114.746,41.992,30.273,150.879,35.156,0
1571370049.232,19.531,43.945,31.738,54.688,57.617,0
1571370049.236,-35.156,42.969,31.250,-97.168,45.898,0
1571370049.240,44.434,42.969,31.250,-10.254,-11.230,0
1571370049.243,108.398,41.992,32.715,138.184,-48.340,0
1571370049.247,34.180,39.062,31.250,85.938,10.742,0
1571370049.251,-39.551,38.086,30.273,-72.754,42.480,0
1571370049.255,21.484,41.504,30.762,-29.297,17.090,0
1571370049.259,110.352,41.992,34.180,119.141,-12.695,0
1571370049.257,65.430,39.551,34.668,124.023,-35.156,0
1571370049.261,-35.156,39.551,33.203,-25.879,8.789,0
1571370049.265,-11.719,37.598,32.715,-67.871,-9.766,0
1571370049.269,83.496,37.598,34.180,63.477,-51.270,0
1571370049.273,86.914,41.016,36.133,148.926,41.992,0
1571370049.277,-4.883,39.062,35.156,32.227,101.562,0
1571370049.281,-25.879,39.062,33.691,-79.102,64.453,0
1571370049.284,67.871,40.527,36.621,30.762,-36.133,0
1571370049.288,108.398,37.109,36.133,158.691,-74.219,0
1571370049.292,18.555,37.109,35.156,65.918,35.645,0
1571370049.296,-36.133,38.086,36.133,-82.031,66.895,0
1571370049.300,37.109,37.598,37.109,-1.953,21.973,0
1571370049.297,109.863,38.574,37.109,132.324,51.270,0
1571370049.301,44.922,40.527,31.738,88.867,32.715,0
1571370049.305,-45.410,41.016,29.785,-71.777,-7.324,0
1571370049.309,7.324,40.039,33.691,-52.734,27.832,0
1571370049.313,101.074,39.551,34.668,96.680,42.969,0
1571370049.317,70.312,41.016,31.738,120.117,-11.230,0
1571370049.321,-20.508,41.016,29.785,-21.973,20.996,0
1571370049.324,-8.301,41.016,26.855,-81.543,87.402,0
1571370049.328,85.449,42.969,24.414,49.805,72.754,0
1571370049.332,96.191,40.527,28.320,153.320,30.273,0
1571370049.336,-4.395,38.086,27.832,35.645,31.250,0
1571370049.340,-39.062,40.039,27.344,-86.426,2.441,0
1571370049.367,53.223,40.527,31.250,23.926,-46.387,0
1571370049.371,106.934,40.039,31.250,154.785,-20.508,0
1571370049.375,23.438,41.992,26.855,76.172,4.395,0
1571370049.379,-40.527,42.969,28.320,-80.078,-18.555,0
1571370049.383,26.855,38.086,31.738,-14.648,15.625,0
1571370049.387,100.586,37.598,30.762,131.348,42.969,0
1571370049.391,41.992,41.504,30.762,104.980,26.855,0
1571370049.394,-38.574,41.992,29.785,-50.781,20.020,0
1571370049.398,2.930,41.504,29.297,-54.199,64.453,0
1571370049.402,92.773,41.992,30.762,88.379,101.074,0
1571370049.406,73.242,41.992,31.250,139.648,62.988,0
1571370049.410,-15.625,41.016,32.715,7.324,33.203,0
1571370049.403,-13.672,40.527,35.645,-74.707,36.621,0
1571370049.407,76.660,41.016,35.156,43.945,-10.742,0
1571370049.411,101.562,40.039,33.203,160.156,-8.301,0
1571370049.415,2.930,39.062,30.762,51.270,58.594,0
1571370049.419,-41.992,37.598,29.785,-92.773,38.086,0
1571370049.423,42.480,38.086,35.156,7.324,41.504,0
1571370049.427,104.980,41.992,39.062,145.508,20.996,0
1571370049.430,31.250,41.504,36.621,81.543,0.977,0
1571370049.434,-39.062,41.016,34.180,-76.660,35.645,0
1571370049.438,27.344,41.016,35.645,-34.668,8.789,0
1571370049.442,111.328,41.504,36.621,113.281,12.207,0
1571370049.446,54.199,40.039,34.668,114.258,39.551,0
1571370049.436,-38.574,38.086,30.273,-37.598,-11.230,0
1571370049.440,-0.977,38.086,30.273,-65.918,-24.414,0
1571370049.444,88.379,39.062,35.156,68.848,-19.531,0
1571370049.448,78.613,37.109,33.691,136.230,15.137,0
1571370049.452,-8.301,38.086,30.273,9.277,31.738,0
1571370049.456,-22.949,36.133,31.738,-93.262,51.758,0
1571370049.460,66.406,34.180,33.691,24.414,37.598,0
1571370049.463,103.516,39.551,30.762,142.090,47.363,0
1571370049.467,14.648,40.527,31.250,49.805,84.961,0
1571370049.471,-35.156,38.086,34.668,-82.031,53.711,0
1571370049.475,45.410,39.062,35.645,11.719,20.996,0
1571370049.479,117.676,38.574,33.203,159.180,27.832,0
1571370049.496,49.805,37.598,29.297,108.398,23.926,0
1571370049.500,-20.508,36.621,29.297,-41.992,4.883,0
1571370049.504,35.645,37.109,27.344,-8.301,11.719,0
1571370049.508,110.352,37.109,23.438,131.348,21.484,0
1571370049.512,75.684,35.156,23.926,145.508,27.344,0
1571370049.516,-12.695,38.086,26.855,2.441,40.039,0
1571370049.520,0.000,37.598,30.273,-45.410,36.621,0
1571370049.523,88.867,37.598,30.762,84.473,72.754,0
1571370049.527,99.121,37.109,31.738,171.875,59.082,0
1571370049.531,5.371,37.109,29.297,49.316,11.230,0
1571370049.535,-27.344,37.598,28.320,-72.754,-4.395,0
1571370049.539,57.129,36.133,34.180,34.180,58.105,0
1571370049.536,104.004,35.156,35.156,160.645,42.969,0
1571370049.540,19.043,37.109,35.645,82.031,-7.812,0
1571370049.544,-40.527,37.598,34.668,-65.430,40.039,0
1571370049.548,34.668,37.598,35.156,4.883,60.547,0
1571370049.552,111.328,38.086,36.621,141.113,51.758,0
1571370049.556,53.223,38.574,33.203,111.816,76.660,0
1571370049.560,-22.461,41.016,31.250,-37.598,71.777,0
1571370049.563,36.133,38.086,35.156,-25.879,53.711,0
1571370049.567,131.836,40.039,34.668,117.676,37.598,0
1571370049.571,94.727,46.875,31.738,140.625,90.332,0
1571370049.575,-16.113,42.969,32.715,-11.230,78.125,0
1571370049.579,-11.719,43.457,30.273,-78.125,-17.090,0
1571370049.596,87.891,45.410,31.738,53.711,-3.418,0
1571370049.600,103.027,41.504,31.250,153.809,40.039,0
1571370049.604,8.789,39.551,28.320,37.109,38.086,0
1571370049.608,-25.391,38.574,33.203,-96.191,19.531,0
1571370049.612,59.570,38.574,33.691,9.766,18.066,0
1571370049.616,112.305,37.598,30.762,141.602,53.711,0
1571370049.620,30.762,38.574,29.785,67.871,77.148,0
1571370049.623,-42.969,41.504,28.809,-95.703,47.363,0
1571370049.627,26.855,39.551,32.715,-39.551,34.180,0
1571370049.631,116.211,38.086,34.180,116.699,72.266,0
1571370049.635,63.477,42.969,34.180,101.074,117.188,0
1571370049.639,-23.926,43.945,30.762,-46.387,119.141,0
1571370049.636,13.184,41.504,27.832,-61.523,54.688,0
1571370049.640,105.957,42.480,32.227,72.266,-22.461,0
1571370049.644,89.355,42.969,34.668,141.113,8.301,0
1571370049.648,-11.719,43.945,29.785,7.324,73.730,0
1571370049.652,-20.508,41.504,26.367,-87.402,16.602,0
1571370049.656,71.289,40.527,30.762,32.227,-14.648,0
1571370049.660,104.004,41.016,31.738,151.855,19.043,0
1571370049.663,18.066,41.504,31.250,57.617,-6.348,0
1571370049.667,-24.414,42.480,31.738,-83.984,11.230,0
1571370049.671,58.105,41.016,34.180,10.742,-21.484,0
1571370049.675,117.188,41.504,35.156,139.648,9.277,0
1571370049.679,35.156,42.480,33.691,69.824,-3.418,0
1571370049.676,-41.504,41.016,29.785,-78.613,-53.223,0
1571370049.680,20.508,38.086,31.250,-37.109,-32.227,0
1571370049.684,103.516,36.621,33.691,101.562,-45.898,0
1571370049.688,58.105,37.598,34.180,101.074,2.930,0
1571370049.692,-31.738,37.109,37.109,-43.457,17.578,0
1571370049.696,-9.277,38.086,33.203,-75.684,65.918,0
1571370049.700,78.125,36.133,32.227,49.316,61.523,0
1571370049.703,78.125,33.203,34.668,127.930,29.297,0
1571370049.707,-12.695,35.156,30.762,5.859,84.961,0
1571370049.711,-32.227,35.645,32.227,-107.910,61.035,0
1571370049.715,61.523,35.645,38.574,20.020,-0.977,0
1571370049.719,107.910,36.133,36.621,156.738,45.898,1
1571370049.756,20.020,36.133,35.156,66.406,19.531,0
1571370049.760,-32.715,37.598,33.691,-92.773,-53.223,0
1571370049.764,49.805,39.551,32.715,-12.695,-26.367,0
1571370049.768,119.629,38.086,34.180,141.602,22.461,0
1571370049.772,49.316,41.992,31.250,93.750,40.039,0
1571370049.776,-28.809,43.945,32.227,-62.012,34.180,0
1571370049.780,24.902,41.992,33.203,-39.551,32.227,0
1571370049.783,113.281,40.527,31.738,94.238,44.434,0
1571370049.787,81.543,38.086,32.715,126.953,33.691,0
1571370049.791,-8.301,37.109,33.203,-1.465,20.020,0
1571370049.795,7.324,36.621,33.203,-53.711,-5.859,0
1571370049.799,79.102,33.203,39.551,58.105,-8.301,0
1571370049.776,73.730,31.738,41.504,139.648,48.340,0
1571370049.780,-3.418,34.180,34.668,37.598,29.297,0
1571370049.784,-20.020,36.621,34.668,-81.543,23.926,0
1571370049.788,70.312,38.574,38.086,25.879,16.602,0
1571370049.792,118.652,40.527,34.180,160.156,39.062,0
1571370049.796,34.180,39.551,31.738,74.707,75.684,0
1571370049.800,-23.926,35.156,33.203,-83.496,32.227,0
1571370049.803,52.246,36.133,34.668,-17.578,12.695,0
1571370049.807,121.582,36.621,36.621,125.000,35.156,0
1571370049.811,55.176,38.086,36.133,97.168,41.016,0
1571370049.815,-33.203,40.039,31.738,-53.223,13.672,0
1571370049.819,7.812,35.645,34.180,-55.664,-0.488,0
1571370049.816,94.727,32.715,35.645,77.148,-15.625,0
1571370049.820,69.336,35.156,37.598,129.395,31.250,0
1571370049.824,-26.367,35.156,40.039,-6.836,64.941,0
1571370049.828,-27.344,35.156,37.598,-88.379,42.969,0
1571370049.832,71.777,34.668,36.133,38.574,12.207,0
1571370049.836,100.098,36.621,37.109,156.250,22.949,0
1571370049.840,0.977,36.621,34.668,50.293,47.363,0
1571370049.843,-39.062,37.598,33.691,-92.285,64.941,0
1571370049.847,48.828,40.527,35.156,4.395,45.410,0
1571370049.851,111.328,39.062,35.156,138.184,13.672,0
1571370049.855,39.551,37.109,36.621,73.730,24.414,0
1571370049.859,-30.762,39.062,33.691,-82.031,70.801,0
1571370049.876,31.738,40.039,30.273,-36.621,87.891,0
1571370049.880,111.816,37.109,33.691,108.887,20.996,0
1571370049.884,61.035,37.598,32.715,107.910,-41.504,0
1571370049.888,-30.762,39.062,28.809,-42.480,-39.551,0
1571370049.892,1.465,37.598,29.785,-65.918,3.906,0
1571370049.896,97.656,40.039,33.203,70.312,36.621,0
1571370049.900,84.473,40.039,35.645,139.648,11.230,0
1571370049.903,-14.160,38.574,32.715,12.695,23.926,0
1571370049.907,-23.926,36.621,32.715,-84.961,46.875,0
1571370049.911,68.359,35.156,33.691,34.180,10.254,0
1571370049.915,102.051,36.133,32.715,152.344,21.973,0
1571370049.919,4.395,38.574,31.250,51.270,51.758,0
1571370049.916,-46.387,36.621,27.344,-101.562,39.062,0
1571370049.920,34.180,35.156,26.367,-15.625,18.555,0
1571370049.924,96.680,39.551,30.762,125.488,11.230,0
1571370049.928,26.855,42.480,32.715,66.406,60.059,0
1571370049.932,-45.898,43.457,30.273,-91.797,26.367,0
1571370049.936,12.207,41.992,31.738,-58.105,37.598,0
1571370049.940,101.074,41.504,32.227,85.449,48.828,0
1571370049.943,71.777,43.457,29.297,105.469,22.949,0
1571370049.947,-19.531,42.969,26.855,-39.062,39.062,0
1571370049.951,-1.465,41.992,26.855,-82.520,24.414,0
1571370049.955,91.797,42.969,27.344,47.852,63.965,0
1571370049.959,91.797,41.992,28.809,136.230,68.359,0
1571370049.956,0.000,41.016,26.855,27.344,51.270,0
1571370049.960,-21.973,40.527,25.391,-91.309,41.016,0
1571370049.964,66.406,39.062,27.344,19.531,26.367,0
1571370049.968,120.605,38.574,28.320,156.738,9.766,0
1571370049.972,32.715,38.574,28.320,72.266,13.672,0
1571370049.976,-36.621,38.574,30.762,-80.078,20.996,0
1571370049.980,38.574,39.062,33.691,-6.348,67.383,0
1571370049.983,112.793,38.086,36.133,144.531,88.867,0
1571370049.987,45.898,39.062,35.156,102.051,30.273,0
1571370049.991,-41.992,41.992,32.227,-66.406,12.207,0
1571370049.995,4.395,39.062,34.180,-51.758,-16.113,0
1571370049.999,98.633,40.527,34.668,92.773,-11.230,0
1571370050.016,73.242,41.992,37.109,137.695,40.039,0
1571370050.020,-24.414,40.039,34.668,-1.465,86.426,0
1571370050.024,-18.555,41.504,35.156,-73.242,36.621,0
1571370050.028,79.590,40.039,37.109,58.105,3.906,0
1571370050.032,100.586,39.062,33.691,159.180,31.738,0
1571370050.036,12.695,40.527,32.715,51.758,18.066,0
1571370050.040,-21.973,43.945,32.227,-85.938,35.645,0
1571370050.043,60.547,42.969,32.227,16.602,-4.883,0
1571370050.047,113.770,41.992,33.203,159.668,-33.203,0
1571370050.051,31.250,42.969,31.738,79.590,17.090,0
1571370050.055,-31.250,41.016,29.785,-69.336,16.113,0
1571370050.059,41.016,42.480,31.738,-8.301,12.207,0
1571370050.057,113.770,42.969,33.691,127.441,38.086,0
1571370050.061,59.570,41.992,33.691,112.793,65.430,0
1571370050.065,-23.438,44.434,31.738,-41.504,41.504,0
1571370050.069,12.207,41.992,29.297,-52.246,-19.531,0
1571370050.073,104.004,40.039,28.320,86.426,9.766,0
1571370050.077,85.449,42.969,31.250,142.578,26.367,0
1571370050.081,-12.207,40.527,31.250,10.742,0.977,0
1571370050.084,-15.137,39.551,27.832,-82.031,34.668,0
1571370050.088,77.637,40.527,28.809,42.969,78.125,0
1571370050.092,110.840,40.527,29.785,156.250,65.430,0
1571370050.096,14.160,42.969,27.832,48.828,53.711,0
1571370050.100,-36.621,41.992,26.855,-93.750,75.684,0
1571370050.097,49.805,37.598,30.273,3.418,83.008,0
1571370050.101,110.352,36.133,31.738,151.367,36.133,0
1571370050.105,28.320,37.109,28.320,82.520,4.883,0
1571370050.109,-45.898,37.109,26.367,-77.637,32.715,0
1571370050.113,18.555,37.109,27.344,-33.203,54.688,0
1571370050.117,110.352,39.551,29.785,107.910,47.852,0
1571370050.121,69.336,42.480,31.738,120.117,-18.066,0
1571370050.124,-24.902,38.574,30.762,-21.973,17.090,0
1571370050.128,-0.977,36.133,30.273,-60.547,31.738,0
1571370050.132,95.215,36.621,32.227,67.383,-49.316,0
1571370050.136,101.074,36.133,35.156,154.785,-75.684,0
1571370050.140,3.418,38.086,35.645,36.621,-27.832,0
1571370050.156,-16.602,38.086,36.133,-69.824,58.105,0
1571370050.160,76.172,40.039,36.133,44.922,77.148,0
1571370050.164,119.141,42.969,35.156,160.645,63.965,0
1571370050.168,30.762,43.945,32.227,64.941,69.336,0
1571370050.172,-20.996,44.434,27.832,-81.055,115.234,0
1571370050.176,62.500,44.434,24.414,3.418,125.488,0
1571370050.180,132.324,43.457,22.949,141.113,58.105,0
1571370050.183,57.617,44.434,23.438,84.473,69.336,0
1571370050.187,-27.832,44.922,22.949,-68.359,58.594,0
1571370050.191,25.879,43.945,24.902,-36.133,22.949,0
1571370050.195,111.816,42.969,29.297,102.539,54.688,0
1571370050.199,77.637,44.922,27.344,126.465,-5.371,0
1571370050.197,-12.207,46.875,26.367,-14.648,-27.832,0
1571370050.201,0.000,42.969,29.785,-69.824,-15.137,0
1571370050.205,89.844,39.551,32.715,66.895,-8.301,0
1571370050.209,102.539,39.062,32.715,166.992,23.438,0
1571370050.213,9.277,39.062,35.156,58.594,-12.695,0
1571370050.217,-22.949,39.062,35.645,-59.570,42.480,0
1571370050.221,65.430,38.086,34.180,49.805,75.684,0
1571370050.224,114.258,37.598,36.133,185.547,30.273,0
1571370050.228,27.344,40.039,34.668,105.957,1.465,0
1571370050.232,-33.691,41.016,33.203,-45.898,-30.273,0
1571370050.236,39.062,36.621,37.598,20.996,9.766,0
1571370050.240,117.188,33.203,40.527,164.062,43.457,0
1571370050.238,57.617,37.109,39.062,134.277,47.852,0
1571370050.242,-21.973,39.062,37.598,-17.578,44.922,0
1571370050.246,25.879,38.574,36.621,-15.625,-5.371,0
1571370050.250,108.887,40.039,36.133,113.770,0.000,0
1571370050.254,85.938,39.062,33.203,156.738,22.949,0
1571370050.258,-8.301,39.062,27.344,19.043,15.137,0
1571370050.262,-7.812,39.062,28.320,-60.059,37.109,0
1571370050.265,82.031,37.598,35.156,58.105,84.961,0
1571370050.269,106.445,37.598,35.156,158.691,83.984,0
1571370050.273,13.672,37.109,33.691,51.270,-0.977,0
