timestamps,TP9,AF7,AF8,TP10,Right AUX,Marker0
1572309688.768,-3.418,37.109,110.840,-15.137,42.480,0
1572309688.772,26.855,33.203,107.910,28.809,73.242,0
1572309688.776,58.105,33.691,112.305,97.168,41.016,0
1572309688.780,7.324,33.203,111.328,54.688,29.785,0
1572309688.784,-15.137,32.227,107.910,-16.602,37.109,0
1572309688.788,11.719,34.668,107.422,2.930,34.668,0
1572309688.792,61.523,36.621,109.863,75.195,29.297,0
1572309688.795,33.203,36.621,113.770,58.105,-4.883,0
1572309688.799,-2.930,39.062,112.305,-20.508,13.672,0
1572309688.803,18.066,41.016,111.328,-27.344,26.855,0
1572309688.807,67.871,40.527,112.305,47.363,4.395,0
1572309688.811,54.688,41.504,112.305,66.406,20.996,0
1572309688.828,10.742,44.434,110.352,-7.324,43.945,0
1572309688.832,14.160,45.898,108.887,-42.480,53.711,0
1572309688.836,49.316,45.898,108.398,26.367,104.980,0
1572309688.840,61.523,47.363,106.934,81.055,103.027,0
1572309688.844,8.789,45.898,106.934,24.414,42.969,0
1572309688.848,-0.488,41.504,106.445,-27.344,22.949,0
1572309688.852,28.320,42.969,108.887,14.160,25.879,0
1572309688.855,72.754,42.480,108.887,85.938,5.371,0
1572309688.859,37.598,39.551,104.980,57.617,-13.184,0
1572309688.863,-1.465,38.086,104.492,-14.160,38.574,0
1572309688.867,14.648,36.621,105.469,0.000,44.922,0
1572309688.871,66.406,38.086,103.516,75.684,10.742,0
1572309688.868,29.785,36.621,102.539,60.547,-9.766,0
1572309688.872,-17.090,35.156,103.027,-12.207,-4.395,0
1572309688.876,-3.906,33.203,102.051,-25.391,47.852,0
1572309688.880,42.969,30.762,98.633,39.551,26.855,0
1572309688.884,37.109,30.762,97.168,63.477,17.578,0
1572309688.888,-14.648,34.180,98.145,-7.812,84.473,0
1572309688.892,-6.836,34.668,96.680,-48.340,67.871,0
1572309688.895,33.203,32.227,98.633,8.301,41.992,0
1572309688.899,55.664,32.227,99.609,62.500,61.035,0
1572309688.903,9.277,34.668,99.121,7.812,20.020,0
1572309688.907,-1.465,39.551,101.562,-53.223,-25.391,0
1572309688.911,30.273,39.551,102.051,-16.602,2.930,0
1572309688.908,74.707,38.574,97.656,66.895,-15.625,0
1572309688.912,40.527,39.551,96.191,45.410,-0.488,0
1572309688.916,11.719,39.062,93.750,-29.785,31.738,0
1572309688.920,27.832,39.551,88.867,-20.020,4.395,0
1572309688.924,81.055,43.457,89.844,62.500,39.062,0
1572309688.928,73.730,42.969,87.891,78.613,47.852,0
1572309688.932,15.137,41.016,90.332,-7.324,17.090,0
1572309688.935,-0.488,41.504,93.262,-47.363,19.531,0
1572309688.939,42.969,41.016,91.797,22.949,32.227,0
1572309688.943,46.875,38.574,89.355,59.570,27.344,0
1572309688.947,-1.953,37.598,87.891,8.789,-8.301,0
1572309688.951,-2.930,34.180,89.844,-28.809,16.113,0
1572309688.968,29.297,28.320,92.285,27.344,26.855,0
1572309688.972,56.152,24.414,90.820,96.191,-0.977,0
1572309688.976,12.695,26.367,86.914,49.316,33.203,0
1572309688.980,-1.953,29.785,89.844,-11.719,71.289,0
1572309688.984,23.438,28.809,93.750,15.625,48.340,0
1572309688.988,64.941,23.438,93.750,86.426,72.754,0
1572309688.992,27.832,20.508,91.309,56.152,68.359,0
1572309688.995,-0.488,18.555,89.355,-28.320,30.762,0
1572309688.999,20.020,8.301,85.938,-23.438,53.223,0
1572309689.003,62.988,-1.953,82.031,50.293,50.781,0
1572309689.007,47.852,-4.883,81.055,59.082,27.832,0
1572309689.011,5.371,-7.812,78.613,-10.742,37.598,0
1572309689.008,15.137,-14.648,80.566,-36.133,5.859,0
1572309689.012,58.105,-19.531,81.055,30.762,-31.250,0
1572309689.016,69.824,-21.973,82.520,69.824,-5.859,0
1572309689.020,26.367,-25.879,84.473,6.348,43.945,0
1572309689.024,16.113,-30.762,79.590,-41.016,85.938,0
1572309689.028,38.086,-37.109,76.172,5.371,45.410,0
1572309689.032,64.941,-39.062,76.660,77.148,23.438,0
1572309689.035,18.066,-38.086,76.172,29.785,40.527,0
1572309689.039,-6.348,-37.598,74.219,-40.527,53.711,0
1572309689.043,9.277,-38.086,77.637,-13.184,31.738,0
1572309689.047,51.270,-38.086,78.613,53.711,-17.578,0
1572309689.051,22.461,-35.645,79.590,42.969,27.344,0
1572309689.088,-16.602,-34.668,83.008,-26.855,37.109,0
1572309689.092,-3.906,-36.133,81.543,-36.621,-23.438,0
1572309689.096,42.480,-36.133,77.637,41.992,-37.109,0
1572309689.100,37.109,-35.156,76.660,68.848,72.754,0
1572309689.104,-12.695,-32.227,74.219,-2.441,51.270,0
1572309689.108,-14.160,-30.762,72.266,-38.574,20.996,0
1572309689.112,27.832,-29.785,74.707,21.484,-1.953,0
1572309689.115,45.410,-22.461,75.195,71.777,-39.551,0
1572309689.119,-4.395,-16.602,74.707,3.906,36.133,0
1572309689.123,-13.672,-14.160,76.660,-55.176,58.105,0
1572309689.127,11.719,-15.137,77.148,-11.719,30.273,0
1572309689.131,52.246,-9.766,75.195,60.059,59.082,0
1572309689.091,16.113,-3.906,77.148,31.250,71.777,0
1572309689.095,-10.254,-3.418,78.125,-40.039,13.184,0
1572309689.099,11.230,-1.953,74.219,-20.020,38.574,0
1572309689.103,58.105,1.465,73.242,57.617,39.062,0
1572309689.107,31.738,4.395,75.195,45.410,-2.930,0
1572309689.111,-17.090,6.836,72.266,-35.156,52.734,0
1572309689.115,-9.766,8.789,70.312,-55.176,17.578,0
1572309689.118,41.016,10.742,72.266,17.578,-39.062,0
1572309689.122,45.898,14.160,73.730,51.270,17.090,0
1572309689.126,-2.441,17.090,75.684,-18.555,42.480,0
1572309689.130,-8.789,20.508,75.195,-55.176,21.484,0
1572309689.134,28.320,22.461,70.801,7.812,33.203,0
1572309689.148,55.176,20.996,70.312,73.242,17.090,0
1572309689.152,4.395,19.531,74.219,21.973,29.297,0
1572309689.156,-9.766,19.531,74.707,-38.574,58.105,0
1572309689.160,13.184,20.020,75.684,2.930,42.480,0
1572309689.164,52.246,21.484,77.148,75.195,51.270,0
1572309689.168,14.648,22.949,78.125,41.992,37.109,0
1572309689.172,-17.578,25.391,79.102,-34.180,24.902,0
1572309689.175,3.418,25.879,78.613,-23.438,6.836,0
1572309689.179,54.688,25.391,79.590,59.570,-4.883,0
1572309689.183,37.109,25.879,80.078,59.570,11.719,0
1572309689.187,-7.324,25.391,81.543,-18.555,30.273,0
1572309689.191,7.324,25.879,83.496,-36.133,40.039,0
1572309689.188,51.270,28.320,82.520,39.551,20.508,0
1572309689.192,48.828,31.250,83.008,80.566,21.484,0
1572309689.196,-1.953,34.180,84.473,15.137,90.820,0
1572309689.200,-1.953,39.062,82.520,-30.762,76.172,0
1572309689.204,38.086,40.039,80.078,11.719,39.551,0
1572309689.208,67.383,39.551,79.102,70.312,81.055,0
1572309689.212,18.066,42.480,76.660,22.461,29.297,0
1572309689.215,3.418,45.410,73.242,-42.480,16.602,0
1572309689.219,27.832,47.852,71.777,-11.719,47.852,0
1572309689.223,69.336,44.922,71.289,59.082,6.348,0
1572309689.227,41.016,44.922,69.824,38.574,35.156,0
1572309689.231,2.930,48.340,72.266,-28.320,118.652,0
1572309689.248,9.766,50.293,69.336,-27.832,81.543,0
1572309689.252,53.711,49.316,67.383,46.875,51.758,0
1572309689.256,33.691,48.828,71.777,61.035,62.988,0
1572309689.260,-13.672,49.805,72.266,-11.719,81.055,0
1572309689.264,-3.418,49.805,71.289,-38.086,86.426,0
1572309689.268,37.598,50.293,72.266,31.738,57.617,0
1572309689.272,44.922,48.340,72.266,69.824,53.223,0
1572309689.275,-6.836,44.922,72.266,3.906,0.000,0
1572309689.279,-7.812,43.457,72.266,-36.133,-20.996,0
1572309689.283,28.320,45.410,72.754,20.996,-12.695,0
1572309689.287,54.199,46.875,77.148,91.309,52.246,0
1572309689.291,4.883,49.316,79.102,47.363,45.898,0
1572309689.288,-17.090,51.758,78.613,-21.973,-10.742,0
1572309689.292,7.324,50.781,78.613,-2.441,-0.488,0
1572309689.296,51.758,46.387,80.078,73.242,66.895,0
1572309689.300,16.113,46.387,80.566,62.500,88.379,0
1572309689.304,-19.043,48.340,77.637,-13.672,35.645,0
1572309689.308,-3.418,49.316,76.660,-22.949,35.156,0
1572309689.312,46.387,49.316,74.707,47.363,31.250,0
1572309689.315,43.457,50.781,71.777,63.477,39.062,0
1572309689.319,-6.348,54.688,73.730,-8.301,26.367,0
1572309689.323,2.930,58.105,71.777,-40.527,6.348,0
1572309689.327,65.430,55.664,68.359,37.598,-4.883,0
1572309689.331,70.801,49.316,69.824,83.008,8.789,0
1572309689.328,-15.137,51.270,66.895,-6.836,16.602,0
1572309689.332,-15.137,53.711,63.965,-49.805,21.973,0
1572309689.336,26.855,49.805,67.871,9.766,28.320,0
1572309689.340,57.617,47.852,70.801,78.125,-11.719,0
1572309689.344,17.578,45.898,74.707,55.176,29.785,0
1572309689.348,-8.301,44.434,76.660,-5.371,51.758,0
1572309689.352,14.648,45.898,76.660,8.301,28.809,0
1572309689.355,62.988,44.434,75.684,86.914,55.176,0
1572309689.359,31.738,41.992,74.219,86.426,76.172,0
1572309689.363,-10.742,43.457,74.707,11.230,62.012,0
1572309689.367,5.859,43.945,72.754,-7.324,3.418,0
1572309689.371,47.852,41.016,74.219,72.754,-71.777,0
1572309689.388,40.527,40.039,71.777,112.305,15.625,0
1572309689.392,0.000,38.574,68.359,35.156,56.152,0
1572309689.396,9.766,40.527,68.359,-0.977,5.371,0
1572309689.400,43.945,41.992,67.383,61.035,6.348,0
1572309689.404,68.848,40.039,65.918,111.816,28.809,0
1572309689.408,27.832,42.969,64.453,59.082,43.457,0
1572309689.412,12.695,46.387,64.453,-11.719,3.906,0
1572309689.415,35.156,43.457,65.430,19.043,7.812,0
1572309689.419,75.195,41.016,66.406,94.238,78.125,0
1572309689.423,35.156,42.480,63.965,60.059,45.410,0
1572309689.427,4.395,44.434,60.059,-17.578,5.859,0
1572309689.431,19.043,44.434,60.059,-20.508,74.707,0
1572309689.428,69.336,43.945,62.012,52.734,34.668,0
1572309689.432,46.875,42.480,60.547,53.223,-20.020,0
1572309689.436,-2.930,43.457,59.570,-28.320,-43.457,0
1572309689.440,1.953,44.434,57.129,-55.176,-20.020,0
1572309689.444,40.039,42.969,58.105,10.742,29.785,0
1572309689.448,39.551,44.922,60.547,53.223,7.324,0
1572309689.452,-16.113,46.875,61.523,-8.301,-7.324,0
1572309689.455,-13.184,43.945,62.012,-48.828,53.711,0
1572309689.459,33.691,41.016,61.035,9.277,81.543,0
1572309689.463,64.941,40.527,63.477,75.684,3.906,0
1572309689.467,17.090,39.551,67.383,34.180,39.062,0
1572309689.471,0.977,39.551,67.871,-21.973,112.793,0
1572309689.468,29.785,39.551,65.430,7.812,122.070,0
1572309689.472,83.984,38.086,65.430,82.520,73.242,0
1572309689.476,47.363,41.016,67.383,58.594,59.082,0
1572309689.480,10.742,42.480,67.871,-18.066,104.004,0
1572309689.484,33.691,40.039,65.430,-14.648,91.309,0
1572309689.488,81.055,39.551,64.453,63.965,24.414,0
1572309689.492,66.406,39.062,66.406,76.660,10.254,0
1572309689.495,11.230,40.039,66.895,-4.395,48.828,0
1572309689.499,12.207,40.039,68.848,-37.598,15.137,0
1572309689.503,59.082,41.016,70.312,29.785,-19.531,0
1572309689.507,68.848,41.016,68.848,75.684,29.785,0
1572309689.511,8.301,37.109,67.383,12.207,87.402,0
1572309689.528,-4.883,37.598,66.406,-41.504,87.402,0
1572309689.532,29.297,39.062,67.383,3.906,11.719,0
1572309689.536,61.523,37.598,67.383,74.707,-35.645,0
1572309689.540,15.625,40.039,68.848,42.969,20.996,0
1572309689.544,-4.883,41.016,67.871,-21.484,37.109,0
1572309689.548,16.113,41.016,64.941,0.488,-20.020,0
1572309689.552,64.941,42.969,63.477,77.148,-25.879,0
1572309689.555,42.969,43.945,64.453,72.754,50.293,0
1572309689.559,1.953,43.457,66.406,5.859,75.684,0
1572309689.563,11.719,41.016,64.453,-6.348,18.066,0
1572309689.567,56.641,40.039,62.988,67.871,31.738,0
1572309689.571,47.363,41.504,65.430,97.168,69.336,0
1572309689.568,-0.488,41.992,65.430,24.414,34.668,0
1572309689.572,2.930,41.016,62.988,-15.625,3.906,0
1572309689.576,38.574,41.992,62.012,38.574,-9.766,0
1572309689.580,55.664,43.457,62.500,91.309,-6.348,0
1572309689.584,6.348,42.969,65.918,35.645,5.859,0
1572309689.588,-3.418,43.457,64.453,-25.391,5.371,0
1572309689.592,26.367,43.457,60.547,12.207,25.879,0
1572309689.595,64.941,41.504,62.500,78.613,54.688,0
1572309689.599,20.996,40.527,60.059,41.504,46.387,0
1572309689.603,-14.648,40.039,59.082,-33.203,44.922,0
1572309689.607,0.488,40.527,61.035,-20.996,-8.301,0
1572309689.611,49.316,41.016,62.012,58.594,0.000,0
1572309689.608,24.902,40.527,61.035,50.293,94.238,0
1572309689.612,-18.066,39.062,57.617,-31.738,60.547,0
1572309689.616,-6.348,41.504,56.641,-48.828,-3.906,0
1572309689.620,43.457,43.945,57.617,19.531,-1.465,0
1572309689.624,48.340,45.898,60.059,54.688,25.879,0
1572309689.628,-6.836,44.922,57.129,-18.555,32.715,0
1572309689.632,-16.113,41.016,57.617,-67.871,28.809,0
1572309689.635,19.531,42.969,61.523,-9.766,0.000,0
1572309689.639,49.316,46.875,61.035,44.434,-33.691,0
1572309689.643,2.930,45.898,59.570,-1.953,33.691,0
1572309689.647,-8.301,44.922,57.617,-59.082,65.430,0
1572309689.651,23.438,46.387,53.223,-24.902,3.906,0
1572309689.668,59.570,47.852,52.246,53.223,31.250,0
1572309689.672,21.484,42.480,55.664,36.621,40.039,0
1572309689.676,5.371,41.992,58.105,-26.367,6.836,0
1572309689.680,7.324,45.410,60.547,-53.223,46.875,0
1572309689.684,36.133,45.410,59.082,4.883,-1.465,0
1572309689.688,28.809,45.898,57.617,28.320,7.324,0
1572309689.692,-11.719,46.875,55.176,-53.223,37.598,0
1572309689.695,-1.465,43.945,52.246,-70.801,36.133,0
1572309689.699,39.551,41.504,48.828,0.488,15.137,0
1572309689.703,42.969,43.457,50.293,39.062,26.367,0
1572309689.707,-1.465,42.969,51.758,-12.207,62.988,0
1572309689.711,0.488,44.922,52.246,-49.805,52.734,0
1572309689.708,36.621,48.340,49.805,7.324,98.145,0
1572309689.712,64.453,46.387,48.828,73.730,94.238,0
1572309689.716,12.695,44.434,51.758,32.227,38.574,0
1572309689.720,-6.836,47.852,52.246,-25.879,11.230,0
1572309689.724,16.113,49.805,52.246,4.395,-17.090,0
1572309689.728,62.988,48.828,54.199,88.379,-56.152,0
1572309689.732,33.203,47.852,51.758,78.125,-1.465,0
1572309689.735,-1.953,47.363,54.199,11.230,81.055,0
1572309689.739,6.836,44.922,57.129,19.043,56.152,0
1572309689.743,50.781,45.410,54.688,92.773,28.809,0
1572309689.747,43.457,46.875,56.152,107.910,36.621,0
1572309689.751,-3.906,47.852,56.641,36.133,-21.973,0
1572309689.748,-2.441,50.293,58.105,3.418,-45.410,0
1572309689.752,34.180,50.293,59.082,61.523,29.785,0
1572309689.756,43.945,49.805,57.129,100.098,54.199,0
1572309689.760,-7.812,49.805,57.129,31.738,43.945,0
1572309689.764,-15.625,48.828,53.711,-33.691,25.879,0
1572309689.768,9.766,47.852,50.781,6.836,40.039,0
1572309689.772,47.852,45.898,49.316,73.730,61.523,0
1572309689.775,15.137,45.898,48.828,28.809,27.832,0
1572309689.779,-8.301,49.316,49.316,-35.645,12.695,0
1572309689.783,19.043,49.805,48.828,-3.906,57.617,0
1572309689.787,74.707,49.805,51.758,75.195,53.223,0
1572309689.791,48.340,49.805,56.152,67.383,38.086,0
1572309689.808,7.812,47.852,55.176,-15.625,77.148,0
1572309689.812,18.066,47.363,53.711,-34.180,104.492,0
1572309689.816,66.895,49.316,57.129,34.668,88.867,0
1572309689.820,64.941,46.875,61.035,55.176,10.742,0
1572309689.824,12.695,43.945,60.059,-16.602,2.441,0
1572309689.828,3.906,42.480,59.082,-57.617,-4.395,0
1572309689.832,37.598,43.457,59.082,-1.465,8.301,0
1572309689.835,57.129,43.457,60.059,50.781,48.828,0
1572309689.839,6.348,42.969,59.570,-3.906,-23.926,0
1572309689.843,-4.395,42.969,57.617,-58.105,-35.156,0
1572309689.847,21.973,43.457,55.664,-18.555,51.758,0
1572309689.851,57.129,43.457,54.688,54.199,49.805,0
1572309689.848,14.160,44.434,56.641,33.691,5.371,0
1572309689.852,-12.695,44.434,55.664,-27.344,70.801,0
1572309689.856,3.418,41.992,53.223,-13.184,66.895,0
1572309689.860,44.922,44.434,50.293,65.430,27.344,0
1572309689.864,21.973,46.387,49.805,66.406,27.832,0
1572309689.868,-18.066,44.922,50.781,-6.836,-1.953,0
1572309689.872,-1.953,47.852,48.340,-21.973,37.598,0
1572309689.875,48.340,48.828,48.340,49.316,31.250,0
1572309689.879,46.387,50.781,48.340,85.449,-20.020,0
1572309689.883,-7.812,52.246,47.852,14.648,7.324,0
1572309689.887,-7.812,49.805,50.293,-26.855,28.809,0
1572309689.891,35.645,48.828,48.340,32.227,-8.301,0
1572309689.888,63.477,45.898,46.387,86.914,-7.812,0
1572309689.892,11.719,45.898,47.852,32.227,46.387,0
1572309689.896,-6.836,46.875,50.293,-31.738,20.020,0
1572309689.900,16.113,44.922,51.270,-1.953,1.953,0
1572309689.904,57.129,47.852,52.734,71.289,40.039,0
1572309689.908,21.973,45.410,53.711,52.246,36.621,0
1572309689.912,-5.371,40.039,55.664,-10.742,64.453,0
1572309689.915,10.254,41.016,57.129,-6.836,52.734,0
1572309689.919,61.035,41.992,53.711,69.336,41.504,0
1572309689.923,48.340,40.039,51.758,83.496,67.383,0
1572309689.927,-8.301,39.062,52.246,8.789,96.191,0
1572309689.931,-11.230,37.109,47.852,-17.578,-1.465,0
1572309689.948,31.738,37.598,47.852,48.828,-24.414,0
1572309689.952,39.551,38.086,53.711,86.426,-21.484,0
1572309689.956,-11.719,36.621,50.781,20.020,-34.668,0
1572309689.960,-12.207,35.156,48.340,-29.297,59.570,0
1572309689.964,27.344,35.156,46.875,15.625,104.004,0
1572309689.968,63.477,36.621,46.387,69.824,59.082,0
1572309689.972,12.695,40.527,46.875,17.578,35.156,0
1572309689.975,-11.719,40.527,42.969,-54.688,-7.812,0
1572309689.979,17.090,40.039,43.457,-39.062,-0.488,0
1572309689.983,66.895,40.527,45.410,40.527,-16.602,0
1572309689.987,37.598,39.551,43.457,21.973,-39.551,0
1572309689.991,0.000,38.086,41.016,-55.176,-23.438,0
1572309689.988,14.160,37.598,41.992,-48.340,-11.719,0
1572309689.992,62.500,39.551,41.016,34.180,26.367,0
1572309689.996,51.270,38.574,36.133,54.688,-4.883,0
1572309690.000,1.465,37.109,37.109,-25.391,-6.348,0
1572309690.004,4.883,40.527,40.039,-57.129,20.020,0
1572309690.008,43.945,41.016,42.969,19.043,-16.602,0
1572309690.012,50.293,40.039,45.898,68.848,-12.695,0
1572309690.015,-7.324,35.156,45.410,11.230,61.035,0
1572309690.019,-17.578,33.203,43.457,-37.598,41.504,0
1572309690.023,16.113,36.133,43.457,10.254,6.348,0
1572309690.027,58.105,35.645,42.480,87.891,13.672,0
1572309690.031,20.508,36.133,40.039,55.176,30.273,0
1572309690.048,-7.324,37.109,41.016,-15.137,59.082,0
1572309690.052,4.395,39.062,41.504,-5.371,71.289,0
1572309690.056,53.711,40.527,41.504,67.383,22.461,0
1572309690.060,31.250,40.039,44.434,63.477,-8.301,0
1572309690.064,-11.719,38.574,47.363,-16.602,-20.508,0
1572309690.068,1.465,36.133,46.875,-30.273,23.438,0
1572309690.072,46.387,36.133,41.992,38.574,72.754,0
1572309690.075,37.598,37.598,39.551,53.711,54.199,0
1572309690.079,-12.207,37.109,41.016,-15.137,26.855,0
1572309690.083,-8.301,34.180,41.016,-41.992,-2.930,0
1572309690.087,39.062,35.156,40.527,24.414,-16.602,0
1572309690.091,68.359,36.621,41.016,75.684,0.000,0
1572309690.088,18.555,34.668,41.992,16.602,15.625,0
1572309690.092,11.230,35.645,40.527,-37.598,33.203,0
1572309690.096,40.527,37.109,41.016,-0.488,71.289,0
1572309690.100,72.754,35.156,41.504,68.848,52.246,0
1572309690.104,27.832,32.715,40.039,33.691,29.297,0
1572309690.108,-4.395,33.691,42.480,-40.039,66.406,0
1572309690.112,12.695,34.668,41.016,-26.855,50.781,0
1572309690.115,58.594,33.691,39.551,45.898,18.066,0
1572309690.119,41.016,33.691,41.016,50.293,13.672,0
1572309690.123,-0.488,32.715,41.016,-21.484,41.504,0
1572309690.127,12.695,34.180,37.598,-44.922,62.988,0
1572309690.131,62.500,38.086,38.086,25.391,56.152,0
1572309690.128,54.199,35.645,36.621,62.012,54.199,0
1572309690.132,-2.930,32.227,34.668,-10.254,55.176,0
1572309690.136,-7.812,33.691,37.109,-59.082,30.762,0
1572309690.140,24.902,35.156,40.039,-7.812,-3.906,0
1572309690.144,54.688,35.645,42.969,60.059,22.461,0
1572309690.148,14.648,37.109,43.457,24.902,-1.465,0
1572309690.152,-14.160,33.691,43.945,-21.484,26.855,0
1572309690.155,-11.230,29.297,44.434,28.809,51.270,0
1572309690.159,40.527,29.785,43.457,122.070,27.832,0
1572309690.163,16.113,30.762,45.410,117.188,65.430,0
1572309690.167,-20.996,29.297,47.363,54.199,31.738,0
1572309690.171,-4.883,31.738,44.922,62.500,25.391,0
1572309690.188,52.734,33.203,44.434,136.230,52.246,0
1572309690.192,34.668,31.738,46.875,126.953,53.711,0
1572309690.196,-19.043,33.203,47.852,29.297,39.551,0
1572309690.200,-8.789,35.645,47.363,-17.090,7.324,0
1572309690.204,38.086,36.621,46.387,28.809,4.883,0
1572309690.208,51.758,35.156,46.875,59.082,33.691,0
1572309690.212,-0.977,35.156,45.410,-20.508,12.207,0
1572309690.215,-9.766,38.574,41.016,-91.309,36.621,0
1572309690.219,32.227,37.598,39.551,-54.199,23.926,0
1572309690.223,62.500,35.645,40.039,6.836,-14.160,0
1572309690.227,10.742,36.133,41.504,-43.945,40.039,0
1572309690.231,-8.301,36.133,41.016,-109.863,10.742,0
1572309690.228,13.184,33.691,43.457,-79.590,24.414,0
1572309690.232,59.082,29.297,47.363,-1.953,94.727,0
1572309690.236,28.320,27.832,45.410,-8.789,83.984,0
1572309690.240,-8.789,33.203,41.504,-78.613,43.457,0
1572309690.244,5.859,36.133,41.992,-71.289,6.348,0
1572309690.248,59.082,36.133,42.480,25.879,26.367,0
1572309690.252,54.688,35.645,41.504,58.594,52.246,0
1572309690.255,8.789,34.668,43.945,-2.930,61.035,0
1572309690.259,9.766,33.203,43.457,-24.414,4.883,0
1572309690.263,34.180,30.273,44.434,56.152,12.207,0
1572309690.267,41.992,30.273,46.875,112.305,64.941,0
1572309690.271,-6.836,30.762,43.945,58.105,41.992,0
1572309690.268,-16.602,26.855,42.480,22.949,63.477,0
1572309690.272,13.184,26.367,43.457,69.336,25.879,0
1572309690.276,54.199,29.297,46.387,149.414,-12.695,0
1572309690.280,19.043,31.738,49.805,126.953,49.805,0
1572309690.284,-4.395,37.109,48.340,59.082,59.570,0
1572309690.288,11.230,41.016,50.781,72.266,37.109,0
1572309690.292,62.500,41.504,53.223,131.836,67.383,0
1572309690.295,41.992,42.480,52.246,104.492,80.566,0
1572309690.299,-1.953,43.457,47.852,12.207,29.785,0
1572309690.303,12.207,41.504,46.875,-20.020,17.578,0
1572309690.307,62.500,39.062,50.293,40.527,58.105,0
1572309690.311,53.223,37.598,52.246,56.152,48.828,0
1572309690.328,-3.906,34.180,53.711,-33.691,-6.348,0
1572309690.332,-7.812,34.180,54.199,-85.938,-8.789,0
1572309690.336,26.855,35.645,50.781,-39.551,-6.348,0
1572309690.340,41.992,32.715,46.875,2.930,0.000,0
1572309690.344,-7.324,30.273,47.363,-53.711,61.035,0
1572309690.348,-19.043,31.738,45.410,-109.375,53.223,0
1572309690.352,3.906,32.715,43.457,-68.848,14.648,0
1572309690.355,50.293,33.203,47.852,9.766,54.688,0
1572309690.359,26.367,36.133,47.852,-10.254,111.816,0
1572309690.363,-5.859,37.598,45.410,-73.242,19.531,0
1572309690.367,-2.930,36.133,45.410,-53.223,-47.852,0
1572309690.371,43.457,36.621,44.922,34.668,-1.465,0
1572309690.368,26.367,37.109,45.410,51.270,1.953,0
1572309690.372,-10.742,36.621,44.922,-12.695,39.062,0
1572309690.376,-1.953,39.551,39.062,-29.297,32.227,0
1572309690.380,45.410,40.039,37.109,50.293,62.012,0
1572309690.384,58.105,36.133,42.480,94.727,89.355,0
1572309690.388,4.395,36.133,44.434,31.738,26.367,0
1572309690.392,6.348,40.039,43.457,-8.301,16.602,0
1572309690.395,48.340,39.551,44.434,45.410,39.551,0
1572309690.399,70.312,39.062,43.945,104.980,21.973,0
1572309690.403,12.695,40.039,40.039,55.176,-9.277,0
1572309690.407,-8.789,41.504,36.133,-17.578,-48.340,0
1572309690.411,21.973,41.016,36.621,10.742,-31.738,0
1572309690.408,67.383,39.062,39.062,87.891,36.133,0
1572309690.412,34.668,38.086,38.086,69.336,41.016,0
1572309690.416,7.324,39.551,39.062,-1.953,-39.551,0
1572309690.420,19.531,42.480,41.992,-0.488,5.371,0
1572309690.424,64.941,43.457,42.480,79.590,74.707,0
1572309690.428,44.434,42.969,39.551,91.309,47.363,0
1572309690.432,-12.207,41.016,35.645,15.137,-20.020,0
1572309690.435,-7.324,37.598,38.086,-14.160,22.461,0
1572309690.439,39.551,37.109,36.133,46.387,62.012,0
1572309690.443,55.176,36.133,37.109,88.867,50.781,0
1572309690.447,-0.488,34.668,40.039,28.320,20.508,0
1572309690.451,-11.719,35.156,37.598,-20.020,-19.043,0
1572309690.468,25.391,33.691,39.062,32.227,6.836,0
1572309690.472,62.500,36.621,39.062,97.656,-39.551,0
1572309690.476,14.648,37.109,39.062,62.012,-20.020,0
1572309690.480,-8.789,35.645,38.574,0.488,34.180,0
1572309690.484,20.996,38.574,38.086,28.809,20.996,0
1572309690.488,62.012,38.086,37.109,109.375,64.941,0
1572309690.492,21.484,35.156,35.156,87.402,78.613,0
1572309690.495,-14.160,37.109,34.180,5.371,24.414,0
1572309690.499,0.000,38.086,33.691,4.395,7.324,0
1572309690.503,49.316,38.086,32.715,84.473,18.555,0
1572309690.507,49.316,38.574,31.250,108.398,28.809,0
1572309690.511,-2.441,38.574,31.738,39.062,-11.719,0
1572309690.508,-4.883,36.621,34.180,4.883,5.371,0
1572309690.512,38.086,36.133,31.738,65.430,34.180,0
1572309690.516,55.664,37.109,31.250,118.652,2.930,0
1572309690.520,0.000,35.645,33.203,52.246,0.977,0
1572309690.524,-9.766,37.598,34.180,-9.766,15.625,0
1572309690.528,20.508,37.109,35.645,37.598,54.199,0
1572309690.532,50.781,33.203,37.598,101.074,58.105,0
1572309690.535,9.766,33.691,41.016,59.570,15.625,0
1572309690.539,-9.277,34.180,38.574,-10.254,44.434,0
1572309690.543,8.301,33.691,35.156,-2.441,23.926,0
1572309690.547,45.410,32.227,37.109,61.035,15.137,0
1572309690.551,18.555,32.715,39.062,58.105,38.086,0
1572309690.548,-14.160,33.691,39.551,-9.277,58.594,0
1572309690.552,-4.395,31.738,43.457,-26.855,66.895,0
1572309690.556,39.551,33.203,43.945,40.039,20.996,0
1572309690.560,37.598,36.133,43.457,61.035,0.000,0
1572309690.564,-10.254,37.598,41.016,-14.648,-6.836,0
1572309690.568,-2.441,35.645,38.086,-50.293,18.066,0
1572309690.572,25.879,30.762,37.109,5.859,-17.578,0
1572309690.575,39.062,30.762,34.668,56.641,-22.461,0
1572309690.579,-11.230,33.203,35.156,-3.418,27.344,0
1572309690.583,-23.926,34.668,36.621,-63.965,53.223,0
1572309690.587,7.324,33.203,35.156,-16.602,65.430,0
1572309690.591,53.223,32.715,35.156,59.570,43.945,0
1572309690.608,12.695,35.645,36.133,32.227,41.992,0
1572309690.612,-28.320,34.668,33.691,-43.457,11.719,0
1572309690.616,-12.695,31.738,33.691,-33.691,2.441,0
1572309690.620,36.621,34.180,35.645,49.316,29.785,0
1572309690.624,14.160,36.621,36.133,53.223,53.223,0
1572309690.628,-28.809,35.645,34.668,-17.090,51.758,0
1572309690.632,-13.672,37.598,34.180,-43.457,26.855,0
1572309690.635,37.109,38.574,37.598,20.996,59.082,0
1572309690.639,50.781,38.086,41.016,66.406,26.855,0
1572309690.643,-4.395,37.109,41.504,-0.977,-6.348,0
1572309690.647,-20.020,33.203,41.016,-47.363,-2.930,0
1572309690.651,21.973,34.180,41.504,1.465,37.109,0
1572309690.648,50.293,35.645,40.039,62.500,70.801,0
1572309690.652,0.000,37.598,37.598,20.508,53.223,0
1572309690.656,-12.207,39.062,35.645,-41.992,11.230,0
1572309690.660,16.602,39.062,36.621,-10.254,23.438,0
1572309690.664,67.383,39.551,38.086,67.871,34.668,0
1572309690.668,39.062,40.527,39.062,51.758,-16.602,0
1572309690.672,5.371,39.551,41.504,-17.578,-5.371,0
1572309690.675,15.137,39.551,41.504,-16.602,43.457,0
1572309690.679,62.012,40.527,39.551,64.453,47.363,0
1572309690.683,41.016,40.039,39.062,70.801,18.066,0
1572309690.687,-9.277,41.504,38.086,-6.348,30.273,0
1572309690.691,1.465,41.504,32.227,-27.832,8.301,0
1572309690.688,41.504,35.645,32.227,39.062,-1.465,0
1572309690.692,53.711,36.133,37.109,84.961,84.473,0
1572309690.696,-10.254,38.086,37.109,10.254,85.449,0
1572309690.700,-27.344,35.156,38.086,-40.039,45.410,0
1572309690.704,17.578,36.621,38.086,21.973,43.457,0
1572309690.708,55.176,34.668,39.551,82.520,-0.488,0
1572309690.712,15.625,33.203,40.527,34.180,-25.391,0
1572309690.715,1.465,32.227,38.086,-29.785,1.465,0
1572309690.719,30.762,34.668,38.574,-10.742,63.965,0
1572309690.723,85.938,37.109,39.062,69.824,76.172,0
1572309690.727,60.059,34.668,35.156,64.941,62.988,0
1572309690.731,18.066,35.156,32.715,-6.348,15.137,0
1572309690.748,22.949,35.645,34.668,-15.625,37.109,0
1572309690.752,71.777,35.156,36.133,55.664,62.988,0
1572309690.756,65.918,35.156,34.668,79.102,43.457,0
1572309690.760,10.254,36.133,34.180,5.371,28.809,0
1572309690.764,15.137,34.668,32.715,-29.297,3.906,0
1572309690.768,51.758,33.203,32.227,28.809,36.621,0
1572309690.772,62.012,33.691,31.250,75.684,48.828,0
1572309690.775,18.555,33.691,30.273,16.602,-0.488,0
1572309690.779,11.230,34.180,33.203,-33.691,54.199,0
1572309690.783,34.180,36.133,33.691,4.883,94.727,0
1572309690.787,75.684,37.109,33.203,70.312,63.477,0
1572309690.791,34.180,34.668,35.645,32.227,64.453,0
1572309690.788,1.465,32.715,34.668,-42.969,41.504,0
1572309690.792,21.484,34.668,32.715,-31.250,-17.578,0
1572309690.796,70.312,34.180,32.715,36.621,-6.836,0
1572309690.800,41.016,33.691,33.691,25.391,-22.949,0
1572309690.804,-3.418,36.133,32.227,-48.340,-36.621,0
1572309690.808,10.742,36.621,31.250,-62.988,35.645,0
1572309690.812,55.664,33.691,34.180,8.789,30.762,0
1572309690.815,49.316,33.691,36.621,38.574,-38.086,0
1572309690.819,-8.301,33.203,34.668,-30.762,0.977,0
1572309690.823,-6.348,33.203,34.180,-73.730,34.668,0
1572309690.827,34.668,34.668,35.645,-18.555,0.977,0
1572309690.831,60.547,34.180,34.180,49.316,38.574,0
1572309690.828,15.625,33.203,33.203,4.883,52.734,0
1572309690.832,1.465,32.227,30.273,-52.246,39.062,0
1572309690.836,29.785,35.645,33.203,-9.277,80.566,0
1572309690.840,75.195,38.574,35.156,66.406,71.777,0
1572309690.844,34.668,37.109,35.156,36.133,13.184,0
1572309690.848,-2.930,38.574,36.621,-28.809,16.113,0
1572309690.852,14.160,38.086,36.133,-15.625,21.484,0
1572309690.855,62.012,36.133,34.180,63.477,51.270,0
1572309690.859,40.039,33.203,34.668,62.988,20.996,0
1572309690.863,-2.441,28.320,36.621,-10.742,12.207,0
1572309690.867,7.812,30.273,34.180,-27.344,90.332,0
1572309690.871,50.293,30.762,33.691,35.156,88.867,0
1572309690.888,61.035,29.297,36.133,78.613,75.684,0
1572309690.892,9.766,31.250,35.645,14.648,80.566,0
1572309690.896,4.883,32.715,35.156,-39.062,5.859,0
1572309690.900,37.109,35.156,38.574,0.977,-1.953,0
1572309690.904,57.617,34.668,38.086,49.805,45.898,0
1572309690.908,13.184,34.180,32.227,1.953,39.551,0
1572309690.912,0.977,37.109,31.738,-63.477,6.836,0
1572309690.915,32.715,38.086,32.715,-34.668,46.875,0
1572309690.919,77.148,36.133,29.785,41.992,57.617,0
1572309690.923,33.691,37.109,28.809,20.508,-20.020,0
1572309690.927,-5.371,39.062,31.250,-43.945,-31.738,0
1572309690.931,11.719,39.062,34.668,-36.621,-6.348,0
1572309690.928,57.129,36.621,36.621,42.480,45.410,0
1572309690.932,44.922,32.227,36.621,63.965,53.223,0
1572309690.936,-3.906,31.738,37.598,-6.836,56.641,0
1572309690.940,-2.441,34.180,35.156,-34.668,83.008,0
1572309690.944,35.156,33.691,32.715,31.250,48.340,0
1572309690.948,50.781,33.203,34.180,78.613,24.902,0
1572309690.952,-0.977,33.203,35.156,21.484,61.523,0
1572309690.955,-15.625,34.180,32.715,-28.320,68.359,0
1572309690.959,18.555,36.621,34.668,19.531,19.043,0
1572309690.963,52.734,34.180,38.086,83.984,21.973,0
1572309690.967,9.766,32.227,38.574,40.527,28.809,0
1572309690.971,-8.789,31.738,36.133,-18.066,62.012,0
1572309690.968,10.254,30.762,33.691,5.859,17.090,0
1572309690.972,56.152,30.762,35.156,83.496,-57.129,0
1572309690.976,30.273,34.180,35.156,73.242,-0.977,0
1572309690.980,-13.184,32.227,36.621,-6.348,23.438,0
1572309690.984,-7.324,30.762,40.039,-16.602,39.551,0
1572309690.988,48.340,34.180,39.062,56.641,102.051,0
1572309690.992,51.758,36.133,36.621,81.055,70.801,0
1572309690.995,-1.465,35.156,36.133,5.859,-11.719,0
1572309690.999,2.930,36.621,37.109,-29.297,37.598,0
1572309691.003,48.340,38.086,39.551,29.785,45.410,0
1572309691.007,66.406,38.086,38.086,76.172,34.668,0
1572309691.011,20.020,39.551,34.668,20.020,37.109,0
1572309691.028,11.719,40.039,33.691,-40.039,-28.809,0
1572309691.032,41.016,38.574,34.668,-2.930,-25.879,0
1572309691.036,81.055,39.551,38.574,73.242,8.789,0
1572309691.040,43.457,41.992,40.039,50.781,19.531,0
1572309691.044,16.602,43.457,38.086,-14.648,12.695,0
1572309691.048,27.832,44.434,36.621,-2.441,8.789,0
1572309691.052,67.871,44.434,38.086,71.289,21.484,0
1572309691.055,44.434,46.387,36.133,69.824,73.730,0
1572309691.059,1.953,45.898,31.738,-1.953,87.402,0
1572309691.063,12.695,42.480,32.715,-16.113,58.105,0
1572309691.067,60.547,44.434,36.133,57.617,61.523,0
1572309691.071,57.129,45.410,41.504,90.332,52.246,0
1572309691.068,4.883,44.434,40.527,20.996,40.527,0
1572309691.072,6.348,42.480,38.086,-20.996,76.172,0
1572309691.076,41.504,41.992,40.039,34.180,32.715,0
1572309691.080,65.430,43.945,38.574,94.238,8.789,0
1572309691.084,16.602,43.945,37.598,46.387,48.828,0
1572309691.088,2.930,43.457,35.156,-20.020,28.320,0
1572309691.092,29.297,41.016,32.715,3.418,36.621,0
1572309691.095,74.219,37.109,36.621,75.195,-4.395,0
1572309691.099,42.480,35.645,39.062,52.246,-2.930,0
1572309691.103,2.441,38.574,39.551,-26.855,16.602,0
1572309691.107,17.090,41.992,41.504,-25.391,45.898,0
1572309691.111,76.172,43.457,41.016,55.664,43.945,0
1572309691.108,59.082,43.945,37.598,66.406,3.906,0
1572309691.112,9.766,43.457,33.691,-10.742,-21.973,0
1572309691.116,14.160,43.945,33.203,-29.785,-5.859,0
1572309691.120,59.570,43.457,35.645,41.992,49.805,0
1572309691.124,72.754,44.922,37.109,81.543,58.594,0
1572309691.128,22.461,44.922,36.621,21.484,13.672,0
1572309691.132,11.719,38.574,37.109,-23.438,-41.016,0
1572309691.135,38.574,38.574,36.621,23.926,-61.523,0
1572309691.139,68.359,42.480,36.621,84.473,27.832,0
1572309691.143,25.391,42.480,35.156,47.852,45.410,0
1572309691.147,5.371,41.504,33.691,-8.789,51.270,0
1572309691.151,27.832,40.039,36.133,16.113,66.895,0
1572309691.168,64.453,39.062,37.109,91.797,75.684,0
1572309691.172,29.297,41.016,35.645,69.824,87.402,0
1572309691.176,0.000,41.504,37.109,-5.859,33.691,0
1572309691.180,18.066,40.527,39.551,-2.441,10.254,0
1572309691.184,62.500,38.574,38.574,70.312,48.828,0
1572309691.188,40.527,38.574,39.062,84.961,47.852,0
1572309691.192,-9.277,39.551,38.086,6.836,94.727,0
1572309691.195,0.977,39.551,34.180,-27.832,77.148,0
1572309691.199,47.363,40.527,36.133,40.039,31.250,0
1572309691.203,64.941,39.062,36.621,90.332,73.242,0
1572309691.207,8.789,41.016,35.645,24.902,-6.348,0
1572309691.211,0.977,43.945,38.086,-32.227,-35.156,0
1572309691.208,37.598,42.969,38.574,14.160,62.012,0
1572309691.212,72.754,42.480,38.086,90.332,17.090,0
1572309691.216,22.461,41.016,36.133,49.805,-29.785,0
1572309691.220,-8.789,40.039,34.180,-27.344,40.039,0
1572309691.224,13.672,43.457,36.133,-7.324,85.938,0
1572309691.228,59.570,43.945,37.598,64.453,33.691,0
1572309691.232,27.832,40.527,37.109,59.082,-9.277,0
1572309691.235,-9.766,39.551,36.133,-11.230,46.387,0
1572309691.239,15.625,40.039,35.156,-22.949,33.691,0
1572309691.243,64.453,38.574,36.133,43.945,9.277,0
1572309691.247,47.852,35.645,35.645,67.871,0.977,0
1572309691.251,-2.930,37.109,31.250,6.348,7.812,0
1572309691.248,2.930,39.551,32.227,-27.344,6.348,0
1572309691.252,41.992,40.039,35.156,37.109,11.719,0
1572309691.256,63.965,41.992,37.109,85.938,41.504,0
1572309691.260,21.484,41.992,38.086,26.367,42.480,0
1572309691.264,10.254,40.527,34.668,-27.832,28.809,0
1572309691.268,40.527,41.992,32.227,10.254,32.227,0
1572309691.272,83.008,42.969,34.668,83.984,62.988,0
1572309691.275,36.621,41.016,33.203,41.016,74.219,0
1572309691.279,2.441,39.551,31.250,-38.086,35.645,0
1572309691.283,19.531,40.527,34.180,-18.066,24.414,0
1572309691.287,64.941,40.039,31.738,59.082,74.219,0
1572309691.291,44.434,39.551,32.715,56.152,76.660,0
1572309691.308,-1.953,39.551,33.203,-22.949,6.348,0
1572309691.312,5.371,39.551,30.273,-43.945,-22.949,0
1572309691.316,49.316,38.086,30.762,30.762,35.156,0
1572309691.320,47.852,34.668,31.250,67.383,51.270,0
1572309691.324,-9.766,34.668,29.297,-2.930,27.832,0
1572309691.328,-20.020,38.086,25.391,-49.805,15.137,0
1572309691.332,19.043,37.598,28.320,10.254,44.922,0
1572309691.335,45.410,36.621,32.227,81.055,72.754,0
1572309691.339,-4.395,36.621,33.203,35.645,41.992,0
1572309691.343,-18.066,36.621,34.668,-20.508,22.949,0
1572309691.347,5.859,36.621,32.715,9.766,58.105,0
1572309691.351,49.805,34.180,32.227,81.543,26.367,0
1572309691.348,19.043,32.227,30.273,60.059,18.066,0
1572309691.352,-17.090,29.785,29.785,-10.742,10.254,0
1572309691.356,-2.441,31.738,33.691,-3.418,5.371,0
1572309691.360,53.223,38.086,34.668,74.219,82.031,0
1572309691.364,44.922,42.480,38.086,85.938,49.805,0
1572309691.368,2.441,41.992,37.109,10.254,6.836,0
1572309691.372,5.371,39.062,32.227,-19.043,44.434,0
1572309691.375,47.363,39.551,33.691,43.945,33.691,0
1572309691.379,53.223,40.039,31.738,75.684,28.809,0
1572309691.383,1.465,38.086,30.762,6.836,9.277,0
1572309691.387,0.488,36.133,34.668,-40.527,-6.836,0
1572309691.391,26.367,33.203,34.180,4.395,32.715,0
1572309691.388,53.223,36.133,30.273,62.988,39.551,0
1572309691.392,9.277,40.039,28.809,16.602,14.160,0
1572309691.396,-14.160,41.504,30.273,-47.852,41.992,0
1572309691.400,10.254,40.527,28.809,-18.066,43.457,0
1572309691.404,57.129,38.574,26.367,61.523,42.480,0
1572309691.408,24.414,36.621,28.809,44.922,42.969,0
1572309691.412,-12.207,32.715,29.297,-29.785,12.695,0
1572309691.415,1.465,30.273,30.273,-33.691,26.855,0
1572309691.419,57.617,34.668,33.203,43.945,37.109,0
1572309691.423,44.922,34.668,36.133,66.895,36.133,0
1572309691.427,-13.184,34.668,36.621,-2.441,25.391,0
1572309691.431,-4.395,37.598,36.621,-28.320,42.969,0
1572309691.448,39.551,37.598,34.180,31.250,41.504,0
1572309691.452,57.129,37.109,33.203,80.078,-8.301,0
1572309691.456,9.766,34.180,33.691,22.461,38.574,0
1572309691.460,1.953,34.180,35.156,-33.203,74.707,0
1572309691.464,32.715,35.156,38.574,10.742,7.812,0
1572309691.468,69.824,35.645,38.086,80.078,-32.715,0
1572309691.472,30.762,35.645,37.598,41.016,35.156,0
1572309691.475,3.906,35.156,35.645,-32.715,81.543,0
1572309691.479,18.066,37.109,33.691,-20.508,92.773,0
1572309691.483,58.105,34.180,30.273,48.828,82.031,0
1572309691.487,26.367,33.691,26.855,32.227,91.309,0
1572309691.491,-8.301,36.133,30.762,-48.828,44.922,0
1572309691.488,4.395,36.621,31.250,-58.594,-9.766,0
1572309691.492,45.410,36.621,29.785,14.648,40.039,0
1572309691.496,45.898,37.109,30.273,40.527,18.066,0
1572309691.500,-5.371,37.109,29.785,-27.344,-44.922,0
1572309691.504,-1.953,34.668,31.738,-58.105,28.809,0
1572309691.508,40.527,35.645,32.227,1.465,14.648,0
1572309691.512,54.688,36.133,30.762,62.012,-19.531,0
1572309691.515,9.766,34.180,32.715,17.578,14.160,0
1572309691.519,1.465,35.645,32.715,-39.062,-2.930,0
1572309691.523,21.484,35.156,33.203,-2.441,-13.672,0
1572309691.527,66.406,32.227,35.645,79.102,37.598,0
1572309691.531,34.180,29.297,34.180,51.270,61.523,0
1572309691.528,8.789,25.879,31.738,-24.414,18.555,0
1572309691.532,25.879,23.926,26.367,-14.160,11.719,0
1572309691.536,66.895,22.949,26.367,56.641,25.391,0
1572309691.540,41.992,21.973,27.344,51.758,12.207,0
1572309691.544,-3.906,20.996,26.855,-27.344,13.672,0
1572309691.548,4.883,23.438,26.855,-53.223,61.523,0
1572309691.552,56.641,24.414,24.414,19.043,76.172,0
1572309691.555,62.012,25.879,25.391,52.734,54.199,0
1572309691.559,9.766,27.832,26.855,-17.090,45.898,0
1572309691.563,13.184,27.344,27.344,-54.688,52.246,0
1572309691.567,55.176,29.785,27.832,7.324,68.848,0
1572309691.571,80.078,31.250,27.832,75.195,71.289,0
1572309691.588,30.762,32.715,26.855,28.320,41.504,0
1572309691.592,18.555,35.156,26.367,-29.785,27.832,0
1572309691.596,41.016,34.668,29.297,1.465,34.668,0
1572309691.600,80.078,30.762,34.668,77.148,42.969,0
1572309691.604,45.898,31.738,33.691,58.594,50.781,0
1572309691.608,12.207,31.738,28.320,-10.254,20.996,0
1572309691.612,23.438,28.320,30.762,2.930,-9.277,0
1572309691.615,65.918,27.832,31.738,81.543,25.879,0
1572309691.619,51.758,26.855,31.738,90.332,39.062,0
1572309691.623,6.348,28.320,31.738,22.461,-0.488,0
1572309691.627,1.465,30.273,28.320,-11.230,13.184,0
1572309691.631,41.504,27.832,29.785,45.410,8.789,0
1572309691.648,52.734,26.855,31.250,92.773,-17.090,0
1572309691.652,0.000,29.785,27.832,28.320,15.137,0
1572309691.656,-5.859,28.809,29.297,-20.508,-4.395,0
1572309691.660,24.414,29.297,32.715,28.809,20.020,0
1572309691.664,58.594,32.227,32.227,91.797,56.641,0
1572309691.668,16.602,31.250,30.273,44.922,40.039,0
1572309691.672,-2.930,31.738,28.320,-22.461,76.172,0
1572309691.675,22.949,31.250,25.391,3.418,68.359,0
1572309691.679,64.453,31.738,20.020,72.754,9.766,0
1572309691.683,23.926,29.785,21.973,53.711,85.449,0
1572309691.687,-11.719,28.320,25.391,-24.902,21.484,0
1572309691.691,0.488,30.762,25.391,-32.715,-12.207,0
1572309691.688,49.805,31.738,27.344,49.805,128.418,0
1572309691.692,47.363,33.203,25.391,67.871,62.012,0
1572309691.696,-2.441,32.715,26.367,-11.719,30.762,0
1572309691.700,-4.395,29.297,27.832,-44.922,112.793,0
1572309691.704,28.320,27.832,25.879,16.113,83.984,0
1572309691.708,36.133,29.297,27.344,64.453,23.438,0
1572309691.712,-15.137,30.273,28.809,5.371,18.555,0
1572309691.715,-17.090,28.809,30.762,-45.410,53.223,0
1572309691.719,8.789,27.832,31.738,-1.953,34.668,0
1572309691.723,34.668,28.320,32.715,68.848,62.988,0
1572309691.727,-0.977,27.832,32.715,37.598,66.895,0
1572309691.731,-14.160,28.320,30.273,-29.785,30.273,0
1572309691.728,2.441,30.762,33.691,-17.578,15.625,0
1572309691.732,42.480,31.738,38.086,58.594,12.207,0
1572309691.736,22.949,29.785,37.109,61.035,38.086,0
1572309691.740,-16.113,28.320,37.109,-13.672,38.574,0
1572309691.744,-7.812,27.832,35.156,-28.320,82.520,0
1572309691.748,42.969,30.273,35.156,50.293,50.781,0
1572309691.752,44.434,32.715,32.715,77.637,23.438,0
1572309691.755,-1.465,30.762,28.809,3.906,69.336,0
1572309691.759,13.672,29.785,30.273,-35.645,-5.371,0
1572309691.763,44.922,31.250,32.227,18.555,-21.484,0
1572309691.767,51.758,32.227,32.227,72.266,-7.812,0
1572309691.771,5.371,31.738,33.203,15.137,36.133,0
1572309691.768,-4.883,32.715,33.691,-42.480,134.766,0
1572309691.772,25.391,34.180,34.180,1.953,100.098,0
1572309691.776,66.895,35.156,32.227,76.660,68.848,0
1572309691.780,25.879,35.645,29.297,44.434,49.805,0
1572309691.784,-1.465,34.180,31.738,-31.250,12.207,0
1572309691.788,18.066,34.668,34.180,-17.090,28.320,0
1572309691.792,58.594,33.203,34.180,66.406,62.988,0
1572309691.795,36.621,31.250,33.691,73.730,40.527,0
1572309691.799,-3.418,31.738,29.785,-3.906,45.898,0
1572309691.803,-1.953,33.691,26.855,-31.738,18.066,0
1572309691.807,40.039,33.691,30.273,51.758,-12.695,0
1572309691.811,48.828,33.203,32.227,103.027,43.457,0
1572309691.828,-3.418,34.668,33.691,43.945,34.668,0
1572309691.832,-3.418,37.109,34.668,8.789,-1.465,0
1572309691.836,32.715,36.621,34.668,64.453,-5.371,0
1572309691.840,58.105,35.156,34.668,127.441,-51.758,0
1572309691.844,14.160,35.156,32.715,82.031,-43.945,0
1572309691.848,-3.418,36.133,33.691,12.695,9.766,0
1572309691.852,16.602,34.668,37.109,35.645,23.926,0
1572309691.855,57.129,32.227,36.621,102.051,18.555,0
1572309691.859,24.902,30.273,36.133,71.289,32.715,0
1572309691.863,-0.488,29.785,35.645,-10.254,44.922,0
1572309691.867,24.414,31.738,32.227,-10.742,31.738,0
1572309691.871,69.824,33.691,31.250,70.801,39.062,0
1572309691.868,52.246,35.645,33.691,73.730,62.988,0
1572309691.872,9.766,36.133,29.785,-4.395,39.551,0
1572309691.876,11.719,38.086,28.320,-20.020,16.602,0
1572309691.880,45.898,37.109,30.762,52.246,65.918,0
1572309691.884,53.223,37.109,29.785,97.168,46.387,0
1572309691.888,-0.488,39.551,29.785,29.785,31.250,0
1572309691.892,2.441,40.527,28.320,-18.555,81.543,0
1572309691.895,36.621,37.598,30.762,34.668,78.613,0
1572309691.899,64.941,35.156,32.227,99.609,68.848,0
1572309691.903,22.461,38.086,29.297,56.152,82.031,0
1572309691.907,0.000,41.992,30.273,-17.090,38.086,0
1572309691.911,26.855,40.039,31.250,6.348,50.781,0
1572309691.908,71.289,36.133,30.762,95.703,54.199,0
1572309691.912,34.180,36.621,31.250,90.820,-7.812,0
1572309691.916,-3.906,39.062,31.250,14.160,23.438,0
1572309691.920,14.648,38.574,33.203,-1.953,64.941,0
1572309691.924,68.848,37.109,33.203,65.918,-4.395,0
1572309691.928,56.641,39.062,31.738,84.961,-11.719,0
1572309691.932,1.465,37.598,32.227,6.836,14.648,0
1572309691.935,4.883,35.156,31.738,-33.691,-12.695,0
1572309691.939,41.504,37.109,28.809,17.090,-22.949,0
1572309691.943,57.617,38.574,27.832,62.012,-25.879,0
1572309691.947,11.719,38.574,30.762,3.418,-5.859,0
1572309691.951,-1.953,37.109,32.227,-55.176,30.762,0
1572309691.968,24.414,36.133,30.762,-13.672,7.812,0
1572309691.972,60.059,37.109,30.273,52.734,46.387,0
1572309691.976,16.113,36.133,27.832,9.277,45.898,0
1572309691.980,-13.672,34.668,24.902,-65.918,15.625,0
1572309691.984,7.812,39.551,22.949,-49.316,21.973,0
1572309691.988,58.594,43.945,19.531,26.367,42.969,0
1572309691.992,30.762,43.945,22.461,20.508,43.457,0
1572309691.995,-9.766,44.434,28.320,-53.711,16.113,0
1572309691.999,1.953,45.410,26.855,-66.406,22.949,0
1572309692.003,48.828,44.434,24.902,11.230,20.020,0
1572309692.007,47.852,42.969,27.344,46.875,2.930,0
1572309692.011,-2.930,42.969,22.949,-27.832,-25.391,0
1572309692.008,-10.742,41.992,21.484,-73.730,-27.832,3
1572309692.012,20.020,41.016,25.391,-16.113,-21.973,0
1572309692.016,44.434,40.527,25.879,40.039,2.441,0
1572309692.020,1.953,40.527,21.973,-9.277,34.180,0
1572309692.024,-11.719,40.039,20.020,-65.918,67.871,0
1572309692.028,8.301,37.109,18.555,-29.297,48.340,0
1572309692.032,52.734,35.156,15.625,48.340,41.504,0
1572309692.035,17.578,36.621,14.648,21.484,76.172,0
1572309692.039,-11.719,37.598,14.160,-51.270,44.922,0
1572309692.043,-1.465,33.203,14.160,-44.922,38.086,0
1572309692.047,38.574,34.180,16.113,24.902,17.578,0
1572309692.051,23.438,36.133,17.090,30.762,0.977,0
1572309692.048,-12.695,33.691,12.207,-38.574,10.742,0
1572309692.052,-1.465,35.645,8.789,-58.105,5.859,0
1572309692.056,49.805,36.621,10.742,19.043,32.227,0
1572309692.060,61.523,37.109,16.602,67.383,84.473,0
1572309692.064,0.977,39.062,20.508,2.930,66.406,0
1572309692.068,0.000,40.039,20.996,-41.016,20.508,0
1572309692.072,39.062,40.527,21.484,16.113,28.320,0
1572309692.075,62.012,38.086,19.531,74.707,12.207,0
1572309692.079,17.578,37.109,18.555,23.438,-9.766,0
1572309692.083,4.395,39.062,19.531,-40.039,2.930,0
1572309692.087,25.391,40.039,20.996,-10.254,56.641,0
1572309692.091,66.895,41.504,19.531,56.641,115.234,0
1572309692.108,31.738,43.457,19.531,32.227,24.902,0
1572309692.112,-8.789,43.457,21.484,-44.922,-35.156,0
1572309692.116,7.324,41.016,21.484,-48.828,2.930,0
1572309692.120,57.129,39.062,21.973,30.762,11.719,0
1572309692.124,47.852,39.062,28.320,42.480,40.039,0
1572309692.128,-0.488,37.109,31.250,-34.668,69.336,0
1572309692.132,-5.371,35.645,29.297,-70.312,30.273,0
1572309692.135,41.016,37.598,31.250,-15.625,46.875,0
1572309692.139,63.965,39.551,34.668,32.227,61.523,0
1572309692.143,12.695,38.086,29.785,-30.762,-2.441,0
1572309692.147,10.742,36.133,28.320,-83.496,-6.836,0
1572309692.151,42.969,38.574,31.738,-34.180,24.902,0
1572309692.148,68.359,39.062,30.762,31.738,-9.277,0
1572309692.152,27.344,39.062,33.203,-0.488,24.414,0
1572309692.156,5.859,44.434,31.738,-65.430,57.617,0
1572309692.160,25.879,44.434,26.855,-46.387,6.836,0
1572309692.164,73.242,41.504,27.344,37.109,18.555,0
1572309692.168,38.574,40.527,31.250,31.738,108.398,0
1572309692.172,-3.906,38.574,34.180,-41.016,68.848,0
1572309692.175,15.625,39.551,36.133,-48.828,-7.812,0
1572309692.179,69.336,43.457,36.621,29.297,70.312,0
1572309692.183,56.641,43.457,32.715,53.711,102.051,0
1572309692.187,-2.930,43.945,30.273,-20.508,23.926,0
1572309692.191,6.348,45.410,26.855,-46.875,-1.465,0
1572309692.188,52.734,44.922,27.832,13.184,44.434,0
1572309692.192,67.871,41.016,31.738,54.688,41.016,0
1572309692.196,6.836,38.574,32.715,-1.465,-2.930,0
1572309692.200,-6.836,38.574,31.250,-56.641,48.828,0
1572309692.204,26.855,37.598,30.762,-12.695,30.273,0
1572309692.208,62.012,37.598,31.250,62.012,5.371,0
1572309692.212,19.531,39.551,24.902,29.785,0.977,0
1572309692.215,-3.906,41.016,23.438,-34.180,-3.906,0
1572309692.219,4.395,39.062,25.879,-19.531,19.043,0
1572309692.223,47.852,38.574,31.738,69.336,62.012,0
1572309692.227,32.227,41.016,36.621,81.055,83.008,0
1572309692.231,-6.348,41.504,34.668,7.812,13.184,0
1572309692.248,6.836,42.969,39.551,4.883,-43.457,0
1572309692.252,55.664,46.387,42.480,90.820,32.227,0
1572309692.256,59.082,45.898,40.039,130.859,46.875,0
1572309692.260,10.742,46.387,41.992,56.152,7.324,0
1572309692.264,19.531,46.875,44.434,8.301,-36.133,0
1572309692.268,59.082,41.992,42.969,64.453,-24.902,0
1572309692.272,69.336,40.527,37.109,114.258,43.945,0
1572309692.275,16.113,40.039,36.621,51.758,41.992,0
1572309692.279,8.789,41.504,35.645,-20.996,-27.344,0
1572309692.283,38.574,44.922,31.250,3.418,-12.695,0
1572309692.287,77.148,42.969,33.691,75.684,54.199,0
1572309692.291,34.668,41.504,36.621,43.457,4.883,0
1572309692.288,2.441,41.992,33.691,-34.180,-2.441,0
1572309692.292,16.113,42.480,31.250,-27.832,64.453,0
1572309692.296,62.012,42.480,32.227,56.152,103.516,0
1572309692.300,46.387,42.480,31.250,72.754,82.031,0
1572309692.304,0.000,38.086,31.250,2.930,31.738,0
1572309692.308,6.348,35.156,31.250,-11.719,-3.906,0
1572309692.312,48.828,35.645,32.227,59.082,43.945,0
1572309692.315,55.664,35.156,33.203,100.586,89.844,0
1572309692.319,5.859,36.133,32.227,37.109,54.688,0
1572309692.323,-2.930,37.109,28.809,-12.207,66.895,0
1572309692.327,35.645,37.109,26.367,41.992,51.758,0
1572309692.331,70.312,36.133,29.297,105.957,22.949,0
1572309692.328,17.578,36.133,31.738,62.012,63.477,0
1572309692.332,0.000,36.133,28.809,-0.488,73.242,0
1572309692.336,26.855,35.156,29.785,24.414,23.926,0
1572309692.340,64.941,34.180,29.297,96.680,-12.695,0
1572309692.344,29.785,36.133,30.273,74.219,14.160,0
1572309692.348,-7.324,37.598,30.273,-1.465,15.625,0
1572309692.352,9.277,38.086,28.809,-2.441,8.789,0
1572309692.355,58.105,39.551,31.738,66.895,0.488,0
1572309692.359,43.457,41.016,34.668,72.266,-39.551,0
1572309692.363,-2.930,41.992,34.668,-3.418,-40.039,0
1572309692.367,-5.371,36.621,35.156,-30.762,-21.973,0
1572309692.371,31.738,37.598,38.086,28.809,61.523,0
1572309692.388,46.387,42.969,35.156,69.336,102.051,0
1572309692.392,-4.395,41.504,32.227,7.324,41.992,0
1572309692.396,-10.742,39.551,28.809,-54.199,8.789,0
1572309692.400,18.066,38.574,26.855,-8.789,-35.645,0
1572309692.404,49.805,35.645,30.762,63.965,-11.719,0
1572309692.408,7.812,34.180,31.738,25.391,62.500,0
1572309692.412,-11.719,36.133,31.738,-44.434,74.219,0
1572309692.415,8.301,36.133,33.691,-21.484,46.387,0
1572309692.419,54.688,35.645,32.227,69.824,27.344,0
1572309692.423,30.762,36.621,27.832,69.824,14.160,0
1572309692.427,-8.301,38.086,27.344,-5.859,7.812,0
1572309692.431,1.953,36.133,29.785,-16.602,32.715,0
1572309692.428,53.711,34.668,30.762,56.152,10.742,0
1572309692.432,52.734,34.668,30.273,78.613,67.871,0
1572309692.436,5.859,34.180,29.297,7.812,73.730,0
1572309692.440,8.789,32.715,28.320,-30.762,49.316,0
1572309692.444,46.875,33.203,30.273,31.738,109.375,0
1572309692.448,64.453,37.109,31.738,83.496,35.156,0
1572309692.452,11.230,40.527,29.297,26.367,-15.137,0
1572309692.455,0.977,39.062,27.832,-31.250,34.180,0
1572309692.459,32.715,38.086,28.320,7.812,39.551,0
1572309692.463,66.895,37.598,27.832,71.289,63.965,0
1572309692.467,20.996,38.574,28.809,28.809,73.730,0
1572309692.471,-3.418,39.062,29.297,-37.598,40.039,0
1572309692.468,19.043,40.039,26.367,-24.414,91.797,0
1572309692.472,64.453,41.504,23.926,48.340,91.309,0
1572309692.476,35.645,42.480,22.461,45.898,7.812,0
1572309692.480,-6.836,42.969,22.949,-23.926,23.926,0
1572309692.484,4.395,40.527,25.391,-30.273,39.062,0
1572309692.488,42.480,39.062,25.879,49.316,40.039,0
1572309692.492,42.480,38.086,28.320,87.402,0.977,0
1572309692.495,-2.930,41.504,28.809,16.113,-29.297,0
1572309692.499,-2.441,42.480,27.832,-34.180,0.000,0
1572309692.503,39.062,41.504,31.738,33.691,24.902,0
1572309692.507,63.477,41.992,30.273,102.539,42.480,0
1572309692.511,12.695,41.016,24.902,55.664,64.453,0
1572309692.528,-1.953,41.992,26.855,0.488,25.879,0
1572309692.532,22.949,41.992,29.297,37.109,-22.949,0
1572309692.536,62.988,40.039,29.297,115.723,3.418,0
1572309692.540,31.250,42.969,32.227,97.656,18.555,0
1572309692.544,0.977,42.969,31.738,30.762,13.672,0
1572309692.548,17.090,41.016,32.715,34.180,19.531,0
1572309692.552,65.918,42.480,33.203,98.145,-5.371,0
1572309692.555,56.641,45.898,33.691,100.098,-8.789,0
1572309692.559,19.043,47.363,35.645,26.367,22.461,0
1572309692.563,22.461,44.434,33.203,-2.441,18.066,0
1572309692.567,61.035,42.969,30.273,59.570,55.176,0
1572309692.571,69.336,47.363,31.738,92.285,83.008,0
1572309692.568,18.555,52.246,31.738,13.184,24.902,0
1572309692.572,0.977,49.805,33.691,-52.246,-3.418,0
1572309692.576,28.320,48.828,33.203,-11.719,46.875,0
1572309692.580,62.012,49.316,29.785,50.781,42.969,0
1572309692.584,11.230,46.875,33.203,1.953,43.457,0
1572309692.588,-9.766,45.898,32.715,-63.477,50.293,0
1572309692.592,20.996,43.457,30.273,-36.133,25.879,0
1572309692.595,66.406,42.969,34.180,37.598,16.602,0
1572309692.599,37.598,42.969,33.691,20.020,-3.418,0
1572309692.603,-0.488,42.480,32.227,-62.500,37.598,0
1572309692.607,6.348,43.945,33.203,-65.918,39.062,0
1572309692.611,61.035,44.434,30.762,18.066,45.898,0
1572309692.608,50.781,42.969,30.762,37.109,34.668,0
1572309692.612,1.465,42.480,31.738,-37.598,-12.207,0
1572309692.616,6.836,43.457,29.297,-70.312,21.973,0
1572309692.620,41.992,40.039,27.832,-2.930,29.785,0
1572309692.624,53.223,38.574,27.344,45.410,31.738,0
1572309692.628,3.418,39.551,27.344,-13.184,48.340,0
1572309692.632,-3.418,39.062,26.855,-55.176,53.711,0
1572309692.635,24.902,40.039,22.461,-6.836,75.195,0
1572309692.639,57.617,39.551,21.484,65.430,68.359,0
1572309692.643,20.508,38.574,23.926,40.527,60.059,0
1572309692.647,0.488,40.527,19.531,-20.996,40.039,0
1572309692.651,25.391,41.992,16.113,2.441,47.852,0
1572309692.668,72.266,42.480,18.555,86.914,19.043,0
1572309692.672,42.480,42.480,22.949,87.891,28.320,0
1572309692.676,-0.488,41.992,24.902,18.555,74.219,0
1572309692.680,16.602,39.062,23.438,13.672,7.812,0
1572309692.684,66.406,40.039,25.391,85.449,40.527,0
1572309692.688,56.152,42.969,27.344,105.469,88.379,0
1572309692.692,0.488,41.992,27.344,30.273,48.340,0
1572309692.695,3.418,42.480,29.297,-8.789,27.832,0
1572309692.699,50.781,44.434,31.250,49.316,-36.133,0
1572309692.703,71.289,40.527,28.809,90.332,3.906,0
1572309692.707,12.695,39.551,27.344,25.879,101.074,0
1572309692.711,3.418,41.504,24.414,-29.785,103.516,0
1572309692.708,28.809,40.527,23.926,4.395,43.945,0
1572309692.712,62.988,39.062,26.367,69.824,0.488,0
1572309692.716,26.367,38.574,29.297,33.691,71.777,0
1572309692.720,-5.859,37.109,28.809,-35.645,43.945,0
1572309692.724,1.465,36.133,28.809,-22.461,-1.465,0
1572309692.728,41.016,38.574,32.227,50.781,-6.836,0
1572309692.732,17.090,37.598,30.273,44.434,-41.992,0
1572309692.735,-17.578,35.645,28.809,-32.715,43.457,0
1572309692.739,-3.418,37.598,29.297,-41.992,47.852,0
1572309692.743,40.039,40.039,28.809,29.297,13.184,0
1572309692.747,46.875,38.086,31.250,63.965,45.898,0
1572309692.751,0.000,38.086,28.320,0.488,27.344,0
1572309692.748,-3.418,38.086,22.461,-40.039,7.324,0
1572309692.752,31.738,33.691,22.461,19.531,25.879,0
1572309692.756,57.617,31.250,23.438,81.543,53.223,0
1572309692.760,7.812,31.738,20.508,32.227,45.410,0
1572309692.764,-13.672,30.273,20.508,-31.250,33.691,0
1572309692.768,6.836,30.273,21.484,-7.324,26.855,0
1572309692.772,53.711,32.715,20.996,65.430,92.773,0
1572309692.775,17.090,32.715,17.090,42.480,71.777,0
1572309692.779,-19.531,31.250,18.066,-29.785,22.461,0
1572309692.783,-1.465,30.762,20.508,-20.508,68.359,0
1572309692.787,48.340,28.809,20.508,55.176,89.844,0
1572309692.791,34.668,29.785,23.926,64.453,77.637,0
1572309692.808,-7.812,31.250,24.414,-5.859,24.414,0
1572309692.812,-1.953,30.762,23.438,-23.926,5.859,0
1572309692.816,41.016,30.762,25.391,54.199,59.570,0
1572309692.820,56.152,31.250,24.414,95.703,95.215,0
1572309692.824,5.371,33.203,22.461,29.785,38.086,0
1572309692.828,-1.953,32.715,25.391,-21.484,-12.207,0
1572309692.832,35.645,31.738,28.809,22.461,-5.371,0
1572309692.835,68.848,32.227,28.809,94.727,67.871,0
1572309692.839,22.461,36.133,27.832,52.246,48.828,0
1572309692.843,8.789,41.504,28.809,-6.836,9.277,0
1572309692.847,28.320,41.016,27.344,22.949,64.941,0
1572309692.851,64.453,43.945,29.297,93.262,-0.488,0
1572309692.848,32.227,46.875,33.203,78.125,-65.430,0
1572309692.852,-2.441,44.922,34.668,0.977,-28.320,0
1572309692.856,14.648,41.504,37.109,-6.348,0.000,0
1572309692.860,58.105,41.016,38.574,66.895,-1.465,0
1572309692.864,48.828,44.434,36.621,79.590,-10.254,0
1572309692.868,5.859,46.387,33.203,-5.371,-12.207,0
1572309692.872,14.648,45.410,29.297,-49.316,21.484,0
1572309692.875,54.199,44.922,26.855,5.371,41.504,0
1572309692.879,60.547,43.457,24.902,48.340,69.336,0
1572309692.883,6.836,42.969,27.344,-19.531,54.688,0
1572309692.887,-2.930,39.551,33.203,-72.266,16.113,0
1572309692.891,26.855,39.062,33.203,-24.902,43.457,0
1572309692.888,62.012,41.992,30.273,41.016,22.461,0
1572309692.892,18.555,41.504,26.855,-1.465,-1.465,0
1572309692.896,-10.254,39.551,25.879,-73.730,-17.578,0
1572309692.900,17.578,37.598,28.320,-56.152,-5.859,0
1572309692.904,67.383,36.621,31.250,27.344,69.824,0
1572309692.908,35.645,36.133,36.133,33.203,79.590,0
1572309692.912,4.395,39.062,35.156,-31.738,46.875,0
1572309692.915,18.066,39.551,34.668,-39.062,14.160,0
1572309692.919,66.406,38.574,33.691,39.551,35.156,0
1572309692.923,71.289,41.992,30.273,72.754,23.926,0
1572309692.927,22.461,43.945,30.762,2.441,25.879,0
1572309692.931,20.508,42.480,32.227,-31.250,67.383,0
1572309692.948,56.641,42.969,32.715,30.273,39.551,0
1572309692.952,78.125,41.016,32.715,86.426,31.738,0
1572309692.956,30.273,39.062,33.691,38.574,36.621,0
1572309692.960,17.578,39.551,31.738,-11.230,0.488,0
1572309692.964,43.945,41.016,30.273,33.691,-24.902,0
1572309692.968,79.102,43.945,33.691,105.957,55.664,0
1572309692.972,33.203,43.945,34.180,74.219,62.988,0
1572309692.975,4.883,43.945,34.180,-0.977,-8.789,0
1572309692.979,25.879,45.410,37.598,2.930,-30.762,0
1572309692.983,66.406,43.945,39.062,79.102,11.230,0
1572309692.987,38.086,41.504,35.156,75.684,55.176,0
1572309692.991,-4.883,40.039,28.320,-4.395,62.988,0
1572309692.988,4.395,37.109,26.855,-25.391,31.250,0
1572309692.992,46.875,35.156,30.762,33.203,-2.930,0
1572309692.996,51.270,38.086,35.156,64.453,62.988,0
1572309693.000,2.930,41.504,34.668,-5.371,52.246,0
1572309693.004,3.906,41.992,32.227,-57.617,25.391,0
1572309693.008,41.016,40.527,27.344,-11.230,46.875,0
1572309693.012,72.266,41.992,24.414,44.922,47.363,0
1572309693.015,33.691,43.457,26.367,-7.324,-17.090,0
1572309693.019,9.277,40.039,28.320,-77.148,-24.414,0
1572309693.023,28.320,42.969,32.715,-50.293,38.574,0
1572309693.027,82.031,45.898,32.227,31.738,54.199,0
1572309693.031,43.457,41.016,28.809,26.855,41.992,0
1572309693.048,3.906,41.016,27.344,-28.320,18.555,0
1572309693.052,19.531,43.457,21.973,-15.137,-9.766,0
1572309693.056,63.477,40.527,24.902,74.707,14.648,0
1572309693.060,49.805,40.527,30.273,98.633,55.664,0
1572309693.064,1.953,44.434,25.879,25.391,27.344,0
1572309693.068,1.953,43.945,25.391,1.953,34.180,0
1572309693.072,41.504,40.527,24.902,69.336,119.141,0
1572309693.075,46.387,39.551,21.973,92.285,127.930,3
1572309693.079,-2.441,40.039,20.996,5.371,84.473,0
1572309693.083,0.000,38.086,16.113,-53.711,59.570,0
1572309693.087,33.203,39.551,18.066,-16.113,37.598,0
1572309693.091,66.895,41.992,22.461,40.039,99.121,0
1572309693.088,21.973,40.039,22.949,-11.230,99.121,0
1572309693.092,0.488,38.086,24.902,-88.379,32.227,0
1572309693.096,22.949,39.062,23.926,-71.289,-10.254,0
1572309693.100,62.500,40.039,20.508,0.000,16.113,0
1572309693.104,32.227,39.062,21.484,-12.207,30.762,0
1572309693.108,-2.930,37.598,23.926,-75.684,48.340,0
1572309693.112,15.625,39.062,27.344,-63.477,92.285,0
1572309693.115,85.938,55.664,52.246,49.316,43.457,0
1572309693.119,92.285,75.195,70.312,97.656,-16.602,0
1572309693.123,41.504,79.590,71.777,34.180,32.715,0
1572309693.127,43.945,77.148,68.848,-1.465,58.105,0
1572309693.131,83.984,73.242,63.477,57.129,11.719,0
1572309693.128,98.145,78.125,67.871,117.676,-18.555,0
1572309693.132,41.992,79.102,67.871,58.105,-24.414,0
1572309693.136,26.855,71.777,58.594,-4.395,-29.297,0
1572309693.140,50.781,65.430,50.293,28.809,2.930,0
1572309693.144,82.520,60.547,42.480,88.867,47.852,0
1572309693.148,41.504,55.176,35.156,49.316,29.297,0
1572309693.152,9.277,50.293,30.273,-21.484,35.156,0
1572309693.155,18.555,46.875,24.414,-4.395,7.812,0
1572309693.159,68.848,44.922,23.438,70.312,26.855,0
1572309693.163,41.504,42.969,26.855,60.059,66.406,0
1572309693.167,-4.395,41.504,26.855,-9.766,12.695,0
1572309693.171,4.883,39.551,25.879,-17.090,-23.926,0
1572309693.188,52.734,38.086,26.367,65.918,24.902,0
1572309693.192,49.316,40.527,24.414,101.074,28.320,0
1572309693.196,-3.906,38.574,21.973,32.715,2.930,0
1572309693.200,-0.488,35.156,23.926,2.930,17.090,0
1572309693.204,42.480,36.133,28.320,62.988,3.418,0
1572309693.208,66.406,37.109,29.297,115.723,-4.883,0
1572309693.212,20.020,34.668,28.320,57.617,7.324,0
1572309693.215,13.184,35.156,28.809,-14.160,1.465,0
1572309693.219,42.480,34.668,30.273,18.066,-10.254,0
1572309693.223,79.590,31.738,27.832,85.938,-8.301,0
1572309693.227,42.480,32.715,22.461,51.270,16.113,0
1572309693.231,14.648,34.180,20.508,-25.391,32.227,0
1572309693.228,26.855,35.156,20.996,-26.367,53.711,0
1572309693.232,77.637,38.086,20.020,44.922,62.500,0
1572309693.236,56.641,37.109,17.090,40.039,21.973,0
1572309693.240,2.930,37.109,18.066,-39.551,-22.461,0
1572309693.244,10.742,37.598,19.043,-66.895,10.254,0
1572309693.248,54.688,35.156,18.066,-4.395,31.738,0
1572309693.252,54.688,36.621,17.090,33.203,38.086,0
1572309693.255,3.418,35.156,16.602,-31.250,-8.789,0
1572309693.259,1.953,32.227,18.555,-67.871,-27.832,0
1572309693.263,36.621,33.691,18.555,-13.672,114.258,0
1572309693.267,62.988,36.621,17.090,49.805,137.207,0
1572309693.271,15.625,38.086,20.508,7.812,62.988,0
1572309693.288,-1.953,36.621,22.461,-58.594,-2.930,0
1572309693.292,20.996,34.180,23.438,-27.832,-52.734,0
1572309693.296,62.012,32.715,21.973,48.828,-1.953,0
1572309693.300,24.414,32.715,19.531,17.578,2.441,0
1572309693.304,-6.348,30.273,23.438,-52.734,-10.254,0
1572309693.308,1.465,29.297,23.926,-42.480,-13.672,0
1572309693.312,36.621,32.715,23.926,37.109,-2.930,0
1572309693.315,28.320,34.180,27.344,56.641,43.457,0
1572309693.319,-18.066,35.645,27.344,-18.066,53.223,0
1572309693.323,-12.695,35.156,26.855,-41.992,36.133,0
1572309693.327,36.621,33.203,27.832,34.668,25.391,0
1572309693.331,47.852,33.691,26.855,83.008,5.859,0
1572309693.328,0.000,32.227,26.855,20.020,-3.418,0
1572309693.332,2.441,30.762,26.855,-33.691,16.602,0
1572309693.336,40.039,31.250,27.344,10.742,28.809,0
1572309693.340,69.824,34.668,27.832,70.312,30.273,0
1572309693.344,22.949,37.109,28.320,23.438,19.531,0
1572309693.348,2.441,38.086,25.391,-51.270,37.598,0
1572309693.352,26.855,39.551,22.949,-31.738,49.805,0
1572309693.355,74.707,40.527,21.973,48.340,57.617,0
1572309693.359,43.945,43.457,26.367,35.156,43.457,0
1572309693.363,3.418,44.922,28.320,-38.574,-5.859,0
1572309693.367,22.461,53.223,34.668,-41.016,13.184,0
1572309693.371,78.125,66.895,46.387,38.086,69.336,0
1572309693.368,68.359,71.777,45.410,58.105,70.801,0
1572309693.372,12.207,71.289,42.969,-7.324,23.438,0
1572309693.376,5.859,62.988,36.621,-33.691,17.090,0
1572309693.380,46.875,57.617,32.715,24.902,44.922,0
1572309693.384,60.059,56.152,35.156,78.125,40.039,0
1572309693.388,5.859,50.293,34.180,26.367,-25.879,0
1572309693.392,0.977,50.293,36.133,-22.949,-14.648,0
1572309693.395,37.598,54.199,41.016,24.902,-7.324,0
1572309693.399,74.219,52.734,41.504,92.285,-21.973,0
1572309693.403,33.691,54.199,44.434,61.035,-20.996,0
1572309693.407,17.578,62.500,53.223,2.441,10.742,0
1572309693.411,41.992,65.430,56.152,20.996,45.898,0
1572309693.408,83.496,59.570,55.176,99.609,46.875,0
1572309693.412,51.270,51.758,50.781,89.844,66.406,0
1572309693.416,12.207,52.246,50.293,14.648,52.734,0
1572309693.420,20.996,55.176,51.270,0.977,20.020,0
1572309693.424,57.129,53.711,47.363,62.500,-8.789,0
1572309693.428,57.129,55.176,46.875,87.402,-8.301,0
1572309693.432,3.418,57.129,46.387,16.113,25.879,0
1572309693.435,1.465,53.223,40.527,-18.066,50.781,0
1572309693.439,30.273,48.340,33.691,37.598,39.062,0
1572309693.443,45.410,50.781,35.156,91.797,-18.066,0
1572309693.447,7.324,55.176,40.039,53.711,-37.598,0
1572309693.451,-2.930,57.617,41.992,-0.488,29.297,0
1572309693.468,24.902,57.129,41.992,33.691,34.668,0
1572309693.472,65.430,55.664,40.039,105.469,18.066,0
1572309693.476,22.461,52.734,33.203,71.777,47.363,0
1572309693.480,-5.371,51.270,26.855,-5.371,42.969,0
1572309693.484,16.113,52.246,22.949,3.906,41.504,0
1572309693.488,64.453,46.387,19.531,82.520,43.457,0
1572309693.492,40.527,44.922,20.508,88.379,16.602,0
1572309693.495,-5.371,44.434,20.996,12.207,30.762,0
1572309693.499,8.301,40.039,21.973,-5.859,54.688,0
1572309693.503,51.270,38.086,21.484,62.012,60.059,0
1572309693.507,52.246,38.574,18.555,95.215,22.949,0
1572309693.511,1.953,36.621,20.508,26.367,-7.812,0
1572309693.508,-1.953,35.645,22.949,-23.438,12.695,0
1572309693.512,26.855,33.691,20.508,29.297,-4.395,0
1572309693.516,54.688,31.738,18.555,88.379,-14.160,0
1572309693.520,13.672,32.227,20.020,41.992,-44.434,0
1572309693.524,-6.348,29.785,21.973,-17.090,-33.691,0
1572309693.528,6.348,26.855,22.949,14.648,67.383,0
1572309693.532,44.922,28.320,23.926,89.844,104.004,0
1572309693.535,17.090,28.809,25.391,67.871,93.262,0
1572309693.539,-10.254,26.855,27.344,-8.789,48.828,0
1572309693.543,5.371,27.344,27.832,-12.207,29.297,0
1572309693.547,54.688,30.762,29.785,57.617,43.945,0
1572309693.551,49.805,33.691,30.273,78.125,16.113,0
1572309693.568,11.230,34.668,33.691,9.277,29.785,0
1572309693.572,19.043,38.086,34.180,-16.602,91.309,0
1572309693.576,66.895,41.992,28.320,56.152,78.613,0
1572309693.580,74.707,43.457,24.414,99.121,53.711,0
1572309693.584,14.160,41.016,20.996,34.668,71.777,0
1572309693.588,4.883,40.039,20.020,-14.648,47.852,0
1572309693.592,37.109,44.434,20.020,33.203,34.180,0
1572309693.595,70.801,44.922,22.461,104.004,2.930,0
1572309693.599,20.020,44.434,24.414,62.500,3.418,0
1572309693.603,-7.812,44.434,24.902,-8.301,42.480,0
1572309693.607,14.648,42.969,26.367,20.508,94.727,0
1572309693.611,51.270,40.039,26.367,100.586,31.738,0
1572309693.608,12.695,37.598,24.902,89.844,6.348,0
1572309693.612,-26.367,35.156,24.902,12.695,-20.020,0
1572309693.616,-14.648,33.691,23.926,0.488,-41.992,0
1572309693.620,34.668,36.133,22.949,73.242,27.832,0
1572309693.624,31.250,37.109,21.973,100.586,39.551,0
1572309693.628,-13.672,36.133,18.555,31.250,78.613,0
1572309693.632,-3.906,35.156,19.531,-5.859,51.758,0
1572309693.635,40.039,31.738,20.508,57.129,-41.992,0
1572309693.639,59.570,29.297,20.508,116.211,28.809,0
1572309693.643,13.672,30.273,20.996,62.988,87.402,0
1572309693.647,-1.465,30.762,20.508,-6.348,45.410,0
1572309693.651,16.113,29.297,21.973,19.531,19.531,0
1572309693.648,55.176,27.344,27.832,90.332,60.059,0
1572309693.652,26.367,28.809,28.320,59.082,75.195,0
1572309693.656,4.883,28.320,27.832,-11.230,44.434,0
1572309693.660,19.531,26.855,29.297,4.395,43.945,0
1572309693.664,60.059,25.391,26.855,76.172,5.371,0
1572309693.668,41.504,26.367,26.367,69.824,-23.438,0
1572309693.672,4.395,30.273,24.902,-3.906,-0.977,0
1572309693.675,18.066,31.250,23.438,-11.719,16.602,0
1572309693.679,66.895,34.180,23.926,61.523,56.641,0
1572309693.683,64.453,38.574,22.461,87.891,95.215,0
1572309693.687,13.184,39.551,21.973,7.324,99.609,0
1572309693.691,15.625,40.039,22.949,-40.039,90.332,0
1572309693.688,56.152,41.504,20.996,17.578,25.391,0
1572309693.692,81.543,41.504,16.113,76.172,33.203,0
1572309693.696,33.691,40.039,11.719,26.367,47.363,0
1572309693.700,16.602,39.551,12.207,-39.551,3.418,0
1572309693.704,34.668,41.016,12.207,-10.742,-22.461,0
1572309693.708,65.430,41.992,11.230,61.523,31.250,0
1572309693.712,23.438,39.062,9.766,28.809,74.219,0
1572309693.715,-13.672,37.109,5.859,-43.457,58.105,0
1572309693.719,-5.859,37.598,2.930,-38.574,62.012,0
1572309693.723,42.969,36.133,-1.465,37.109,21.973,0
1572309693.727,29.297,35.156,-3.418,54.688,-22.461,0
1572309693.731,-14.648,38.086,0.000,-11.719,10.742,0
1572309693.748,-7.324,38.086,-1.953,-30.273,16.602,0
1572309693.752,31.250,36.621,-8.789,37.109,26.855,0
1572309693.756,32.227,37.109,-12.207,79.590,40.527,0
1572309693.760,-16.602,37.109,-10.742,20.996,20.508,0
1572309693.764,-17.578,36.133,-9.277,-23.926,21.973,0
1572309693.768,15.625,34.668,-6.348,28.320,-2.930,0
1572309693.772,42.480,34.668,1.465,83.496,41.504,0
1572309693.775,0.000,39.062,7.812,30.273,67.871,0
1572309693.779,-18.555,41.504,2.930,-30.273,16.113,0
1572309693.783,1.953,40.039,-6.836,-3.418,78.125,0
1572309693.787,49.316,38.574,-15.625,72.266,96.680,0
1572309693.791,15.137,41.016,-26.367,49.805,68.359,0
1572309693.788,-18.555,42.480,-31.250,-28.809,67.871,0
1572309693.792,-6.836,41.992,-32.227,-29.785,41.504,0
1572309693.796,41.016,41.504,-31.738,44.434,8.789,0
1572309693.800,35.645,39.551,-29.785,62.500,41.992,0
1572309693.804,-12.695,38.574,-31.738,-11.230,57.129,0
1572309693.808,-8.301,39.062,-32.227,-41.992,60.547,0
1572309693.812,38.086,39.062,-29.297,26.367,-1.953,0
1572309693.815,48.828,40.039,-27.344,72.266,-46.387,0
1572309693.819,0.000,38.086,-32.227,14.160,46.875,0
1572309693.823,-8.301,36.621,-35.645,-48.828,50.293,0
1572309693.827,22.461,35.156,-35.156,-14.648,0.488,0
1572309693.831,57.617,33.203,-32.227,60.547,26.367,0
1572309693.828,10.254,33.203,-29.297,22.461,4.883,0
1572309693.832,-10.742,34.668,-28.320,-42.480,-11.719,0
1572309693.836,13.184,33.203,-25.879,-22.461,48.828,0
1572309693.840,58.594,32.227,-24.414,51.270,51.270,0
1572309693.844,27.344,33.203,-27.344,46.387,18.555,0
1572309693.848,-8.789,33.691,-28.320,-26.367,52.246,0
1572309693.852,10.254,33.691,-26.367,-37.109,33.203,0
1572309693.855,58.105,35.156,-26.367,36.133,44.434,0
1572309693.859,55.176,36.133,-27.344,60.547,82.520,0
1572309693.863,7.324,35.156,-28.809,-10.742,29.297,0
1572309693.867,14.160,40.039,-22.949,-33.691,-26.367,0
1572309693.871,71.777,54.199,-7.812,45.898,8.789,0
1572309693.888,96.191,61.523,-4.395,100.586,60.059,0
1572309693.892,52.734,64.453,1.953,45.410,0.488,0
1572309693.896,44.434,69.336,12.695,-4.883,-16.113,0
1572309693.900,67.871,71.777,14.160,35.156,-23.926,0
1572309693.904,110.840,74.707,18.555,105.469,-20.020,0
1572309693.908,71.777,71.289,19.043,70.801,40.527,0
1572309693.912,38.574,64.453,12.207,-10.254,51.758,0
1572309693.915,53.711,58.594,7.812,-3.906,18.066,0
1572309693.919,96.680,55.176,4.883,75.684,4.395,0
1572309693.923,69.824,50.293,3.418,71.777,42.480,0
1572309693.927,28.809,45.410,7.812,-4.395,49.805,0
1572309693.931,35.156,45.410,10.254,-16.113,30.273,0
1572309693.928,79.590,41.016,11.719,62.500,41.992,0
1572309693.932,82.031,37.109,13.672,98.145,61.523,0
1572309693.936,36.621,34.668,15.137,30.273,79.102,0
1572309693.940,42.969,32.715,16.113,-12.695,42.480,0
1572309693.944,79.590,28.809,15.625,43.457,-12.695,0
1572309693.948,101.074,27.832,18.066,99.609,-1.953,0
1572309693.952,58.105,30.273,21.484,46.387,18.066,0
1572309693.955,40.527,28.320,20.996,-18.066,4.395,0
1572309693.959,62.500,28.320,24.414,7.324,32.227,0
1572309693.963,101.074,27.832,24.902,70.312,68.848,0
1572309693.967,58.105,23.438,22.949,41.016,63.965,0
1572309693.971,26.855,19.531,20.508,-26.367,30.762,0
1572309693.968,44.434,20.996,17.090,-21.484,19.043,0
1572309693.972,92.285,20.508,15.137,51.758,20.020,0
1572309693.976,64.453,20.020,14.648,56.152,-27.832,0
1572309693.980,9.766,20.508,14.648,-20.020,-11.719,0
1572309693.984,12.695,14.648,13.184,-45.898,15.625,0
1572309693.988,49.805,9.766,14.648,19.531,37.598,0
1572309693.992,56.152,12.695,15.625,59.570,63.965,0
1572309693.995,9.277,14.160,15.137,-0.488,49.316,0
1572309693.999,3.906,12.207,17.578,-47.363,41.992,0
1572309694.003,41.016,11.719,21.484,8.301,73.730,0
1572309694.007,76.172,16.113,20.020,79.590,16.602,0
1572309694.011,33.203,22.461,22.461,38.574,-59.082,0
1572309694.028,27.832,23.926,27.832,-16.602,-25.879,0
1572309694.032,60.059,22.949,30.762,18.555,-16.113,0
1572309694.036,85.938,22.949,30.762,100.098,-39.551,0
1572309694.040,42.480,18.066,29.297,89.355,9.277,0
1572309694.044,7.324,14.648,29.297,18.066,14.160,0
1572309694.048,19.043,14.648,22.461,12.207,61.523,0
1572309694.052,59.570,12.695,17.090,76.172,125.000,0
1572309694.055,43.945,10.742,15.625,90.332,75.684,0
1572309694.059,-1.953,8.301,14.160,17.578,4.395,0
1572309694.063,1.465,7.812,15.137,-17.578,25.391,0
1572309694.067,42.969,6.836,17.090,50.293,22.461,0
1572309694.071,53.711,3.418,17.090,94.238,64.941,0
1572309694.068,-1.953,4.395,16.602,21.973,51.270,0
1572309694.072,-13.672,5.371,19.531,-33.691,-17.578,0
1572309694.076,17.090,2.930,15.625,14.648,20.508,0
1572309694.080,52.246,1.465,14.648,81.543,56.641,0
1572309694.084,8.789,1.465,16.602,39.062,52.246,0
1572309694.088,-12.207,4.883,17.578,-29.785,66.895,0
1572309694.092,14.160,8.789,17.090,-4.883,100.586,0
1572309694.095,68.359,11.230,19.043,69.336,81.055,0
1572309694.099,41.504,13.184,22.949,56.152,32.715,0
1572309694.103,-3.418,12.207,20.020,-24.902,28.320,0
1572309694.107,8.789,11.230,18.066,-37.109,-9.277,0
1572309694.111,59.570,10.742,18.066,44.922,-46.875,0
1572309694.108,51.758,10.254,19.043,64.941,-65.918,0
1572309694.112,3.418,9.277,19.531,-12.207,20.996,0
1572309694.116,5.371,7.324,18.555,-47.363,106.445,0
1572309694.120,42.480,3.906,17.578,7.324,73.730,0
1572309694.124,61.523,2.930,16.602,56.152,70.801,0
1572309694.128,14.160,0.977,17.578,-0.488,54.199,0
1572309694.132,3.418,0.977,16.113,-54.199,42.480,0
1572309694.135,26.855,3.906,14.160,-9.766,43.457,0
1572309694.139,63.477,4.395,17.090,64.453,50.293,0
1572309694.143,24.414,0.977,20.996,40.039,71.777,3
1572309694.147,-4.883,1.953,21.973,-26.367,79.102,0
1572309694.151,13.184,3.418,23.438,-9.277,-18.555,0
1572309694.168,59.082,0.000,23.926,67.383,-34.668,0
1572309694.172,35.645,-3.418,20.996,62.988,7.812,0
1572309694.176,-5.859,-4.395,21.973,-12.695,25.879,0
1572309694.180,9.277,-4.395,21.973,-31.250,42.969,0
1572309694.184,52.734,3.906,24.902,45.410,5.371,0
1572309694.188,49.316,19.531,37.109,87.891,6.348,0
1572309694.192,6.348,28.320,43.457,20.020,31.738,0
1572309694.195,13.184,31.738,44.922,-21.973,21.973,0
1572309694.199,49.805,29.785,41.992,30.762,-16.602,0
1572309694.203,69.824,25.879,40.039,83.496,-1.953,0
1572309694.207,18.066,27.344,39.551,29.297,-7.324,0
1572309694.211,4.395,30.762,35.156,-28.320,27.344,0
1572309694.208,30.762,32.715,34.668,2.441,67.871,0
1572309694.212,64.941,31.738,34.668,73.730,0.977,0
1572309694.216,25.879,31.250,33.203,58.105,38.086,0
1572309694.220,-8.301,27.832,31.738,-18.555,31.250,0
1572309694.224,7.324,26.367,30.273,-16.602,34.180,0
1572309694.228,58.105,27.344,37.109,63.477,65.918,0
1572309694.232,40.527,26.367,41.504,74.707,62.012,0
1572309694.235,0.977,27.832,37.598,1.953,10.254,0
1572309694.239,12.695,29.297,36.133,-19.043,-13.672,0
1572309694.243,50.293,29.785,35.645,41.992,27.832,0
1572309694.247,59.082,31.738,30.762,70.801,5.859,0
1572309694.251,8.789,31.250,28.320,14.160,1.953,0
1572309694.248,1.465,32.715,28.809,-25.391,85.938,0
1572309694.252,36.133,35.645,27.832,22.949,55.664,0
1572309694.256,64.941,33.203,28.320,85.938,-0.488,0
1572309694.260,19.043,31.250,28.320,36.621,37.598,0
1572309694.264,0.000,35.156,26.367,-30.762,42.969,0
1572309694.268,23.926,36.621,23.438,-0.488,36.133,0
1572309694.272,74.219,34.668,20.996,76.172,38.086,0
1572309694.275,45.410,35.156,23.438,60.547,-10.742,0
1572309694.279,9.766,34.180,30.273,-14.160,2.441,0
1572309694.283,22.949,29.297,31.250,-10.254,29.785,0
1572309694.287,70.312,28.320,29.785,70.312,27.344,0
1572309694.291,57.617,32.715,29.297,83.496,58.105,0
1572309694.309,4.395,37.109,27.344,10.742,-6.836,0
1572309694.313,10.742,36.621,27.344,-21.484,15.137,0
1572309694.317,56.152,32.227,26.367,41.504,55.664,0
1572309694.321,70.312,30.273,28.320,94.238,16.602,0
1572309694.325,17.578,34.180,33.203,36.133,24.414,0
1572309694.329,5.859,38.086,31.738,-15.137,17.090,0
1572309694.333,31.738,41.504,34.180,21.484,37.109,0
1572309694.336,71.777,45.898,38.086,95.703,57.617,0
1572309694.340,33.691,49.805,36.621,72.266,54.199,0
1572309694.344,11.230,49.316,36.621,4.395,13.672,0
1572309694.348,29.785,44.922,34.180,18.066,11.230,0
1572309694.352,72.754,41.992,34.180,90.820,28.809,0
1572309694.348,47.852,42.480,33.203,84.473,41.016,0
1572309694.352,3.906,41.016,28.320,8.789,77.148,0
1572309694.356,18.555,37.109,26.367,-5.859,10.742,0
1572309694.360,67.871,35.156,24.902,64.453,-43.457,0
1572309694.364,60.547,34.668,27.832,83.984,18.555,0
1572309694.368,6.836,31.250,30.273,11.230,59.570,0
1572309694.372,6.836,27.832,26.367,-24.414,85.449,0
1572309694.375,53.223,26.367,24.902,37.109,10.742,0
1572309694.379,73.242,25.879,27.832,96.191,-11.230,0
1572309694.383,21.973,25.391,29.785,28.320,67.383,0
1572309694.387,14.648,24.902,30.273,-32.227,12.207,0
1572309694.391,48.828,22.461,29.297,17.578,7.812,0
1572309694.388,90.820,20.508,31.250,87.891,97.656,0
1572309694.392,48.828,22.949,32.227,56.641,83.496,0
1572309694.396,14.648,23.926,33.203,-19.043,57.617,0
1572309694.400,30.762,23.926,36.133,-10.742,52.734,0
1572309694.404,75.684,24.902,31.250,65.918,14.648,0
1572309694.408,52.246,25.879,28.809,65.430,28.809,0
1572309694.412,7.324,29.297,29.785,-6.348,28.320,0
1572309694.415,11.230,30.762,31.738,-35.156,45.410,0
1572309694.419,57.617,32.227,36.133,36.621,49.805,0
1572309694.423,63.965,34.180,33.691,84.473,33.203,0
1572309694.427,10.742,34.180,27.832,9.766,-3.906,0
1572309694.431,2.441,33.203,26.367,-32.715,-2.930,0
1572309694.448,38.574,31.738,25.879,22.461,27.344,0
1572309694.452,64.453,31.738,26.855,80.078,18.066,0
1572309694.456,20.020,36.133,31.738,30.762,18.066,0
1572309694.460,2.441,37.598,32.227,-35.156,-37.109,0
1572309694.464,20.508,37.109,31.738,-2.930,-12.695,0
1572309694.468,59.570,37.598,31.738,65.918,51.758,0
1572309694.472,29.785,39.551,32.227,42.480,50.293,0
1572309694.475,2.441,36.621,30.762,-20.020,16.113,0
1572309694.479,13.672,34.668,29.785,-10.742,16.602,0
1572309694.483,59.082,39.062,32.227,72.754,-20.996,0
1572309694.487,41.016,41.504,28.320,81.543,-22.949,0
1572309694.491,-7.812,41.016,25.391,5.859,19.043,0
1572309694.488,1.465,41.016,28.320,-13.184,41.504,0
1572309694.492,55.664,43.945,33.691,59.570,72.266,0
1572309694.496,66.895,44.434,36.621,103.027,60.059,0
1572309694.500,9.277,42.969,34.668,38.086,53.711,0
1572309694.504,4.395,44.434,32.715,-5.859,14.160,0
1572309694.508,35.645,40.527,31.250,41.992,47.363,0
1572309694.512,66.406,38.574,28.809,93.750,75.195,0
1572309694.515,24.414,37.598,25.879,44.434,62.012,0
1572309694.519,1.465,35.156,23.926,-27.832,74.707,0
1572309694.523,20.508,33.691,23.926,-14.160,65.918,0
1572309694.527,67.871,33.203,26.367,60.547,100.098,0
1572309694.531,37.109,33.691,27.832,45.898,57.617,0
1572309694.528,6.836,36.133,22.461,-26.855,19.043,0
1572309694.532,22.949,39.062,21.484,-27.832,-29.785,0
1572309694.536,60.547,40.039,24.902,45.898,-56.152,0
1572309694.540,52.246,36.621,25.879,64.941,23.438,0
1572309694.544,2.930,34.668,25.879,-2.930,-4.395,0
1572309694.548,1.465,36.621,25.879,-25.391,-33.203,0
1572309694.552,45.410,40.039,29.297,39.551,-14.648,0
1572309694.555,58.105,40.527,33.203,82.031,-30.762,0
1572309694.559,6.836,39.551,34.180,26.367,23.926,0
1572309694.563,4.395,39.551,35.156,-19.531,46.387,0
1572309694.567,41.992,38.086,36.133,20.996,66.895,0
1572309694.571,73.242,39.062,37.598,85.938,51.758,0
1572309694.588,25.391,41.504,38.086,53.711,46.875,0
1572309694.592,0.488,40.527,35.156,-18.555,82.520,0
1572309694.596,21.484,40.527,33.691,-6.348,37.109,0
1572309694.600,72.266,42.480,34.668,71.289,0.000,0
1572309694.604,46.387,43.457,32.715,65.430,5.371,0
1572309694.608,3.906,43.457,31.250,-6.348,25.879,0
1572309694.612,19.043,41.504,35.645,-19.531,61.035,0
1572309694.615,62.988,41.016,37.109,49.805,33.203,0
1572309694.619,54.688,40.039,36.621,71.289,25.879,0
1572309694.623,8.789,38.086,36.621,-0.488,102.051,0
1572309694.627,7.324,41.016,35.645,-39.551,61.523,0
1572309694.631,41.504,40.039,34.180,15.137,21.484,0
1572309694.628,64.941,38.086,29.297,76.172,50.293,0
1572309694.632,11.719,38.086,27.344,28.809,74.219,0
1572309694.636,-1.465,36.133,29.297,-27.832,88.867,0
1572309694.640,24.902,34.668,29.785,9.277,40.527,0
1572309694.644,62.012,34.180,27.832,83.008,86.426,0
1572309694.648,21.973,34.180,24.414,54.688,97.168,0
1572309694.652,-4.395,36.133,23.926,-14.160,54.199,0
1572309694.655,22.949,36.133,26.367,-1.953,54.688,0
1572309694.659,76.660,37.598,26.367,72.266,-2.930,0
1572309694.663,54.688,40.527,22.461,72.754,-3.906,0
1572309694.667,13.672,40.039,23.438,4.395,37.109,0
1572309694.671,24.414,39.062,26.367,-12.695,59.082,0
1572309694.688,67.871,36.621,26.367,55.176,32.227,0
1572309694.692,70.312,36.133,22.949,89.355,57.129,0
1572309694.696,11.230,36.621,20.020,16.113,95.703,0
1572309694.700,5.859,36.133,20.508,-33.691,16.113,0
1572309694.704,45.410,37.109,21.973,13.184,-10.742,0
1572309694.708,70.312,38.574,20.020,68.848,4.395,0
1572309694.712,24.902,38.574,16.113,26.367,31.738,0
1572309694.715,3.418,38.574,19.043,-41.992,25.879,0
1572309694.719,22.949,36.621,21.484,-16.602,-25.879,0
1572309694.723,66.895,37.598,20.508,51.270,14.648,0
1572309694.727,28.320,37.598,20.020,21.484,49.805,0
1572309694.731,-9.766,35.156,20.508,-52.246,79.590,0
1572309694.728,4.883,35.645,21.484,-49.805,39.062,0
1572309694.732,51.270,35.156,21.484,25.879,-1.465,0
1572309694.736,34.180,33.203,19.531,32.715,15.137,0
1572309694.740,-11.719,33.691,18.555,-41.992,-21.973,0
1572309694.744,-0.977,33.203,20.020,-60.547,-3.906,0
1572309694.748,48.828,30.762,22.461,8.789,42.480,0
1572309694.752,59.570,31.738,25.391,55.664,59.570,0
1572309694.755,8.301,32.227,28.809,-3.906,38.086,0
1572309694.759,9.277,32.227,29.297,-56.152,15.137,0
1572309694.763,41.992,32.227,25.391,-5.371,-39.551,0
1572309694.767,68.848,34.180,22.949,54.199,-27.344,0
1572309694.771,20.020,35.156,25.391,3.906,-9.766,0
1572309694.768,-2.441,33.203,27.344,-58.594,16.602,0
1572309694.772,21.484,36.133,24.414,-37.109,80.078,0
1572309694.776,65.430,40.039,21.973,35.156,44.922,0
1572309694.780,33.691,41.992,23.926,24.902,0.977,0
1572309694.784,0.488,44.434,24.902,-42.969,39.551,0
1572309694.788,12.207,43.945,23.438,-54.199,55.176,0
1572309694.792,53.711,43.457,24.902,15.137,64.941,0
1572309694.795,46.875,43.945,23.926,41.992,79.590,0
1572309694.799,-0.977,41.992,17.578,-29.297,50.781,0
1572309694.803,1.953,42.969,17.578,-60.059,23.438,0
1572309694.807,48.340,46.387,20.996,5.859,-11.719,0
1572309694.811,60.547,45.898,22.461,54.688,45.410,0
1572309694.828,8.301,42.969,23.438,-0.977,57.617,0
1572309694.832,1.465,43.945,22.949,-56.641,40.527,0
1572309694.836,32.715,44.922,22.461,-12.695,99.121,0
1572309694.840,67.383,45.410,20.020,55.664,56.152,0
1572309694.844,18.066,45.898,20.020,20.508,-38.086,0
1572309694.848,-5.371,44.434,25.879,-39.062,-24.902,0
1572309694.852,20.020,48.340,29.785,-23.438,36.621,0
1572309694.855,64.941,49.316,30.762,51.758,-8.789,0
1572309694.859,42.969,47.852,31.250,55.176,0.977,0
1572309694.863,4.395,49.805,29.785,-8.301,69.336,0
1572309694.867,14.160,50.293,28.809,-14.648,53.223,0
1572309694.871,63.965,49.316,26.855,62.988,35.156,0
1572309694.868,62.988,50.781,28.320,97.168,67.871,0
1572309694.872,12.695,52.734,29.297,35.645,57.129,0
1572309694.876,14.648,54.688,28.320,4.883,2.930,0
1572309694.880,53.223,54.199,29.785,66.406,27.344,0
1572309694.884,71.777,54.688,29.297,123.047,32.227,0
1572309694.888,20.508,57.129,27.344,69.336,7.812,0
1572309694.892,10.742,59.570,26.855,14.160,46.387,0
1572309694.895,35.645,58.594,26.367,51.758,55.664,0
1572309694.899,68.848,56.641,26.367,121.582,-2.930,0
1572309694.903,32.715,55.664,28.809,98.633,19.043,0
1572309694.907,3.418,56.152,29.785,22.461,83.984,0
1572309694.911,13.184,59.570,32.227,24.902,49.805,0
1572309694.908,61.523,62.988,36.133,106.445,24.414,0
1572309694.912,45.410,62.500,37.109,110.840,81.055,0
1572309694.916,2.441,59.570,38.574,34.180,76.172,0
1572309694.920,11.719,60.547,41.016,13.184,32.227,0
1572309694.924,57.617,62.500,40.527,83.496,60.547,0
1572309694.928,58.594,61.523,36.621,116.699,35.156,0
1572309694.932,6.836,59.082,35.645,48.828,7.324,0
1572309694.935,8.789,61.035,38.574,6.836,45.410,0
1572309694.939,36.621,62.500,39.062,56.641,61.035,0
1572309694.943,59.082,59.570,40.527,112.793,46.875,0
1572309694.947,18.555,57.129,43.945,68.359,-19.043,0
1572309694.951,2.441,58.594,42.969,4.395,-48.340,0
1572309694.968,25.879,59.082,39.551,30.273,-65.918,0
1572309694.972,73.242,58.594,36.621,102.539,-43.457,0
1572309694.976,40.039,57.617,35.156,74.707,32.227,0
1572309694.980,0.488,56.152,35.156,5.371,45.410,0
1572309694.984,20.020,56.152,35.645,9.277,20.020,0
1572309694.988,76.660,55.176,37.598,82.520,11.230,0
1572309694.992,57.129,55.664,37.598,89.844,70.312,0
1572309694.995,9.277,56.641,36.621,8.301,75.195,0
1572309694.999,21.484,56.152,37.109,-10.742,51.270,0
1572309695.003,64.453,54.688,38.086,61.035,58.594,0
1572309695.007,73.242,52.246,38.086,99.609,18.555,0
1572309695.011,24.902,53.223,34.668,36.133,0.488,0
1572309695.008,23.438,52.734,34.180,-9.277,10.742,0
1572309695.012,62.012,50.293,36.621,43.945,24.414,0
1572309695.016,96.191,49.316,37.109,114.258,40.039,0
1572309695.020,45.898,48.828,35.156,78.125,16.602,0
1572309695.024,21.484,47.852,32.227,16.602,5.371,0
1572309695.028,45.898,49.805,34.668,36.621,83.984,0
1572309695.032,92.773,51.270,39.062,115.234,57.617,0
1572309695.035,63.965,49.316,35.645,105.957,18.066,0
1572309695.039,26.855,47.363,32.227,28.320,60.059,0
1572309695.043,34.668,48.828,31.738,18.555,34.668,0
1572309695.047,81.055,49.805,32.715,75.684,-2.930,0
1572309695.051,71.777,47.852,36.621,91.797,33.203,0
1572309695.048,16.113,44.922,36.621,24.902,28.809,0
1572309695.052,12.695,41.016,34.668,-10.254,-21.973,0
1572309695.056,51.270,40.039,32.227,53.223,42.969,0
1572309695.060,70.801,43.457,31.738,102.051,44.922,0
1572309695.064,22.461,43.457,32.715,42.480,-14.160,0
1572309695.068,8.789,42.480,34.180,-9.277,16.602,0
1572309695.072,43.457,44.922,36.133,33.691,54.688,0
1572309695.075,86.914,45.410,38.086,101.562,41.992,0
1572309695.079,45.410,43.945,38.086,65.918,35.645,0
1572309695.083,20.996,43.457,38.086,2.441,25.879,0
1572309695.087,44.922,43.457,39.062,27.344,39.551,0
1572309695.091,91.309,44.434,35.645,102.051,47.852,0
1572309695.108,56.152,44.434,30.762,96.191,47.363,0
1572309695.112,13.672,44.434,29.785,23.926,52.246,0
1572309695.116,32.227,44.922,29.297,13.672,19.531,0
1572309695.120,83.496,44.434,27.832,86.914,-0.977,0
1572309695.124,80.078,44.434,28.809,111.816,-55.176,0
1572309695.128,25.391,40.527,28.320,43.457,-41.016,0
1572309695.132,23.438,39.551,26.855,-1.953,21.973,0
1572309695.135,58.594,43.945,27.344,45.898,36.621,0
1572309695.139,75.195,43.945,25.391,106.934,24.414,0
1572309695.143,21.973,44.922,24.414,53.223,12.207,0
1572309695.147,8.301,45.898,22.949,-10.742,27.832,0
1572309695.151,34.668,46.875,21.484,23.438,24.414,0
1572309695.148,75.684,44.922,24.414,94.727,11.230,0
1572309695.152,40.527,44.434,25.879,67.383,12.207,0
1572309695.156,13.672,47.363,27.344,0.977,25.391,0
1572309695.160,28.320,45.410,25.879,14.648,18.555,1
1572309695.164,63.965,45.898,21.973,87.891,60.059,0
1572309695.168,42.969,46.387,20.996,86.914,79.102,0
1572309695.172,4.883,45.410,22.461,14.160,59.570,0
1572309695.175,16.113,48.340,23.926,0.000,26.855,0
1572309695.179,70.312,46.387,25.391,74.707,24.902,0
1572309695.183,76.660,44.434,28.320,113.770,37.598,0
1572309695.187,22.949,50.293,26.855,44.434,12.695,0
1572309695.191,22.949,55.176,24.902,1.953,1.953,0
1572309695.188,62.988,55.664,26.855,58.594,66.895,0
1572309695.192,94.727,55.664,28.809,115.234,81.055,0
1572309695.196,47.852,56.152,28.809,62.012,7.812,0
1572309695.200,41.992,57.129,30.273,2.930,11.719,0
1572309695.204,70.801,55.664,33.691,29.785,62.012,0
1572309695.208,105.957,53.711,34.180,100.586,41.016,0
1572309695.212,81.543,53.223,35.645,80.078,27.344,0
1572309695.215,52.246,52.246,35.645,0.488,15.625,0
1572309695.219,57.617,54.688,36.133,-3.418,-13.184,0
1572309695.223,104.004,58.594,35.645,70.312,14.160,0
1572309695.227,91.797,59.570,31.250,83.008,79.102,0
1572309695.231,43.457,59.082,31.738,10.254,115.234,0
1572309695.248,51.270,58.594,34.180,-13.672,77.637,0
1572309695.252,98.633,61.035,36.133,54.688,61.035,0
1572309695.256,105.957,61.523,36.621,98.145,21.484,0
1572309695.260,56.152,61.523,32.715,37.109,-8.301,0
1572309695.264,49.316,64.453,36.133,-11.230,31.250,0
1572309695.268,78.613,63.965,38.574,37.598,85.938,0
1572309695.272,113.281,63.477,35.156,101.562,70.801,0
1572309695.275,72.754,65.430,37.109,63.477,67.871,0
1572309695.279,54.688,64.453,36.621,4.395,64.453,0
1572309695.283,76.172,62.500,35.156,26.367,20.020,0
1572309695.287,116.699,59.570,34.180,100.586,54.199,0
1572309695.291,79.102,57.617,34.668,92.285,51.758,0
1572309695.288,41.504,59.570,38.086,20.996,45.898,0
1572309695.292,52.246,60.059,38.574,16.113,70.312,0
1572309695.296,93.262,58.105,35.645,82.520,20.996,0
1572309695.300,73.242,57.617,33.691,95.703,-21.973,0
1572309695.304,12.207,57.129,34.180,26.855,6.348,0
1572309695.308,14.648,58.105,36.133,-6.348,-14.160,0
1572309695.312,62.500,60.059,35.156,57.129,-26.855,0
1572309695.315,83.008,59.570,34.668,106.445,-1.953,0
1572309695.319,31.250,60.059,36.133,44.434,-43.457,0
1572309695.323,20.996,62.500,36.133,-10.254,-9.766,0
1572309695.327,54.199,62.988,37.598,33.691,38.086,0
1572309695.331,90.332,64.453,37.598,111.816,67.383,0
1572309695.328,40.527,64.453,37.109,76.172,57.617,0
1572309695.332,16.113,66.895,36.621,1.953,48.340,0
1572309695.336,37.598,69.824,32.715,19.043,37.109,0
1572309695.340,81.055,65.918,34.668,91.309,50.781,0
1572309695.344,55.176,63.477,39.551,84.473,35.645,0
1572309695.348,9.766,65.430,43.945,9.277,36.621,0
1572309695.352,18.555,66.895,41.992,-8.789,94.727,0
1572309695.355,71.777,67.871,39.551,61.035,86.426,0
1572309695.359,63.477,67.383,41.992,76.172,37.109,0
1572309695.363,7.812,66.406,44.434,3.906,41.016,0
1572309695.367,8.789,65.918,43.945,-29.785,32.715,0
1572309695.371,45.898,62.988,45.410,22.949,23.438,0
1572309695.388,69.336,60.547,48.828,80.566,13.672,0
1572309695.392,26.367,61.523,47.363,28.809,4.883,0
1572309695.396,16.113,62.012,41.992,-24.414,19.043,0
1572309695.400,43.945,58.105,42.480,11.230,38.086,0
1572309695.404,84.961,56.152,43.457,83.008,13.672,0
1572309695.408,41.504,55.176,43.457,64.453,-2.441,0
1572309695.412,4.395,54.688,45.898,-8.301,9.277,0
1572309695.415,22.949,57.129,49.316,1.465,32.715,0
1572309695.419,70.312,55.664,51.270,86.426,73.730,0
1572309695.423,49.316,55.176,49.805,88.379,5.371,0
1572309695.427,9.277,56.641,46.387,20.020,2.441,0
1572309695.431,22.949,59.082,43.945,7.812,47.363,0
1572309695.428,71.777,61.523,45.410,85.938,32.715,0
1572309695.432,80.566,59.570,45.410,123.535,0.000,0
1572309695.436,32.227,59.570,43.457,56.641,26.855,0
1572309695.440,25.879,59.570,43.945,20.508,70.312,0
1572309695.444,54.688,57.129,44.434,71.777,28.320,0
1572309695.448,79.102,57.129,42.969,135.742,30.762,0
1572309695.452,33.691,58.594,43.945,92.773,73.730,0
1572309695.455,14.160,59.570,43.945,27.344,19.531,0
1572309695.459,50.293,63.965,49.805,66.895,-4.883,0
1572309695.463,102.051,71.289,57.617,143.555,70.801,0
1572309695.467,55.176,74.219,58.105,116.211,66.406,0
1572309695.471,21.973,71.777,59.082,42.969,30.762,0
1572309695.468,43.945,75.684,57.129,42.480,13.672,0
1572309695.472,88.867,79.590,53.223,120.605,17.578,0
1572309695.476,72.266,77.637,54.199,130.859,8.301,0
1572309695.480,25.879,74.219,55.176,54.688,-18.555,0
1572309695.484,30.762,72.754,53.223,28.809,25.391,0
1572309695.488,69.336,72.266,52.246,94.727,17.578,0
1572309695.492,78.613,70.312,56.152,138.184,-18.066,0
1572309695.495,34.668,73.242,59.082,73.242,2.930,0
1572309695.499,31.250,77.637,56.152,15.137,35.645,0
1572309695.503,62.500,74.219,56.641,59.570,47.852,0
1572309695.507,94.238,72.754,54.688,127.930,40.039,0
1572309695.511,47.363,74.219,53.711,88.867,38.574,0
1572309695.528,23.926,77.148,53.223,20.996,62.012,0
1572309695.532,52.734,80.566,55.176,41.016,64.453,0
1572309695.536,103.516,81.543,55.664,114.258,64.453,0
1572309695.540,78.613,80.566,52.246,98.633,68.359,0
1572309695.544,43.457,79.102,50.781,22.461,64.941,0
1572309695.548,56.641,78.125,51.758,16.602,46.387,0
1572309695.552,104.980,78.125,55.664,84.961,48.828,0
1572309695.555,91.309,76.660,57.129,96.680,34.668,0
1572309695.559,39.551,78.125,55.664,23.438,2.441,0
1572309695.563,42.480,78.613,57.129,-9.766,18.066,0
1572309695.567,76.660,77.637,57.617,49.805,15.137,0
1572309695.571,92.773,76.172,56.152,99.609,22.949,0
1572309695.568,45.898,77.148,55.664,44.922,23.438,0
1572309695.572,37.109,80.078,52.734,-6.836,14.160,0
1572309695.576,67.871,76.172,55.176,36.621,33.691,0
1572309695.580,104.980,72.754,57.617,108.398,36.133,0
1572309695.584,65.918,71.777,54.199,77.637,47.363,0
1572309695.588,44.922,70.312,55.176,12.207,20.996,0
1572309695.592,64.941,68.848,55.176,29.297,12.695,0
1572309695.595,109.375,68.359,53.711,109.375,32.227,0
1572309695.599,81.055,67.871,55.176,108.398,-71.777,0
1572309695.603,34.180,68.848,53.711,31.738,-42.969,0
1572309695.607,46.875,69.336,52.246,19.531,42.969,0
1572309695.611,97.168,65.918,51.270,101.074,35.156,0
1572309695.608,95.703,64.941,49.805,129.395,50.293,0
1572309695.612,48.828,66.895,50.781,61.035,14.648,0
1572309695.616,51.270,71.289,50.781,28.809,-0.488,0
1572309695.620,83.984,73.242,51.758,84.961,46.387,0
1572309695.624,101.074,72.266,54.199,137.695,83.984,0
1572309695.628,48.340,69.336,51.758,78.613,61.523,0
1572309695.632,32.227,65.430,48.828,13.184,16.113,0
1572309695.635,57.129,69.824,52.734,46.875,44.434,0
1572309695.639,102.051,76.660,54.199,110.840,59.082,0
1572309695.643,71.777,78.125,53.711,85.938,38.574,0
1572309695.647,41.504,80.566,52.734,19.531,21.484,0
1572309695.651,56.641,82.031,49.805,24.902,25.391,0
1572309695.668,104.004,79.590,50.293,99.121,91.797,0
1572309695.672,90.332,80.078,50.781,104.004,35.645,0
1572309695.676,42.969,83.008,50.781,32.715,5.371,0
1572309695.680,47.363,82.520,52.246,16.113,44.434,0
1572309695.684,87.402,81.055,51.270,83.496,13.672,0
1572309695.688,82.520,80.566,50.781,119.141,3.418,0
1572309695.692,26.855,79.590,53.223,55.664,49.316,0
1572309695.695,23.438,75.195,54.199,12.695,54.688,0
1572309695.699,59.082,71.289,54.688,66.406,55.176,0
1572309695.703,90.820,67.383,53.223,128.418,82.031,0
1572309695.707,43.945,63.477,51.270,75.195,81.543,0
1572309695.711,20.996,59.570,53.223,5.371,39.062,0
1572309695.708,51.758,57.617,55.664,36.133,-0.977,0
1572309695.712,101.074,60.547,54.199,109.863,29.297,0
1572309695.716,63.965,58.594,48.340,86.426,30.273,0
1572309695.720,26.855,53.711,42.969,9.766,34.668,0
1572309695.724,35.645,51.270,40.039,-0.488,88.867,0
1572309695.728,79.590,51.758,40.039,74.219,32.227,0
1572309695.732,69.336,53.223,41.504,92.773,4.883,0
1572309695.735,18.066,51.270,40.527,17.090,48.340,0
1572309695.739,15.625,48.828,37.598,-15.137,32.715,0
1572309695.743,58.594,46.875,36.621,40.527,2.930,0
1572309695.747,69.824,43.945,38.574,86.914,22.949,0
1572309695.751,21.484,40.527,38.086,32.715,32.715,0
1572309695.748,20.020,39.062,39.062,-12.695,11.719,0
1572309695.752,52.734,37.598,41.504,37.109,67.383,0
1572309695.756,80.078,35.156,38.574,101.074,51.758,0
1572309695.760,32.715,30.762,37.109,65.918,-8.301,0
1572309695.764,6.836,28.320,34.668,1.953,-3.906,0
1572309695.768,18.066,26.855,33.691,20.996,30.273,0
1572309695.772,58.105,25.391,37.598,97.656,62.988,0
1572309695.775,32.715,24.902,39.551,80.566,69.824,0
1572309695.779,-2.930,24.414,42.480,1.465,63.965,0
1572309695.783,7.324,20.020,41.016,-6.836,4.395,0
1572309695.787,51.758,19.531,36.133,67.871,19.531,0
1572309695.791,49.805,23.438,31.250,89.844,28.809,0
1572309695.808,9.277,26.367,24.902,14.648,-18.066,0
1572309695.812,17.090,26.367,24.902,-14.160,31.250,0
1572309695.816,59.570,24.902,27.832,50.781,29.297,0
1572309695.820,74.219,24.414,31.250,101.074,30.273,0
1572309695.824,20.996,25.879,26.855,43.457,66.406,0
1572309695.828,0.977,25.879,20.996,-14.160,44.922,0
1572309695.832,20.996,23.926,20.996,20.996,55.664,0
1572309695.835,60.547,24.902,22.949,89.355,40.527,0
1572309695.839,20.020,28.809,23.438,52.246,-20.020,0
1572309695.843,-5.371,31.250,21.973,-20.508,7.324,0
1572309695.847,15.137,31.250,23.438,-6.836,38.574,0
1572309695.851,59.570,31.738,23.926,76.172,-12.695,0
1572309695.848,35.156,32.227,20.508,73.242,6.836,0
1572309695.852,-6.348,32.227,16.113,-2.930,35.645,0
1572309695.856,2.930,33.203,12.207,-19.043,-7.812,0
1572309695.860,50.293,31.738,15.137,50.293,39.551,0
1572309695.864,48.828,27.344,17.090,86.426,49.805,0
1572309695.868,-0.488,27.832,15.625,17.578,-31.738,0
1572309695.872,0.488,31.250,14.648,-24.902,-11.230,0
1572309695.875,39.062,32.715,16.113,28.809,53.223,0
1572309695.879,62.500,33.203,14.648,86.914,28.809,0
1572309695.883,12.207,32.715,11.719,38.086,18.066,0
1572309695.887,0.000,31.250,17.578,-20.020,40.039,0
1572309695.891,34.668,31.738,21.484,18.555,25.879,0
1572309695.888,83.496,28.809,20.508,89.355,68.359,0
1572309695.892,43.457,27.344,19.531,58.594,25.879,0
1572309695.896,11.230,28.320,18.066,-15.625,-59.082,0
1572309695.900,26.367,30.762,15.137,-10.254,5.859,0
1572309695.904,69.336,31.250,9.766,62.012,28.320,0
1572309695.908,55.664,29.785,7.812,61.523,26.855,0
1572309695.912,19.531,30.762,7.812,-12.207,21.973,0
1572309695.915,30.273,30.762,6.348,-30.273,-15.625,0
1572309695.919,81.055,28.809,12.207,44.434,-4.883,0
1572309695.923,87.402,28.809,17.090,83.496,65.430,0
1572309695.927,31.738,33.203,14.160,3.906,86.426,0
1572309695.931,28.320,34.668,11.719,-40.527,52.734,0
1572309695.948,61.035,33.203,10.742,20.508,42.969,0
1572309695.952,86.914,29.297,9.766,81.055,44.434,0
1572309695.956,40.527,30.273,9.277,30.762,38.086,0
1572309695.960,20.996,32.715,9.766,-35.645,70.312,0
1572309695.964,44.434,31.738,10.254,-8.301,49.805,0
1572309695.968,85.938,30.762,12.207,67.871,31.250,0
1572309695.972,55.664,28.320,9.277,49.316,10.254,0
1572309695.975,27.344,27.832,7.324,-21.484,-26.367,0
1572309695.979,32.715,27.344,6.348,-24.902,51.270,0
1572309695.983,72.754,23.926,4.395,49.316,16.602,0
1572309695.987,58.594,22.461,8.301,66.895,-3.418,0
1572309695.991,7.324,23.926,10.254,-6.348,30.273,0
1572309695.988,15.137,23.438,9.277,-30.273,-0.977,0
1572309695.992,58.594,22.949,10.254,35.156,45.898,0
1572309695.996,67.871,23.438,10.742,79.102,59.570,0
1572309696.000,13.184,24.414,11.230,17.090,-4.395,0
1572309696.004,2.441,24.902,8.789,-38.086,-24.414,0
1572309696.008,36.133,22.949,10.254,5.371,46.875,0
1572309696.012,67.871,21.484,13.184,65.430,41.992,0
1572309696.015,17.090,20.508,9.766,22.949,-17.578,0
1572309696.019,-8.789,19.043,6.348,-40.527,-10.742,0
1572309696.023,14.648,18.555,8.789,-22.461,7.324,0
1572309696.027,62.500,20.508,12.695,49.805,79.102,0
1572309696.031,29.297,24.414,8.789,30.762,73.242,0
1572309696.028,-6.348,26.855,7.324,-42.969,84.473,0
1572309696.032,9.766,31.738,12.695,-41.504,97.656,0
1572309696.036,49.805,36.133,14.160,31.250,41.992,0
1572309696.040,42.969,38.086,13.184,57.617,44.434,0
1572309696.044,-4.395,40.527,12.207,-10.254,28.320,0
1572309696.048,0.977,39.551,15.625,-46.387,60.547,0
1572309696.052,46.875,39.062,20.996,20.508,106.934,0
1572309696.055,62.988,43.457,22.461,72.266,41.016,0
1572309696.059,6.836,45.410,21.973,17.090,-13.184,0
1572309696.063,3.418,49.316,24.902,-23.926,55.176,0
1572309696.067,37.109,52.734,27.344,20.508,60.059,0
1572309696.071,74.219,50.781,27.832,91.309,48.828,0
1572309696.088,33.691,47.852,25.879,58.594,37.109,0
1572309696.092,12.207,46.875,24.902,-11.719,6.836,0
1572309696.096,32.715,46.875,21.973,0.000,51.758,0
1572309696.100,68.848,44.434,18.066,77.148,12.695,0
1572309696.104,42.969,43.945,17.578,76.660,-2.930,0
1572309696.108,-2.441,43.457,16.113,-4.395,26.367,0
1572309696.112,2.930,40.527,15.625,-21.973,16.602,0
1572309696.115,51.758,38.086,16.602,49.805,-23.926,0
1572309696.119,52.246,36.621,16.113,76.172,1.953,0
1572309696.123,4.883,37.109,15.625,8.301,10.254,0
1572309696.127,5.859,37.109,15.137,-39.062,-44.434,0
1572309696.131,45.410,35.156,15.137,12.695,9.277,0
1572309696.128,70.801,33.691,14.648,78.613,74.707,0
1572309696.132,24.414,33.203,16.113,26.367,41.016,0
1572309696.136,13.672,33.203,16.113,-35.156,50.293,0
1572309696.140,39.062,33.691,14.648,-3.418,117.188,0
1572309696.144,77.148,34.180,14.160,64.941,85.449,0
1572309696.148,32.227,35.156,13.672,37.598,5.859,0
1572309696.152,-5.859,36.133,11.719,-34.668,-8.301,0
1572309696.155,14.648,35.645,10.742,-25.391,2.930,0
1572309696.159,63.477,35.645,10.254,51.758,1.953,0
1572309696.163,42.480,37.109,10.254,56.152,25.391,0
1572309696.167,2.930,34.180,13.184,-12.695,42.480,0
1572309696.171,11.230,32.715,16.602,-27.832,66.895,0
1572309696.188,51.758,32.715,20.020,42.969,66.895,0
1572309696.192,59.082,34.180,17.090,81.543,15.625,0
1572309696.196,7.812,33.203,13.672,17.578,8.301,0
1572309696.200,4.883,31.250,16.113,-35.156,-7.324,0
1572309696.204,47.852,32.715,20.020,17.090,-12.207,0
1572309696.208,87.891,35.645,21.484,87.402,14.160,0
1572309696.212,36.133,35.645,21.484,43.945,9.277,0
1572309696.215,3.418,33.691,20.996,-26.367,47.363,0
1572309696.219,26.367,33.203,18.066,-4.395,6.836,0
1572309696.223,68.359,31.738,16.113,75.684,-74.707,0
1572309696.227,28.320,29.297,15.625,59.082,-39.551,0
1572309696.231,-6.836,30.762,17.578,-10.254,6.348,0
1572309696.228,5.371,30.762,18.555,-10.742,20.996,0
1572309696.232,50.293,29.785,20.996,65.918,50.293,0
1572309696.236,41.504,29.297,19.531,85.449,52.246,0
1572309696.240,2.441,30.273,13.184,17.578,-13.672,0
1572309696.244,14.648,31.250,11.719,-2.930,-14.648,0
1572309696.248,49.805,30.273,16.113,63.477,99.121,0
1572309696.252,53.711,28.809,17.090,105.957,77.148,0
1572309696.255,4.395,28.320,14.160,46.875,13.672,0
1572309696.259,0.000,25.879,11.719,-10.254,29.785,0
1572309696.263,30.762,20.996,11.719,27.832,55.664,0
1572309696.267,62.012,21.973,11.230,84.473,44.434,0
1572309696.271,24.902,23.438,7.812,33.203,48.340,3
1572309696.268,4.883,23.926,7.812,-26.855,43.457,0
1572309696.272,19.043,27.344,10.254,-4.883,23.926,0
1572309696.276,66.895,28.809,10.742,65.918,-9.277,0
1572309696.280,38.574,27.344,12.695,54.199,-21.484,0
1572309696.284,-1.953,24.902,12.207,-20.996,35.156,0
1572309696.288,7.812,24.902,10.254,-36.133,13.184,0
1572309696.292,45.410,24.902,7.324,30.762,-28.320,0
1572309696.295,34.180,24.414,3.906,55.664,-13.184,0
1572309696.299,-16.602,26.855,2.441,-23.926,18.555,0
1572309696.303,-17.090,28.809,2.930,-71.777,60.059,0
1572309696.307,20.020,27.832,6.836,-3.906,26.367,0
1572309696.311,32.715,27.344,5.371,54.199,-29.297,0
1572309696.328,-17.578,27.344,0.977,1.465,-23.438,0
1572309696.332,-24.414,28.809,0.488,-51.758,11.719,0
1572309696.336,2.441,30.762,-1.465,-9.766,70.801,0
1572309696.340,41.504,29.785,-4.883,67.871,61.523,0
1572309696.344,-0.977,27.344,-4.883,33.691,-23.926,0
1572309696.348,-26.367,28.320,-3.906,-30.273,-13.672,0
1572309696.352,0.488,31.250,-3.418,-9.277,57.129,0
1572309696.355,49.316,29.785,0.000,62.500,25.391,0
1572309696.359,28.320,27.344,1.953,68.848,24.902,0
1572309696.363,-13.184,29.785,-3.418,3.418,24.414,0
1572309696.367,-8.301,31.250,-2.930,-4.883,61.523,0
1572309696.371,34.668,30.762,-0.488,62.500,99.121,0
1572309696.368,37.598,32.227,-0.488,86.914,53.223,0
1572309696.372,-7.812,35.645,3.418,21.973,27.832,0
1572309696.376,0.977,38.086,6.836,-14.648,31.250,0
1572309696.380,43.945,40.039,10.254,42.480,83.496,0
1572309696.384,63.477,38.574,12.695,95.703,84.473,0
1572309696.388,12.695,38.086,11.230,41.016,71.289,0
1572309696.392,-0.977,38.574,13.672,-14.648,35.645,0
1572309696.395,30.273,39.062,19.531,23.926,-24.414,0
1572309696.399,74.707,41.016,21.484,96.680,41.992,0
1572309696.403,33.203,41.992,20.508,75.195,71.289,0
1572309696.407,0.977,41.504,18.555,-1.953,11.719,0
1572309696.411,23.438,42.480,19.043,1.953,-40.039,0
1572309696.408,74.219,41.992,18.066,85.449,-13.184,0
1572309696.412,53.223,41.504,15.137,91.797,67.383,0
1572309696.416,2.930,40.527,17.090,16.113,47.363,0
1572309696.420,18.066,40.527,17.090,-3.418,18.066,0
1572309696.424,73.242,41.992,18.066,67.383,39.551,0
1572309696.428,79.590,41.504,17.578,106.934,10.742,0
1572309696.432,29.785,40.039,17.090,46.875,-7.812,0
1572309696.435,31.738,40.039,20.020,4.883,41.992,0
1572309696.439,66.406,41.504,17.090,50.781,61.035,0
1572309696.443,99.609,41.504,16.113,112.305,-7.812,0
1572309696.447,55.664,40.039,19.531,76.172,-1.465,0
1572309696.451,30.762,39.062,21.484,20.508,70.801,0
1572309696.468,50.781,36.133,18.555,48.340,63.477,0
1572309696.472,90.332,36.621,16.113,114.746,23.438,0
1572309696.476,62.012,39.551,18.066,96.680,-28.320,0
1572309696.480,31.738,42.480,17.578,22.949,-3.906,0
1572309696.484,41.992,41.992,15.137,15.625,25.391,0
1572309696.488,87.402,37.109,15.625,85.938,43.457,0
1572309696.492,77.148,36.133,16.602,93.750,99.609,0
1572309696.495,24.414,37.598,18.555,15.137,95.215,0
1572309696.499,26.855,36.621,20.020,-15.137,65.430,0
1572309696.503,69.824,37.598,20.996,47.852,53.223,0
1572309696.507,84.961,40.527,23.438,94.238,35.645,0
1572309696.511,36.133,43.945,20.508,31.250,37.109,0
1572309696.508,29.297,45.410,16.602,-24.414,71.777,0
1572309696.512,65.430,43.457,18.066,22.949,69.824,0
1572309696.516,109.863,41.504,21.973,93.262,23.438,0
1572309696.520,58.105,41.992,23.926,52.246,-5.371,0
1572309696.524,19.043,42.969,22.461,-10.254,-20.020,0
1572309696.528,43.457,41.992,22.461,13.672,11.230,0
1572309696.532,92.773,43.945,23.438,92.773,44.922,0
1572309696.535,65.430,45.410,20.996,89.844,86.426,0
1572309696.539,21.484,44.434,20.020,12.207,113.770,0
1572309696.543,25.391,41.504,20.508,1.953,101.562,0
1572309696.547,68.848,40.039,20.996,67.383,31.250,0
1572309696.551,64.941,42.480,21.484,90.332,-31.738,0
1572309696.548,9.277,42.480,19.531,20.996,3.906,0
1572309696.552,1.953,41.504,16.113,-24.902,-2.441,0
1572309696.556,40.039,41.016,15.137,34.668,-21.973,0
1572309696.560,63.477,43.945,16.113,88.867,26.855,0
1572309696.564,10.254,43.945,16.602,26.367,90.332,0
1572309696.568,-7.812,40.039,17.578,-42.969,102.051,0
1572309696.572,19.043,41.016,18.555,-14.160,58.594,0
1572309696.575,56.641,41.504,20.020,57.129,27.832,0
1572309696.579,14.160,42.969,18.555,20.020,-6.836,0
1572309696.583,-13.184,44.434,18.066,-48.340,42.480,0
1572309696.587,4.395,42.969,16.113,-25.391,132.324,0
1572309696.591,52.246,42.480,13.184,51.270,33.691,0
1572309696.608,27.832,39.062,13.672,55.664,2.930,0
1572309696.612,-16.113,40.527,15.625,-12.207,79.102,0
1572309696.616,-4.883,41.992,16.602,-28.809,62.500,0
1572309696.620,39.551,44.922,19.043,41.504,23.926,0
1572309696.624,45.410,47.363,19.043,75.684,43.945,0
1572309696.628,1.465,45.410,15.137,9.277,30.762,0
1572309696.632,0.977,44.434,14.648,-34.668,31.250,0
1572309696.635,35.156,43.945,15.625,18.066,29.785,0
1572309696.639,65.918,43.945,17.090,84.961,26.367,0
1572309696.643,20.996,44.922,19.043,40.527,56.641,0
1572309696.647,-1.465,43.945,18.555,-24.414,31.250,0
1572309696.651,22.949,43.945,18.066,5.371,23.438,0
1572309696.649,68.848,42.480,19.043,79.590,-25.879,0
1572309696.653,33.691,40.527,20.508,53.223,-13.184,0
1572309696.657,1.465,41.016,20.020,-25.879,30.762,0
1572309696.661,22.461,44.434,20.508,-23.926,56.641,0
1572309696.665,69.824,43.945,23.438,51.270,33.691,0
1572309696.669,48.828,45.898,22.461,60.547,19.043,0
1572309696.673,7.812,49.805,22.949,-14.648,81.055,0
1572309696.676,20.020,52.246,25.391,-41.504,84.961,0
1572309696.680,66.895,51.270,25.391,29.785,41.504,0
1572309696.684,72.754,48.340,25.391,73.730,20.020,0
1572309696.688,17.578,45.410,28.320,3.906,13.672,0
1572309696.692,14.160,45.410,27.832,-40.039,35.156,0
1572309696.688,53.223,47.363,24.902,13.672,44.434,0
1572309696.692,91.309,46.875,24.414,82.520,16.113,0
1572309696.696,43.945,49.805,22.461,47.363,-4.883,0
1572309696.700,14.648,51.758,23.438,-10.742,46.875,0
1572309696.704,33.691,52.246,23.438,20.020,42.969,0
1572309696.708,79.102,55.176,22.461,93.750,21.973,0
1572309696.712,51.270,55.176,24.414,80.078,46.387,0
1572309696.715,19.531,54.688,23.438,14.648,54.688,0
1572309696.719,36.133,55.176,21.973,8.301,33.203,0
1572309696.723,92.285,54.199,24.902,82.520,-30.273,0
1572309696.727,86.426,54.199,23.926,106.445,-20.020,0
1572309696.731,31.250,54.688,19.043,37.598,53.711,0
1572309696.748,32.715,53.711,17.578,9.766,107.422,0
1572309696.752,72.266,56.152,15.625,69.336,117.188,0
1572309696.756,88.379,55.176,13.672,109.863,57.129,0
1572309696.760,37.109,50.293,16.602,44.922,37.109,0
1572309696.764,24.414,48.828,19.043,-12.695,22.949,0
1572309696.768,53.711,47.852,19.531,29.785,4.883,0
1572309696.772,88.867,47.852,22.461,103.027,59.570,0
1572309696.775,46.875,46.875,23.926,69.824,84.473,0
1572309696.779,20.508,46.387,19.531,3.418,45.410,0
1572309696.783,40.527,45.898,18.066,24.414,-13.184,0
1572309696.787,86.914,43.457,19.043,108.887,9.766,0
1572309696.791,57.617,42.969,20.020,105.957,42.480,0
1572309696.788,24.414,47.852,21.973,33.691,2.441,0
1572309696.792,39.062,49.316,25.391,25.391,-3.418,0
1572309696.796,83.984,46.387,26.367,101.562,6.348,0
1572309696.800,83.008,45.898,25.879,127.930,49.316,0
1572309696.804,35.645,48.828,26.855,57.129,44.922,0
1572309696.808,32.227,48.340,23.926,17.578,-1.953,0
1572309696.812,65.918,43.945,20.996,71.777,23.438,0
1572309696.815,86.914,42.969,23.926,121.094,-33.691,0
1572309696.819,36.133,43.457,25.391,63.477,-44.434,0
1572309696.823,17.090,43.945,23.926,4.883,9.277,0
1572309696.827,46.875,46.387,26.367,36.621,-2.930,0
1572309696.831,98.145,50.781,30.273,110.840,13.184,0
1572309696.828,60.059,54.688,32.227,91.797,39.551,0
1572309696.832,30.273,54.688,34.668,28.320,15.625,0
1572309696.836,47.852,53.223,32.715,36.133,11.719,0
1572309696.840,91.797,54.199,33.691,106.934,42.969,0
1572309696.844,76.172,54.688,34.180,107.910,23.438,0
1572309696.848,33.203,54.199,32.227,34.180,15.625,0
1572309696.852,36.621,53.711,29.785,14.160,40.039,0
1572309696.855,87.402,57.129,33.203,86.426,54.688,0
1572309696.859,98.145,62.500,41.992,118.652,51.270,0
1572309696.863,49.316,62.500,41.016,53.711,5.859,0
1572309696.867,45.410,64.453,36.621,19.043,-0.977,0
1572309696.871,80.566,63.477,36.621,75.684,28.320,0
1572309696.888,104.980,60.547,37.109,139.160,7.812,0
1572309696.892,59.082,64.941,34.668,86.914,36.133,0
1572309696.896,47.852,66.895,33.203,28.809,72.266,0
1572309696.900,71.777,63.965,33.203,70.312,68.848,0
1572309696.904,109.863,61.035,29.297,143.555,62.012,0
1572309696.908,68.848,59.082,25.391,119.141,17.578,0
1572309696.912,34.668,59.082,22.949,35.156,13.672,0
1572309696.915,58.594,61.035,25.391,32.715,31.250,0
1572309696.919,107.422,60.547,26.855,113.770,-2.930,0
1572309696.923,79.590,59.082,23.926,120.605,-28.320,0
1572309696.927,27.344,60.059,22.949,46.387,-9.277,0
1572309696.931,32.227,59.570,26.367,20.996,55.176,0
1572309696.928,76.172,60.547,28.320,91.309,-6.348,0
1572309696.932,84.473,64.453,26.855,139.648,-6.348,0
1572309696.936,31.250,62.500,25.879,74.219,52.246,0
1572309696.940,26.367,60.547,27.344,24.902,30.762,0
1572309696.944,60.059,61.035,28.809,70.801,72.266,0
1572309696.948,85.449,60.059,30.273,128.418,107.422,0
1572309696.952,30.762,61.523,31.250,83.496,33.203,0
1572309696.955,10.742,63.965,32.227,16.113,-16.113,0
1572309696.959,38.574,63.477,31.250,36.621,13.672,0
1572309696.963,79.102,64.453,28.320,106.934,17.578,0
1572309696.967,42.969,66.895,26.367,87.402,11.230,0
1572309696.971,10.254,65.430,27.832,11.230,36.621,0
1572309696.968,23.438,63.477,29.297,0.977,59.570,0
1572309696.972,69.336,63.477,26.855,65.430,-6.836,0
1572309696.976,61.035,67.383,24.414,79.102,32.715,0
1572309696.980,8.301,67.871,24.414,7.324,44.922,0
1572309696.984,12.207,62.988,22.461,-23.926,12.207,0
1572309696.988,55.664,63.965,20.996,39.551,19.043,0
1572309696.992,76.660,67.383,19.531,90.820,13.672,0
1572309696.995,22.949,64.941,19.043,28.809,60.547,0
1572309696.999,9.766,63.965,21.484,-28.809,96.191,0
1572309697.003,47.363,62.988,22.949,22.461,21.484,0
1572309697.007,78.125,63.965,24.902,100.586,2.930,0
1572309697.011,26.855,65.430,23.438,65.430,55.664,0
1572309697.028,3.906,63.965,24.902,-1.953,40.039,0
1572309697.032,27.344,63.965,24.902,18.066,49.805,0
1572309697.036,76.172,63.965,22.461,97.656,42.480,0
1572309697.040,50.293,61.523,24.414,86.426,31.250,0
1572309697.044,5.371,58.105,24.414,10.742,49.805,0
1572309697.048,15.137,60.547,23.926,1.953,27.344,0
1572309697.052,62.500,65.918,25.879,68.848,-5.859,0
1572309697.055,64.453,68.848,28.320,95.703,2.441,0
1572309697.059,18.066,67.383,28.320,30.273,-11.719,0
1572309697.063,13.184,67.871,28.809,-9.277,2.930,0
1572309697.067,50.781,68.848,26.367,40.039,4.395,0
1572309697.071,69.336,69.336,24.902,94.727,-18.066,0
1572309697.068,12.207,67.871,27.832,40.527,8.789,0
1572309697.072,-0.488,66.895,30.273,-20.020,-25.879,0
1572309697.076,28.809,70.801,28.809,19.043,3.906,0
1572309697.080,75.684,73.730,29.297,89.844,46.387,0
1572309697.084,48.340,73.242,26.855,62.988,7.812,0
1572309697.088,27.344,69.824,24.902,-2.441,35.156,0
1572309697.092,41.016,63.965,24.902,9.277,59.570,0
1572309697.095,88.379,63.965,24.414,86.426,53.223,0
1572309697.099,72.266,67.383,27.832,90.820,63.965,0
1572309697.103,28.320,67.871,27.344,19.531,22.461,0
1572309697.107,32.715,67.383,24.902,4.883,3.906,0
1572309697.111,81.543,68.848,29.297,81.543,48.340,0
1572309697.108,85.938,70.801,31.738,120.117,28.320,0
1572309697.112,30.273,69.336,29.297,53.711,-12.695,0
1572309697.116,32.715,69.824,31.250,12.207,12.207,0
1572309697.120,67.383,71.289,34.668,63.965,82.520,0
1572309697.124,93.262,72.266,37.598,120.605,75.195,0
1572309697.128,50.293,72.754,42.480,77.637,32.715,0
1572309697.132,34.180,71.777,42.480,19.043,33.691,0
1572309697.135,57.129,71.777,39.062,42.480,60.059,0
1572309697.139,97.168,71.289,37.109,107.422,65.918,0
1572309697.143,56.641,69.824,37.109,85.938,35.156,0
1572309697.147,20.020,70.801,43.457,14.160,83.984,0
1572309697.151,34.180,71.777,45.410,10.254,82.520,0
1572309697.168,74.707,70.312,46.875,82.031,3.418,0
1572309697.172,55.176,69.824,48.340,90.820,-36.133,0
1572309697.176,15.137,69.824,44.434,14.648,21.484,0
1572309697.180,24.414,71.289,42.969,-12.695,14.648,0
1572309697.184,69.336,74.219,41.016,52.734,-17.578,0
1572309697.188,80.078,77.637,40.527,97.656,15.137,0
1572309697.192,33.691,81.055,41.992,29.297,7.324,0
1572309697.195,30.762,79.102,41.016,-20.996,12.207,0
1572309697.199,60.059,77.637,41.504,32.227,44.434,0
1572309697.203,86.426,77.637,44.922,96.680,85.449,0
1572309697.207,37.598,78.125,42.969,57.129,85.938,0
1572309697.211,18.555,77.148,40.039,-10.742,-12.207,0
1572309697.208,39.551,77.637,41.016,11.230,-39.062,0
1572309697.212,87.891,80.078,41.016,93.262,65.918,0
1572309697.216,59.082,81.055,43.945,80.566,87.402,0
1572309697.220,20.020,80.566,46.387,8.301,20.508,0
1572309697.224,38.574,78.125,44.922,4.395,-21.484,0
1572309697.228,85.449,74.707,44.434,82.031,8.301,0
1572309697.232,70.801,75.195,44.922,111.328,20.996,0
1572309697.235,28.320,77.637,45.410,43.945,31.738,0
1572309697.239,38.086,79.590,48.828,14.648,16.113,0
1572309697.243,70.312,76.660,50.781,72.754,38.086,0
1572309697.247,90.332,74.707,49.316,124.023,18.066,0
1572309697.251,50.781,73.730,45.898,75.684,6.836,0
1572309697.248,43.945,74.219,43.945,19.043,7.324,0
1572309697.252,78.125,73.730,40.527,57.129,-31.250,0
1572309697.256,109.863,73.242,39.062,122.559,-13.184,0
1572309697.260,65.918,75.195,38.086,87.891,8.789,0
1572309697.264,41.992,74.219,37.109,28.809,37.598,0
1572309697.268,58.594,70.801,36.133,48.340,39.062,0
1572309697.272,109.375,70.801,35.156,122.559,-9.277,0
1572309697.275,84.961,72.266,36.133,115.723,-8.301,0
1572309697.279,42.969,71.777,35.645,35.156,66.895,0
1572309697.283,60.059,67.383,37.598,25.879,30.762,0
1572309697.287,96.191,64.941,39.551,106.934,-8.301,1
1572309697.291,84.473,64.941,37.109,133.789,41.016,0
1572309697.308,36.621,65.430,36.621,60.547,62.012,0
1572309697.312,41.016,66.895,38.086,20.508,19.043,0
1572309697.316,85.449,68.359,40.039,80.078,38.086,0
1572309697.320,110.352,72.266,40.527,132.812,137.695,0
1572309697.324,62.988,72.754,41.992,75.684,101.074,0
1572309697.328,48.340,73.242,44.922,14.160,23.438,0
1572309697.332,75.684,76.172,48.340,45.410,17.090,0
1572309697.335,118.652,74.219,46.387,113.281,41.504,0
1572309697.339,84.961,73.730,41.992,87.402,20.020,0
1572309697.343,54.688,76.172,44.434,21.973,14.160,0
1572309697.347,60.547,75.195,48.340,31.250,29.297,0
1572309697.351,104.492,74.219,49.316,108.887,73.242,0
1572309697.348,95.703,73.730,43.457,120.605,47.852,0
1572309697.352,59.082,72.754,41.504,51.270,22.949,0
1572309697.356,47.363,71.777,43.945,15.137,42.480,0
1572309697.360,70.801,73.730,42.969,67.383,50.781,0
1572309697.364,83.496,74.219,42.969,111.816,39.551,0
1572309697.368,41.504,75.684,41.504,54.199,47.852,0
1572309697.372,31.738,77.148,35.156,3.906,52.246,0
1572309697.375,63.965,76.660,33.691,58.594,12.207,0
1572309697.379,92.773,76.172,35.156,119.629,-27.832,0
1572309697.383,47.363,76.172,37.109,69.824,31.738,0
1572309697.387,31.738,73.730,41.016,10.254,88.379,0
1572309697.391,55.176,72.266,39.551,38.086,70.801,0
1572309697.408,101.562,75.195,37.109,111.328,7.812,0
1572309697.412,73.730,73.730,39.551,90.820,44.922,0
1572309697.416,34.668,74.219,40.527,13.184,99.609,0
1572309697.420,41.504,77.637,41.016,5.371,72.266,0
1572309697.424,88.867,76.172,41.992,76.172,41.992,0
1572309697.428,73.242,77.148,40.527,86.426,48.828,0
1572309697.432,25.879,79.102,40.527,12.207,38.086,0
1572309697.435,32.227,76.660,41.504,-20.020,-25.879,0
1572309697.439,73.730,73.730,40.527,37.109,22.461,0
1572309697.443,83.008,72.266,43.945,81.543,85.449,0
1572309697.447,34.180,75.195,44.434,19.043,68.848,0
1572309697.451,33.203,78.125,40.527,-36.621,24.902,0
1572309697.448,66.406,77.637,41.504,9.277,30.762,0
1572309697.452,95.703,81.543,47.363,71.289,77.148,0
1572309697.456,57.129,87.402,50.293,26.367,15.625,0
1572309697.460,41.992,86.914,51.270,-35.156,-25.391,0
1572309697.464,65.430,85.938,54.688,-20.020,-13.184,0
1572309697.468,113.770,90.332,58.594,49.805,-17.090,0
1572309697.472,89.355,95.703,65.918,44.434,20.508,0
1572309697.475,55.664,100.098,70.801,-22.949,40.527,0
1572309697.479,78.125,102.539,72.754,-18.555,45.898,0
1572309697.483,135.742,105.957,78.613,62.012,47.363,0
1572309697.487,136.230,111.328,81.055,87.402,45.410,0
1572309697.491,85.938,115.723,83.984,13.184,33.691,0
1572309697.488,78.125,114.258,87.402,-15.137,30.762,0
1572309697.492,119.629,118.652,91.797,57.129,38.086,0
1572309697.496,155.273,132.324,105.469,119.629,76.660,0
1572309697.500,108.887,142.090,113.281,76.660,53.223,0
1572309697.504,95.703,143.066,115.723,25.879,13.184,0
1572309697.508,127.930,141.602,116.211,66.406,20.996,0
1572309697.512,159.668,143.066,112.305,135.254,-3.418,0
1572309697.515,116.211,142.578,108.398,105.957,22.949,0
1572309697.519,94.727,140.137,106.934,44.434,40.039,0
1572309697.523,117.188,138.672,107.910,55.176,31.738,0
1572309697.527,161.621,135.742,108.398,137.695,-13.672,0
1572309697.531,129.883,133.789,108.887,152.344,21.484,0
1572309697.528,83.008,131.348,107.422,87.891,88.867,0
1572309697.532,100.098,130.371,103.027,80.078,70.801,0
1572309697.536,146.973,128.906,101.074,149.414,51.270,0
1572309697.540,134.766,121.582,98.633,176.270,2.441,0
1572309697.544,84.961,117.676,93.262,107.910,13.184,0
1572309697.548,83.984,117.188,92.773,67.871,-3.418,0
1572309697.552,120.117,113.770,94.238,128.906,-17.578,0
1572309697.555,142.578,111.328,92.285,181.152,14.160,0
