timestamps,TP9,AF7,AF8,TP10,Right AUX,Marker0
1579287083.789,63.477,49.316,-966.797,43.457,49.805,0
1579287083.793,62.500,48.828,-967.773,47.852,38.086,0
1579287083.797,69.336,43.945,-968.750,44.922,29.785,0
1579287083.801,62.988,42.969,-968.750,38.086,-3.418,0
1579287083.805,43.457,43.457,-968.750,33.203,-52.734,0
1579287083.809,44.434,38.574,-968.750,29.785,-14.648,0
1579287083.813,49.805,43.945,-968.750,19.043,44.434,0
1579287083.816,48.828,56.641,-968.750,9.277,70.801,0
1579287083.820,37.598,55.664,-968.262,0.488,55.176,0
1579287083.824,7.324,58.105,-968.750,-1.465,2.930,0
1579287083.828,-18.066,33.691,-968.262,-17.090,34.180,0
1579287083.832,-25.879,34.180,-968.262,-38.086,63.965,0
1579287083.829,-37.598,62.012,-968.750,-51.758,48.340,0
1579287083.833,-48.340,48.828,-968.262,-60.059,61.035,0
1579287083.837,-57.129,49.805,-968.262,-72.266,68.359,0
1579287083.841,-76.172,51.270,-968.750,-91.309,24.902,0
1579287083.845,-83.496,49.316,-968.750,-92.773,41.992,0
1579287083.849,-88.867,44.434,-968.750,-95.215,76.660,0
1579287083.853,-102.539,42.480,-968.750,-111.328,47.363,0
1579287083.856,-108.887,60.059,-968.262,-122.070,19.531,0
1579287083.860,-110.352,40.039,-968.750,-123.535,34.668,0
1579287083.864,-121.094,26.855,-968.750,-125.488,25.391,0
1579287083.868,-131.348,55.176,-968.750,-128.906,18.555,0
1579287083.872,-118.164,50.293,-968.750,-123.535,35.156,0
1579287083.870,-89.355,48.340,-968.750,-111.328,43.457,0
1579287083.874,-66.406,37.598,-968.750,-89.355,13.672,0
1579287083.878,-44.922,39.551,-968.750,-63.965,-7.324,0
1579287083.882,-33.691,51.758,-968.750,-50.293,44.434,0
1579287083.886,-20.508,34.668,-968.750,-33.203,52.734,0
1579287083.890,8.301,34.668,-969.238,-6.348,25.879,0
1579287083.894,32.227,33.691,-965.820,18.066,13.672,0
1579287083.897,57.129,37.598,-971.191,39.551,19.531,0
1579287083.901,78.613,60.059,-954.102,52.734,46.875,0
1579287083.905,86.914,58.105,-880.371,64.941,46.875,0
1579287083.909,94.238,48.828,-812.012,81.543,28.809,0
1579287083.913,103.516,43.945,-755.859,90.332,74.707,0
1579287083.929,118.164,42.480,-848.633,94.727,66.895,0
1579287083.933,126.465,58.105,-795.410,98.633,3.418,0
1579287083.937,134.277,61.035,-558.105,111.816,24.414,0
1579287083.941,144.043,57.617,-454.590,129.883,42.480,0
1579287083.945,150.391,54.199,-400.391,134.277,46.387,0
1579287083.949,154.785,37.598,-591.309,135.742,10.254,0
1579287083.953,132.324,46.387,-607.910,139.648,20.508,0
1579287083.956,129.883,53.223,-394.043,142.578,20.020,0
1579287083.960,138.672,56.152,-252.441,142.578,4.883,0
1579287083.964,136.719,61.523,-90.820,140.137,20.020,0
1579287083.968,147.949,36.133,-325.684,140.137,3.906,0
1579287083.972,152.344,42.969,-389.648,137.695,30.762,0
1579287083.969,143.066,66.895,-102.051,130.859,14.160,0
1579287083.973,145.996,60.059,-83.496,114.746,23.926,0
1579287083.977,149.414,56.641,-85.938,108.398,44.922,0
1579287083.981,149.902,51.270,-222.168,109.863,-40.527,0
1579287083.985,147.461,55.176,-234.375,102.051,-59.082,0
1579287083.989,140.625,50.293,-203.613,94.727,21.484,0
1579287083.993,139.160,43.945,-307.617,97.168,58.594,0
1579287083.996,124.512,57.129,-156.250,102.539,31.250,0
1579287084.000,112.305,37.109,-202.148,104.492,42.480,0
1579287084.004,107.422,22.949,-415.039,100.586,88.867,0
1579287084.008,92.773,41.016,-312.500,97.656,62.500,0
1579287084.012,79.590,42.969,-148.926,100.098,72.754,0
1579287084.029,79.590,43.457,-11.719,95.215,92.285,0
1579287084.033,83.008,26.367,-147.461,87.891,24.414,0
1579287084.037,86.426,23.926,-281.738,75.195,-31.738,0
1579287084.041,88.379,38.574,-169.434,72.266,-11.230,0
1579287084.045,83.984,30.273,-98.633,76.660,29.297,0
1579287084.049,84.961,22.461,-178.223,70.312,37.109,0
1579287084.053,75.684,8.789,-307.617,61.035,55.664,0
1579287084.056,78.125,5.371,-523.438,53.711,52.246,0
1579287084.060,87.402,38.574,-352.051,53.711,60.059,0
1579287084.064,81.543,35.156,-127.930,56.641,37.109,0
1579287084.068,83.496,28.809,-131.348,50.293,52.734,0
1579287084.072,79.102,17.090,-235.352,45.898,12.207,0
1579287084.069,81.055,10.254,-364.258,47.363,-18.555,0
1579287084.073,82.031,26.855,-262.207,48.340,59.570,0
1579287084.077,56.152,29.785,-161.621,47.363,67.383,0
1579287084.081,54.688,31.250,-155.762,46.875,38.086,0
1579287084.085,71.289,27.832,-190.430,46.875,30.273,0
1579287084.089,65.430,8.789,-368.652,46.387,14.648,0
1579287084.093,51.270,18.066,-458.496,41.504,-4.883,0
1579287084.096,39.062,33.691,-331.543,34.180,42.480,0
1579287084.100,36.621,32.715,-293.457,31.738,62.500,0
1579287084.104,42.969,27.344,-234.863,30.273,45.410,0
1579287084.108,38.086,-6.836,-517.090,19.531,38.574,0
1579287084.112,25.879,-0.977,-644.531,9.766,34.668,0
1579287084.109,22.949,18.555,-340.332,3.906,31.250,0
1579287084.113,14.648,6.348,-302.246,0.000,26.855,0
1579287084.117,9.766,2.441,-281.250,-4.395,49.805,0
1579287084.121,16.602,-11.230,-375.488,-9.277,52.246,0
1579287084.125,27.832,-18.066,-564.453,-6.348,-38.574,0
1579287084.129,30.762,-7.324,-584.961,-2.930,-81.055,0
1579287084.133,27.344,4.395,-493.652,7.324,10.742,0
1579287084.136,28.809,10.254,-397.949,15.625,33.691,0
1579287084.140,33.691,-3.418,-555.176,10.742,10.742,0
1579287084.144,41.016,7.812,-583.496,13.184,42.480,0
1579287084.148,44.434,22.949,-296.875,20.020,83.496,0
1579287084.152,40.039,15.137,-276.367,18.555,67.383,0
1579287084.189,46.387,22.461,-284.668,16.602,26.855,0
1579287084.193,53.711,5.371,-494.629,20.020,30.273,0
1579287084.197,49.316,8.789,-594.727,19.531,50.781,0
1579287084.201,49.316,25.879,-393.066,12.695,41.016,0
1579287084.205,50.781,12.207,-429.688,8.301,34.668,0
1579287084.209,45.898,13.184,-479.980,0.977,94.238,0
1579287084.213,34.668,0.977,-618.652,0.977,90.820,0
1579287084.216,30.762,1.465,-860.352,10.742,36.621,0
1579287084.220,29.785,38.086,-662.109,10.742,50.293,0
1579287084.224,24.414,32.227,-528.320,9.277,20.996,0
1579287084.228,31.250,27.832,-540.039,15.625,46.387,0
1579287084.232,38.574,18.555,-651.367,20.508,20.508,0
1579287084.211,43.457,20.020,-775.391,16.113,-37.598,0
1579287084.215,50.293,26.855,-691.895,15.625,-20.020,0
1579287084.219,45.898,20.020,-688.965,19.531,-13.184,0
1579287084.223,40.039,27.344,-627.930,20.996,13.184,0
1579287084.227,33.691,15.137,-653.320,26.855,33.203,0
1579287084.231,25.879,-4.395,-872.559,19.043,-9.766,0
1579287084.235,20.508,6.348,-930.176,8.301,-34.180,0
1579287084.238,18.066,19.531,-764.648,3.418,14.648,0
1579287084.242,25.391,12.207,-621.094,-3.418,45.898,0
1579287084.246,14.160,-12.207,-733.398,-9.277,28.320,0
1579287084.250,-9.277,-15.625,-870.117,-11.719,21.973,0
1579287084.254,-11.230,1.465,-702.148,-7.324,36.621,0
1579287084.249,-11.230,0.000,-565.918,-4.395,72.266,0
1579287084.253,-9.766,-1.465,-557.129,-10.742,103.516,0
1579287084.257,-25.391,-11.230,-565.430,-10.742,133.301,0
1579287084.261,-54.688,-21.484,-803.223,-8.789,58.594,0
1579287084.265,-76.660,-7.324,-775.879,-7.812,20.508,0
1579287084.269,-120.117,-14.648,-651.855,-12.695,87.402,0
1579287084.273,-146.484,-21.973,-765.137,-20.508,67.871,0
1579287084.276,-145.996,-16.602,-788.574,-13.672,-0.488,0
1579287084.280,-143.066,-32.715,-875.000,-5.859,0.977,0
1579287084.284,-119.141,-32.715,-983.887,-8.789,1.953,0
1579287084.288,-99.121,0.977,-838.867,-12.207,-19.043,0
1579287084.292,-84.473,7.324,-583.496,-7.324,17.090,0
1579287084.309,-67.871,-11.230,-597.168,3.418,12.695,0
1579287084.313,-55.176,-17.090,-694.824,6.836,-13.672,0
1579287084.317,-38.086,-5.371,-596.191,-4.883,9.277,0
1579287084.321,-28.809,-5.859,-548.828,-9.277,11.719,0
1579287084.325,-19.531,-8.301,-507.812,-4.395,71.289,0
1579287084.329,-8.301,-13.672,-563.965,-8.789,48.340,0
1579287084.333,-6.836,-34.180,-820.312,-15.625,-25.391,0
1579287084.336,-5.371,-26.855,-860.840,-22.461,20.020,0
1579287084.340,-2.441,5.859,-550.781,-22.461,22.949,0
1579287084.344,0.488,2.930,-384.766,-18.555,-3.906,0
1579287084.348,1.465,-9.766,-367.676,-17.090,17.578,0
1579287084.352,10.254,-20.020,-516.602,-9.766,39.551,0
1579287084.349,15.137,-8.301,-520.508,-5.859,51.270,0
1579287084.353,8.789,0.000,-390.137,2.441,20.020,0
1579287084.357,20.020,0.000,-342.773,3.418,34.668,0
1579287084.361,30.273,-5.371,-380.371,-0.488,46.875,0
1579287084.365,29.785,-9.766,-476.562,1.953,33.691,0
1579287084.369,16.113,-6.348,-486.328,3.906,51.270,0
1579287084.373,11.230,0.977,-434.570,12.695,45.898,0
1579287084.376,29.785,5.859,-325.684,10.254,66.895,0
1579287084.380,23.926,4.883,-224.121,0.977,78.125,0
1579287084.384,17.090,-15.137,-307.617,12.695,66.895,0
1579287084.388,18.555,-13.672,-419.922,19.531,90.820,0
1579287084.392,19.531,12.207,-288.086,14.160,82.520,0
1579287084.389,20.996,-0.488,-325.684,9.277,-4.395,0
1579287084.393,27.832,1.465,-344.727,9.766,-5.859,0
1579287084.397,35.156,-2.930,-303.223,10.254,56.641,0
1579287084.401,33.691,-14.648,-535.156,6.348,45.898,0
1579287084.405,46.875,4.395,-568.848,9.277,10.254,0
1579287084.409,58.594,-5.371,-591.797,6.836,27.832,0
1579287084.413,47.852,-7.324,-707.520,2.930,21.973,0
1579287084.416,32.715,4.395,-590.820,2.930,0.488,0
1579287084.420,31.250,-15.137,-768.555,-0.488,38.574,0
1579287084.424,21.484,-6.836,-919.922,0.000,7.812,0
1579287084.428,8.789,15.625,-718.750,10.742,-43.457,0
1579287084.432,18.066,16.602,-624.023,19.531,11.230,0
1579287084.449,21.973,12.207,-583.496,19.043,74.219,0
1579287084.453,27.344,3.418,-764.160,17.090,82.031,0
1579287084.457,34.668,14.160,-807.129,20.508,62.988,0
1579287084.461,38.086,21.484,-671.387,21.973,68.359,0
1579287084.465,48.340,18.555,-685.547,19.043,87.891,0
1579287084.469,51.758,11.230,-852.051,20.508,90.820,0
1579287084.473,43.945,-7.324,-979.980,29.297,34.668,0
1579287084.476,46.387,8.301,-953.125,30.273,-6.836,0
1579287084.480,48.828,26.855,-909.668,24.902,19.531,0
1579287084.484,54.199,13.184,-948.730,28.809,-2.441,0
1579287084.488,49.805,22.949,-975.098,33.691,-33.691,0
1579287084.492,41.992,24.414,-965.332,39.062,3.418,0
1579287084.489,51.758,23.926,-969.238,41.504,0.488,0
1579287084.493,50.781,25.391,-968.262,33.203,27.832,0
1579287084.497,52.246,21.973,-968.262,31.250,31.738,0
1579287084.501,59.082,21.973,-968.750,41.504,-49.805,0
1579287084.505,55.664,16.602,-968.262,44.922,-49.805,0
1579287084.509,53.223,12.695,-968.262,40.039,-12.695,0
1579287084.513,50.293,21.484,-968.750,29.785,4.883,0
1579287084.516,43.457,30.273,-968.750,26.367,-7.324,0
1579287084.520,40.527,40.039,-968.750,30.273,33.203,0
1579287084.524,42.480,12.207,-968.262,27.832,63.965,0
1579287084.528,49.805,3.418,-968.750,23.438,29.297,0
1579287084.532,56.152,34.180,-968.750,20.996,71.289,0
1579287084.529,58.105,20.508,-968.750,21.484,30.273,0
1579287084.533,61.035,20.996,-968.262,27.832,-18.066,0
1579287084.537,55.176,10.742,-968.750,22.949,26.855,0
1579287084.541,45.410,6.836,-968.750,18.555,36.133,0
1579287084.545,35.156,18.555,-968.262,21.484,39.551,0
1579287084.549,31.250,7.324,-968.262,23.438,51.758,0
1579287084.553,26.855,1.953,-968.750,20.020,-8.789,0
1579287084.556,19.043,3.906,-968.750,16.602,4.395,0
1579287084.560,27.344,-1.953,-968.262,16.113,28.809,0
1579287084.564,28.320,18.066,-968.262,11.719,15.137,0
1579287084.568,20.020,18.555,-968.750,7.324,11.230,0
1579287084.572,12.695,12.695,-968.262,7.324,16.113,0
1579287084.589,18.555,9.277,-969.238,11.230,55.664,0
1579287084.593,35.156,6.836,-968.262,16.113,84.473,0
1579287084.597,41.016,11.719,-961.914,17.578,74.707,0
1579287084.601,31.738,3.906,-966.309,15.625,39.062,0
1579287084.605,25.879,10.742,-969.727,16.113,29.785,0
1579287084.609,26.855,3.418,-964.355,18.066,17.578,0
1579287084.613,25.879,3.906,-974.121,12.695,41.992,0
1579287084.616,27.344,17.578,-935.059,3.418,55.176,0
1579287084.620,24.414,11.230,-833.984,5.859,36.621,0
1579287084.624,21.973,12.207,-772.461,12.695,37.598,0
1579287084.628,12.695,13.672,-703.613,14.160,54.688,0
1579287084.632,10.254,-6.836,-842.773,12.207,83.496,0
1579287084.629,20.996,1.953,-885.254,6.836,119.629,0
1579287084.633,25.391,15.625,-719.727,10.254,79.590,0
1579287084.637,23.926,10.742,-676.758,17.090,48.828,0
1579287084.641,28.809,15.137,-622.070,13.672,86.426,0
1579287084.645,32.227,7.324,-716.797,4.883,97.656,0
1579287084.649,37.109,-0.488,-901.367,9.766,31.738,0
1579287084.653,47.363,8.301,-889.648,17.090,7.324,0
1579287084.656,51.758,4.395,-904.297,17.090,-12.207,0
1579287084.660,50.781,7.812,-883.789,12.695,-62.988,0
1579287084.664,47.363,1.465,-875.977,6.836,-8.789,0
1579287084.668,42.969,7.812,-864.258,9.766,58.105,0
1579287084.672,41.016,22.949,-720.703,13.184,-6.836,0
1579287084.669,36.133,17.090,-723.633,12.207,-35.156,0
1579287084.673,33.691,23.438,-644.531,16.602,23.438,0
1579287084.677,36.133,3.906,-752.441,24.902,25.391,0
1579287084.681,39.062,3.906,-846.680,21.484,65.430,0
1579287084.685,35.645,21.973,-669.922,18.555,41.016,0
1579287084.689,32.227,2.441,-799.805,16.113,-10.742,0
1579287084.693,30.762,17.090,-774.902,16.602,30.762,0
1579287084.696,38.086,7.812,-663.574,20.996,26.855,0
1579287084.700,48.828,-11.230,-887.695,16.602,0.000,0
1579287084.704,34.668,21.484,-755.859,12.207,27.832,0
1579287084.708,24.902,30.762,-481.445,17.578,62.988,0
1579287084.712,37.598,23.926,-480.957,20.020,21.973,0
1579287084.729,33.203,6.348,-618.652,19.531,-10.742,0
1579287084.733,24.414,-0.488,-732.422,14.648,20.508,0
1579287084.737,29.297,11.719,-607.910,14.160,71.777,0
1579287084.741,31.250,6.836,-522.949,15.625,53.711,0
1579287084.745,31.250,6.836,-491.699,12.695,13.184,0
1579287084.749,28.809,2.441,-547.852,13.672,80.078,0
1579287084.753,35.645,-9.277,-844.727,15.137,97.656,0
1579287084.756,36.133,11.230,-857.910,16.602,29.785,0
1579287084.760,23.926,22.949,-606.934,18.555,27.344,0
1579287084.764,21.973,14.648,-580.566,21.484,30.273,0
1579287084.768,19.531,10.742,-598.145,24.902,26.855,0
1579287084.772,19.531,-0.977,-721.680,27.832,46.387,0
1579287084.769,27.832,7.812,-751.953,31.738,32.227,0
1579287084.773,28.320,17.578,-639.648,26.855,32.715,0
1579287084.777,19.531,14.160,-654.785,15.625,54.688,0
1579287084.781,20.508,12.695,-722.656,15.625,16.602,0
1579287084.785,20.996,5.371,-816.895,19.043,-29.785,0
1579287084.789,20.508,5.859,-868.652,17.090,0.000,0
1579287084.793,25.391,13.184,-862.793,12.695,48.340,0
1579287084.796,23.926,17.090,-810.547,12.207,18.066,0
1579287084.800,23.438,25.879,-683.105,21.484,-0.977,0
1579287084.804,36.621,-0.977,-830.078,26.367,-19.043,0
1579287084.808,45.898,3.418,-903.809,20.508,24.414,0
1579287084.812,40.527,33.203,-693.359,20.508,72.266,0
1579287084.809,22.461,20.996,-618.652,21.973,72.266,0
1579287084.813,27.344,16.602,-569.824,20.996,60.059,0
1579287084.817,38.086,5.859,-681.152,15.625,22.461,0
1579287084.821,30.762,12.207,-720.703,8.301,51.270,0
1579287084.825,31.738,20.508,-566.895,14.160,54.688,0
1579287084.829,18.555,7.324,-638.184,22.949,48.340,0
1579287084.833,-1.953,15.625,-630.371,15.625,44.922,0
1579287084.836,2.441,2.930,-663.086,12.207,58.105,0
1579287084.840,20.020,2.930,-767.578,17.090,50.781,0
1579287084.844,22.949,28.320,-515.137,20.508,68.359,0
1579287084.848,20.996,19.531,-410.645,23.926,134.277,0
1579287084.852,21.484,17.090,-477.539,21.973,71.777,0
1579287084.869,18.066,-3.906,-686.523,22.949,4.883,0
1579287084.873,22.461,0.977,-808.594,31.250,18.555,0
1579287084.877,27.832,31.738,-590.820,33.691,40.527,0
1579287084.881,29.297,22.949,-567.871,26.855,14.160,0
1579287084.885,30.762,17.090,-648.438,20.996,-9.277,0
1579287084.889,33.203,4.883,-750.000,22.461,38.574,0
1579287084.893,29.297,-10.254,-953.125,21.484,14.648,0
1579287084.896,27.344,18.555,-867.676,14.648,8.301,0
1579287084.900,30.762,25.879,-693.848,16.113,48.828,0
1579287084.904,35.156,14.160,-732.910,16.602,-12.695,0
1579287084.908,39.062,13.184,-735.840,26.855,11.230,0
1579287084.912,31.738,6.348,-779.297,35.156,36.621,0
1579287084.909,24.414,15.625,-772.461,25.391,8.301,0
1579287084.913,31.250,15.137,-762.695,26.855,11.230,0
1579287084.917,39.551,17.578,-752.930,32.715,7.324,0
1579287084.921,40.039,18.555,-715.332,29.785,33.203,0
1579287084.925,33.691,7.812,-811.035,24.902,9.766,0
1579287084.929,19.531,8.301,-875.488,21.484,2.441,0
1579287084.933,18.066,17.090,-860.352,20.996,31.250,0
1579287084.936,27.832,29.785,-791.016,22.949,31.738,0
1579287084.940,35.156,29.297,-739.258,18.555,10.742,0
1579287084.944,41.504,5.859,-883.789,12.695,54.199,0
1579287084.948,41.016,14.648,-892.090,14.648,73.730,0
1579287084.952,38.574,39.062,-632.812,22.949,41.016,0
1579287084.949,41.504,33.691,-527.832,20.508,74.707,0
1579287084.953,41.016,25.879,-559.570,18.555,59.082,0
1579287084.957,41.992,21.973,-653.809,27.344,21.484,0
1579287084.961,37.109,31.250,-604.004,26.367,43.457,0
1579287084.965,31.738,24.902,-551.758,23.438,24.902,0
1579287084.969,36.621,10.742,-750.977,16.113,4.883,0
1579287084.973,25.879,23.438,-792.480,16.113,28.320,0
1579287084.976,13.184,10.254,-839.355,22.461,-12.207,0
1579287084.980,11.230,6.836,-947.266,22.461,-36.621,0
1579287084.984,10.742,36.133,-726.074,25.879,20.020,0
1579287084.988,20.996,26.855,-608.398,28.809,55.664,0
1579287084.992,24.902,16.602,-701.660,32.715,8.301,0
1579287085.009,20.020,14.648,-740.234,35.645,5.371,0
1579287085.013,24.414,15.137,-745.605,31.738,-22.949,0
1579287085.017,27.344,23.926,-695.312,26.367,-20.020,0
1579287085.021,22.461,29.785,-611.816,23.438,79.590,0
1579287085.025,23.926,32.715,-547.852,20.508,80.566,0
1579287085.029,28.809,5.371,-726.074,14.648,39.062,0
1579287085.033,25.879,4.883,-945.801,-3.418,16.602,0
1579287085.036,14.160,41.504,-720.703,-4.883,27.832,0
1579287085.040,20.508,33.691,-520.508,7.324,24.414,0
1579287085.044,25.879,31.738,-456.055,8.789,27.344,0
1579287085.048,25.879,22.461,-520.020,12.695,38.086,0
1579287085.052,30.762,20.020,-580.078,19.531,55.176,0
1579287085.049,36.621,29.297,-434.570,32.227,65.430,0
1579287085.053,41.504,23.926,-366.699,41.504,89.355,0
1579287085.057,32.715,20.996,-427.246,37.598,97.656,0
1579287085.061,25.391,14.160,-554.199,27.344,8.301,0
1579287085.065,27.344,16.113,-569.336,25.879,4.395,0
1579287085.069,37.598,20.508,-548.828,31.738,41.016,0
1579287085.073,29.785,17.090,-662.598,26.855,-3.906,0
1579287085.076,18.066,29.297,-644.531,19.043,-4.883,0
1579287085.080,29.785,28.809,-540.527,17.090,24.414,0
1579287085.084,25.391,18.066,-646.484,28.809,35.645,0
1579287085.088,8.301,29.297,-606.934,32.227,37.598,0
1579287085.092,13.184,25.391,-539.551,31.738,5.371,0
1579287085.089,20.020,23.926,-562.012,37.109,-2.441,0
1579287085.093,18.066,25.391,-451.660,45.898,54.199,0
1579287085.097,25.879,11.719,-598.633,52.246,62.500,0
1579287085.101,34.180,19.531,-626.953,50.293,43.945,0
1579287085.105,34.180,24.902,-495.117,47.363,8.301,0
1579287085.109,35.156,19.531,-537.598,48.340,39.551,0
1579287085.113,33.691,20.996,-536.621,41.504,53.223,0
1579287085.116,42.480,-0.488,-770.508,30.273,-27.344,0
1579287085.120,46.875,12.695,-884.277,17.090,-19.531,0
1579287085.124,43.457,43.457,-553.711,12.207,10.254,0
1579287085.128,43.457,33.203,-388.672,18.555,11.230,0
1579287085.132,38.574,28.809,-316.895,15.137,69.336,0
1579287085.149,43.945,20.996,-410.156,12.695,76.660,0
1579287085.153,51.270,24.414,-476.074,21.484,34.668,0
1579287085.157,50.781,27.832,-382.812,30.273,42.480,0
1579287085.161,46.387,26.855,-370.117,35.156,64.941,0
1579287085.165,44.434,25.879,-335.938,38.574,87.402,0
1579287085.169,45.898,0.488,-614.258,41.016,65.918,0
1579287085.173,44.922,11.719,-836.914,40.527,32.227,0
1579287085.176,44.434,38.574,-538.574,29.785,59.570,0
1579287085.180,18.555,22.949,-538.574,20.996,62.988,0
1579287085.184,-15.137,32.227,-522.949,27.344,73.730,0
1579287085.188,-8.789,17.578,-550.781,31.250,41.016,0
1579287085.192,4.883,13.672,-684.570,30.273,-26.855,0
1579287085.189,8.301,33.203,-542.480,23.438,10.742,0
1579287085.193,15.137,27.344,-516.113,21.973,50.293,0
1579287085.197,21.484,27.832,-521.484,32.715,33.691,0
1579287085.201,26.855,22.949,-556.641,37.109,48.340,0
1579287085.205,31.738,22.461,-570.801,35.645,98.633,0
1579287085.209,34.180,23.926,-603.516,30.762,96.191,0
1579287085.213,33.691,14.160,-770.508,26.855,14.160,0
1579287085.216,35.156,28.320,-693.848,29.297,-2.441,0
1579287085.220,37.109,22.949,-604.980,28.809,3.906,0
1579287085.224,36.621,3.906,-875.000,20.508,-1.465,0
1579287085.228,36.621,24.414,-870.117,11.230,35.645,0
1579287085.232,34.668,34.180,-632.324,20.508,64.941,0
1579287085.229,35.156,39.551,-490.723,19.531,88.867,0
1579287085.233,41.504,26.855,-522.949,12.695,62.988,0
1579287085.237,42.969,19.043,-645.996,16.113,51.270,0
1579287085.241,41.504,30.762,-606.445,19.531,20.508,0
1579287085.245,37.598,26.367,-566.895,24.902,-3.418,0
1579287085.249,32.227,17.090,-706.543,29.785,20.508,0
1579287085.253,30.762,22.949,-745.117,30.762,48.828,0
1579287085.256,33.691,3.906,-849.609,33.691,42.480,0
1579287085.260,31.250,13.672,-900.391,39.551,20.020,0
1579287085.264,32.227,38.086,-672.852,39.062,58.594,0
1579287085.268,34.180,25.391,-671.387,35.156,63.965,0
1579287085.272,30.273,23.926,-754.395,36.133,1.953,0
1579287085.289,26.367,24.414,-759.766,34.180,36.133,0
1579287085.293,18.555,17.578,-792.969,27.344,29.297,0
1579287085.297,20.020,25.879,-765.137,21.973,9.277,0
1579287085.301,27.344,36.133,-692.383,20.508,20.020,0
1579287085.305,27.344,29.297,-654.785,21.973,1.953,0
1579287085.309,25.391,11.230,-809.570,15.625,30.273,0
1579287085.313,23.438,20.508,-926.758,3.418,19.043,0
1579287085.316,27.832,37.598,-710.938,7.324,49.316,0
1579287085.320,38.574,30.762,-610.840,12.207,81.543,0
1579287085.324,39.062,29.297,-604.980,12.695,38.086,0
1579287085.328,34.180,6.836,-807.617,18.555,-7.812,0
1579287085.332,37.109,17.578,-889.648,20.508,53.711,0
1579287085.329,37.598,40.039,-722.656,24.902,81.055,0
1579287085.333,33.203,27.344,-741.211,27.832,0.977,0
1579287085.337,37.598,32.715,-720.215,28.320,10.254,0
1579287085.341,36.621,24.902,-833.984,21.484,23.438,0
1579287085.345,34.668,23.438,-967.285,22.949,28.809,0
1579287085.349,23.438,24.414,-970.703,24.414,20.996,0
1579287085.353,9.766,29.785,-938.965,17.090,17.578,0
1579287085.356,4.883,41.992,-826.660,15.137,35.645,0
1579287085.360,-3.906,17.090,-881.348,4.883,28.320,0
1579287085.364,-6.836,6.348,-979.004,-0.977,-17.578,0
1579287085.368,0.000,39.551,-965.820,0.000,-44.922,0
1579287085.372,-13.184,41.504,-966.797,-20.508,-44.922,0
1579287085.369,-65.430,41.504,-968.750,-56.641,10.254,0
1579287085.373,-90.332,33.691,-968.750,-68.359,34.668,0
1579287085.377,-96.191,28.320,-968.750,-74.707,26.367,0
1579287085.381,-109.863,37.598,-968.262,-108.398,-11.719,0
1579287085.385,-124.512,27.832,-968.262,-131.836,-17.578,0
1579287085.389,-134.766,26.855,-968.750,-140.625,14.648,0
1579287085.393,-143.066,31.738,-968.750,-145.020,23.438,0
1579287085.396,-137.207,19.531,-968.262,-147.461,31.250,0
1579287085.400,-125.488,36.621,-968.262,-140.625,44.922,0
1579287085.404,-112.793,39.551,-968.750,-117.676,18.066,0
1579287085.408,-90.332,31.250,-968.750,-97.168,1.953,0
1579287085.412,-66.406,25.391,-968.750,-83.984,51.270,0
1579287085.429,-55.664,15.625,-968.750,-74.707,32.227,0
1579287085.433,-43.457,20.020,-968.262,-54.688,10.742,0
1579287085.437,-35.156,19.043,-967.773,-31.738,17.090,0
1579287085.441,-16.113,23.438,-973.145,-11.719,1.953,0
1579287085.445,14.648,25.879,-935.547,2.441,58.105,0
1579287085.449,30.762,18.555,-945.801,16.602,98.633,0
1579287085.453,48.340,28.809,-938.965,35.156,67.383,0
1579287085.456,72.266,37.109,-790.039,52.246,23.438,0
1579287085.460,89.355,39.551,-647.949,65.918,61.523,0
1579287085.464,90.820,41.016,-582.520,66.406,80.078,0
1579287085.468,88.379,16.113,-825.195,67.383,3.418,0
1579287085.472,94.238,23.926,-846.191,77.637,-3.906,0
1579287085.469,100.098,37.598,-593.750,80.078,9.766,0
1579287085.473,95.215,30.273,-583.984,69.824,18.066,0
1579287085.477,101.074,32.715,-565.918,66.895,32.227,0
1579287085.481,103.516,31.738,-606.934,80.566,5.371,0
1579287085.485,88.867,34.180,-586.914,84.473,-15.137,0
1579287085.489,83.496,34.180,-548.340,78.613,31.738,0
1579287085.493,66.406,30.762,-617.188,85.938,82.031,0
1579287085.496,66.895,38.086,-584.961,92.285,14.648,0
1579287085.500,86.426,25.879,-678.223,89.355,-17.090,0
1579287085.504,95.215,21.484,-890.137,84.473,45.410,0
1579287085.508,100.586,42.969,-775.391,81.055,-5.371,0
1579287085.512,99.609,41.992,-633.301,83.496,-16.113,0
1579287085.509,80.078,41.992,-558.105,75.684,49.805,0
1579287085.513,73.730,28.320,-689.941,69.824,53.711,0
1579287085.517,79.102,32.227,-763.672,70.312,42.969,0
1579287085.521,74.707,41.016,-629.883,63.965,52.246,0
1579287085.525,67.871,29.297,-648.438,62.988,22.949,0
1579287085.529,69.336,30.762,-698.730,61.035,81.543,0
1579287085.533,78.125,21.973,-830.078,62.500,78.125,0
1579287085.536,85.449,22.461,-899.414,70.801,7.812,0
1579287085.540,86.426,45.898,-718.262,72.754,24.414,0
1579287085.544,80.078,37.598,-611.816,72.266,55.176,0
1579287085.548,76.660,34.668,-596.191,65.918,81.543,0
1579287085.552,74.707,28.320,-644.043,60.547,94.238,0
1579287085.569,67.383,17.578,-816.406,62.500,61.035,0
1579287085.573,59.082,37.598,-722.656,59.082,42.480,0
1579287085.577,54.688,39.062,-638.184,46.387,20.996,0
1579287085.581,55.176,30.762,-722.168,35.156,-17.578,0
1579287085.585,53.711,25.391,-779.297,34.668,8.301,0
1579287085.589,39.551,13.184,-919.434,41.016,81.543,0
1579287085.593,31.738,30.273,-894.531,41.992,37.598,0
1579287085.596,38.574,47.852,-703.613,41.016,-26.367,0
1579287085.600,43.945,43.945,-628.906,41.016,26.855,0
1579287085.604,48.828,40.039,-617.676,45.898,18.555,0
1579287085.608,54.688,30.762,-699.219,50.781,36.133,0
1579287085.612,56.152,30.273,-751.953,44.434,45.898,0
1579287085.609,53.223,33.691,-713.867,45.410,14.160,0
1579287085.613,52.734,36.133,-641.113,50.781,72.266,0
1579287085.617,57.129,29.785,-652.832,46.875,45.410,0
1579287085.621,55.664,30.273,-761.719,43.945,15.625,0
1579287085.625,54.199,33.203,-775.879,39.062,28.809,0
1579287085.629,57.617,24.902,-884.766,38.574,-36.133,0
1579287085.633,60.547,29.785,-895.508,37.598,-17.578,0
1579287085.636,59.082,39.551,-786.133,28.320,-7.812,0
1579287085.640,50.781,20.020,-885.254,25.879,-6.836,0
1579287085.644,42.480,19.043,-937.988,32.227,21.973,0
1579287085.648,43.945,43.945,-765.137,31.738,5.859,0
1579287085.652,48.340,36.621,-676.758,29.785,11.719,0
1579287085.669,42.480,37.109,-653.809,27.832,45.410,0
1579287085.673,34.180,28.320,-760.254,23.926,26.855,0
1579287085.677,28.809,30.273,-826.660,21.484,-28.809,0
1579287085.681,33.691,41.504,-658.691,20.508,58.105,0
1579287085.685,35.156,25.391,-709.961,15.137,65.430,0
1579287085.689,24.902,17.578,-889.160,8.301,17.090,0
1579287085.693,17.090,10.254,-922.852,11.719,93.750,0
1579287085.696,26.855,4.883,-968.262,14.648,46.875,0
1579287085.700,34.180,33.691,-895.020,13.672,-22.461,0
1579287085.704,36.133,26.855,-788.086,16.602,19.043,0
1579287085.708,39.062,20.020,-827.637,18.555,47.363,0
1579287085.712,32.227,23.438,-844.238,19.043,42.969,0
1579287085.709,33.691,19.043,-811.035,19.043,29.297,0
1579287085.713,38.574,23.926,-752.930,18.066,8.789,0
1579287085.717,42.969,20.996,-783.203,20.508,-22.461,0
1579287085.721,44.922,27.344,-757.324,25.391,-13.672,0
1579287085.725,45.898,21.973,-766.602,26.367,22.949,0
1579287085.729,46.387,12.207,-897.461,26.367,78.613,0
1579287085.733,38.574,13.184,-951.660,21.484,62.012,0
1579287085.736,38.086,22.949,-833.984,19.531,14.648,0
1579287085.740,41.016,33.691,-674.316,21.973,23.926,0
1579287085.744,36.133,21.484,-671.875,19.043,-5.371,0
1579287085.748,29.785,-1.953,-901.855,17.090,19.043,0
1579287085.752,31.250,19.531,-852.539,20.020,64.941,0
1579287085.750,40.527,28.809,-649.902,27.344,64.453,0
1579287085.754,38.574,16.602,-722.656,26.367,21.484,0
1579287085.758,36.133,23.438,-694.824,19.043,-7.812,0
1579287085.762,36.133,21.484,-690.918,14.160,-5.859,0
1579287085.766,27.344,29.297,-593.262,10.254,2.441,0
1579287085.770,28.809,20.508,-569.824,9.277,28.320,0
1579287085.774,31.738,18.066,-647.949,4.883,32.227,0
1579287085.777,32.227,32.715,-484.863,4.395,52.734,0
1579287085.781,38.574,28.320,-465.820,8.301,58.105,0
1579287085.785,41.016,32.227,-458.984,6.348,35.156,0
1579287085.789,38.574,33.203,-328.125,2.930,22.949,0
1579287085.793,36.133,24.414,-368.164,3.418,3.906,0
1579287085.809,31.250,30.762,-270.508,8.789,12.695,0
1579287085.813,31.738,19.043,-360.352,14.648,33.691,0
1579287085.817,31.738,25.391,-352.051,20.508,48.340,0
1579287085.821,20.020,31.738,-209.961,14.648,21.484,0
1579287085.825,20.996,25.879,-239.258,14.160,0.977,0
1579287085.829,46.875,35.645,-159.668,35.645,-27.832,0
1579287085.833,58.105,21.973,-291.992,34.668,-28.320,0
1579287085.836,41.016,27.832,-315.918,11.719,32.715,0
1579287085.840,30.273,59.082,20.020,0.977,25.391,0
1579287085.844,28.320,56.641,183.105,8.789,12.695,0
1579287085.848,32.715,53.223,250.000,13.184,25.879,0
1579287085.852,45.898,33.203,78.125,0.488,20.020,0
1579287085.849,35.156,37.109,-37.109,-4.883,38.574,0
1579287085.853,28.809,57.617,180.664,-4.883,29.297,0
1579287085.857,35.156,53.223,248.047,-3.906,41.016,0
1579287085.861,24.414,51.758,276.855,-2.930,94.238,0
1579287085.865,27.832,35.645,113.281,-7.324,55.176,0
1579287085.869,36.133,39.551,-57.617,-0.488,52.246,0
1579287085.873,41.992,50.293,3.418,-1.465,123.047,0
1579287085.876,47.363,43.945,-83.984,-1.465,62.012,0
1579287085.880,45.898,57.129,-32.715,-9.766,24.902,0
1579287085.884,46.875,42.969,36.133,-11.230,42.969,0
1579287085.888,35.156,23.438,-279.785,-3.418,23.926,0
1579287085.892,12.695,49.316,-182.129,5.371,58.105,0
1579287085.890,2.441,48.828,45.898,10.742,17.578,0
1579287085.894,8.789,45.410,67.871,6.836,-15.137,0
1579287085.898,26.367,44.434,164.551,19.531,46.387,0
1579287085.902,41.504,38.086,103.027,17.578,19.531,0
1579287085.906,39.551,48.828,156.250,27.832,10.742,0
1579287085.910,35.156,31.738,45.410,31.250,5.859,0
1579287085.914,39.551,40.527,-41.992,18.555,-20.996,0
1579287085.917,43.457,53.711,176.270,21.484,41.504,0
1579287085.921,38.574,17.090,-125.488,27.832,32.227,0
1579287085.925,44.434,24.902,-310.547,23.438,1.465,0
1579287085.929,47.363,54.688,83.008,24.414,-1.465,0
1579287085.933,41.504,53.223,333.984,32.227,57.617,0
1579287085.949,58.594,47.852,358.887,24.414,55.176,0
1579287085.953,50.781,39.551,174.805,17.578,-14.160,0
1579287085.957,41.504,43.457,156.250,31.250,25.391,0
1579287085.961,39.551,47.852,243.652,43.945,74.707,0
1579287085.965,26.367,38.086,174.316,37.598,40.527,0
1579287085.969,12.207,28.809,60.059,29.785,25.879,0
1579287085.973,-1.465,15.625,-159.180,29.785,47.852,0
1579287085.976,15.137,28.809,-179.688,49.316,55.664,0
1579287085.980,23.926,55.176,80.566,62.988,35.156,0
1579287085.984,26.367,49.316,39.551,45.410,17.578,0
1579287085.988,36.621,48.340,-50.293,25.391,48.340,0
1579287085.992,40.039,42.969,-195.312,21.484,38.574,0
1579287085.990,30.273,45.410,-326.660,27.832,24.902,0
1579287085.994,35.645,45.898,-308.105,29.785,2.930,0
1579287085.998,36.621,43.945,-305.664,31.250,2.930,0
1579287086.002,23.438,48.828,-276.855,29.297,10.254,0
1579287086.006,30.762,42.969,-276.367,26.367,56.152,0
1579287086.010,29.785,27.344,-419.434,24.414,43.945,0
1579287086.014,36.133,29.785,-500.000,27.344,0.000,0
1579287086.017,44.434,39.551,-368.164,37.109,53.223,0
1579287086.021,38.086,37.598,-249.023,39.551,23.438,0
1579287086.025,36.133,17.090,-412.109,34.180,-13.184,0
1579287086.029,34.180,13.184,-642.578,26.855,-24.414,0
1579287086.033,25.391,34.668,-516.602,23.438,15.625,0
1579287086.030,23.926,31.250,-441.895,25.879,8.301,0
1579287086.034,34.668,33.691,-457.031,27.832,-38.574,0
1579287086.038,31.250,23.926,-535.645,20.996,27.832,0
1579287086.042,30.762,15.137,-723.633,19.043,66.406,0
1579287086.046,40.039,35.156,-629.883,21.973,41.992,0
1579287086.050,34.180,27.344,-683.105,20.996,62.988,0
1579287086.054,27.344,25.391,-800.781,19.531,52.734,0
1579287086.057,35.156,25.879,-737.305,20.508,25.879,0
1579287086.061,46.875,6.348,-902.832,21.484,69.336,0
1579287086.065,61.523,25.879,-899.902,27.832,37.109,0
1579287086.069,53.223,42.480,-686.035,23.926,-12.695,0
1579287086.073,37.109,33.691,-644.043,19.043,21.973,0
1579287086.089,35.645,27.832,-663.086,28.320,42.969,0
1579287086.093,29.297,24.902,-739.746,26.367,18.555,0
1579287086.097,23.438,33.203,-717.285,17.578,2.930,0
1579287086.101,22.461,29.785,-707.031,11.719,2.930,0
1579287086.105,17.578,21.484,-749.512,12.207,-14.648,0
1579287086.109,21.484,20.508,-794.922,17.578,39.551,0
1579287086.113,30.762,9.766,-914.062,16.602,44.922,0
1579287086.116,35.645,20.996,-888.184,10.254,14.648,0
1579287086.120,32.715,41.992,-723.633,13.672,42.480,0
1579287086.124,32.715,35.156,-655.762,26.855,56.641,0
1579287086.128,40.527,31.738,-609.375,24.414,97.168,0
1579287086.132,38.574,24.902,-702.637,14.160,98.633,0
1579287086.129,36.133,24.414,-788.574,11.719,37.598,0
1579287086.133,39.551,26.855,-764.648,20.996,-14.160,0
1579287086.137,36.133,24.902,-739.746,37.598,1.465,0
1579287086.141,45.410,24.414,-745.605,35.645,23.926,0
1579287086.145,45.410,18.555,-848.633,12.695,34.180,0
1579287086.149,28.809,14.160,-972.656,10.254,-22.461,0
1579287086.153,27.832,23.438,-972.168,19.043,-13.184,0
1579287086.156,33.203,32.227,-950.195,11.719,44.434,0
1579287086.160,29.785,39.551,-879.395,5.371,110.352,0
1579287086.164,30.762,11.719,-926.758,4.395,17.578,0
1579287086.168,25.879,13.672,-984.863,7.324,-38.086,0
1579287086.172,22.461,42.969,-932.129,12.207,34.668,0
1579287086.170,27.344,39.062,-899.902,4.395,51.758,0
1579287086.174,24.414,30.762,-934.082,-3.418,19.531,0
1579287086.178,23.926,19.043,-974.121,4.395,-20.020,0
1579287086.182,29.297,22.949,-942.871,18.066,12.695,0
1579287086.186,37.598,26.855,-866.699,21.973,35.156,0
1579287086.190,41.992,17.090,-922.363,18.555,67.871,0
1579287086.194,50.781,28.320,-975.586,20.996,46.875,0
1579287086.197,43.457,20.996,-930.664,23.438,2.441,0
1579287086.201,46.387,4.883,-959.961,19.043,-41.016,0
1579287086.205,54.199,37.598,-965.332,28.809,-72.266,0
1579287086.209,30.762,42.969,-866.211,35.156,-11.230,0
1579287086.213,18.066,31.738,-727.051,19.043,53.223,0
1579287086.229,25.391,23.926,-805.664,14.160,86.426,0
1579287086.233,30.273,27.344,-927.734,17.090,44.434,0
1579287086.237,24.902,35.156,-870.117,12.695,14.648,0
1579287086.241,26.367,31.250,-824.707,19.043,41.016,0
1579287086.245,37.109,32.227,-810.059,20.020,21.973,0
1579287086.249,29.785,24.902,-856.445,10.254,69.336,0
1579287086.253,12.207,11.230,-956.055,11.719,110.352,0
1579287086.256,22.949,31.738,-884.766,7.324,50.781,0
1579287086.260,42.480,46.387,-691.895,6.348,62.500,0
1579287086.264,32.227,38.086,-659.180,16.113,89.355,0
1579287086.268,21.973,29.297,-737.793,16.602,47.363,0
1579287086.272,20.996,25.879,-833.496,13.672,38.086,0
1579287086.270,-3.418,36.133,-745.117,12.207,50.781,0
1579287086.274,-38.086,39.551,-629.883,12.207,25.879,0
1579287086.278,-74.707,37.109,-702.637,9.277,59.082,0
1579287086.282,-88.867,36.133,-811.523,2.441,25.879,0
1579287086.286,-80.078,36.133,-835.938,4.883,-6.348,0
1579287086.290,-83.496,30.762,-897.949,8.301,15.625,0
1579287086.294,-83.984,29.785,-967.285,2.930,9.766,0
1579287086.297,-79.102,32.227,-944.336,-1.465,26.855,0
1579287086.301,-74.707,41.992,-756.836,2.930,28.320,0
1579287086.305,-73.730,20.020,-803.711,6.348,71.777,0
1579287086.309,-72.266,15.137,-963.379,7.324,58.105,0
1579287086.313,-61.523,41.016,-843.262,12.695,9.766,0
1579287086.310,-62.012,37.598,-778.320,19.531,-3.906,0
1579287086.314,-63.965,33.203,-734.863,28.320,3.906,0
1579287086.318,-62.988,27.344,-777.344,31.250,46.875,0
1579287086.322,-46.875,33.203,-820.312,19.043,41.992,0
1579287086.326,-17.578,35.156,-739.746,9.766,26.855,0
1579287086.330,-9.277,22.949,-823.730,16.602,13.672,0
1579287086.334,-24.414,33.203,-878.418,23.438,40.039,0
1579287086.337,-33.691,22.461,-898.438,14.160,44.922,0
1579287086.341,-16.113,14.160,-991.699,3.906,-4.395,0
1579287086.345,-1.953,51.270,-855.957,6.836,39.062,0
1579287086.349,-2.441,49.316,-702.637,20.020,46.387,0
1579287086.353,3.906,40.039,-705.078,23.926,-4.883,0
1579287086.369,5.371,34.180,-751.465,24.902,44.434,0
1579287086.373,9.766,33.203,-771.484,31.250,57.129,0
1579287086.377,18.555,42.969,-663.086,27.832,21.484,0
1579287086.381,23.438,37.598,-643.555,20.996,20.508,0
1579287086.385,34.180,34.180,-618.164,16.602,32.715,0
1579287086.389,46.387,20.020,-736.328,19.531,15.137,0
1579287086.393,46.387,21.484,-843.750,24.414,2.441,0
1579287086.396,41.016,43.945,-672.363,23.926,-5.859,0
1579287086.400,32.715,36.621,-679.199,25.391,57.617,0
1579287086.404,30.273,30.273,-803.223,33.691,57.129,0
1579287086.408,31.738,27.344,-779.785,39.062,-8.789,0
1579287086.412,34.180,17.090,-887.207,33.691,7.812,0
1579287086.409,42.969,32.227,-818.359,24.902,29.297,0
1579287086.413,54.688,35.156,-641.602,28.320,61.523,0
1579287086.417,58.105,30.762,-641.113,44.922,45.898,0
1579287086.421,45.410,24.902,-705.078,42.480,0.488,0
1579287086.425,33.691,20.020,-829.102,27.344,34.180,0
1579287086.429,39.551,18.555,-947.754,25.391,53.223,0
1579287086.433,54.688,20.508,-971.680,30.273,44.434,0
1579287086.436,53.223,26.855,-952.148,32.227,5.859,0
1579287086.440,47.852,32.227,-852.539,31.250,32.227,0
1579287086.444,58.105,9.277,-912.109,30.273,49.316,0
1579287086.448,56.641,15.137,-923.340,22.461,63.965,0
1579287086.452,49.805,32.227,-835.449,17.578,68.359,0
1579287086.449,48.828,28.320,-840.332,19.531,39.551,0
1579287086.453,52.246,33.691,-793.457,16.602,22.461,0
1579287086.457,65.430,30.762,-857.910,18.066,40.527,0
1579287086.461,65.430,34.180,-823.730,20.020,74.707,0
1579287086.465,53.223,30.273,-728.027,20.020,71.289,0
1579287086.469,34.668,20.508,-841.309,20.996,101.562,0
1579287086.473,29.785,28.320,-847.168,20.996,77.148,0
1579287086.476,36.133,16.113,-831.543,33.691,66.406,0
1579287086.480,48.828,9.766,-957.520,38.086,48.340,0
1579287086.484,56.641,36.621,-816.406,33.691,-4.395,0
1579287086.488,46.875,35.156,-648.438,37.598,68.359,0
1579287086.492,43.457,32.227,-568.359,41.016,117.188,0
1579287086.509,47.363,25.879,-638.184,41.992,70.801,0
1579287086.513,56.152,20.996,-709.961,36.133,-1.953,0
1579287086.517,49.316,20.020,-666.504,27.832,13.184,0
1579287086.521,52.246,27.344,-571.289,33.691,69.824,0
1579287086.525,59.570,32.227,-479.492,40.527,43.457,0
1579287086.529,47.852,9.277,-708.008,43.945,17.578,0
1579287086.533,48.340,10.254,-969.727,36.621,31.738,0
1579287086.536,51.270,41.992,-874.023,27.344,7.812,0
1579287086.540,60.059,40.527,-751.465,35.645,-2.930,0
1579287086.544,69.824,39.551,-698.730,40.039,34.668,0
1579287086.548,76.172,32.715,-755.371,29.785,73.242,0
1579287086.552,62.988,29.785,-895.996,24.902,43.457,0
1579287086.549,32.227,44.434,-821.777,32.715,25.879,0
1579287086.553,32.715,42.969,-776.367,35.156,44.922,0
1579287086.557,49.316,43.457,-833.984,30.273,20.996,0
1579287086.561,49.316,36.621,-905.762,25.391,11.719,0
1579287086.565,30.762,29.785,-943.848,25.879,65.918,0
1579287086.569,26.367,31.738,-946.777,28.809,23.926,0
1579287086.573,38.086,33.691,-969.238,25.391,1.465,0
1579287086.576,35.156,33.691,-974.121,18.066,20.020,0
1579287086.580,33.203,37.109,-931.641,16.602,13.184,0
1579287086.584,31.250,19.531,-948.242,15.137,42.969,0
1579287086.588,32.227,32.227,-939.453,11.230,43.945,0
1579287086.592,45.410,51.270,-907.227,13.184,54.199,0
1579287086.589,42.480,41.016,-959.961,17.578,19.043,0
1579287086.593,42.480,43.945,-941.406,19.531,48.828,0
1579287086.597,58.594,35.156,-959.473,18.555,22.461,0
1579287086.601,56.152,41.992,-958.008,17.090,29.297,0
1579287086.605,53.223,39.551,-928.223,19.043,44.922,0
1579287086.609,47.852,30.273,-963.867,20.020,11.230,0
1579287086.613,43.457,40.527,-971.191,21.973,51.758,0
1579287086.616,61.035,31.738,-966.797,14.160,55.664,0
1579287086.620,66.895,37.598,-968.750,9.766,55.664,0
1579287086.624,61.523,51.270,-968.262,23.438,31.250,0
1579287086.628,57.617,44.434,-968.262,31.250,-2.441,0
1579287086.632,65.918,41.016,-968.262,38.574,-41.992,0
1579287086.649,79.102,26.367,-968.262,39.551,-30.762,0
1579287086.653,64.453,32.715,-968.750,25.391,27.832,0
1579287086.657,46.387,43.945,-968.750,18.555,-9.277,0
1579287086.661,50.293,41.016,-968.262,16.113,-7.324,0
1579287086.665,50.293,44.922,-968.750,8.301,18.555,0
1579287086.669,45.898,22.949,-968.750,12.207,4.883,0
1579287086.673,49.316,30.762,-968.262,21.484,14.648,0
1579287086.676,52.246,54.199,-968.750,22.949,11.230,0
1579287086.680,55.176,47.852,-968.750,19.043,27.832,0
1579287086.684,52.246,44.922,-967.773,19.531,20.508,0
1579287086.688,53.711,23.438,-968.750,29.297,6.348,0
1579287086.692,61.523,22.461,-968.262,33.691,35.645,0
1579287086.690,61.523,49.316,-951.172,29.785,63.477,0
1579287086.694,59.570,43.945,-946.289,27.344,66.895,0
1579287086.698,56.641,39.062,-963.867,26.855,20.508,0
1579287086.702,59.570,32.227,-969.238,29.785,46.387,0
1579287086.706,70.801,27.344,-967.773,28.320,67.383,0
1579287086.710,56.641,24.902,-968.262,22.461,36.133,0
1579287086.714,39.062,28.809,-968.750,22.461,56.641,0
1579287086.717,36.133,39.062,-968.750,25.879,52.734,0
1579287086.721,41.504,23.438,-968.262,24.902,27.832,0
1579287086.725,44.922,16.113,-968.750,15.137,39.551,0
1579287086.729,38.086,34.668,-968.750,12.695,42.480,0
1579287086.733,36.621,32.227,-968.750,22.949,60.547,0
1579287086.729,36.133,28.320,-968.750,25.391,68.848,0
1579287086.733,38.574,22.461,-968.750,23.926,26.367,0
1579287086.737,50.781,18.066,-968.750,26.367,4.883,0
1579287086.741,57.617,30.762,-968.750,25.391,8.301,0
1579287086.745,55.176,26.855,-968.750,26.367,-13.184,0
1579287086.749,50.293,16.602,-968.750,24.902,-6.348,0
1579287086.753,41.992,20.996,-965.332,20.508,17.578,0
1579287086.756,41.016,23.926,-974.609,21.484,-4.883,0
1579287086.760,41.016,36.133,-941.406,23.926,18.066,0
1579287086.764,42.480,36.621,-882.812,25.391,32.715,0
1579287086.768,51.758,26.367,-915.527,26.855,-16.602,0
1579287086.772,50.781,31.738,-898.926,30.762,-16.113,0
1579287086.790,39.062,12.695,-919.922,29.297,16.602,0
1579287086.794,35.645,17.090,-956.055,23.926,-5.371,0
1579287086.798,34.668,40.527,-825.684,22.461,30.762,0
1579287086.802,30.762,37.598,-736.328,22.461,80.566,0
1579287086.806,43.457,27.344,-786.621,27.344,29.297,0
1579287086.810,51.270,9.277,-934.570,26.855,15.137,0
1579287086.814,37.109,24.902,-953.125,21.484,26.855,0
1579287086.817,32.715,41.992,-817.383,20.996,36.621,0
1579287086.821,39.062,43.945,-723.633,26.367,83.008,0
1579287086.825,43.457,49.316,-730.469,30.273,68.359,0
1579287086.829,41.992,25.879,-886.719,20.508,-20.020,0
1579287086.833,36.621,33.691,-979.004,9.766,3.906,0
1579287086.830,32.227,54.688,-918.945,6.348,99.121,0
1579287086.834,25.879,44.922,-930.176,5.859,70.801,0
1579287086.838,7.812,45.410,-974.121,-8.789,15.625,0
1579287086.842,-8.789,39.551,-966.797,-30.273,6.348,0
1579287086.846,-16.113,43.457,-968.262,-36.133,14.160,0
1579287086.850,-23.438,41.992,-968.750,-37.109,3.906,0
1579287086.854,-45.410,44.434,-968.750,-55.176,46.875,0
1579287086.857,-70.801,39.551,-968.262,-87.402,63.477,0
1579287086.861,-95.215,13.184,-968.262,-116.699,-7.812,0
1579287086.865,-126.953,19.043,-968.262,-135.742,12.207,0
1579287086.869,-154.785,44.434,-968.750,-151.855,38.086,0
1579287086.873,-168.457,39.551,-968.750,-173.340,22.461,0
1579287086.869,-173.828,36.621,-968.750,-191.895,4.883,0
1579287086.873,-182.617,34.180,-968.750,-194.336,30.762,0
1579287086.877,-181.641,37.598,-968.262,-190.430,74.219,0
1579287086.881,-179.199,50.781,-968.262,-191.406,59.570,0
1579287086.885,-166.504,43.457,-968.750,-183.594,29.297,0
1579287086.889,-137.207,33.691,-968.750,-162.109,-2.930,0
1579287086.893,-105.469,32.227,-963.867,-133.789,-7.324,0
1579287086.896,-78.613,21.973,-974.609,-109.863,-7.324,0
1579287086.900,-61.035,40.039,-922.363,-89.844,-3.418,0
1579287086.904,-51.270,47.852,-763.672,-67.383,19.531,0
1579287086.908,-26.367,28.320,-727.051,-36.621,6.836,0
1579287086.912,6.836,26.367,-687.500,-4.883,21.484,0
1579287086.930,35.156,36.621,-562.012,12.695,45.410,0
1579287086.934,69.336,42.480,-385.254,25.391,75.684,0
1579287086.938,94.238,40.039,-212.891,45.898,72.754,0
1579287086.942,113.281,45.898,-89.355,69.824,73.242,0
1579287086.946,126.953,39.062,-41.504,86.426,49.805,0
1579287086.950,126.465,28.809,-239.746,99.121,19.043,0
1579287086.954,140.625,37.109,-261.230,109.375,47.852,0
1579287086.957,150.391,45.898,-66.406,115.723,71.777,0
1579287086.961,133.301,41.504,-45.898,120.117,77.148,0
1579287086.965,133.301,41.016,-28.320,125.488,60.059,0
1579287086.969,147.949,29.785,-204.102,131.836,35.156,0
1579287086.973,160.156,36.621,-219.727,143.066,32.227,0
1579287086.969,156.738,50.781,23.926,146.973,38.574,0
1579287086.973,146.484,40.039,-81.543,138.184,34.668,0
1579287086.977,142.090,44.922,-77.148,133.789,30.762,0
1579287086.981,140.137,33.203,-123.535,131.836,36.621,0
1579287086.985,140.625,28.809,-179.688,127.930,16.113,0
1579287086.989,138.184,36.621,-89.355,120.117,-2.930,0
1579287086.993,139.648,29.785,-162.598,115.723,11.230,0
1579287086.996,137.695,41.504,-6.348,124.023,25.391,0
1579287087.000,140.625,27.344,15.625,133.789,13.184,0
1579287087.004,140.137,16.113,-228.516,129.395,-10.254,0
1579287087.008,127.930,43.945,-7.812,118.164,12.695,0
1579287087.012,134.766,46.875,242.188,118.164,42.969,0
1579287087.030,135.742,48.340,339.355,124.023,48.828,0
1579287087.034,128.906,34.668,294.434,121.094,29.785,0
1579287087.038,123.047,33.691,265.137,108.398,50.781,0
1579287087.042,109.863,42.480,402.832,98.633,66.895,0
1579287087.046,106.934,34.180,388.184,97.656,62.500,0
1579287087.050,110.352,38.086,359.375,99.121,58.105,0
1579287087.054,107.422,36.133,372.070,97.168,82.520,0
1579287087.057,101.074,31.250,196.289,92.285,82.031,0
1579287087.061,102.051,55.176,382.812,88.867,70.801,0
1579287087.065,97.656,58.105,693.359,87.891,58.594,0
1579287087.069,99.609,56.152,731.934,88.379,59.082,0
1579287087.073,116.211,48.828,706.543,93.750,70.801,0
1579287087.069,104.492,37.598,596.191,90.820,22.461,0
1579287087.073,76.660,47.852,680.176,70.801,36.133,0
1579287087.077,68.848,43.945,666.016,61.035,12.207,0
1579287087.081,68.848,42.480,555.176,60.059,-41.016,0
1579287087.085,72.266,37.598,518.066,58.594,-41.016,0
1579287087.089,70.801,31.738,405.273,59.570,-29.785,0
1579287087.093,74.219,42.480,333.008,58.105,-23.926,0
1579287087.096,76.172,51.270,381.836,47.852,30.762,0
1579287087.100,73.242,54.199,444.824,42.969,36.621,0
1579287087.104,80.078,55.176,584.961,53.711,21.973,0
1579287087.108,82.520,28.809,294.922,62.012,3.418,0
1579287087.112,76.660,34.180,103.516,53.711,9.277,0
1579287087.109,69.824,64.941,440.918,50.781,67.383,0
1579287087.113,72.266,64.453,546.875,63.965,91.309,0
1579287087.117,74.219,62.012,523.926,67.383,37.109,0
1579287087.121,72.266,59.082,420.410,60.547,14.648,0
1579287087.125,71.289,57.129,363.770,55.664,-2.930,0
1579287087.129,65.430,55.176,342.773,55.176,17.090,0
1579287087.133,63.477,57.617,298.828,56.152,81.543,0
1579287087.136,71.777,67.383,444.336,53.711,66.895,0
1579287087.140,77.148,46.387,327.637,54.199,69.336,0
1579287087.144,77.637,38.086,122.559,52.246,77.148,0
1579287087.148,72.266,62.988,282.227,54.199,-23.438,0
1579287087.152,73.242,67.871,439.941,59.082,-38.574,0
1579287087.169,75.684,64.941,525.391,56.152,15.137,0
1579287087.173,72.266,57.129,456.055,52.734,61.035,0
1579287087.177,71.289,56.641,468.262,51.270,100.586,0
1579287087.181,73.730,60.059,509.766,47.852,24.414,0
1579287087.185,71.289,58.594,459.961,41.992,12.207,0
1579287087.189,65.918,55.664,358.887,43.457,59.082,0
1579287087.193,66.895,44.434,167.480,51.758,35.156,0
1579287087.196,64.453,52.246,145.508,50.781,25.879,0
1579287087.200,61.523,71.777,329.590,47.852,0.977,0
1579287087.204,63.965,61.523,376.465,46.875,-9.766,0
1579287087.208,61.035,65.918,469.727,49.316,24.414,0
1579287087.212,58.105,57.617,511.230,54.688,68.359,0
1579287087.209,55.176,46.875,377.930,50.293,77.148,0
1579287087.213,58.105,62.500,391.113,49.316,20.508,0
1579287087.217,59.570,70.312,521.484,56.641,25.879,0
1579287087.221,60.547,71.289,671.387,65.430,68.359,0
1579287087.225,62.988,62.012,678.711,68.359,58.105,0
1579287087.229,64.453,53.711,523.438,61.523,41.992,0
1579287087.233,70.801,65.918,500.488,61.523,36.133,0
1579287087.236,75.195,77.637,658.691,63.477,13.672,0
1579287087.240,72.266,80.078,844.727,59.082,37.598,0
1579287087.244,69.824,66.895,850.586,51.758,46.387,0
1579287087.248,67.871,54.688,641.602,50.781,22.949,0
1579287087.252,62.012,72.754,702.148,55.664,7.812,0
1579287087.249,56.152,76.172,896.484,53.223,-1.465,0
1579287087.253,59.570,70.801,879.883,49.805,-33.203,0
1579287087.257,63.965,72.266,927.734,50.781,-11.719,0
1579287087.261,64.453,60.059,772.949,51.758,42.969,0
1579287087.265,67.383,64.453,753.906,56.641,58.105,0
1579287087.269,70.801,66.895,864.258,57.129,7.812,0
1579287087.273,67.871,60.059,775.391,53.223,-4.395,0
1579287087.276,57.617,69.336,924.316,51.270,39.062,0
1579287087.280,53.711,56.641,889.160,56.641,90.332,0
1579287087.284,47.852,55.664,785.645,59.570,63.477,0
1579287087.288,42.969,73.730,980.469,57.129,-18.066,0
1579287087.292,47.852,65.430,983.887,57.129,-16.113,0
1579287087.309,54.688,69.824,994.629,62.012,-6.348,0
1579287087.313,56.641,68.848,960.938,61.035,9.277,0
1579287087.317,55.176,70.801,890.137,52.246,20.508,0
1579287087.321,56.641,74.219,854.492,49.805,30.273,0
1579287087.325,61.523,69.336,769.043,51.758,56.641,0
1579287087.329,63.477,66.895,629.883,55.664,90.820,0
1579287087.333,55.176,52.734,319.824,52.246,96.680,0
1579287087.336,53.223,57.129,205.078,44.922,72.266,0
1579287087.340,59.082,72.754,352.539,43.457,23.926,0
1579287087.344,58.105,66.895,334.961,45.898,2.930,0
1579287087.348,57.129,70.312,371.094,46.875,57.617,0
1579287087.352,56.641,51.270,197.754,42.480,100.586,0
1579287087.349,55.664,49.805,-78.613,46.875,31.250,0
1579287087.353,52.246,73.730,82.520,49.316,-15.625,0
1579287087.357,43.457,66.895,176.270,44.922,6.836,0
1579287087.361,47.363,68.359,182.129,40.039,57.129,0
1579287087.365,50.293,56.641,109.375,37.598,88.867,0
1579287087.369,45.898,45.898,-57.129,46.387,45.898,0
1579287087.373,48.828,57.617,-41.016,49.316,10.254,0
1579287087.376,54.199,63.477,62.012,45.410,6.348,0
1579287087.380,52.734,66.895,187.012,47.852,44.922,0
1579287087.384,54.199,56.152,160.156,53.711,26.367,0
1579287087.388,60.547,45.410,-88.867,54.199,11.230,0
1579287087.392,56.641,67.871,71.289,48.828,34.180,0
1579287087.389,52.734,67.871,305.664,45.898,-39.551,0
1579287087.393,53.711,65.430,341.797,49.805,-41.504,0
1579287087.397,50.781,62.012,403.809,55.664,14.648,0
1579287087.401,52.246,53.223,336.914,50.293,9.766,0
1579287087.405,54.688,57.617,364.746,39.551,12.695,0
1579287087.409,52.246,48.340,254.883,40.039,22.949,0
1579287087.413,53.711,56.152,154.297,45.410,1.953,0
1579287087.416,54.688,65.430,239.746,44.922,7.324,0
1579287087.420,51.270,32.227,-202.637,36.621,28.320,0
1579287087.424,57.129,42.480,-495.605,34.668,50.293,0
1579287087.428,63.477,68.359,-238.770,40.527,63.965,0
1579287087.432,59.570,54.688,-216.309,40.527,13.184,0
1579287087.450,53.711,41.016,-298.340,33.691,-1.465,0
1579287087.454,44.434,35.156,-301.758,29.785,31.250,0
1579287087.458,41.016,44.922,-57.617,31.250,48.828,0
1579287087.462,46.387,43.457,185.547,30.273,55.176,0
1579287087.466,36.133,37.109,293.457,24.414,50.293,0
1579287087.470,24.902,33.691,375.000,18.066,84.961,0
1579287087.474,27.832,21.973,263.184,18.555,81.543,0
1579287087.477,30.273,36.133,304.688,19.043,55.176,0
1579287087.481,27.832,62.988,706.543,13.184,21.484,0
1579287087.485,21.973,56.641,882.324,12.207,38.574,0
1579287087.489,12.695,52.246,908.203,8.789,35.645,0
1579287087.493,23.438,48.340,853.516,8.789,26.855,0
1579287087.489,30.762,49.316,878.418,9.766,107.422,0
1579287087.493,15.137,43.945,830.566,4.883,92.285,0
1579287087.497,12.207,36.621,592.773,4.883,52.246,0
1579287087.501,16.602,31.250,308.594,10.742,26.855,0
1579287087.505,23.926,23.926,-7.324,20.996,3.906,0
1579287087.509,25.879,14.648,-335.449,20.508,14.160,0
1579287087.513,22.949,13.672,-607.910,14.648,35.645,0
1579287087.516,22.461,16.113,-783.691,8.301,87.891,0
1579287087.520,25.879,25.391,-848.633,6.836,67.871,0
1579287087.524,31.250,5.859,-905.273,16.113,63.477,0
1579287087.528,24.902,-11.230,-969.238,11.230,-3.418,0
1579287087.532,19.531,21.484,-968.262,3.418,-62.500,0
1579287087.529,24.902,26.855,-966.797,6.836,-13.184,0
1579287087.533,27.344,23.438,-969.238,8.789,19.531,0
1579287087.537,27.832,14.648,-968.750,0.977,3.418,0
1579287087.541,29.297,20.996,-968.750,-2.930,4.395,0
1579287087.545,18.066,36.621,-968.262,6.836,35.156,0
1579287087.549,5.859,21.973,-968.750,12.207,19.043,0
1579287087.553,0.488,22.461,-968.750,10.742,-34.668,0
1579287087.556,-1.953,21.973,-968.262,14.160,-26.855,0
1579287087.560,9.766,28.809,-968.750,17.090,60.547,0
1579287087.564,16.602,48.340,-968.750,15.137,56.152,0
1579287087.568,24.902,42.480,-968.750,8.789,41.992,0
1579287087.572,34.180,35.645,-968.750,1.953,40.039,0
1579287087.589,29.785,32.227,-968.750,2.930,30.273,0
1579287087.593,16.602,22.949,-968.750,4.883,30.762,0
1579287087.597,5.859,27.832,-968.750,6.348,-27.344,0
1579287087.601,-6.348,32.227,-968.750,11.719,-33.203,0
1579287087.605,-5.859,28.320,-968.750,12.207,29.785,0
1579287087.609,7.324,20.020,-968.262,12.207,28.320,0
1579287087.613,11.719,20.996,-968.262,10.254,20.508,0
1579287087.616,11.719,33.203,-968.750,5.859,11.230,0
1579287087.620,13.184,27.832,-968.750,4.395,22.461,0
1579287087.624,19.531,24.414,-968.750,4.883,32.715,0
1579287087.628,16.602,34.668,-968.262,9.766,14.160,0
1579287087.632,17.578,22.949,-968.262,0.977,40.039,0
1579287087.629,25.391,25.879,-968.750,-9.766,100.098,0
1579287087.633,25.391,33.691,-968.750,-4.883,95.215,0
1579287087.637,20.508,24.902,-968.750,7.324,9.277,0
1579287087.641,18.066,25.879,-968.750,20.020,11.719,0
1579287087.645,25.879,19.043,-968.750,17.578,38.574,0
1579287087.649,26.367,22.461,-968.750,18.555,14.648,0
1579287087.653,25.391,35.645,-968.262,21.484,15.137,0
1579287087.656,23.438,38.086,-968.750,15.137,-27.344,0
1579287087.660,16.113,45.898,-968.750,10.254,19.043,0
1579287087.664,19.043,20.996,-968.262,18.555,67.383,0
1579287087.668,19.531,12.695,-968.750,25.391,-2.930,0
1579287087.672,13.184,45.898,-968.750,20.996,36.133,0
1579287087.669,21.973,41.016,-968.262,10.254,56.641,0
1579287087.673,28.809,42.969,-968.750,8.789,-12.695,0
1579287087.677,22.949,40.527,-968.750,13.184,55.176,0
1579287087.681,21.484,33.203,-968.262,6.836,50.293,0
1579287087.685,30.273,37.598,-968.750,5.859,7.324,0
1579287087.689,37.598,30.273,-968.750,8.789,30.273,0
1579287087.693,31.250,42.480,-968.262,8.301,20.508,0
1579287087.696,20.508,45.410,-968.262,11.230,77.637,0
1579287087.700,27.832,22.461,-968.750,15.137,78.613,0
1579287087.704,40.527,42.969,-968.750,13.672,30.273,0
1579287087.708,34.180,43.945,-968.750,17.090,19.043,0
1579287087.712,29.297,32.227,-968.750,25.391,-11.230,0
1579287087.730,38.574,34.180,-968.750,31.738,-5.371,0
1579287087.734,44.922,34.668,-968.750,28.320,45.898,0
1579287087.738,51.270,35.156,-968.262,21.484,23.926,0
1579287087.742,43.945,37.109,-968.750,26.367,23.438,0
1579287087.746,22.461,44.434,-968.750,24.902,59.570,0
1579287087.750,19.043,29.785,-968.262,20.508,43.945,0
1579287087.754,21.973,17.090,-968.262,23.438,32.715,0
1579287087.757,16.113,42.480,-968.750,26.855,70.312,0
1579287087.761,18.555,55.664,-968.750,28.320,44.922,0
1579287087.765,25.391,44.434,-968.750,21.484,-11.230,0
1579287087.769,32.227,43.457,-968.750,17.090,19.531,0
1579287087.773,41.016,42.969,-968.262,29.297,33.203,0
1579287087.769,41.016,48.828,-968.262,33.203,19.531,0
1579287087.773,46.875,48.828,-968.750,25.879,14.648,0
1579287087.777,61.523,52.734,-968.262,28.809,91.309,0
1579287087.781,53.223,51.758,-968.750,35.645,89.355,0
1579287087.785,35.645,45.898,-968.750,41.016,6.348,0
1579287087.789,40.039,45.898,-969.238,43.457,-1.953,0
1579287087.793,44.922,50.781,-960.449,39.062,15.625,0
1579287087.796,41.992,50.293,-988.281,38.086,36.133,0
1579287087.800,42.969,57.617,-892.090,42.969,-1.953,0
1579287087.804,30.273,53.711,-843.262,42.480,68.359,0
1579287087.808,18.555,49.805,-890.137,37.598,62.988,0
1579287087.812,17.578,62.500,-717.773,34.180,0.000,0
1579287087.810,18.555,59.082,-568.848,33.691,46.875,0
1579287087.814,29.785,66.895,-353.516,39.062,96.680,0
1579287087.818,37.109,48.828,-419.434,42.969,100.586,0
1579287087.822,47.363,43.945,-562.988,36.133,29.297,0
1579287087.826,49.316,66.895,-239.258,39.062,12.207,0
1579287087.830,47.363,53.711,-155.273,46.387,52.246,0
1579287087.834,49.805,66.895,-63.965,40.039,68.848,0
1579287087.837,42.969,56.152,39.062,32.715,96.191,0
1579287087.841,33.691,33.203,-199.219,35.156,68.359,0
1579287087.845,28.809,61.523,35.156,43.945,24.902,0
1579287087.849,29.785,67.383,389.160,46.875,43.945,0
1579287087.853,33.203,62.012,431.641,44.922,28.320,0
1579287087.870,41.016,52.246,351.562,45.410,7.324,0
1579287087.874,44.922,52.734,291.504,49.316,1.465,0
1579287087.878,51.758,68.359,386.719,52.734,1.465,0
1579287087.882,57.129,63.477,346.191,43.457,18.066,0
1579287087.886,57.129,56.641,221.680,33.203,32.715,0
1579287087.890,67.383,42.480,-12.207,28.809,45.898,0
1579287087.894,58.105,29.785,-438.965,26.367,39.551,0
1579287087.897,26.855,44.434,-474.121,22.461,30.273,0
1579287087.901,13.672,44.434,-317.871,18.555,40.039,0
1579287087.905,1.953,31.250,-407.227,22.949,1.953,0
1579287087.909,10.254,24.902,-427.246,34.668,-12.207,0
1579287087.913,12.695,9.766,-498.047,35.156,59.570,0
1579287087.909,-15.137,12.207,-554.199,18.066,12.207,0
1579287087.913,-21.973,25.879,-377.930,12.695,8.789,0
1579287087.917,-3.418,28.809,-156.738,21.484,71.777,0
1579287087.921,10.254,27.832,29.297,20.508,104.492,0
1579287087.925,-0.488,21.973,87.402,10.254,85.449,0
1579287087.929,-3.418,26.367,108.398,5.859,-5.859,0
1579287087.933,5.371,34.180,304.199,6.836,9.766,0
1579287087.936,14.648,41.504,560.547,7.812,39.062,0
1579287087.940,18.066,45.410,754.883,11.230,25.879,0
1579287087.944,18.555,30.762,582.031,6.836,35.156,0
1579287087.948,16.602,38.086,499.512,9.277,18.066,0
1579287087.952,2.930,44.922,674.316,15.137,29.297,0
1579287087.949,-3.906,34.668,582.031,11.230,37.109,0
1579287087.953,1.953,38.574,446.777,6.348,12.207,0
1579287087.957,7.812,20.020,11.230,4.395,-30.762,0
1579287087.961,8.789,29.785,-251.953,12.207,-5.859,0
1579287087.965,13.672,48.340,-171.387,13.672,29.785,0
1579287087.969,13.672,29.297,-509.766,9.766,30.273,0
1579287087.973,10.742,39.551,-775.391,7.812,28.320,0
1579287087.976,11.230,26.367,-859.863,4.883,15.137,0
1579287087.980,11.230,21.484,-969.727,1.953,-47.363,0
1579287087.984,12.695,50.781,-968.262,-1.953,-79.590,0
1579287087.988,9.277,45.410,-966.309,0.977,-21.973,0
1579287087.992,10.254,37.598,-969.238,6.836,25.391,0
1579287088.009,11.719,26.367,-968.750,9.766,-10.254,0
1579287088.013,9.277,29.785,-968.750,11.230,-2.930,0
1579287088.017,12.207,36.621,-968.750,13.184,30.273,0
1579287088.021,19.531,31.738,-968.750,16.113,6.348,0
1579287088.025,23.926,32.227,-968.750,8.301,-24.414,0
1579287088.029,19.531,17.090,-968.750,3.906,38.086,0
1579287088.033,12.207,9.766,-968.750,4.395,50.293,0
1579287088.036,11.230,30.762,-968.750,2.930,30.762,0
1579287088.040,9.277,28.320,-968.750,3.418,26.855,0
1579287088.044,12.695,23.438,-969.238,1.953,-14.648,0
1579287088.048,22.949,14.648,-963.379,2.441,-9.766,0
1579287088.052,19.531,6.836,-974.121,1.465,3.418,0
1579287088.050,13.184,28.809,-938.965,6.348,46.387,0
1579287088.054,12.695,32.715,-805.176,9.766,88.867,0
1579287088.058,16.113,24.414,-750.488,2.441,70.312,0
1579287088.062,21.484,17.090,-790.527,0.977,29.785,0
1579287088.066,19.531,15.137,-832.031,10.742,22.461,0
1579287088.070,6.348,14.160,-801.758,15.625,2.930,0
1579287088.074,3.906,14.160,-733.398,11.230,43.457,0
1579287088.077,-0.488,20.996,-675.781,-3.906,28.809,0
1579287088.081,-6.836,25.879,-539.551,-9.766,-3.906,0
1579287088.085,-12.207,8.301,-650.879,-7.324,52.246,0
1579287088.089,-17.578,16.113,-696.777,-14.648,40.039,0
1579287088.093,-17.578,38.086,-450.684,-24.414,16.602,0
1579287088.089,-24.414,28.320,-461.914,-36.133,30.762,0
1579287088.093,-32.715,22.949,-520.508,-41.016,0.977,0
1579287088.097,-50.781,23.926,-638.184,-52.734,-10.742,0
1579287088.101,-75.684,32.227,-651.367,-74.707,67.383,0
1579287088.105,-80.566,20.996,-675.781,-83.984,42.969,0
1579287088.109,-87.402,9.766,-862.793,-94.238,-15.625,0
1579287088.113,-108.398,22.461,-779.785,-113.770,34.668,0
1579287088.116,-121.582,6.348,-812.988,-128.906,65.918,0
1579287088.120,-133.789,3.906,-963.379,-149.902,57.617,0
1579287088.124,-155.762,28.320,-780.273,-165.039,45.898,0
1579287088.128,-173.828,22.461,-674.805,-175.781,77.148,0
1579287088.132,-182.129,15.625,-797.363,-182.129,57.129,0
1579287088.149,-199.219,18.066,-921.875,-191.406,32.227,0
1579287088.153,-208.008,28.320,-895.020,-198.730,20.996,0
1579287088.157,-195.312,35.156,-766.602,-185.547,61.523,0
1579287088.161,-179.199,30.762,-725.098,-177.246,80.566,0
1579287088.165,-152.832,28.809,-713.379,-162.109,73.242,0
1579287088.169,-130.859,4.395,-857.422,-138.672,31.250,0
1579287088.173,-89.844,8.301,-953.613,-111.816,-14.160,0
1579287088.176,-52.734,38.574,-696.289,-83.496,31.250,0
1579287088.180,-46.875,30.762,-546.875,-65.918,47.363,0
1579287088.184,-38.574,31.250,-505.859,-39.551,35.156,0
1579287088.188,-16.602,28.809,-454.590,-5.371,67.871,0
1579287088.192,4.395,30.762,-392.090,18.555,80.566,0
1579287088.189,15.137,39.062,-233.887,30.273,81.055,0
1579287088.193,40.039,31.250,-198.730,39.062,100.098,0
1579287088.197,64.453,28.320,-256.836,57.129,61.035,0
1579287088.201,78.125,34.180,-227.539,71.777,72.266,0
1579287088.205,68.359,33.691,-183.105,82.031,93.262,0
1579287088.209,57.129,31.250,-212.402,94.238,47.852,0
1579287088.213,72.266,27.832,-307.617,100.586,6.836,0
1579287088.216,87.402,38.086,-214.355,108.887,-42.969,0
1579287088.220,91.797,39.551,5.371,114.746,-47.363,0
1579287088.224,95.703,16.602,-214.844,110.352,8.301,0
1579287088.228,93.262,33.691,-171.387,110.352,26.855,0
1579287088.232,94.238,50.293,204.102,113.281,18.066,0
1579287088.229,94.727,46.875,330.566,114.258,58.105,0
1579287088.233,92.773,39.062,366.211,111.328,83.008,0
1579287088.237,93.750,30.762,265.137,105.957,51.270,0
1579287088.241,97.168,41.016,352.539,108.398,66.406,0
1579287088.245,102.051,35.645,460.938,109.863,72.266,0
1579287088.249,104.980,25.391,340.820,108.887,32.227,0
1579287088.253,110.352,28.809,266.602,102.539,29.785,0
1579287088.256,102.539,31.738,222.168,99.121,2.441,0
1579287088.260,92.773,47.852,458.008,100.098,62.500,0
1579287088.264,79.590,49.316,697.266,97.656,82.520,0
1579287088.268,44.922,44.434,686.035,91.309,49.316,0
1579287088.272,36.621,43.945,759.277,88.867,26.367,0
1579287088.289,52.246,31.250,623.047,93.750,54.199,0
1579287088.293,55.664,37.598,520.508,97.656,46.387,0
1579287088.297,56.152,47.363,633.301,92.773,-1.465,0
1579287088.301,58.105,43.945,567.871,87.402,-2.441,0
1579287088.305,58.105,44.434,586.914,85.938,-3.906,0
1579287088.309,58.105,21.484,345.703,88.867,3.906,0
1579287088.313,50.781,31.738,228.516,85.449,19.531,0
1579287088.316,51.270,47.363,455.078,76.660,51.758,0
1579287088.320,54.199,42.480,444.336,78.613,57.129,0
1579287088.324,49.316,54.688,581.055,78.125,69.336,0
1579287088.328,48.340,33.203,398.926,71.289,22.461,0
1579287088.332,47.852,33.203,212.402,61.523,9.766,0
1579287088.330,47.363,49.316,385.742,55.176,22.949,0
1579287088.334,49.316,49.316,399.902,55.664,11.230,0
1579287088.338,51.270,50.293,402.832,55.664,39.062,0
1579287088.342,51.758,41.504,230.469,53.223,28.320,0
1579287088.346,49.316,44.434,70.801,56.152,-9.277,0
1579287088.350,48.828,49.805,67.383,55.176,37.598,0
1579287088.354,29.297,48.340,-12.695,42.480,105.957,0
1579287088.357,23.926,55.664,-49.316,40.039,40.527,0
1579287088.361,21.973,45.410,-143.066,39.551,16.602,0
1579287088.365,-7.324,33.203,-437.012,24.414,36.621,0
1579287088.369,-10.254,49.316,-392.578,26.855,41.016,0
1579287088.373,-8.301,56.641,-300.293,24.902,21.484,0
1579287088.369,-21.484,59.570,-359.863,1.953,33.691,0
1579287088.373,-34.180,48.828,-521.973,-18.066,50.293,0
1579287088.377,-55.664,46.387,-752.441,-39.062,41.016,0
1579287088.381,-86.914,54.688,-865.723,-69.336,49.805,0
1579287088.385,-115.723,45.410,-952.637,-98.633,59.082,0
1579287088.389,-132.324,34.668,-971.191,-117.676,-21.484,0
1579287088.393,-140.625,45.898,-965.820,-137.207,-3.906,0
1579287088.396,-159.180,32.227,-969.238,-164.551,49.316,0
1579287088.400,-183.594,33.203,-968.750,-188.965,-23.926,0
1579287088.404,-195.312,44.434,-968.750,-190.918,-83.008,0
1579287088.408,-191.406,40.527,-968.750,-179.688,-34.668,0
1579287088.412,-183.105,39.062,-968.750,-170.898,43.457,0
1579287088.429,-174.805,31.250,-968.750,-166.016,21.484,0
1579287088.433,-165.527,35.645,-968.750,-154.297,-30.762,0
1579287088.437,-139.160,43.945,-968.750,-131.348,20.020,0
1579287088.441,-107.910,43.457,-968.750,-105.957,54.688,0
1579287088.445,-88.379,36.621,-968.750,-93.262,46.387,0
1579287088.449,-70.312,24.902,-968.750,-80.566,45.898,0
1579287088.453,-48.340,28.809,-969.238,-52.734,-22.949,0
1579287088.456,-24.414,43.457,-966.309,-24.902,-17.578,0
1579287088.460,1.465,48.828,-974.121,-8.301,13.672,0
1579287088.464,34.180,52.734,-951.172,8.301,51.270,0
1579287088.468,75.684,38.086,-941.895,30.273,89.355,0
1579287088.472,93.262,42.969,-950.684,46.387,34.180,0
1579287088.470,84.961,58.594,-878.906,53.223,0.000,0
1579287088.474,90.332,57.129,-825.195,61.523,29.297,0
1579287088.478,78.613,57.617,-796.875,72.266,26.855,0
1579287088.482,77.148,43.945,-884.277,88.867,12.207,0
1579287088.486,98.145,48.340,-920.410,99.121,95.215,0
1579287088.490,103.516,48.828,-908.691,99.121,39.062,0
1579287088.494,107.422,43.945,-971.680,103.516,-23.438,0
1579287088.497,117.676,62.012,-754.883,114.258,43.945,0
1579287088.501,119.629,47.363,-750.977,122.070,49.316,0
1579287088.505,122.070,43.457,-915.039,114.258,59.082,0
1579287088.509,112.305,61.035,-819.336,108.887,39.062,0
1579287088.513,93.262,57.129,-797.363,111.328,33.203,0
1579287088.529,103.027,58.594,-790.527,114.258,15.137,0
1579287088.533,112.793,41.504,-866.211,109.375,-2.930,0
1579287088.537,113.281,35.156,-961.426,99.609,35.645,0
1579287088.541,115.723,54.199,-834.961,97.656,49.805,0
1579287088.545,115.723,42.480,-759.277,96.680,10.742,0
1579287088.549,120.605,34.180,-909.180,99.121,-36.621,0
1579287088.553,114.746,36.133,-972.656,93.262,4.883,0
1579287088.556,108.887,24.414,-976.562,80.566,35.156,0
1579287088.560,107.910,46.387,-898.926,82.520,56.152,0
1579287088.564,97.168,59.570,-724.609,87.891,56.641,0
1579287088.568,93.750,48.828,-732.422,84.473,25.391,0
1579287088.572,94.727,42.480,-808.105,78.125,74.707,0
1579287088.569,94.238,45.898,-836.914,78.613,77.637,0
1579287088.573,83.984,54.199,-718.262,82.520,69.824,0
1579287088.577,73.242,47.852,-687.500,76.172,62.988,0
1579287088.581,78.125,47.363,-733.887,67.383,49.805,0
1579287088.585,80.566,45.410,-719.727,65.918,83.008,0
1579287088.589,75.195,30.762,-880.371,64.941,22.461,0
1579287088.593,76.172,35.645,-952.148,62.500,-13.184,0
1579287088.596,76.172,43.457,-834.473,56.641,43.457,0
1579287088.600,67.383,35.645,-804.688,56.152,34.180,0
1579287088.604,65.430,40.527,-741.211,62.988,40.527,0
1579287088.608,64.941,20.996,-838.867,62.988,66.406,0
1579287088.612,61.035,24.902,-971.191,56.641,22.949,0
1579287088.609,62.012,50.293,-849.121,54.199,38.574,0
1579287088.613,57.617,41.504,-783.691,55.664,66.895,0
1579287088.617,49.805,36.133,-770.996,50.781,67.871,0
1579287088.621,50.293,31.738,-870.117,44.922,55.664,0
1579287088.625,51.270,32.227,-921.387,41.016,29.297,0
1579287088.629,47.852,27.344,-920.410,36.133,38.574,0
1579287088.633,46.387,31.250,-950.195,35.156,-1.465,0
1579287088.636,41.016,47.363,-784.180,32.227,34.668,0
1579287088.640,37.598,22.461,-837.402,23.926,50.781,0
1579287088.644,45.410,18.555,-962.402,25.391,1.465,0
1579287088.648,43.457,48.340,-804.688,35.645,-13.672,0
1579287088.652,35.645,46.875,-651.855,35.645,34.180,0
1579287088.657,33.691,42.969,-660.156,27.344,25.391,0
1579287088.661,38.574,34.180,-801.758,33.203,10.742,0
1579287088.665,41.992,41.016,-747.070,39.062,45.898,0
1579287088.669,44.434,47.852,-558.105,36.621,58.105,0
1579287088.673,50.293,36.621,-576.660,30.273,44.922,0
1579287088.677,48.340,33.203,-712.402,24.414,6.348,0
1579287088.681,43.945,27.344,-834.473,26.855,-42.969,0
1579287088.684,32.227,32.227,-927.734,29.785,4.883,0
1579287088.688,20.996,55.664,-731.445,22.461,51.758,0
1579287088.692,31.250,52.246,-513.672,21.484,71.289,0
1579287088.696,46.387,50.293,-457.031,33.691,108.398,0
1579287088.700,46.875,40.527,-507.812,39.551,84.961,0
1579287088.709,41.016,33.691,-657.227,32.227,26.367,0
1579287088.713,35.645,42.969,-658.691,25.391,26.367,0
1579287088.717,33.203,39.062,-696.289,24.902,39.551,0
1579287088.721,22.949,39.062,-743.164,27.344,9.766,0
1579287088.725,16.113,30.273,-818.848,31.738,24.414,0
1579287088.729,24.902,28.809,-950.684,31.250,13.672,0
1579287088.733,40.527,39.551,-875.977,27.344,19.531,0
1579287088.736,47.363,42.969,-657.227,33.691,15.137,0
1579287088.740,36.621,42.480,-478.516,37.598,35.156,0
1579287088.744,28.809,30.273,-456.055,36.133,27.832,0
1579287088.748,40.039,23.438,-625.000,36.621,11.230,0
1579287088.752,54.199,40.039,-518.555,36.621,51.758,0
1579287088.749,48.340,41.992,-292.480,35.156,63.965,0
1579287088.753,32.227,32.715,-288.086,28.809,53.223,0
1579287088.757,30.762,26.367,-300.781,26.367,27.344,0
1579287088.761,27.832,18.555,-459.473,28.809,-1.953,0
1579287088.765,28.809,26.367,-438.965,26.367,-21.973,0
1579287088.769,33.203,28.809,-378.906,23.926,-16.113,0
1579287088.773,36.621,31.250,-396.484,27.344,70.312,0
1579287088.776,40.039,39.551,-258.301,29.297,110.352,0
1579287088.780,37.109,23.438,-401.855,32.227,70.312,0
1579287088.784,34.180,27.832,-486.816,31.250,72.266,0
1579287088.788,30.273,51.270,-229.980,31.738,47.363,0
1579287088.792,30.273,41.992,-235.840,34.180,-28.809,0
1579287088.809,38.574,44.434,-219.238,39.551,-15.625,0
1579287088.813,43.457,40.039,-262.695,43.945,5.371,0
1579287088.817,42.969,41.504,-351.562,39.551,-37.598,0
1579287088.821,42.480,52.734,-215.332,39.062,41.504,0
1579287088.825,44.434,45.898,-165.527,45.410,86.914,0
1579287088.829,47.363,37.598,-267.090,48.828,26.855,0
1579287088.833,50.781,26.855,-453.613,43.457,11.719,0
1579287088.836,47.852,29.297,-585.449,32.227,39.551,0
1579287088.840,37.109,52.734,-333.008,23.926,38.574,0
1579287088.844,32.227,46.387,-229.004,26.855,8.301,0
1579287088.848,30.273,46.387,-279.785,28.809,28.809,0
1579287088.852,24.902,41.504,-328.125,26.855,35.645,0
1579287088.849,21.973,36.621,-416.504,30.762,-19.043,0
1579287088.853,25.391,47.852,-269.043,43.457,2.441,0
1579287088.857,30.273,48.828,-162.109,50.781,96.680,0
1579287088.861,31.250,46.387,-164.551,51.270,104.980,0
1579287088.865,33.203,36.621,-285.645,55.664,66.406,0
1579287088.869,30.762,29.297,-477.539,59.570,26.367,0
1579287088.873,26.855,40.039,-524.902,55.176,-11.230,0
1579287088.876,26.367,48.340,-458.008,35.645,0.488,0
1579287088.880,29.785,48.828,-433.594,20.508,-7.324,0
1579287088.884,33.691,42.480,-481.445,26.855,14.160,0
1579287088.888,29.785,32.715,-718.262,31.738,-36.133,0
1579287088.892,26.855,49.805,-698.242,28.320,-62.012,0
1579287088.889,29.297,49.805,-659.180,25.879,11.719,0
1579287088.893,26.855,50.293,-696.777,24.902,82.520,0
1579287088.897,25.879,53.711,-589.355,32.715,62.012,0
1579287088.901,31.250,43.457,-791.504,33.203,24.902,0
1579287088.905,32.715,52.734,-786.133,27.344,58.105,0
1579287088.909,37.109,49.805,-694.336,31.250,62.500,0
1579287088.913,40.039,47.363,-752.441,38.574,73.730,0
1579287088.916,41.992,54.688,-639.160,37.598,70.801,0
1579287088.920,54.199,33.691,-813.477,28.809,-1.465,0
1579287088.924,53.711,41.504,-907.715,26.367,14.160,0
1579287088.928,41.016,65.430,-644.531,32.227,61.523,0
1579287088.932,35.156,56.641,-566.895,37.109,57.617,0
1579287088.949,35.156,49.805,-611.328,32.715,13.184,0
1579287088.953,29.297,49.805,-671.387,29.297,38.574,0
1579287088.957,20.508,52.246,-609.863,32.227,62.500,0
1579287088.961,30.762,44.922,-575.684,36.133,39.551,0
1579287088.965,38.574,37.598,-638.184,33.691,23.438,0
1579287088.969,38.086,37.598,-677.246,25.391,-52.246,0
1579287088.973,51.270,30.273,-844.238,31.250,-24.902,0
1579287088.976,58.594,39.551,-877.930,36.133,40.527,0
1579287088.980,56.641,56.641,-619.629,37.598,11.719,0
1579287088.984,52.246,52.734,-501.465,45.410,30.762,0
1579287088.988,43.945,51.758,-506.348,44.434,46.387,0
1579287088.992,35.645,48.340,-592.285,34.180,49.805,0
1579287088.989,34.668,53.223,-573.730,28.809,33.203,0
1579287088.993,32.715,51.270,-484.375,25.879,13.672,0
1579287088.997,31.738,47.363,-518.555,22.949,4.395,0
1579287089.001,43.457,52.246,-487.793,26.855,-19.043,0
1579287089.005,44.922,45.410,-500.977,26.855,5.859,0
1579287089.009,39.551,44.434,-557.129,19.531,72.754,0
1579287089.013,42.969,48.340,-559.570,17.090,54.688,0
1579287089.016,52.734,48.340,-544.922,24.414,29.785,0
1579287089.020,57.129,63.965,-314.453,25.879,57.617,0
1579287089.024,60.059,50.293,-264.160,26.855,34.668,0
1579287089.028,63.965,34.668,-551.270,24.902,58.594,0
1579287089.032,44.434,59.570,-452.148,23.438,27.832,0
1579287089.029,33.203,61.523,-188.477,28.809,-11.230,0
1579287089.033,44.922,52.734,-165.039,27.832,-32.715,0
1579287089.037,39.551,46.875,-189.941,28.320,5.859,0
1579287089.041,24.902,42.969,-204.102,30.762,77.637,0
1579287089.045,33.691,46.387,-125.000,35.645,35.156,0
1579287089.049,44.922,41.992,-129.883,36.621,66.895,0
1579287089.053,50.293,44.922,-214.844,34.668,73.730,0
1579287089.056,49.316,49.316,-138.184,40.527,30.273,0
1579287089.060,50.293,29.785,-355.469,41.504,25.391,0
1579287089.064,50.293,40.039,-431.641,37.598,27.832,0
1579287089.068,48.828,55.664,-88.379,35.645,36.621,0
1579287089.072,51.270,48.340,-73.730,36.621,-19.043,0
1579287089.090,41.992,48.340,-34.668,39.551,27.344,0
1579287089.094,35.156,40.527,-90.332,41.504,10.742,0
1579287089.098,37.109,45.898,-101.074,40.527,-19.531,0
1579287089.102,40.527,50.781,-4.883,39.062,54.688,0
1579287089.106,50.293,46.387,-15.625,42.969,64.941,0
1579287089.110,49.805,30.273,-164.062,50.781,-2.441,0
1579287089.114,54.688,28.809,-354.980,49.316,-13.184,0
1579287089.117,63.965,47.852,-240.723,42.480,28.320,0
1579287089.121,52.734,51.270,-58.594,42.969,41.016,0
1579287089.125,49.805,50.293,-54.199,52.734,40.527,0
1579287089.129,49.316,54.199,57.129,51.270,71.777,0
1579287089.133,43.945,29.297,-174.316,40.527,57.129,0
1579287089.129,40.527,36.133,-398.926,36.133,-10.254,0
1579287089.133,43.945,71.777,-46.875,36.133,58.105,0
1579287089.137,46.875,65.430,69.336,36.621,82.031,0
1579287089.141,45.898,57.129,30.273,34.180,59.570,0
1579287089.145,48.340,49.316,-110.840,35.645,85.938,0
1579287089.149,54.688,45.898,-370.117,50.781,23.438,0
1579287089.153,62.988,58.594,-391.602,60.547,41.992,0
1579287089.156,63.965,62.500,-355.469,63.965,38.574,0
1579287089.160,65.918,65.430,-355.469,62.500,-10.254,0
1579287089.164,60.059,48.340,-531.250,50.781,24.902,0
1579287089.168,51.270,37.109,-899.902,35.156,-41.992,0
1579287089.172,50.781,67.871,-724.609,26.367,-20.996,0
1579287089.170,46.875,65.918,-531.250,29.297,57.129,0
1579287089.174,51.270,59.082,-626.953,29.297,3.906,0
1579287089.178,55.176,47.852,-737.305,31.738,-3.906,0
1579287089.182,51.758,43.945,-800.781,30.273,31.250,0
1579287089.186,49.316,51.758,-698.730,28.809,32.227,0
1579287089.190,50.293,40.527,-867.188,28.320,-10.742,0
1579287089.194,59.082,60.547,-860.352,37.109,49.316,0
1579287089.197,65.430,63.477,-705.078,41.992,83.008,0
1579287089.201,60.059,47.852,-905.762,38.574,51.270,0
1579287089.205,63.477,70.801,-840.820,39.551,65.918,0
1579287089.209,74.707,75.195,-642.578,42.480,65.918,0
1579287089.213,71.289,72.266,-646.484,47.363,33.203,0
1579287089.230,64.941,66.895,-708.984,53.223,34.668,0
1579287089.234,58.105,58.105,-901.367,47.363,35.645,0
1579287089.238,38.574,67.871,-972.656,46.387,-7.324,0
1579287089.242,34.180,70.801,-898.438,55.664,2.930,0
1579287089.246,41.504,66.895,-850.098,59.570,38.086,0
1579287089.250,43.457,60.059,-925.781,52.734,70.312,0
1579287089.254,47.363,45.410,-986.816,48.340,49.805,0
1579287089.257,49.805,58.594,-915.039,50.781,14.160,0
1579287089.261,49.316,75.195,-815.430,53.711,18.066,0
1579287089.265,46.387,65.918,-802.734,47.363,18.066,0
1579287089.269,47.363,63.477,-840.332,40.039,29.297,0
1579287089.273,52.734,65.918,-923.340,40.039,23.926,0
1579287089.269,54.199,75.195,-865.723,46.875,42.969,0
1579287089.273,53.223,75.684,-718.262,48.828,82.031,0
1579287089.277,56.641,66.406,-718.262,46.387,64.941,0
1579287089.281,59.570,63.477,-724.609,50.293,6.348,0
1579287089.285,62.012,65.430,-679.199,54.199,62.500,0
1579287089.289,63.965,63.477,-693.359,52.734,112.305,0
1579287089.293,64.453,59.082,-782.715,41.992,52.246,0
1579287089.296,56.152,62.988,-750.488,34.668,54.688,0
1579287089.300,45.410,69.336,-560.059,37.598,55.664,0
1579287089.304,45.898,46.387,-738.770,40.039,0.000,0
1579287089.308,48.828,50.293,-883.301,34.180,30.273,0
1579287089.312,47.363,70.801,-591.797,31.250,43.457,0
1579287089.310,48.340,65.430,-466.309,42.480,3.418,0
1579287089.314,56.152,66.895,-398.438,48.828,33.203,0
1579287089.318,64.941,53.223,-477.051,46.387,40.039,0
1579287089.322,64.941,54.199,-571.777,43.945,-4.395,0
1579287089.326,63.477,62.988,-438.965,42.480,14.160,0
1579287089.330,67.871,50.293,-507.812,46.387,46.387,0
1579287089.334,65.918,57.617,-498.047,43.945,57.129,0
1579287089.337,53.711,52.734,-514.160,37.109,67.383,0
1579287089.341,41.992,49.805,-637.695,34.668,105.957,0
1579287089.345,41.992,65.918,-473.145,36.621,106.934,0
1579287089.349,44.922,59.082,-437.500,40.039,52.246,0
1579287089.353,34.180,52.246,-543.945,35.156,1.465,0
1579287089.370,28.809,46.387,-680.176,38.086,7.324,0
1579287089.374,40.039,56.152,-712.891,44.922,41.992,0
1579287089.378,47.852,69.336,-508.301,43.457,39.551,0
1579287089.382,47.852,63.477,-393.555,41.504,42.969,0
1579287089.386,49.316,57.617,-414.062,34.668,57.617,0
1579287089.390,49.316,44.922,-537.598,38.086,7.324,0
1579287089.394,48.828,40.039,-797.363,43.945,4.883,0
1579287089.397,48.828,62.012,-660.156,34.668,48.828,0
1579287089.401,51.758,66.895,-402.832,29.785,36.133,0
1579287089.405,57.129,58.594,-437.500,34.180,-10.742,0
1579287089.409,65.430,58.105,-445.312,39.062,-32.715,0
1579287089.413,70.801,56.152,-465.332,42.480,20.508,0
1579287089.410,65.918,59.082,-452.637,38.086,32.227,0
1579287089.414,67.871,57.129,-391.602,36.621,38.086,0
1579287089.418,66.406,47.363,-495.605,34.180,-8.789,0
1579287089.422,40.039,48.828,-541.504,29.785,0.000,0
1579287089.426,25.391,52.246,-508.301,25.879,48.828,0
1579287089.430,32.227,47.363,-605.469,23.438,41.504,0
1579287089.434,39.551,49.805,-646.484,31.738,29.785,0
1579287089.437,49.805,55.176,-600.098,39.062,-3.906,0
1579287089.441,58.105,64.453,-435.059,41.992,11.230,0
1579287089.445,54.688,50.293,-614.746,44.922,6.348,0
1579287089.449,54.688,52.734,-673.828,47.852,3.418,0
1579287089.453,57.617,61.035,-446.289,53.223,9.277,0
1579287089.450,55.176,58.105,-473.633,50.293,-6.348,0
1579287089.454,56.641,61.035,-421.387,42.480,41.016,0
1579287089.458,59.082,40.527,-607.422,38.086,46.875,0
1579287089.462,57.617,44.434,-693.359,31.738,18.066,0
1579287089.466,50.293,55.176,-487.793,27.344,-0.488,0
1579287089.470,46.875,40.039,-618.652,26.855,6.836,0
1579287089.474,51.758,47.363,-673.828,24.902,36.133,0
1579287089.477,52.734,37.598,-734.375,25.879,22.461,0
1579287089.481,52.734,33.203,-942.871,26.367,-7.812,0
1579287089.485,57.129,62.500,-686.523,26.855,49.805,0
1579287089.489,57.617,58.105,-481.445,29.297,49.316,0
1579287089.493,58.594,54.199,-472.656,35.156,21.484,0
1579287089.510,58.105,43.945,-512.695,35.645,39.551,0
1579287089.514,56.641,40.039,-598.633,28.320,18.066,0
1579287089.518,55.664,50.781,-496.582,27.344,72.754,0
1579287089.522,55.176,48.828,-517.090,28.809,62.012,0
1579287089.526,50.781,45.410,-553.711,28.320,-13.672,0
1579287089.530,44.922,26.855,-706.543,23.926,-15.625,0
1579287089.534,49.805,24.902,-952.148,19.043,7.812,0
1579287089.537,52.734,51.758,-779.297,16.602,1.953,0
1579287089.541,47.852,47.852,-614.746,18.555,-4.883,0
1579287089.545,44.922,44.922,-596.680,19.531,-31.250,0
1579287089.549,44.434,43.945,-541.992,17.578,-10.742,0
1579287089.553,47.852,40.527,-612.305,20.508,5.859,0
1579287089.549,53.711,53.223,-482.422,26.855,56.152,0
1579287089.553,56.641,52.734,-438.965,31.738,64.453,0
1579287089.557,53.223,50.293,-467.285,28.809,49.316,0
1579287089.561,47.852,44.922,-456.055,24.414,75.195,0
1579287089.565,41.992,39.062,-532.715,23.926,30.762,0
1579287089.569,41.016,41.992,-607.422,25.391,-20.508,0
1579287089.573,45.410,41.504,-695.801,18.066,-15.625,0
1579287089.576,45.410,51.758,-696.777,10.742,27.832,0
1579287089.580,49.805,56.641,-609.375,14.648,-10.254,0
1579287089.584,62.012,33.691,-818.359,20.996,-9.766,0
1579287089.588,62.988,43.457,-828.613,12.695,87.891,0
1579287089.592,58.105,55.664,-619.141,7.324,65.430,0
1579287089.589,56.152,52.734,-605.957,12.695,1.465,0
1579287089.593,57.617,58.594,-476.074,21.484,47.852,0
1579287089.597,62.988,49.316,-571.289,36.621,31.738,0
1579287089.601,58.105,44.434,-666.504,32.227,-1.465,0
1579287089.605,43.945,43.457,-623.047,18.066,39.062,0
1579287089.609,44.434,35.156,-802.246,23.438,6.348,0
1579287089.613,46.875,44.434,-856.445,30.762,3.418,0
1579287089.616,38.086,28.809,-850.586,26.855,29.297,0
1579287089.620,33.203,19.043,-967.285,20.996,-1.953,0
1579287089.624,35.645,46.875,-842.773,28.809,-18.066,0
1579287089.628,32.715,45.410,-683.105,36.133,10.742,0
1579287089.632,22.461,35.156,-643.555,30.273,33.691,0
1579287089.649,16.602,23.438,-777.344,25.879,-0.488,0
1579287089.653,19.043,26.367,-784.668,25.879,-18.066,0
1579287089.657,22.949,30.273,-677.734,23.438,8.301,0
1579287089.661,29.785,38.574,-573.730,20.996,54.199,0
1579287089.665,41.992,42.969,-452.148,19.531,61.523,0
1579287089.669,47.852,19.531,-648.926,22.461,46.875,0
1579287089.673,44.434,21.484,-801.270,21.973,91.797,0
1579287089.676,41.992,45.410,-497.070,19.043,93.750,0
1579287089.680,36.133,43.945,-298.828,19.043,78.613,0
1579287089.684,33.203,42.480,-286.133,16.113,76.660,0
1579287089.688,33.691,33.691,-407.715,21.973,-1.953,0
1579287089.692,33.691,36.621,-429.199,23.926,26.367,0
1579287089.689,37.598,46.387,-267.578,16.602,95.215,0
1579287089.693,37.598,42.480,-309.082,11.719,32.227,0
1579287089.697,41.992,46.875,-235.352,19.531,44.434,0
1579287089.701,48.340,37.109,-233.398,22.949,32.715,0
1579287089.705,48.828,37.598,-305.176,13.672,15.625,0
1579287089.709,42.969,39.551,-343.262,3.906,14.648,0
1579287089.713,18.066,34.668,-410.156,5.371,33.691,0
1579287089.716,1.953,42.480,-360.352,13.672,56.641,0
1579287089.720,2.441,36.621,-286.133,9.766,34.668,0
1579287089.724,-0.488,29.297,-365.723,-1.953,55.664,0
1579287089.728,9.277,49.805,-291.992,0.488,58.594,0
1579287089.732,4.883,49.805,-130.371,1.465,31.250,0
1579287089.729,3.418,45.898,-118.652,-9.277,51.758,0
1579287089.733,2.441,46.387,-188.965,-23.926,40.039,0
1579287089.737,-17.578,37.109,-510.742,-41.504,64.941,0
1579287089.741,-25.391,52.246,-594.238,-45.898,94.238,0
1579287089.745,-29.785,56.152,-440.430,-51.758,82.031,0
1579287089.749,-44.922,33.203,-580.566,-70.801,74.219,0
1579287089.753,-74.219,37.598,-569.824,-93.750,72.754,0
1579287089.756,-98.145,21.484,-708.496,-113.281,78.125,0
1579287089.760,-111.816,13.184,-987.305,-129.883,28.809,0
1579287089.764,-132.812,37.109,-964.844,-153.809,18.066,0
1579287089.768,-150.879,28.320,-960.449,-178.223,50.781,0
1579287089.772,-161.133,23.438,-970.703,-186.523,23.438,0
1579287089.789,-161.133,24.414,-939.453,-181.152,28.809,0
1579287089.793,-148.926,25.879,-823.730,-175.781,23.438,0
1579287089.797,-132.324,22.949,-780.762,-172.363,21.484,0
1579287089.801,-113.281,18.066,-879.883,-161.133,3.418,0
1579287089.805,-95.703,20.508,-862.305,-142.578,31.738,0
1579287089.809,-86.426,-0.488,-916.992,-130.859,29.785,0
1579287089.813,-98.633,6.836,-941.406,-124.512,-27.832,0
1579287089.816,-113.770,22.461,-754.883,-108.887,-19.043,0
1579287089.820,-94.727,11.230,-667.480,-80.078,-26.855,0
1579287089.824,-69.336,15.137,-568.848,-61.523,-34.668,0
1579287089.828,-50.781,1.953,-670.410,-53.711,-20.508,0
1579287089.832,-28.320,-0.488,-820.801,-37.598,10.742,0
1579287089.829,-3.906,22.461,-519.531,-15.137,56.641,0
1579287089.833,17.090,20.996,-339.355,4.395,46.387,0
1579287089.837,27.344,18.066,-312.988,11.719,12.207,0
1579287089.841,38.086,8.789,-396.484,17.090,21.973,0
1579287089.845,53.711,11.230,-426.758,33.203,48.828,0
1579287089.849,63.477,19.043,-335.449,44.922,29.297,0
1579287089.853,68.359,18.555,-338.867,50.293,45.410,0
1579287089.856,84.473,29.297,-234.375,53.223,74.219,0
1579287089.860,98.145,20.508,-198.730,55.176,24.902,0
1579287089.864,102.051,7.324,-425.781,62.988,38.574,0
1579287089.868,100.586,28.809,-274.902,72.266,77.148,0
1579287089.872,94.727,34.180,-7.812,73.730,68.848,0
1579287089.869,93.750,30.273,0.488,71.289,64.941,0
1579287089.873,100.586,20.508,-75.684,77.637,28.320,0
1579287089.877,100.098,20.020,-139.160,82.520,1.465,0
1579287089.881,97.656,33.203,11.719,77.148,15.625,0
1579287089.885,97.656,28.320,91.797,74.219,59.570,0
1579287089.889,98.145,18.066,-59.082,83.008,32.715,0
1579287089.893,102.539,26.367,-48.340,88.867,-19.043,0
1579287089.896,101.074,14.160,-170.898,84.473,8.301,0
1579287089.900,97.656,20.508,-200.195,74.707,53.711,0
1579287089.904,94.238,40.039,125.000,74.707,59.570,0
1579287089.908,79.590,32.227,132.324,78.613,-8.789,0
1579287089.912,67.383,32.715,197.754,74.219,45.410,0
1579287089.929,72.266,25.879,131.348,71.777,62.500,0
1579287089.933,81.055,25.879,34.180,73.242,-19.531,0
1579287089.937,84.961,30.273,125.977,75.684,15.625,0
1579287089.941,80.566,33.203,242.188,74.219,95.215,0
1579287089.945,77.637,22.461,189.453,67.871,91.309,0
1579287089.949,80.078,7.324,-92.285,61.035,46.875,0
1579287089.953,77.637,15.625,-135.742,55.664,19.531,0
1579287089.956,77.148,28.809,127.441,52.734,32.715,0
1579287089.960,81.055,23.926,187.988,51.758,13.184,0
1579287089.964,79.102,22.461,158.203,48.828,-38.086,0
1579287089.968,76.172,7.324,13.184,52.246,20.020,0
1579287089.972,74.707,14.160,-71.289,55.176,32.227,0
1579287089.969,78.613,38.086,163.086,50.293,3.418,0
1579287089.973,81.055,33.203,192.871,50.781,23.926,0
1579287089.977,78.613,35.645,216.797,50.293,71.777,0
1579287089.981,78.613,38.086,196.289,55.664,105.957,0
1579287089.985,72.754,36.133,136.230,61.523,61.523,0
1579287089.989,60.547,22.461,-4.395,47.852,-18.066,0
1579287089.993,52.246,19.531,-144.043,33.691,-4.883,0
1579287089.996,45.898,29.297,-22.461,33.691,55.664,0
1579287090.000,48.340,15.625,-60.547,37.109,55.176,0
1579287090.004,54.199,9.766,-305.176,29.785,-11.719,0
1579287090.008,55.664,39.062,-104.492,25.391,-6.836,0
1579287090.012,52.246,43.945,208.984,27.344,98.145,0
1579287090.009,51.758,35.645,248.535,32.715,96.191,0
1579287090.013,56.641,25.879,127.930,34.180,36.621,0
1579287090.017,61.035,25.391,28.320,28.809,60.059,0
1579287090.021,61.035,37.598,113.281,31.250,70.312,0
1579287090.025,57.617,35.156,150.879,37.598,54.199,0
1579287090.029,51.758,28.320,37.598,36.621,14.160,0
1579287090.033,52.246,23.926,-89.355,31.250,6.836,0
1579287090.036,50.781,28.320,-125.977,21.484,34.668,0
1579287090.040,49.805,45.410,70.312,22.461,57.617,0
1579287090.044,56.152,41.504,171.387,22.949,19.531,0
1579287090.048,50.293,32.227,7.812,20.508,-35.156,0
1579287090.052,40.039,34.180,2.441,20.996,-5.859,0
1579287090.069,46.387,30.273,-82.520,22.461,19.531,0
1579287090.073,53.711,48.340,-36.133,24.414,6.836,0
1579287090.077,52.246,52.246,181.641,18.066,63.477,0
1579287090.081,55.176,38.574,108.398,14.648,62.012,0
1579287090.085,44.434,35.645,6.348,20.020,-2.930,0
1579287090.089,20.508,33.203,-119.629,24.902,37.598,0
1579287090.093,22.949,38.086,-188.477,29.785,89.844,0
1579287090.096,27.832,38.086,-142.090,23.438,57.129,0
1579287090.100,28.809,33.203,-151.367,22.949,10.254,0
1579287090.104,34.668,39.551,-94.238,32.227,2.930,0
1579287090.108,43.945,24.414,-304.688,31.738,53.223,0
1579287090.112,46.875,25.391,-504.395,30.273,50.781,0
1579287090.109,41.992,44.922,-274.902,30.762,40.527,0
1579287090.113,41.016,31.738,-311.035,35.156,41.016,0
1579287090.117,39.062,25.879,-364.258,34.668,41.016,0
1579287090.121,37.598,30.273,-397.949,26.855,15.137,0
1579287090.125,33.203,29.785,-430.176,18.066,10.254,0
1579287090.129,39.551,22.949,-453.125,21.973,53.711,0
1579287090.133,47.852,26.855,-503.906,29.785,45.898,0
1579287090.136,43.945,37.598,-413.086,25.391,-7.324,0
1579287090.140,42.969,18.066,-581.543,20.996,6.348,0
1579287090.144,39.062,16.602,-832.520,24.902,25.391,0
1579287090.148,28.320,43.945,-600.586,29.297,9.277,0
1579287090.152,29.297,41.016,-443.359,26.855,20.508,0
1579287090.149,34.668,36.621,-472.656,24.414,25.879,0
1579287090.153,39.551,29.785,-591.309,26.855,25.391,0
1579287090.157,40.039,34.668,-640.625,28.809,16.602,0
1579287090.161,34.668,41.504,-531.738,21.973,31.738,0
1579287090.165,20.996,29.297,-630.371,18.555,54.688,0
1579287090.169,17.578,32.715,-743.164,21.973,56.152,0
1579287090.173,30.762,30.762,-831.543,25.391,18.555,0
1579287090.176,37.109,28.320,-955.078,25.391,30.273,0
1579287090.180,33.691,43.457,-812.988,17.090,58.594,0
1579287090.184,34.668,42.969,-709.473,16.113,-2.441,0
1579287090.188,38.574,45.410,-669.922,22.949,13.184,0
1579287090.192,36.621,35.645,-675.781,23.438,41.504,0
1579287090.209,37.598,28.809,-746.582,23.438,57.617,0
1579287090.213,38.574,35.645,-691.895,20.996,64.941,0
1579287090.217,40.527,34.180,-650.391,24.902,67.871,0
1579287090.221,37.109,33.203,-591.797,28.809,59.570,0
1579287090.225,33.691,27.344,-611.816,27.832,11.230,0
1579287090.229,38.086,21.973,-778.320,23.438,22.949,0
1579287090.233,40.527,35.156,-697.754,23.926,83.984,0
1579287090.236,51.758,37.109,-604.004,38.574,84.473,0
1579287090.240,56.641,37.598,-650.391,41.016,-0.488,0
1579287090.244,57.617,39.062,-537.598,33.203,37.109,0
1579287090.248,51.758,16.602,-761.230,30.762,82.520,0
1579287090.252,39.551,21.484,-867.188,27.344,27.832,0
1579287090.250,37.598,38.086,-600.586,23.438,8.789,0
1579287090.254,35.645,32.715,-554.688,16.113,19.531,0
1579287090.258,31.250,28.809,-601.074,6.348,6.348,0
1579287090.262,31.738,25.879,-675.781,8.301,3.906,0
1579287090.266,36.621,32.227,-582.520,9.277,68.359,0
1579287090.270,42.969,25.391,-605.469,9.766,79.102,0
1579287090.274,47.363,24.902,-809.082,16.113,8.789,0
1579287090.277,37.598,40.039,-665.039,19.043,29.785,0
1579287090.281,26.367,24.902,-749.512,25.879,12.207,0
1579287090.285,24.414,21.973,-829.590,24.414,10.742,0
1579287090.289,23.926,28.809,-713.379,20.508,50.781,0
1579287090.293,29.785,33.203,-713.867,22.461,50.293,0
1579287090.309,24.902,40.527,-558.105,25.391,55.176,0
1579287090.313,17.090,21.484,-708.008,25.391,38.574,0
1579287090.317,19.531,22.949,-799.805,15.137,66.895,0
1579287090.321,26.855,35.645,-647.461,10.254,18.555,0
1579287090.325,37.598,29.297,-652.344,16.113,-34.180,0
1579287090.329,44.434,30.273,-692.383,18.555,-3.418,0
1579287090.333,45.898,17.090,-836.426,19.531,-18.066,0
1579287090.336,39.062,11.230,-965.332,18.555,21.973,0
1579287090.340,34.180,35.156,-756.836,27.832,34.180,0
1579287090.344,39.062,36.133,-519.043,43.945,-9.277,0
1579287090.348,46.875,34.180,-481.445,48.340,-5.859,0
1579287090.352,43.945,31.250,-558.594,37.598,7.812,0
1579287090.349,31.250,23.438,-683.594,22.461,5.371,0
1579287090.353,33.203,35.156,-625.977,22.461,2.441,0
1579287090.357,40.527,47.852,-442.871,21.484,65.430,0
1579287090.361,39.062,46.387,-398.926,19.043,57.129,0
1579287090.365,43.945,37.598,-515.625,23.926,-0.488,0
1579287090.369,53.223,34.180,-632.324,27.832,5.371,0
1579287090.373,51.270,40.039,-585.449,22.949,24.414,0
1579287090.376,47.852,42.969,-454.590,19.043,25.391,0
1579287090.380,43.945,45.898,-375.488,15.625,23.926,0
1579287090.384,37.598,40.527,-359.863,14.648,-5.371,0
1579287090.388,32.715,20.996,-617.188,15.625,23.438,0
1579287090.392,27.832,32.227,-629.883,7.812,29.785,0
1579287090.389,24.414,46.875,-328.125,0.488,47.363,0
1579287090.393,27.832,41.016,-318.848,4.883,54.199,0
1579287090.397,32.227,39.062,-343.262,18.555,5.859,0
1579287090.401,34.180,29.297,-480.957,29.785,16.113,0
1579287090.405,44.434,29.785,-609.375,34.668,-21.973,0
1579287090.409,51.270,37.109,-539.551,42.969,32.715,0
1579287090.413,50.781,30.273,-585.449,51.270,53.223,0
1579287090.416,58.594,40.527,-501.465,55.664,33.203,0
1579287090.420,62.988,28.809,-648.926,51.270,84.473,0
1579287090.424,53.711,25.391,-832.031,40.039,62.500,0
1579287090.428,47.363,44.922,-542.969,36.621,23.438,0
1579287090.432,45.898,42.969,-441.895,35.156,35.156,0
1579287090.449,44.922,41.504,-430.664,25.879,86.914,0
1579287090.453,41.504,30.762,-583.008,15.625,63.965,0
1579287090.457,36.621,36.621,-608.887,19.043,68.359,0
1579287090.461,39.551,38.574,-531.250,21.973,33.203,0
1579287090.465,40.039,32.715,-525.391,18.555,26.367,0
1579287090.469,46.875,30.273,-561.523,19.531,87.402,0
1579287090.473,55.176,14.648,-815.430,20.508,54.199,0
1579287090.476,49.316,19.531,-872.559,24.414,66.895,0
1579287090.480,39.551,42.480,-617.676,28.809,39.062,0
1579287090.484,24.902,37.598,-531.738,27.344,25.879,0
1579287090.488,23.926,32.715,-541.504,24.902,34.180,0
1579287090.492,17.578,28.320,-628.906,28.320,4.395,0
1579287090.489,6.836,31.738,-682.129,27.344,-33.203,0
1579287090.493,7.324,36.621,-625.488,23.926,-31.738,0
1579287090.497,10.254,29.297,-647.461,20.020,15.137,0
1579287090.501,20.996,31.250,-631.836,18.555,30.273,0
1579287090.505,23.438,26.855,-675.293,21.484,60.059,0
1579287090.509,25.879,18.555,-869.141,19.043,15.137,0
1579287090.513,35.156,35.156,-904.297,18.066,-0.977,0
1579287090.516,40.039,45.898,-761.230,21.484,50.781,0
1579287090.520,43.457,46.387,-611.328,26.855,77.148,0
1579287090.524,47.852,27.832,-744.629,26.855,41.992,0
1579287090.528,53.223,21.484,-914.062,25.879,15.137,0
1579287090.532,53.223,41.504,-775.879,28.809,46.875,0
1579287090.529,52.734,39.062,-672.363,35.645,62.988,0
1579287090.533,59.082,37.109,-670.410,33.203,60.059,0
1579287090.537,58.594,30.762,-802.246,25.391,4.883,0
1579287090.541,53.711,28.809,-933.105,23.926,50.293,0
1579287090.545,48.828,38.086,-873.535,23.926,68.359,0
1579287090.549,38.086,28.809,-909.668,22.949,22.461,0
1579287090.553,30.273,24.414,-983.398,14.160,-48.340,0
1579287090.556,29.785,32.715,-957.031,10.742,-50.293,0
1579287090.560,30.762,17.090,-969.727,17.090,62.500,0
1579287090.564,36.133,26.855,-950.684,20.508,64.453,0
1579287090.568,35.156,50.781,-885.254,21.973,22.461,0
1579287090.572,27.832,44.434,-848.633,19.531,37.598,1
1579287090.589,28.809,34.180,-910.156,19.043,19.043,0
1579287090.593,30.762,32.227,-955.566,28.320,8.789,0
1579287090.597,23.438,38.086,-866.211,29.785,27.832,0
1579287090.601,20.996,31.250,-819.336,24.902,29.785,0
1579287090.605,28.320,27.344,-820.801,24.902,41.992,0
1579287090.609,37.109,27.832,-905.273,31.738,16.113,0
1579287090.613,41.016,18.066,-982.910,25.879,-9.766,0
1579287090.616,38.574,29.785,-921.875,9.277,16.602,0
1579287090.620,45.898,54.688,-760.254,8.789,52.734,0
1579287090.624,53.223,51.758,-655.762,20.996,59.570,0
1579287090.628,42.969,45.410,-597.168,17.090,62.500,0
1579287090.632,37.598,38.086,-650.391,8.301,91.309,0
1579287090.629,47.852,32.715,-770.996,6.836,17.090,0
1579287090.633,50.781,36.621,-737.793,10.254,-23.438,0
1579287090.637,47.363,40.039,-635.742,15.625,63.477,0
1579287090.641,44.434,31.738,-723.633,16.602,21.484,0
1579287090.645,41.504,22.461,-890.137,19.043,-12.695,0
1579287090.649,42.480,28.320,-834.473,27.832,45.410,0
1579287090.653,48.340,30.273,-742.676,32.715,49.316,0
1579287090.656,44.922,32.227,-654.785,26.367,81.055,0
1579287090.660,34.668,37.109,-552.246,11.719,44.922,0
1579287090.664,30.762,21.484,-615.234,11.230,31.250,0
1579287090.668,29.297,11.230,-809.570,19.043,71.289,0
1579287090.672,19.531,31.738,-668.457,16.113,27.832,0
1579287090.669,20.508,36.133,-448.242,14.160,20.020,0
1579287090.673,27.344,33.691,-405.762,18.555,36.133,0
1579287090.677,26.855,26.855,-444.336,29.297,41.016,0
1579287090.681,31.250,25.879,-486.328,28.809,19.531,0
1579287090.685,33.203,33.691,-371.582,29.785,32.227,0
1579287090.689,37.109,19.043,-506.836,31.738,19.531,0
1579287090.693,35.156,22.461,-621.094,29.297,-36.133,0
1579287090.696,32.715,27.832,-442.383,32.227,-5.371,0
1579287090.700,34.180,11.719,-610.840,25.391,49.805,0
1579287090.704,35.156,31.738,-595.215,15.625,59.082,0
1579287090.708,40.527,45.898,-267.090,20.508,85.938,0
1579287090.712,51.270,39.551,-233.398,28.320,56.641,0
1579287090.729,39.062,33.691,-280.762,29.297,-1.953,0
1579287090.733,32.715,29.297,-366.211,25.879,3.906,0
1579287090.737,44.922,39.551,-284.668,31.250,36.621,0
1579287090.741,41.504,40.527,-163.086,35.645,77.637,0
1579287090.745,38.574,33.203,-181.152,32.715,52.734,0
1579287090.749,41.992,26.367,-338.867,32.227,51.270,0
1579287090.753,44.434,24.414,-573.730,23.926,53.711,0
1579287090.756,42.480,36.621,-515.625,18.555,-5.371,0
1579287090.760,36.621,41.016,-313.477,22.949,11.719,0
1579287090.764,31.250,35.156,-374.512,18.066,21.484,0
1579287090.768,30.273,35.645,-358.398,14.160,3.418,0
1579287090.772,38.086,26.367,-449.219,27.344,53.223,0
1579287090.769,40.527,27.344,-590.820,30.762,-25.391,0
1579287090.773,41.016,39.551,-424.805,20.996,7.812,0
1579287090.777,42.480,37.109,-367.188,15.625,125.000,0
1579287090.781,28.320,35.156,-367.188,16.113,92.285,0
1579287090.785,20.020,31.250,-440.430,14.648,59.082,0
1579287090.789,24.902,31.738,-530.273,15.137,30.273,0
1579287090.793,24.414,36.621,-474.121,8.789,63.965,0
1579287090.796,38.574,36.133,-495.605,9.766,48.828,0
1579287090.800,54.688,45.898,-436.523,23.438,-11.230,0
1579287090.804,47.363,30.273,-574.707,28.320,22.949,0
1579287090.808,45.410,28.320,-827.148,27.344,66.895,0
1579287090.812,42.480,49.316,-599.609,30.273,79.590,0
1579287090.810,36.133,41.016,-492.676,31.250,66.895,0
1579287090.814,37.598,42.969,-441.895,28.809,36.133,0
1579287090.818,40.039,32.715,-480.957,31.738,20.508,0
1579287090.822,25.391,31.738,-586.426,27.832,20.020,0
1579287090.826,14.160,38.574,-470.215,24.414,63.477,0
1579287090.830,18.555,24.902,-552.734,33.203,57.129,0
1579287090.834,23.926,29.297,-600.586,36.133,37.598,0
1579287090.837,33.203,24.902,-552.246,32.227,41.992,0
1579287090.841,39.551,19.043,-722.656,33.203,62.012,0
1579287090.845,45.410,44.922,-538.574,37.598,80.566,0
1579287090.849,50.293,46.387,-338.867,37.598,10.742,0
1579287090.853,55.176,44.434,-318.359,29.785,21.484,0
1579287090.870,60.059,35.156,-375.000,28.320,23.926,0
1579287090.874,53.711,31.250,-453.125,29.785,-35.156,0
1579287090.878,44.434,32.227,-414.062,27.832,-44.922,0
1579287090.882,38.574,27.344,-442.871,20.020,-33.203,0
1579287090.886,40.039,34.668,-338.379,14.648,5.859,0
1579287090.890,48.340,28.320,-340.332,21.973,20.508,0
1579287090.894,52.734,19.531,-580.078,24.414,23.438,0
1579287090.897,48.828,39.062,-485.840,21.484,29.297,0
1579287090.901,35.156,46.875,-207.031,22.949,5.371,0
1579287090.905,37.598,42.969,-161.133,29.785,22.461,0
1579287090.909,45.410,39.062,-162.598,35.645,-2.441,0
1579287090.913,45.898,35.156,-198.730,36.621,29.785,0
1579287090.910,45.898,37.109,-163.574,30.273,77.637,0
1579287090.914,49.805,31.250,-184.570,22.949,9.766,0
1579287090.918,48.828,31.250,-160.645,25.391,10.742,0
1579287090.922,37.109,29.785,-140.137,26.855,6.836,0
1579287090.926,28.809,25.391,-214.844,21.973,46.387,0
1579287090.930,26.855,22.461,-328.125,18.066,89.844,0
1579287090.934,29.297,22.461,-403.320,21.484,27.344,0
1579287090.937,33.203,25.879,-461.426,23.438,-17.578,0
1579287090.941,31.738,38.574,-350.586,17.090,12.207,0
1579287090.945,28.809,20.996,-463.867,14.648,55.176,0
1579287090.949,31.738,17.090,-673.828,16.113,20.020,0
1579287090.953,36.133,51.270,-307.617,20.996,67.383,0
1579287090.950,41.016,46.387,-177.734,20.508,93.262,0
1579287090.954,38.086,39.062,-248.047,13.672,59.570,0
1579287090.958,43.945,34.180,-362.305,13.184,45.410,0
1579287090.962,51.270,41.992,-402.832,16.113,11.719,0
1579287090.966,40.527,44.434,-278.320,11.230,34.668,0
1579287090.970,37.598,31.738,-424.805,12.207,63.477,0
1579287090.974,37.598,38.086,-478.027,13.672,34.180,0
1579287090.977,29.785,30.273,-478.027,10.742,17.578,0
1579287090.981,39.062,24.902,-636.230,15.137,12.695,0
1579287090.985,49.805,41.992,-534.180,16.113,4.883,0
1579287090.989,31.738,41.504,-444.824,14.160,9.766,0
1579287090.993,19.043,41.992,-367.676,19.043,28.320,0
1579287091.010,25.879,25.879,-465.820,23.926,31.738,0
1579287091.014,29.785,21.973,-735.352,19.531,-46.387,0
1579287091.018,31.738,47.363,-630.859,18.066,-41.504,0
1579287091.022,38.574,48.340,-524.902,21.484,23.926,0
1579287091.026,37.109,44.922,-523.926,20.020,21.484,0
1579287091.030,35.645,31.250,-659.668,17.578,28.320,0
1579287091.034,32.715,19.531,-930.176,9.277,9.766,0
1579287091.037,25.879,40.527,-863.281,3.906,-36.133,0
1579287091.041,25.391,54.688,-575.195,10.254,18.555,0
1579287091.045,22.949,50.293,-482.910,10.254,53.711,0
1579287091.049,22.461,38.086,-562.500,5.371,12.207,0
1579287091.053,25.391,23.926,-798.828,4.883,-70.312,0
1579287091.050,28.320,41.992,-720.215,10.254,-19.531,0
1579287091.054,28.320,47.852,-513.672,11.719,44.922,0
1579287091.058,29.785,40.039,-536.133,8.789,12.695,0
1579287091.062,36.133,39.551,-598.145,12.695,-2.930,0
1579287091.066,41.504,37.598,-651.855,21.973,19.043,0
1579287091.070,42.480,37.598,-642.578,28.809,62.988,0
1579287091.074,41.504,37.109,-682.617,29.297,64.453,0
1579287091.077,41.992,41.504,-700.195,27.344,41.016,0
1579287091.081,39.551,45.410,-597.656,26.367,-20.996,0
1579287091.085,36.133,26.367,-762.695,26.855,5.371,0
1579287091.089,30.273,21.973,-859.863,20.996,62.988,0
1579287091.093,27.832,29.785,-673.828,13.672,7.812,0
1579287091.090,33.691,29.297,-612.793,15.137,-20.508,0
1579287091.094,41.016,28.320,-557.617,20.020,-23.926,0
1579287091.098,50.781,24.902,-687.012,21.973,-70.801,0
1579287091.102,55.176,36.621,-628.906,17.090,35.645,0
1579287091.106,45.410,35.156,-502.441,15.137,101.562,0
1579287091.110,42.480,21.484,-706.543,23.926,30.762,0
1579287091.114,47.363,34.668,-702.148,24.414,28.809,0
1579287091.117,37.109,21.484,-752.441,22.949,49.805,0
1579287091.121,33.691,15.625,-953.613,22.461,26.367,0
1579287091.125,31.738,43.457,-793.945,22.461,-7.324,0
1579287091.129,30.762,41.992,-651.367,26.367,30.273,0
1579287091.133,41.016,37.598,-671.387,23.926,36.621,0
1579287091.150,38.086,29.785,-819.336,23.438,20.508,0
1579287091.154,30.762,30.762,-843.750,27.344,22.461,0
1579287091.158,33.691,34.180,-722.168,28.320,12.207,0
1579287091.162,30.273,35.156,-662.109,24.414,73.242,0
1579287091.166,21.484,33.691,-730.469,17.578,70.801,0
1579287091.170,20.508,19.043,-921.387,20.508,5.371,0
1579287091.174,26.367,24.902,-982.422,29.785,4.883,0
1579287091.177,27.832,43.457,-882.324,28.320,4.395,0
1579287091.181,26.367,36.133,-832.031,22.949,-20.996,0
1579287091.185,28.320,37.598,-826.172,23.926,-5.371,0
1579287091.189,28.320,26.855,-845.215,30.762,4.883,0
1579287091.193,34.180,20.020,-960.449,33.203,-44.434,0
1579287091.190,39.062,40.527,-835.938,27.832,11.719,0
1579287091.194,41.504,34.180,-719.727,22.949,63.965,0
1579287091.198,49.316,31.738,-668.945,24.902,79.102,0
1579287091.202,47.363,26.855,-629.395,26.855,96.191,0
1579287091.206,48.828,13.672,-732.422,24.902,28.809,0
1579287091.210,50.781,15.625,-806.641,20.508,-16.113,0
1579287091.214,45.410,19.531,-814.941,24.902,19.531,0
1579287091.217,40.527,26.367,-684.082,30.273,35.156,0
1579287091.221,33.203,26.367,-637.207,26.367,21.973,0
1579287091.225,29.297,28.320,-727.051,19.531,48.828,0
1579287091.229,35.645,41.504,-578.125,14.648,66.406,0
1579287091.233,43.457,43.457,-388.672,22.461,70.312,0
1579287091.230,36.621,40.039,-365.723,22.461,68.848,0
1579287091.234,14.648,35.645,-361.816,19.043,64.941,0
1579287091.238,11.230,25.879,-617.676,24.902,2.441,0
1579287091.242,23.438,39.062,-592.773,27.832,14.648,0
1579287091.246,28.809,42.969,-313.965,29.297,105.469,0
1579287091.250,32.715,20.508,-506.836,25.879,72.754,0
1579287091.254,33.203,28.809,-558.594,23.926,41.504,0
1579287091.257,39.062,14.648,-704.102,32.227,-0.977,0
1579287091.261,41.016,9.766,-907.715,33.203,-66.895,0
1579287091.265,37.109,39.551,-610.352,27.344,-35.645,0
1579287091.269,39.551,33.203,-482.422,23.438,23.926,0
1579287091.273,43.457,29.785,-560.059,22.949,39.551,0
1579287091.290,48.340,39.062,-589.355,27.832,41.016,0
1579287091.294,52.246,42.480,-548.340,27.344,24.902,0
1579287091.298,51.758,40.039,-522.949,21.973,19.043,0
1579287091.302,46.875,40.039,-527.832,18.555,64.941,0
1579287091.306,39.062,39.551,-528.320,19.531,20.508,0
1579287091.310,32.715,21.973,-725.586,27.344,32.715,0
1579287091.314,28.320,23.438,-920.410,23.926,51.758,0
1579287091.317,23.438,44.434,-725.586,17.578,25.879,0
1579287091.321,22.949,40.039,-583.984,17.578,62.988,0
1579287091.325,30.762,41.016,-542.969,22.949,51.758,0
1579287091.329,40.039,28.809,-660.156,31.738,69.336,0
1579287091.333,53.711,29.785,-841.797,33.203,55.664,0
1579287091.330,55.176,51.758,-714.844,35.645,3.906,0
1579287091.334,42.480,41.992,-692.383,42.480,22.461,0
1579287091.338,49.316,39.062,-729.492,47.363,57.617,0
1579287091.342,55.664,40.527,-767.578,35.156,60.547,0
1579287091.346,46.875,34.668,-850.586,19.043,22.461,0
1579287091.350,40.039,37.109,-850.098,21.484,45.410,0
1579287091.354,33.691,36.621,-919.922,19.043,14.160,0
1579287091.357,27.832,42.969,-874.512,6.348,-54.688,0
1579287091.361,23.926,41.016,-793.945,1.953,39.551,0
1579287091.365,21.973,21.973,-929.199,3.906,60.547,0
1579287091.369,20.996,33.691,-915.039,5.859,-10.254,0
1579287091.373,21.973,41.992,-757.324,4.883,38.086,0
1579287091.370,26.367,39.062,-744.629,9.766,46.875,0
1579287091.374,29.297,38.086,-742.676,20.508,42.969,0
1579287091.378,26.855,34.180,-768.066,21.973,62.012,0
1579287091.382,26.855,41.504,-680.176,19.531,89.844,0
1579287091.386,31.250,29.297,-779.297,17.090,20.508,0
1579287091.390,30.762,25.879,-947.754,18.555,-41.016,0
1579287091.394,29.785,40.527,-850.098,20.508,45.410,0
1579287091.397,32.715,24.414,-912.598,14.160,51.270,0
1579287091.401,35.645,34.668,-867.188,10.742,77.637,0
1579287091.405,37.598,49.316,-671.875,12.695,94.238,0
1579287091.409,34.668,40.527,-667.969,17.578,11.230,0
1579287091.413,39.551,42.480,-628.418,22.949,20.020,0
1579287091.430,40.039,34.180,-721.680,16.113,17.090,0
1579287091.434,27.344,31.250,-781.738,9.766,-2.441,0
1579287091.438,28.809,30.762,-726.074,19.043,0.977,0
1579287091.442,31.738,31.738,-699.219,28.320,5.371,0
1579287091.446,32.715,34.180,-674.316,28.320,42.480,0
1579287091.450,33.691,10.254,-873.535,25.391,4.395,0
1579287091.454,31.738,20.020,-933.105,27.832,-48.340,0
1579287091.457,26.367,39.062,-810.059,31.738,8.301,0
1579287091.461,19.531,33.203,-796.387,24.414,72.754,0
1579287091.465,19.531,42.480,-687.988,20.508,82.520,0
1579287091.469,26.367,28.320,-812.012,27.344,67.871,0
1579287091.473,35.645,31.738,-895.020,33.203,44.434,0
1579287091.469,48.828,47.363,-735.352,33.691,11.719,0
1579287091.473,56.641,43.457,-709.961,32.227,24.902,0
1579287091.477,50.293,37.598,-661.133,33.691,77.148,0
1579287091.481,50.293,27.832,-746.582,40.039,44.922,0
1579287091.485,59.570,33.691,-746.582,44.434,59.082,0
1579287091.489,65.918,31.738,-750.488,43.457,75.684,0
1579287091.493,63.477,23.926,-926.758,41.016,17.090,0
1579287091.496,46.387,38.574,-820.312,42.969,-0.977,0
1579287091.500,41.016,31.250,-760.742,45.898,-19.043,0
1579287091.504,38.574,20.996,-922.363,32.715,39.551,0
1579287091.508,30.762,36.133,-852.051,19.043,56.641,0
1579287091.512,33.203,36.621,-747.070,24.902,30.273,0
1579287091.509,27.832,43.457,-601.562,24.902,23.438,0
1579287091.513,29.785,38.574,-553.711,21.973,19.043,0
1579287091.517,23.438,35.645,-652.344,25.879,23.438,0
1579287091.521,19.043,45.898,-546.875,26.367,39.062,0
1579287091.525,28.320,42.480,-461.426,30.273,54.199,0
1579287091.529,28.320,35.156,-595.215,30.273,19.531,0
1579287091.533,33.203,38.574,-596.680,28.809,52.246,0
1579287091.536,39.062,26.367,-773.438,28.320,66.406,0
1579287091.540,39.062,39.551,-768.555,25.391,25.879,0
1579287091.544,40.039,50.781,-445.312,25.391,12.695,0
1579287091.548,39.551,40.039,-441.895,24.902,-5.859,0
1579287091.552,33.691,38.086,-431.152,22.461,44.922,0
1579287091.569,29.297,31.738,-437.500,27.344,73.730,0
1579287091.573,32.227,33.203,-428.711,30.762,84.961,0
1579287091.577,38.086,32.227,-426.270,24.414,105.957,0
1579287091.581,41.992,37.598,-410.645,23.926,57.617,0
1579287091.585,47.363,38.574,-383.789,28.809,36.133,0
1579287091.589,54.199,28.320,-502.930,27.344,25.879,0
1579287091.593,53.223,31.250,-584.961,20.996,23.438,0
1579287091.596,39.551,40.527,-455.078,18.555,39.062,0
1579287091.600,20.996,37.598,-353.516,23.926,59.082,0
1579287091.604,11.719,37.598,-233.887,36.133,84.473,0
1579287091.608,18.555,20.020,-433.594,40.039,100.586,0
1579287091.612,28.320,19.531,-634.277,32.227,78.613,0
1579287091.609,29.785,38.086,-417.480,30.762,31.738,0
1579287091.613,29.785,34.668,-323.242,35.156,56.152,0
1579287091.617,38.574,32.227,-306.152,37.109,62.988,0
1579287091.621,46.875,28.809,-374.023,37.109,95.215,0
1579287091.625,43.945,23.926,-493.164,32.715,93.262,0
1579287091.629,40.527,25.391,-567.871,33.691,26.855,0
1579287091.633,34.668,26.855,-614.746,36.133,-8.789,0
1579287091.636,31.738,32.715,-548.828,33.203,9.766,0
1579287091.640,36.621,23.438,-573.242,27.344,61.523,0
1579287091.644,35.156,20.508,-787.109,27.344,11.719,0
1579287091.648,35.645,50.293,-535.156,35.156,24.902,3
1579287091.652,40.527,44.434,-341.797,34.668,61.523,0
1579287091.669,42.480,35.645,-356.934,29.785,84.473,0
1579287091.673,41.504,25.879,-442.871,29.785,91.309,0
1579287091.677,41.504,22.461,-512.695,32.227,40.527,0
1579287091.681,38.086,29.297,-389.648,25.391,20.508,0
1579287091.685,30.762,25.391,-339.844,12.695,75.684,0
1579287091.689,28.809,23.438,-440.918,13.672,93.750,0
1579287091.693,37.109,20.508,-547.363,23.438,58.105,0
1579287091.696,40.039,19.043,-693.359,23.438,22.949,0
1579287091.700,37.598,39.062,-553.711,20.508,17.578,0
1579287091.704,48.828,41.992,-317.383,22.949,61.523,0
1579287091.708,47.363,41.016,-236.816,30.762,102.051,0
1579287091.712,32.715,31.738,-269.043,35.156,52.734,0
1579287091.709,30.762,25.879,-398.438,31.738,5.859,0
1579287091.713,30.273,37.109,-295.898,29.297,46.387,0
1579287091.717,36.621,35.645,-253.906,32.715,35.645,0
1579287091.721,43.457,35.645,-305.664,40.527,-33.203,0
1579287091.725,41.504,35.645,-299.316,34.668,2.930,0
1579287091.729,47.852,30.762,-427.246,22.461,63.477,0
1579287091.733,45.898,31.250,-536.133,21.973,67.383,0
1579287091.736,30.273,37.109,-450.684,26.855,63.477,0
1579287091.740,20.508,39.551,-365.723,22.949,25.391,0
1579287091.744,21.973,38.574,-303.223,17.578,20.996,0
1579287091.748,29.297,19.043,-608.398,19.043,33.203,0
1579287091.752,37.598,29.297,-737.305,28.809,25.879,0
1579287091.749,41.992,51.270,-413.086,34.668,-1.465,0
1579287091.753,43.945,44.434,-417.969,32.227,-43.945,0
1579287091.757,43.457,41.016,-431.152,29.297,-0.488,0
1579287091.761,45.410,36.621,-518.555,34.180,-24.902,0
1579287091.765,44.922,42.969,-484.863,39.551,-24.902,0
1579287091.769,41.016,36.133,-502.930,33.691,24.902,0
1579287091.773,41.992,35.645,-605.469,19.531,25.879,0
1579287091.776,40.527,51.270,-417.480,13.672,49.316,0
1579287091.780,41.504,31.738,-574.707,19.531,31.738,0
1579287091.784,43.945,28.320,-778.320,20.508,32.715,0
1579287091.788,38.574,51.270,-441.406,17.090,128.418,0
1579287091.792,32.227,43.457,-362.305,18.555,105.469,0
1579287091.809,30.762,37.109,-425.781,24.902,35.645,0
1579287091.813,36.621,26.367,-561.035,29.785,18.555,0
1579287091.817,41.504,33.691,-598.145,32.715,27.344,0
1579287091.821,37.598,41.016,-529.297,34.180,-4.395,0
1579287091.825,42.480,34.668,-552.246,40.039,-39.551,0
1579287091.829,45.410,36.621,-546.387,41.504,20.508,0
1579287091.833,37.598,30.273,-677.246,33.203,44.434,0
1579287091.836,35.156,31.738,-751.465,27.344,11.230,0
1579287091.840,41.504,47.852,-509.277,24.902,36.133,0
1579287091.844,42.480,41.504,-436.035,25.391,21.973,0
1579287091.848,34.668,43.457,-386.230,23.926,41.504,0
1579287091.852,35.645,27.344,-492.676,24.902,35.645,0
1579287091.849,41.016,22.949,-728.027,27.832,-20.508,0
1579287091.853,40.527,49.805,-486.328,32.227,51.758,0
1579287091.857,45.410,44.922,-314.453,40.039,75.195,0
1579287091.861,52.246,33.203,-433.105,37.598,18.555,0
1579287091.865,41.992,28.320,-538.086,34.668,32.715,0
1579287091.869,27.344,28.809,-601.074,34.180,24.902,0
1579287091.873,22.949,34.668,-580.566,32.715,15.625,0
1579287091.876,20.508,35.156,-495.117,26.367,17.090,0
1579287091.880,21.484,35.156,-495.605,20.996,-21.973,0
1579287091.884,24.414,39.551,-415.039,25.879,30.273,0
1579287091.888,24.902,20.020,-703.613,26.855,20.996,0
1579287091.892,29.297,28.809,-822.266,20.508,-34.180,0
1579287091.890,36.621,42.969,-512.695,15.625,2.441,0
1579287091.894,40.039,39.551,-458.984,17.090,45.410,0
1579287091.898,32.227,38.574,-465.332,19.531,21.973,0
1579287091.902,30.762,32.715,-585.938,18.555,-41.016,0
1579287091.906,34.180,30.762,-583.984,18.555,-17.578,0
1579287091.910,38.574,21.973,-635.742,25.391,21.484,0
1579287091.914,46.875,22.949,-742.676,31.250,8.789,0
1579287091.917,46.387,36.133,-604.980,32.227,60.547,0
1579287091.921,37.598,28.809,-714.844,28.320,54.688,0
1579287091.925,39.062,32.715,-776.367,26.367,6.348,0
1579287091.929,42.969,41.504,-544.434,29.785,48.340,0
1579287091.933,40.527,30.273,-559.082,26.855,44.922,0
1579287091.950,32.715,36.621,-494.629,20.996,21.973,0
1579287091.954,22.461,26.367,-627.441,20.508,59.082,0
1579287091.958,21.484,24.902,-719.727,21.484,50.781,0
1579287091.962,31.738,35.156,-501.465,25.879,30.762,0
1579287091.966,42.969,25.879,-520.996,27.344,9.277,0
1579287091.970,41.504,24.902,-599.609,26.855,38.086,0
1579287091.974,33.203,13.672,-759.766,28.320,41.992,0
1579287091.977,35.156,15.137,-875.977,31.738,46.875,0
1579287091.981,34.668,37.598,-567.871,26.855,72.754,0
1579287091.985,29.297,24.902,-530.762,24.414,11.719,0
1579287091.989,36.133,26.367,-609.863,30.273,10.742,0
1579287091.993,39.551,32.227,-579.102,37.109,-18.555,0
1579287091.990,39.062,36.621,-552.734,37.598,-13.184,0
1579287091.994,35.156,41.992,-417.969,28.809,45.898,0
1579287091.998,33.691,34.180,-442.871,27.344,36.621,0
1579287092.002,36.621,34.668,-392.090,33.691,39.551,0
1579287092.006,38.086,23.926,-417.480,37.598,42.480,0
1579287092.010,38.086,15.625,-631.836,37.598,-20.996,0
1579287092.014,37.598,29.297,-658.691,36.133,-20.996,0
1579287092.017,35.156,38.574,-500.000,34.668,33.691,0
1579287092.021,30.273,39.062,-411.133,33.691,-30.273,0
1579287092.025,35.645,32.227,-362.305,28.809,20.020,0
1579287092.029,42.480,18.555,-615.723,20.020,115.723,0
1579287092.033,39.551,32.715,-639.648,20.508,19.043,0
1579287092.030,43.457,33.203,-502.441,26.855,-83.008,0
1579287092.034,43.945,37.109,-509.766,29.297,-45.898,0
1579287092.038,42.480,43.945,-400.879,26.367,28.320,0
1579287092.042,44.434,33.691,-480.469,20.996,15.137,0
1579287092.046,38.574,41.504,-439.453,28.809,-6.348,0
1579287092.050,38.574,40.527,-434.082,35.645,44.922,0
1579287092.054,40.527,38.086,-548.828,31.738,64.941,0
1579287092.057,41.016,43.457,-490.234,31.738,40.039,0
1579287092.061,43.945,26.855,-702.148,36.621,-7.324,0
1579287092.065,46.875,37.598,-744.141,36.133,-2.441,0
1579287092.069,46.387,52.246,-397.949,29.297,35.156,0
1579287092.073,41.016,40.039,-386.719,23.438,26.855,0
1579287092.090,35.156,37.109,-434.082,25.879,-21.484,0
1579287092.094,37.598,37.598,-467.285,27.832,-16.113,0
1579287092.098,42.969,46.875,-367.676,17.578,62.988,0
1579287092.102,47.363,41.016,-413.086,13.184,53.223,0
1579287092.106,49.805,35.156,-580.078,22.461,-20.508,0
1579287092.110,44.922,40.039,-505.371,30.762,-13.672,0
1579287092.114,46.387,23.926,-683.105,35.156,2.930,0
1579287092.117,47.363,22.949,-768.555,28.809,45.898,0
1579287092.121,47.852,40.039,-486.816,30.273,39.062,0
1579287092.125,51.758,40.527,-392.090,42.969,5.859,0
1579287092.129,47.852,42.480,-286.133,43.457,91.309,0
1579287092.133,38.086,35.645,-389.648,42.969,86.914,0
1579287092.130,38.086,38.574,-498.535,41.504,45.410,0
1579287092.134,45.410,39.551,-428.223,41.016,41.992,0
1579287092.138,47.363,33.203,-443.359,39.551,15.137,0
1579287092.142,46.387,34.668,-488.281,32.227,-33.691,0
1579287092.146,45.410,32.227,-557.617,29.297,42.969,0
1579287092.150,36.621,24.902,-692.383,31.738,61.523,0
1579287092.154,31.250,33.203,-701.172,34.180,8.301,0
1579287092.157,30.762,37.109,-637.695,35.156,81.543,0
1579287092.161,33.203,39.551,-621.094,30.273,88.867,0
1579287092.165,33.691,28.809,-722.656,29.297,14.160,0
1579287092.169,33.203,28.320,-747.559,32.227,45.898,0
1579287092.173,40.527,45.410,-578.125,30.273,33.203,0
1579287092.170,47.363,36.133,-608.398,28.320,-40.527,0
1579287092.174,41.504,38.086,-591.797,26.855,0.488,0
1579287092.178,30.273,29.785,-626.465,29.297,23.438,0
1579287092.182,31.738,29.785,-728.027,28.809,72.266,0
1579287092.186,39.062,38.574,-662.598,26.367,19.531,0
1579287092.190,30.273,24.902,-781.738,25.879,-44.922,0
1579287092.194,21.484,33.203,-750.977,27.344,33.203,0
1579287092.197,25.879,36.133,-572.266,30.762,41.504,0
1579287092.201,32.715,16.113,-825.684,26.855,12.695,0
1579287092.205,36.133,24.902,-984.863,22.949,-2.441,0
1579287092.209,32.227,47.363,-699.707,27.344,22.949,0
1579287092.213,36.133,45.898,-472.168,31.250,80.078,0
1579287092.230,40.527,34.668,-518.555,27.832,27.344,0
1579287092.234,32.715,29.785,-627.930,17.578,26.855,0
1579287092.238,30.762,34.668,-627.441,13.184,19.043,0
1579287092.242,23.926,37.109,-559.570,15.625,7.324,0
1579287092.246,17.578,35.645,-520.996,14.648,39.551,0
1579287092.250,18.066,26.367,-652.344,9.277,23.926,0
1579287092.254,19.531,11.719,-916.016,3.418,-1.953,0
1579287092.257,29.785,29.297,-860.840,12.207,19.531,0
1579287092.261,41.016,51.270,-551.758,21.973,46.387,0
1579287092.265,48.828,42.969,-509.277,19.531,37.598,0
1579287092.269,39.062,41.016,-535.645,19.043,43.945,0
1579287092.273,20.508,35.645,-607.422,20.508,45.410,0
1579287092.270,22.461,31.738,-716.309,24.414,0.977,0
1579287092.274,32.715,39.551,-602.051,25.391,37.109,0
1579287092.278,38.574,38.574,-576.172,18.066,26.367,0
1579287092.282,39.551,38.574,-594.238,19.043,20.996,0
1579287092.286,31.250,38.574,-583.984,26.855,88.867,0
1579287092.290,27.344,29.297,-752.930,27.344,18.555,0
1579287092.294,26.367,29.297,-842.773,22.461,-37.109,0
1579287092.297,20.508,38.086,-717.285,16.113,27.344,0
