timestamps,TP9,AF7,AF8,TP10,Right AUX,Marker0
1580328747.286,41.992,31.738,26.855,48.828,46.387,0
1580328747.290,40.039,32.715,25.879,40.527,53.711,0
1580328747.294,41.016,31.738,28.320,42.480,58.105,0
1580328747.298,42.969,35.156,29.785,48.340,18.066,0
1580328747.302,41.504,35.645,29.297,47.852,24.414,0
1580328747.306,41.992,35.645,27.832,49.805,88.379,0
1580328747.310,42.480,34.668,31.738,44.922,43.945,0
1580328747.313,40.039,33.203,31.738,37.598,22.949,0
1580328747.317,37.598,34.180,29.297,41.016,53.711,0
1580328747.321,42.969,35.156,31.250,42.969,41.992,0
1580328747.325,49.805,36.133,31.250,39.551,-2.930,0
1580328747.329,46.387,35.156,27.344,35.645,-13.184,0
1580328747.326,45.410,35.156,25.391,30.273,12.207,0
1580328747.330,42.480,34.668,26.367,26.367,-0.488,0
1580328747.334,39.551,33.691,27.344,26.855,40.039,0
1580328747.338,45.410,33.203,25.391,26.367,75.195,0
1580328747.342,41.992,33.691,23.926,27.832,41.992,0
1580328747.346,41.016,35.156,25.879,29.785,32.227,0
1580328747.350,44.434,36.621,29.297,30.273,39.062,0
1580328747.353,41.016,38.086,29.785,32.227,60.547,0
1580328747.357,42.969,40.527,30.762,33.203,36.133,0
1580328747.361,47.852,42.480,33.203,32.715,9.766,0
1580328747.365,45.898,41.504,33.691,27.832,112.793,0
1580328747.369,41.016,40.527,33.203,25.391,79.590,0
1580328747.366,38.086,39.062,28.809,27.832,5.371,0
1580328747.370,35.156,38.086,27.832,27.344,13.184,0
1580328747.374,32.227,37.598,31.250,26.367,55.176,0
1580328747.378,26.855,36.621,29.785,24.414,78.613,0
1580328747.382,18.555,35.645,29.785,26.855,64.453,0
1580328747.386,11.230,31.738,29.785,29.297,60.547,0
1580328747.390,10.254,29.785,27.344,26.855,51.270,0
1580328747.393,6.836,30.762,29.785,27.832,54.688,0
1580328747.397,1.953,32.227,32.715,25.879,49.316,0
1580328747.401,-5.371,30.762,32.227,23.926,2.441,0
1580328747.405,-3.906,31.738,30.762,29.297,-47.852,0
1580328747.409,0.977,33.691,28.320,31.250,-50.293,0
1580328747.426,-2.441,33.691,26.367,28.809,-18.555,0
1580328747.430,-2.930,34.180,27.344,29.297,40.039,0
1580328747.434,-4.395,34.668,26.367,27.832,33.691,0
1580328747.438,-4.883,33.691,26.367,26.367,25.879,0
1580328747.442,-1.465,32.227,27.832,28.320,59.570,0
1580328747.446,-0.977,30.273,27.344,32.227,45.410,0
1580328747.450,0.000,29.785,26.367,33.691,73.730,0
1580328747.453,2.930,30.762,27.832,31.250,95.215,0
1580328747.457,-0.977,29.785,28.809,29.785,71.289,0
1580328747.461,-5.859,28.320,30.273,28.320,17.090,0
1580328747.465,-2.930,28.320,32.715,27.344,26.855,0
1580328747.469,4.395,29.297,30.273,32.227,45.410,0
1580328747.467,8.789,30.273,30.762,34.668,-12.207,0
1580328747.471,12.207,31.738,30.762,30.273,-6.836,0
1580328747.475,17.090,31.250,29.785,28.320,6.348,0
1580328747.479,20.996,32.227,32.715,27.832,7.812,0
1580328747.483,25.391,35.156,33.691,24.414,5.859,0
1580328747.487,26.367,35.645,33.691,24.902,70.312,0
1580328747.491,25.391,35.156,34.180,28.809,36.621,0
1580328747.494,28.809,37.109,31.250,35.645,-21.973,0
1580328747.498,28.320,38.574,31.250,35.645,35.645,0
1580328747.502,24.902,37.598,29.297,33.691,47.852,0
1580328747.506,25.879,36.621,28.320,31.250,47.852,0
1580328747.510,25.879,38.574,28.320,26.367,40.039,0
1580328747.506,22.949,37.598,29.785,27.344,25.879,0
1580328747.510,21.484,37.598,32.227,30.762,32.715,0
1580328747.514,28.809,39.062,29.785,31.250,73.242,0
1580328747.518,33.691,38.086,30.273,28.809,109.863,0
1580328747.522,35.645,38.574,30.273,29.785,86.914,0
1580328747.526,36.133,40.527,29.297,30.762,16.113,0
1580328747.530,32.715,39.062,29.785,28.320,14.160,0
1580328747.533,33.691,36.133,28.320,26.367,32.227,0
1580328747.537,33.691,37.598,32.227,23.438,35.156,0
1580328747.541,33.691,38.086,32.227,22.461,-16.602,0
1580328747.545,39.551,38.086,27.344,26.855,-21.484,0
1580328747.549,53.223,39.062,25.391,40.039,40.527,0
1580328747.567,55.664,36.621,30.762,46.875,25.391,0
1580328747.571,39.551,31.738,39.551,36.133,-31.738,0
1580328747.575,34.668,27.344,41.504,34.668,-4.395,0
1580328747.579,42.480,25.879,45.898,44.434,-53.711,0
1580328747.583,47.852,25.391,49.316,51.758,-49.316,0
1580328747.587,47.852,19.531,49.805,56.152,33.691,0
1580328747.591,39.551,13.184,55.176,51.758,12.207,0
1580328747.594,36.621,9.277,61.523,51.270,10.254,0
1580328747.598,37.598,6.348,66.406,57.129,38.574,0
1580328747.602,45.410,6.836,67.383,62.500,25.879,0
1580328747.606,55.664,8.789,65.918,67.871,41.016,0
1580328747.610,56.152,11.719,64.453,66.895,56.152,0
1580328747.606,52.734,17.090,62.500,61.035,20.996,0
1580328747.610,52.246,20.508,61.523,59.570,-24.414,0
1580328747.614,48.340,21.484,57.617,61.523,-54.688,0
1580328747.618,37.598,21.484,54.199,60.059,6.348,0
1580328747.622,30.762,20.996,54.199,56.152,41.016,0
1580328747.626,26.855,21.484,52.246,50.293,78.613,0
1580328747.630,22.949,20.508,53.223,53.223,70.801,0
1580328747.633,20.996,20.020,55.176,51.270,42.969,0
1580328747.637,22.949,21.973,52.246,49.805,64.453,0
1580328747.641,29.785,22.949,52.246,50.781,52.246,0
1580328747.645,36.621,23.438,52.246,50.781,34.668,0
1580328747.649,38.086,22.949,49.805,50.293,-12.695,0
1580328747.646,37.109,22.461,49.805,48.828,11.230,0
1580328747.650,36.621,24.414,48.828,48.828,33.203,0
1580328747.654,38.086,26.367,44.922,46.875,53.223,0
1580328747.658,44.434,29.785,44.434,46.387,104.492,0
1580328747.662,48.340,30.273,42.969,48.340,41.504,0
1580328747.666,43.457,24.902,43.457,48.828,40.527,0
1580328747.670,38.574,26.367,45.410,48.828,89.844,0
1580328747.673,37.598,29.785,43.945,45.898,56.641,0
1580328747.677,37.598,31.738,40.527,36.621,5.371,0
1580328747.681,41.992,33.203,35.645,32.715,31.738,0
1580328747.685,41.016,31.738,36.621,36.621,47.852,0
1580328747.689,37.109,30.762,36.621,38.574,0.977,0
1580328747.706,40.527,30.762,31.738,39.062,26.855,0
1580328747.710,43.457,31.738,34.668,38.086,62.500,0
1580328747.714,42.969,29.297,34.180,38.086,65.430,0
1580328747.718,45.898,31.738,32.227,39.551,51.270,0
1580328747.722,49.805,33.203,33.203,38.574,4.883,0
1580328747.726,52.734,29.785,32.715,34.180,37.109,0
1580328747.730,49.316,31.738,35.645,31.250,83.984,0
1580328747.733,45.898,31.250,34.180,30.273,68.359,0
1580328747.737,49.316,30.762,32.715,31.738,10.254,0
1580328747.741,47.852,33.203,35.645,30.762,3.418,0
1580328747.745,44.434,33.203,35.156,32.227,38.086,0
1580328747.749,42.969,31.250,32.715,32.227,0.977,0
1580328747.746,39.062,28.320,34.668,31.738,57.617,0
1580328747.750,38.086,28.320,35.645,33.203,124.512,0
1580328747.754,40.039,29.785,36.133,33.203,48.340,0
1580328747.758,40.527,29.297,39.551,36.133,-10.742,0
1580328747.762,40.039,28.320,32.715,32.715,-17.578,0
1580328747.766,43.945,29.785,26.855,27.832,13.672,0
1580328747.770,49.805,32.227,27.832,31.250,13.672,0
1580328747.773,54.199,32.715,28.809,30.273,18.555,0
1580328747.777,53.223,32.715,26.855,25.879,-28.809,0
1580328747.781,51.758,34.668,28.809,28.809,-6.348,0
1580328747.785,54.688,34.668,31.250,27.832,67.871,0
1580328747.789,48.828,34.180,30.762,26.367,9.766,0
1580328747.786,47.852,33.691,30.273,30.762,2.930,0
1580328747.790,50.781,32.227,35.156,34.668,9.766,0
1580328747.794,46.387,30.273,35.156,31.738,0.977,0
1580328747.798,42.480,30.762,30.273,30.273,20.508,0
1580328747.802,36.133,33.203,32.715,27.344,26.855,0
1580328747.806,31.250,33.691,33.691,25.391,-11.230,0
1580328747.810,31.738,31.738,32.227,25.879,38.574,0
1580328747.813,31.738,31.738,31.738,26.855,50.293,0
1580328747.817,27.832,32.227,31.250,25.391,0.977,0
1580328747.821,22.461,31.250,33.691,23.438,58.105,0
1580328747.825,22.949,30.762,35.156,24.902,26.855,0
1580328747.829,26.367,29.297,32.227,28.809,5.859,0
1580328747.846,26.367,27.344,31.250,31.738,49.805,0
1580328747.850,21.973,29.785,34.668,30.762,77.637,0
1580328747.854,15.625,31.738,36.133,25.879,48.340,0
1580328747.858,16.602,32.227,34.180,25.879,39.062,0
1580328747.862,22.949,32.715,30.273,27.832,45.898,0
1580328747.866,21.484,33.203,30.273,24.902,55.664,0
1580328747.870,23.438,35.156,30.762,25.391,73.242,0
1580328747.873,28.809,38.574,28.809,27.344,60.059,0
1580328747.877,32.227,39.551,27.344,30.273,39.551,0
1580328747.881,31.250,39.551,30.762,30.762,24.414,0
1580328747.885,28.320,38.574,35.645,33.203,46.387,0
1580328747.889,26.367,37.109,37.598,32.715,50.293,0
1580328747.886,26.855,37.109,35.645,29.785,28.320,0
1580328747.890,24.902,37.109,32.715,31.738,27.344,0
1580328747.894,22.949,37.109,28.809,29.785,50.781,0
1580328747.898,28.320,37.598,27.832,32.227,28.809,0
1580328747.902,28.320,36.621,31.250,31.738,-6.348,0
1580328747.906,25.391,35.645,31.738,27.832,1.953,0
1580328747.910,27.344,37.598,32.715,25.879,17.090,0
1580328747.913,30.762,38.086,33.203,26.855,-0.488,0
1580328747.917,28.320,36.621,32.227,29.785,46.875,0
1580328747.921,31.738,36.133,32.715,33.203,47.363,0
1580328747.925,35.645,37.109,33.203,33.691,25.879,0
1580328747.929,31.250,37.598,31.250,32.227,36.133,0
1580328747.926,29.297,35.156,28.320,28.809,46.387,0
1580328747.930,30.762,35.645,31.738,28.320,6.836,0
1580328747.934,32.715,37.109,32.227,29.785,-11.719,0
1580328747.938,34.668,34.180,30.273,24.414,57.129,0
1580328747.942,34.180,35.156,30.273,21.484,41.992,0
1580328747.946,30.762,37.109,31.250,22.461,27.344,0
1580328747.950,28.320,34.668,32.227,20.996,76.660,0
1580328747.953,25.879,33.691,29.297,21.973,95.703,0
1580328747.957,26.367,31.738,29.785,20.508,52.734,0
1580328747.961,20.996,28.320,30.273,20.508,-14.648,0
1580328747.965,19.531,31.738,28.809,24.414,-11.719,0
1580328747.969,22.461,33.691,28.320,24.414,29.785,0
1580328747.986,18.555,31.250,29.297,21.484,19.531,0
1580328747.990,19.531,31.250,28.320,20.996,38.574,0
1580328747.994,19.531,31.738,26.367,18.555,26.855,0
1580328747.998,22.949,32.715,28.809,18.066,31.738,0
1580328748.002,25.879,36.133,31.250,19.531,53.711,0
1580328748.006,22.461,35.156,30.273,18.555,27.832,0
1580328748.010,28.809,35.645,30.762,20.996,62.988,0
1580328748.013,35.645,38.574,31.738,24.902,79.102,0
1580328748.017,35.156,37.109,30.273,30.273,84.473,0
1580328748.021,31.250,34.668,28.809,30.273,68.359,0
1580328748.025,30.273,36.133,25.391,26.855,12.207,0
1580328748.029,29.785,39.062,27.344,25.879,10.742,0
1580328748.026,27.832,37.109,30.762,23.926,-22.461,0
1580328748.030,24.902,35.645,30.273,25.879,-0.977,0
1580328748.034,20.020,36.621,31.250,24.414,20.508,0
1580328748.038,17.090,34.180,31.738,24.414,41.504,0
1580328748.042,11.719,34.180,31.738,20.996,58.105,0
1580328748.046,9.277,35.645,28.809,18.066,47.852,0
1580328748.050,10.254,35.156,27.832,22.461,13.184,0
1580328748.053,12.695,33.691,26.855,24.414,-12.207,0
1580328748.057,17.090,30.762,26.855,24.902,34.180,0
1580328748.061,23.438,28.809,28.809,23.926,47.363,0
1580328748.065,23.926,31.738,28.809,21.484,8.301,0
1580328748.069,27.832,34.668,31.250,24.902,37.598,0
1580328748.066,32.227,35.156,31.738,27.344,70.801,0
1580328748.070,33.203,35.645,32.715,27.344,59.570,0
1580328748.074,36.621,33.691,36.621,28.809,-6.836,0
1580328748.078,42.480,30.762,36.621,33.691,-53.223,0
1580328748.082,53.711,35.156,33.691,41.992,10.742,0
1580328748.086,44.434,41.992,29.297,33.691,75.195,0
1580328748.090,25.391,42.480,26.855,19.531,76.172,0
1580328748.093,20.996,39.062,28.809,15.137,27.832,0
1580328748.097,19.043,36.133,27.832,11.230,13.184,0
1580328748.101,24.902,38.086,23.438,19.043,61.523,0
1580328748.105,34.668,38.574,23.438,23.926,62.500,0
1580328748.109,35.645,36.621,26.855,19.043,36.133,0
1580328748.126,37.598,36.621,28.320,20.996,45.898,0
1580328748.130,44.922,37.598,28.809,22.461,42.969,0
1580328748.134,45.410,37.109,32.227,20.508,46.875,0
1580328748.138,45.898,35.156,31.738,20.996,3.906,0
1580328748.142,48.340,38.574,27.832,22.949,-36.621,0
1580328748.146,48.340,38.574,30.762,24.902,38.574,0
1580328748.150,49.805,37.598,31.738,21.973,26.855,0
1580328748.153,53.223,39.062,30.273,24.902,25.879,0
1580328748.157,55.664,37.598,31.250,32.227,64.453,0
1580328748.161,54.688,35.645,32.227,33.203,6.348,0
1580328748.165,53.711,36.133,30.762,33.691,7.812,0
1580328748.169,53.711,36.621,31.250,29.297,32.227,0
1580328748.166,55.664,35.645,29.297,30.273,-21.973,0
1580328748.170,57.129,37.598,30.273,33.691,10.254,0
1580328748.174,52.246,38.574,30.762,33.203,20.508,0
1580328748.178,49.805,39.551,28.809,31.250,-8.301,0
1580328748.182,50.781,37.598,30.762,29.297,9.766,0
1580328748.186,51.270,35.645,32.227,29.785,-4.883,0
1580328748.190,53.223,37.598,31.250,29.297,-0.977,0
1580328748.193,58.594,37.109,31.738,28.809,52.246,0
1580328748.197,59.570,36.621,31.250,28.320,47.363,0
1580328748.201,53.711,38.086,31.250,21.973,62.988,0
1580328748.205,47.852,38.086,30.273,20.508,83.008,0
1580328748.209,45.410,35.645,27.344,26.367,39.551,0
1580328748.207,43.457,37.598,27.832,30.273,18.555,0
1580328748.211,39.062,37.598,30.273,30.273,39.551,0
1580328748.215,32.227,36.133,28.809,22.461,22.461,0
1580328748.219,26.367,36.133,28.320,20.508,15.625,0
1580328748.223,25.879,34.668,30.762,24.902,31.250,0
1580328748.227,26.367,34.180,31.738,23.926,17.090,0
1580328748.231,20.020,33.203,29.297,23.926,41.504,0
1580328748.234,20.020,33.691,24.902,22.461,19.043,0
1580328748.238,17.578,32.715,23.926,20.508,1.953,0
1580328748.242,15.625,29.785,28.809,23.438,56.152,0
1580328748.246,20.996,29.297,30.762,22.949,46.387,0
1580328748.250,19.043,31.738,29.785,21.973,-0.488,0
1580328748.286,19.043,34.668,30.762,22.949,20.020,0
1580328748.290,19.531,35.645,31.250,22.949,61.035,0
1580328748.294,17.578,35.645,29.297,21.484,32.227,0
1580328748.298,13.184,32.715,27.832,21.484,6.836,0
1580328748.302,9.277,29.297,29.297,22.461,65.918,0
1580328748.306,9.277,30.273,32.227,18.555,47.363,0
1580328748.310,6.836,29.785,33.203,14.160,1.953,0
1580328748.313,6.836,27.344,30.273,14.160,6.836,0
1580328748.317,11.719,28.809,27.832,21.973,64.941,0
1580328748.321,8.789,31.738,30.762,26.367,59.570,0
1580328748.325,9.277,32.227,35.645,28.320,41.504,0
1580328748.329,15.625,32.227,34.180,30.273,88.867,0
1580328748.306,20.020,32.715,30.273,31.738,47.363,0
1580328748.310,20.508,34.180,31.738,32.227,50.781,0
1580328748.314,22.461,35.645,32.715,29.297,70.312,0
1580328748.318,29.297,35.645,31.250,30.762,21.973,0
1580328748.322,29.785,37.109,30.762,30.273,43.457,0
1580328748.326,25.879,35.645,32.715,26.367,43.945,0
1580328748.330,23.438,36.133,35.156,29.297,0.977,0
1580328748.333,21.973,37.109,33.691,30.762,10.254,0
1580328748.337,24.414,35.156,33.691,28.320,65.430,0
1580328748.341,23.926,36.133,34.668,27.832,43.457,0
1580328748.345,20.508,34.180,31.250,29.297,28.320,0
1580328748.349,20.996,33.691,28.320,26.855,70.312,0
1580328748.348,19.531,34.668,29.297,29.297,41.016,0
1580328748.352,21.484,33.203,28.320,37.109,51.758,0
1580328748.356,23.438,35.156,29.785,31.738,54.688,0
1580328748.360,17.578,36.133,31.250,18.555,38.086,0
1580328748.364,13.672,33.203,27.344,20.996,56.152,0
1580328748.368,15.137,33.691,27.344,29.297,41.016,0
1580328748.372,13.184,30.762,23.926,30.273,61.523,0
1580328748.375,6.836,31.250,23.926,24.414,73.242,0
1580328748.379,4.395,32.715,24.902,21.484,35.645,0
1580328748.383,7.812,30.273,25.879,25.391,59.570,0
1580328748.387,18.066,32.227,26.367,31.250,73.730,0
1580328748.391,26.367,33.691,25.879,30.273,9.277,0
1580328748.406,19.043,33.691,32.227,23.926,28.320,0
1580328748.410,9.766,31.250,37.109,21.973,47.852,0
1580328748.414,10.742,26.855,38.574,24.902,34.180,0
1580328748.418,16.113,27.832,38.574,26.367,51.758,0
1580328748.422,21.973,29.785,37.598,29.297,20.508,0
1580328748.426,16.602,29.297,39.551,25.391,44.922,0
1580328748.430,13.672,28.809,39.062,21.484,58.594,0
1580328748.433,19.043,27.832,36.621,26.367,31.250,0
1580328748.437,22.949,29.785,35.645,29.785,27.344,0
1580328748.441,26.367,29.785,31.738,31.738,21.484,0
1580328748.445,25.879,29.297,29.297,27.832,-5.859,0
1580328748.449,26.367,30.762,28.320,26.855,34.180,0
1580328748.446,26.367,28.809,30.273,26.855,15.625,0
1580328748.450,23.926,28.320,32.715,26.367,-25.391,0
1580328748.454,24.414,29.297,31.738,26.855,37.598,0
1580328748.458,25.879,29.297,32.227,23.438,36.621,0
1580328748.462,26.367,26.855,31.738,22.461,33.691,0
1580328748.466,24.414,27.344,31.738,20.996,39.062,0
1580328748.470,25.879,30.273,32.227,20.020,-26.855,0
1580328748.473,28.320,28.809,31.738,21.484,-43.457,0
1580328748.477,30.762,29.297,32.227,19.531,-9.766,0
1580328748.481,34.180,31.250,30.762,13.672,56.641,0
1580328748.485,28.809,31.250,28.809,16.113,81.055,0
1580328748.489,18.555,29.785,29.297,20.508,32.715,0
1580328748.486,15.137,29.785,29.785,18.555,10.254,0
1580328748.490,16.113,30.762,29.297,17.578,-7.324,0
1580328748.494,9.277,30.273,28.809,18.066,41.504,0
1580328748.498,6.836,32.715,29.297,19.531,63.477,0
1580328748.502,10.254,34.180,30.762,21.973,58.105,0
1580328748.506,9.277,32.227,30.273,23.926,58.594,0
1580328748.510,8.789,32.227,33.691,24.414,33.691,0
1580328748.513,7.324,30.762,35.156,20.996,41.016,0
1580328748.517,9.766,32.227,29.297,20.508,99.121,0
1580328748.521,14.648,35.156,30.273,25.879,66.895,0
1580328748.525,10.254,36.133,32.227,28.809,-26.855,0
1580328748.529,9.766,38.086,32.227,28.809,28.320,0
1580328748.546,11.719,40.039,36.133,28.320,23.438,0
1580328748.550,9.766,39.062,33.203,33.203,3.906,0
1580328748.554,10.742,37.598,31.738,31.738,-14.160,0
1580328748.558,7.324,35.645,35.156,26.367,-21.484,0
1580328748.562,5.859,34.668,34.668,29.785,0.000,0
1580328748.566,6.836,35.645,34.668,34.180,19.531,0
1580328748.570,6.348,34.668,35.156,26.367,35.156,0
1580328748.573,9.277,32.715,32.715,21.484,-19.043,0
1580328748.577,8.789,31.250,31.738,21.973,-20.508,0
1580328748.581,3.418,31.738,34.180,23.926,26.855,0
1580328748.585,3.418,32.715,35.156,24.902,44.922,0
1580328748.589,7.324,32.227,33.691,22.461,42.480,0
1580328748.586,12.207,33.203,33.691,25.391,42.969,0
1580328748.590,14.648,36.133,35.645,28.320,67.871,0
1580328748.594,14.160,37.109,33.203,30.273,3.906,0
1580328748.598,15.137,38.086,31.738,31.738,-1.465,0
1580328748.602,17.578,37.598,28.809,29.785,19.043,0
1580328748.606,16.602,35.156,25.879,25.879,-9.277,0
1580328748.610,16.602,35.645,27.344,25.879,-27.832,0
1580328748.613,15.625,34.668,26.855,23.926,-34.668,0
1580328748.617,14.160,31.738,28.320,21.973,4.883,0
1580328748.621,14.648,33.203,29.297,17.578,10.254,0
1580328748.625,16.113,35.156,28.320,19.043,49.316,0
1580328748.629,18.066,32.715,29.297,24.414,59.082,0
1580328748.646,17.578,34.668,31.738,25.391,38.574,0
1580328748.650,18.555,35.156,30.762,27.344,57.617,0
1580328748.654,20.996,32.715,30.273,27.344,52.734,0
1580328748.658,26.367,34.180,27.344,29.297,37.598,0
1580328748.662,29.297,34.668,27.832,30.273,76.660,0
1580328748.666,30.273,34.180,32.227,32.227,41.992,0
1580328748.670,32.227,33.203,29.297,38.086,41.992,0
1580328748.673,29.785,33.691,23.926,37.109,9.766,0
1580328748.677,30.762,38.086,24.902,32.715,-7.812,0
1580328748.681,30.273,36.133,28.320,32.227,28.320,0
1580328748.685,27.832,34.180,29.785,33.203,3.418,0
1580328748.689,29.785,37.109,29.297,33.691,23.926,0
1580328748.706,28.809,36.133,30.762,30.762,12.207,0
1580328748.710,30.762,36.133,34.668,28.320,15.625,0
1580328748.714,30.273,37.109,36.133,32.227,53.711,0
1580328748.718,32.227,34.668,33.691,36.133,-2.441,0
1580328748.722,36.133,37.109,32.715,35.156,-0.488,0
1580328748.726,33.691,38.086,29.297,30.273,90.820,0
1580328748.730,33.203,34.180,27.832,27.344,56.641,0
1580328748.733,34.668,35.645,27.832,26.855,0.000,0
1580328748.737,37.109,38.086,28.320,28.320,2.441,0
1580328748.741,39.062,39.062,26.855,33.203,18.555,0
1580328748.745,45.410,40.039,25.879,40.039,45.898,0
1580328748.749,39.551,37.109,28.809,35.645,31.738,0
1580328748.726,24.414,34.668,32.715,31.738,25.879,0
1580328748.730,23.926,32.227,31.250,30.273,42.969,0
1580328748.734,20.996,31.250,31.738,27.832,29.785,0
1580328748.738,21.484,33.691,33.691,31.738,34.180,0
1580328748.742,20.020,31.250,35.156,31.738,34.180,0
1580328748.746,12.695,27.832,37.109,27.344,-21.484,0
1580328748.750,12.207,28.320,36.621,23.438,12.695,0
1580328748.753,15.137,28.809,34.180,22.461,40.527,0
1580328748.757,21.484,30.273,34.668,26.367,1.465,0
1580328748.761,23.926,32.715,34.180,32.227,81.055,0
1580328748.765,22.949,31.738,32.715,30.273,82.031,0
1580328748.769,22.461,29.785,34.180,29.785,31.738,0
1580328748.766,20.020,30.762,30.273,30.273,41.992,0
1580328748.770,22.949,31.738,26.855,30.273,12.207,0
1580328748.774,24.902,30.762,28.320,27.344,-11.230,0
1580328748.778,21.484,30.762,27.832,23.926,39.062,0
1580328748.782,21.973,34.668,25.879,27.344,38.574,0
1580328748.786,26.367,36.621,27.344,29.297,40.039,0
1580328748.790,25.879,35.645,29.297,28.809,107.422,0
1580328748.793,23.438,37.109,29.785,28.320,42.480,0
1580328748.797,19.043,36.133,29.785,25.391,-35.156,0
1580328748.801,19.043,35.156,28.320,26.367,22.461,0
1580328748.805,21.973,36.133,25.391,22.461,68.848,0
1580328748.809,25.391,36.621,28.809,27.344,65.430,0
1580328748.826,25.391,35.645,31.250,29.785,-16.113,0
1580328748.830,21.484,35.156,31.250,23.438,-8.789,0
1580328748.834,24.902,35.645,33.203,27.832,1.953,0
1580328748.838,27.344,37.109,31.250,30.273,13.184,0
1580328748.842,25.391,36.621,30.762,30.762,81.543,0
1580328748.846,24.414,34.668,32.227,30.273,37.598,0
1580328748.850,23.926,33.691,32.715,28.320,-36.133,0
1580328748.853,20.508,32.227,33.203,23.438,-24.902,0
1580328748.857,15.625,28.320,32.715,20.996,-20.996,0
1580328748.861,14.648,28.809,30.762,20.996,17.578,0
1580328748.865,21.484,32.227,34.180,24.414,57.129,0
1580328748.869,24.902,32.715,36.621,29.297,44.922,0
1580328748.866,24.414,30.762,33.203,28.320,6.836,0
1580328748.870,26.367,29.297,32.715,28.809,-43.945,0
1580328748.874,28.320,33.203,29.297,28.320,41.992,0
1580328748.878,31.738,38.086,25.879,26.855,120.117,0
1580328748.882,30.762,39.062,27.344,28.809,53.711,0
1580328748.886,29.785,39.062,29.297,30.273,18.555,0
1580328748.890,30.762,39.062,32.227,30.762,63.477,0
1580328748.893,33.691,38.086,33.691,28.809,95.215,0
1580328748.897,35.645,37.598,33.691,27.344,105.957,0
1580328748.901,35.645,40.527,30.762,23.926,43.945,0
1580328748.905,31.738,36.621,29.785,23.926,-16.602,0
1580328748.909,25.879,33.691,34.668,28.320,8.301,0
1580328748.926,29.297,37.598,31.738,28.809,51.270,0
1580328748.930,34.180,38.086,28.320,31.250,44.434,0
1580328748.934,31.738,37.109,30.273,31.250,56.641,0
1580328748.938,32.715,36.621,30.273,30.762,58.105,0
1580328748.942,35.156,36.621,31.250,29.785,33.203,0
1580328748.946,28.809,35.156,33.691,23.438,36.621,0
1580328748.950,22.461,32.715,31.250,19.531,15.625,0
1580328748.953,19.043,33.203,29.785,17.090,46.875,0
1580328748.957,20.020,35.645,28.809,19.531,93.750,0
1580328748.961,21.484,37.109,26.855,21.484,50.781,0
1580328748.965,20.508,35.156,27.832,21.484,25.879,0
1580328748.969,24.414,36.621,30.273,24.902,52.734,0
1580328748.966,24.902,35.645,29.785,25.879,66.895,0
1580328748.970,24.414,35.156,30.273,27.832,86.914,0
1580328748.974,23.926,36.133,32.227,28.320,58.594,0
1580328748.978,18.555,33.203,34.668,24.902,6.836,0
1580328748.982,18.066,32.227,33.203,25.879,21.484,0
1580328748.986,20.508,30.762,31.738,30.762,33.203,0
1580328748.990,29.785,33.203,30.273,34.668,24.902,0
1580328748.993,27.832,39.062,22.949,27.344,39.062,0
1580328748.997,19.043,41.504,19.043,8.789,74.219,0
1580328749.001,16.113,42.969,20.508,3.906,65.430,0
1580328749.005,8.301,42.969,24.414,0.000,-6.836,0
1580328749.009,6.348,42.480,24.414,0.488,-40.527,0
1580328749.026,18.555,43.945,23.438,10.742,37.598,0
1580328749.030,24.902,44.434,24.902,17.578,51.758,0
1580328749.034,22.461,43.945,26.855,20.996,1.465,0
1580328749.038,21.484,42.969,29.297,21.973,29.297,0
1580328749.042,26.855,42.969,30.762,27.344,1.465,0
1580328749.046,30.762,41.992,30.762,32.715,9.277,0
1580328749.050,30.273,39.062,29.785,32.715,20.996,0
1580328749.053,28.320,38.086,29.785,33.691,-41.016,0
1580328749.057,28.809,37.598,31.250,34.180,-44.434,0
1580328749.061,29.785,37.598,28.809,32.715,5.371,0
1580328749.065,30.273,39.551,28.809,34.180,1.953,0
1580328749.069,27.344,39.062,26.855,28.320,16.113,0
1580328749.066,28.809,39.062,25.879,26.855,49.316,0
1580328749.070,32.715,41.016,31.250,25.879,18.555,0
1580328749.074,32.715,39.551,31.738,21.973,8.789,0
1580328749.078,34.180,35.645,28.320,24.414,55.176,0
1580328749.082,34.668,34.180,25.391,24.414,50.781,0
1580328749.086,35.645,36.133,25.879,23.438,43.945,0
1580328749.090,35.156,36.133,28.320,26.367,69.336,0
1580328749.093,31.738,35.645,27.344,28.809,41.504,0
1580328749.097,25.879,34.668,26.367,30.762,15.625,0
1580328749.101,24.902,37.109,26.367,34.668,30.273,0
1580328749.105,26.855,39.551,27.344,35.156,54.199,0
1580328749.109,24.902,39.062,25.879,34.668,62.988,0
1580328749.126,25.391,37.598,20.996,29.297,31.250,0
1580328749.130,20.996,36.133,20.996,25.879,76.660,0
1580328749.134,16.602,37.109,26.855,29.297,95.215,0
1580328749.138,17.578,36.133,31.250,30.762,40.527,0
1580328749.142,19.043,38.574,29.297,32.715,54.199,0
1580328749.146,20.020,39.551,30.762,33.691,43.945,0
1580328749.150,22.949,38.574,33.203,34.180,3.418,0
1580328749.153,24.414,36.621,33.203,37.598,11.230,0
1580328749.157,27.832,34.180,34.180,38.574,41.992,0
1580328749.161,29.785,34.180,35.156,40.527,-8.301,0
1580328749.165,26.367,33.203,33.203,38.086,14.648,0
1580328749.169,26.855,35.156,30.762,33.691,72.754,0
1580328749.146,30.762,38.574,32.715,38.086,90.820,0
1580328749.150,33.203,39.062,33.691,37.109,81.055,0
1580328749.154,33.691,39.062,32.715,32.715,53.711,0
1580328749.158,33.203,39.062,34.668,34.180,48.828,0
1580328749.162,31.250,40.039,31.738,33.691,-11.719,0
1580328749.166,25.879,39.062,28.809,29.297,19.043,0
1580328749.170,24.414,37.109,31.250,26.367,76.172,0
1580328749.173,27.344,37.109,32.715,25.879,44.434,0
1580328749.177,29.297,36.133,31.738,26.367,41.504,0
1580328749.181,30.762,35.156,31.738,25.391,77.148,0
1580328749.185,36.133,36.133,30.762,25.879,56.152,0
1580328749.189,42.480,36.621,32.715,31.250,35.156,0
1580328749.206,46.875,36.133,33.203,36.133,17.090,0
1580328749.210,49.316,39.062,34.668,34.180,6.836,0
1580328749.214,47.363,38.574,35.156,30.762,-15.137,0
1580328749.218,46.875,37.109,32.227,35.156,-6.836,0
1580328749.222,44.434,37.109,30.273,37.109,33.691,0
1580328749.226,39.551,34.668,31.250,34.180,39.551,0
1580328749.230,35.645,35.645,32.227,29.785,24.414,0
1580328749.233,31.250,35.645,33.691,25.391,49.805,0
1580328749.237,28.320,31.738,33.203,24.902,-8.301,0
1580328749.241,25.391,30.273,28.320,22.461,-20.020,0
1580328749.245,20.508,32.227,26.855,19.043,74.707,0
1580328749.249,20.996,33.691,29.297,20.508,41.504,0
1580328749.246,25.391,34.668,28.320,23.926,-6.348,0
1580328749.250,26.367,33.203,28.809,20.996,-4.883,0
1580328749.254,28.809,30.273,29.297,17.578,-0.977,0
1580328749.258,29.785,31.250,27.832,24.414,17.090,0
1580328749.262,26.367,32.715,31.738,22.461,46.387,0
1580328749.266,26.367,33.203,33.203,20.996,42.480,0
1580328749.270,29.297,32.715,29.785,24.414,30.762,0
1580328749.273,33.203,34.180,29.785,25.391,2.930,0
1580328749.277,32.227,35.645,30.273,26.367,8.301,0
1580328749.281,25.879,35.645,28.320,25.391,65.918,0
1580328749.285,24.414,36.133,28.320,22.461,78.613,0
1580328749.289,21.973,37.598,27.344,22.461,20.508,0
1580328749.286,20.020,36.133,26.855,20.508,13.184,0
1580328749.290,20.508,34.180,29.785,20.020,56.152,0
1580328749.294,23.438,36.621,31.250,22.949,42.480,0
1580328749.298,21.484,35.645,32.227,20.996,18.555,0
1580328749.302,20.508,35.645,29.785,19.043,18.555,0
1580328749.306,26.855,38.086,29.785,20.996,20.996,0
1580328749.310,25.879,36.133,32.227,20.020,47.363,0
1580328749.313,24.414,33.203,29.297,19.531,37.598,0
1580328749.317,27.832,32.715,27.344,18.066,20.508,0
1580328749.321,24.414,32.227,27.832,17.090,-13.672,0
1580328749.325,20.020,34.668,28.320,18.555,6.348,0
1580328749.329,16.113,38.086,28.320,17.578,32.715,0
1580328749.346,12.207,37.598,30.273,22.949,16.113,0
1580328749.350,14.648,35.645,31.738,26.367,43.457,0
1580328749.354,13.184,37.109,33.203,25.879,24.414,0
1580328749.358,8.789,36.133,35.156,30.273,14.160,0
1580328749.362,10.742,31.738,31.738,22.949,5.859,0
1580328749.366,14.160,32.227,28.809,20.020,70.801,0
1580328749.370,10.742,31.250,30.273,19.043,122.559,0
1580328749.373,11.719,32.227,28.809,13.672,32.227,0
1580328749.377,13.672,32.227,30.273,23.926,-12.695,0
1580328749.381,11.230,32.715,34.668,25.879,2.930,0
1580328749.385,12.695,34.180,32.227,22.461,42.969,0
1580328749.389,15.625,33.203,29.297,24.414,3.906,0
1580328749.386,17.090,34.668,31.738,21.484,17.578,0
1580328749.390,14.160,35.156,33.203,18.555,31.738,0
1580328749.394,11.230,32.227,31.738,21.973,5.859,0
1580328749.398,12.695,30.273,30.762,22.949,68.848,0
1580328749.402,13.184,30.273,33.691,23.438,37.109,0
1580328749.406,14.648,31.738,29.785,24.414,8.789,0
1580328749.410,17.090,33.203,26.367,23.926,39.062,0
1580328749.413,19.043,32.227,28.809,24.414,49.805,0
1580328749.417,12.695,31.738,29.297,20.996,16.602,0
1580328749.421,8.789,29.785,30.273,16.113,25.879,0
1580328749.425,13.184,30.273,29.297,16.113,62.500,0
1580328749.429,11.719,31.250,28.320,18.066,-14.160,0
1580328749.446,15.625,31.738,28.809,23.926,-48.828,0
1580328749.450,17.090,33.203,28.320,28.809,21.484,0
1580328749.454,15.137,32.715,26.855,26.367,60.059,0
1580328749.458,15.137,30.762,27.344,22.949,50.293,0
1580328749.462,13.184,31.738,27.832,26.367,29.785,0
1580328749.466,16.602,29.785,27.344,28.320,-11.719,0
1580328749.470,18.066,29.297,24.414,23.926,38.086,0
1580328749.473,14.648,32.715,26.367,23.438,45.898,0
1580328749.477,13.184,33.691,28.809,23.438,6.348,0
1580328749.481,16.602,34.180,28.320,26.367,9.766,0
1580328749.485,17.578,34.668,31.250,28.320,-25.391,0
1580328749.489,12.207,35.156,29.785,23.926,10.742,0
1580328749.486,5.859,34.668,30.273,18.066,-30.273,0
1580328749.490,5.859,35.156,31.250,13.672,-51.758,0
1580328749.494,5.859,36.621,31.250,20.508,3.906,0
1580328749.498,10.254,36.621,31.250,23.438,11.719,0
1580328749.502,16.113,34.668,29.297,22.949,33.691,0
1580328749.506,14.160,33.691,28.809,23.926,69.824,0
1580328749.510,12.207,34.668,29.785,24.414,37.598,0
1580328749.513,7.812,33.203,31.738,21.973,-0.977,0
1580328749.517,7.812,35.156,31.738,19.531,60.059,0
1580328749.521,8.301,35.156,31.738,22.949,28.320,0
1580328749.525,9.766,35.156,30.762,26.367,-35.156,0
1580328749.529,9.766,35.156,27.832,22.461,44.922,0
1580328749.526,8.789,34.180,28.809,22.949,62.012,0
1580328749.530,13.672,33.203,31.250,26.367,-13.184,0
1580328749.534,15.137,30.273,30.273,24.414,36.133,0
1580328749.538,16.113,30.762,30.273,23.926,84.473,0
1580328749.542,20.508,32.227,31.250,24.414,62.500,0
1580328749.546,21.484,33.691,29.785,22.949,53.711,0
1580328749.550,22.949,33.691,28.809,21.973,9.277,0
1580328749.553,26.367,34.668,29.297,27.344,-21.973,0
1580328749.557,29.297,35.156,31.250,31.738,56.641,0
1580328749.561,32.227,37.598,33.203,30.273,74.707,0
1580328749.565,32.227,39.062,34.180,24.902,30.762,0
1580328749.569,30.762,35.645,33.203,26.367,86.426,0
1580328749.566,32.715,35.645,32.715,28.809,90.820,0
1580328749.570,32.715,36.133,32.715,27.832,58.594,0
1580328749.574,32.715,36.133,30.762,27.344,61.523,0
1580328749.578,32.715,37.109,32.227,27.832,24.414,0
1580328749.582,33.691,36.621,32.715,27.344,57.617,0
1580328749.586,31.250,35.156,29.297,25.879,87.891,0
1580328749.590,28.809,37.109,28.320,27.832,69.336,0
1580328749.593,26.855,37.598,29.297,25.879,44.922,0
1580328749.597,26.855,35.156,30.273,18.066,60.059,0
1580328749.601,23.926,30.762,31.250,18.066,64.453,0
1580328749.605,19.043,27.344,32.227,21.973,46.387,0
1580328749.609,20.996,29.785,31.738,23.438,41.016,0
1580328749.627,20.508,29.297,29.785,25.879,-5.371,0
1580328749.631,16.113,27.832,30.273,22.949,39.062,0
1580328749.635,12.207,29.297,29.785,21.484,51.270,0
1580328749.639,15.625,30.762,29.785,23.438,-3.418,0
1580328749.643,16.113,31.738,30.273,23.438,16.113,0
1580328749.647,17.090,32.715,27.832,22.949,39.062,0
1580328749.651,20.020,31.738,26.855,23.438,72.266,0
1580328749.654,16.602,29.785,29.297,24.902,72.266,0
1580328749.658,17.578,29.297,29.297,24.902,46.875,0
1580328749.662,20.020,29.785,27.344,21.973,10.742,0
1580328749.666,18.066,30.273,26.367,20.996,28.809,0
1580328749.670,17.578,32.715,26.855,20.996,57.129,0
1580328749.667,17.090,31.738,27.344,21.484,23.438,0
1580328749.671,20.020,30.273,28.320,26.855,56.641,0
1580328749.675,21.973,34.668,24.414,28.320,58.594,0
1580328749.679,14.648,36.621,20.020,21.484,19.043,0
1580328749.683,5.859,34.668,23.438,10.254,-6.836,0
1580328749.687,5.371,37.598,25.879,11.230,-9.766,0
1580328749.691,5.859,35.645,28.320,19.531,55.664,0
1580328749.694,6.836,34.180,30.273,19.043,52.734,0
1580328749.698,12.695,35.156,26.367,19.531,27.832,0
1580328749.702,18.555,36.133,25.391,19.043,35.645,0
1580328749.706,19.531,38.086,27.832,15.625,41.504,0
1580328749.710,18.555,35.645,28.320,19.531,39.551,0
1580328749.707,23.438,36.133,29.785,26.855,19.531,0
1580328749.711,24.902,39.551,32.715,26.855,38.086,0
1580328749.715,23.926,39.551,34.180,30.273,-3.906,0
1580328749.719,20.020,38.086,34.180,29.785,-27.344,0
1580328749.723,17.578,37.109,32.227,27.344,32.227,0
1580328749.727,20.996,39.062,30.762,29.785,72.754,0
1580328749.731,21.484,40.039,30.762,27.832,53.711,0
1580328749.734,20.996,37.109,30.762,25.391,24.414,0
1580328749.738,21.484,37.109,28.809,20.508,8.301,0
1580328749.742,22.461,38.086,27.344,20.020,40.527,0
1580328749.746,20.020,37.109,29.785,22.461,53.711,0
1580328749.750,17.578,37.598,30.762,21.973,-11.719,0
1580328749.767,15.625,35.645,31.738,20.508,8.301,0
1580328749.771,13.184,32.715,31.250,19.531,32.227,0
1580328749.775,11.230,32.715,28.809,21.484,-53.711,0
1580328749.779,11.719,33.691,28.320,21.484,-33.203,0
1580328749.783,14.160,33.691,28.320,22.461,18.066,0
1580328749.787,19.531,34.668,26.367,27.832,38.086,0
1580328749.791,18.066,35.156,27.832,25.391,108.887,0
1580328749.794,14.648,33.203,33.203,21.484,69.336,0
1580328749.798,19.043,32.227,34.180,25.391,38.086,0
1580328749.802,18.555,30.273,30.273,26.367,84.961,0
1580328749.806,16.113,30.762,30.273,26.367,70.801,0
1580328749.810,13.184,33.691,34.180,27.832,12.695,0
1580328749.819,11.230,32.227,34.668,25.879,31.738,0
1580328749.823,10.742,31.738,32.715,24.414,97.168,0
1580328749.827,11.230,32.227,29.297,27.344,60.547,0
1580328749.831,13.184,32.715,29.785,29.297,-16.602,0
1580328749.835,12.695,35.645,33.203,30.762,3.906,0
1580328749.839,13.184,37.109,34.180,26.855,11.719,0
1580328749.843,13.184,37.109,32.715,24.414,23.926,0
1580328749.846,10.742,35.156,31.738,25.879,43.945,0
1580328749.850,9.277,35.645,27.832,26.367,29.785,0
1580328749.854,12.207,37.109,26.367,20.508,20.508,0
1580328749.858,14.160,33.691,29.785,18.066,34.668,0
1580328749.862,11.230,32.227,31.250,27.344,64.941,0
1580328749.866,9.277,34.180,33.691,24.902,96.191,0
1580328749.870,13.672,33.203,31.250,20.508,40.039,0
1580328749.874,14.160,33.691,27.344,22.461,-24.414,0
1580328749.878,14.648,31.250,30.762,28.320,38.574,0
1580328749.882,30.762,33.691,30.273,46.387,-17.090,0
1580328749.886,20.996,39.551,25.879,32.227,-21.484,0
1580328749.890,-8.301,41.992,19.531,-5.371,41.992,0
1580328749.893,-11.230,43.457,15.625,-10.254,31.250,0
1580328749.897,-23.438,43.457,15.625,-21.973,-10.254,0
1580328749.901,-38.574,47.363,7.812,-41.504,-34.668,0
1580328749.905,-45.410,49.316,-1.465,-56.152,-1.465,0
1580328749.909,-50.781,46.387,-0.977,-66.895,60.547,0
1580328749.906,-47.363,47.363,3.418,-64.941,63.477,0
1580328749.910,-49.805,49.805,-1.953,-69.336,55.176,0
1580328749.914,-48.828,49.316,-6.348,-68.848,18.066,0
1580328749.918,-40.039,49.316,-3.906,-62.988,-29.785,0
1580328749.922,-27.832,46.387,1.465,-51.758,67.383,0
1580328749.926,-16.602,43.457,4.395,-38.574,104.492,0
1580328749.930,-9.277,43.457,7.324,-27.344,59.082,0
1580328749.933,-4.395,42.969,5.859,-19.043,62.500,0
1580328749.937,-3.418,42.480,2.930,-16.602,60.059,0
1580328749.941,-4.395,41.504,4.883,-10.742,25.879,0
1580328749.945,-1.465,41.504,8.789,-7.324,-15.625,0
1580328749.949,0.488,42.480,12.695,-11.719,-25.879,0
1580328749.947,1.953,42.969,13.672,-5.859,26.855,0
1580328749.951,9.277,43.945,16.113,7.324,51.758,0
1580328749.955,13.184,43.457,17.578,8.789,60.059,0
1580328749.959,15.625,43.457,16.113,9.277,82.031,0
1580328749.963,14.648,43.457,18.555,11.230,95.215,0
1580328749.967,17.090,43.457,19.043,16.113,47.363,0
1580328749.971,20.020,40.527,18.066,20.020,37.109,0
1580328749.974,20.508,39.551,16.602,18.066,80.566,0
1580328749.978,20.020,39.062,18.066,16.113,97.168,0
1580328749.982,19.531,38.086,20.020,15.625,69.336,0
1580328749.986,23.926,38.086,20.020,17.090,18.066,0
1580328749.990,24.902,36.133,21.484,20.020,40.039,0
1580328749.987,25.391,36.133,23.926,18.555,-9.277,0
1580328749.991,31.738,37.109,26.855,18.555,10.254,0
1580328749.995,35.645,38.086,30.273,17.090,63.477,0
1580328749.999,37.598,37.598,29.297,18.555,16.602,0
1580328750.003,36.621,34.668,27.344,23.926,45.410,0
1580328750.007,33.203,32.715,27.344,22.949,45.410,0
1580328750.011,30.273,34.180,25.879,19.531,31.738,0
1580328750.014,23.926,38.086,25.391,12.695,76.172,0
1580328750.018,23.438,38.086,24.414,13.184,20.508,0
1580328750.022,23.926,39.551,23.926,20.996,-2.441,0
1580328750.026,23.926,41.504,24.902,23.438,62.988,0
1580328750.030,24.902,39.062,24.902,23.926,70.312,0
1580328750.047,19.531,35.645,24.902,21.973,38.574,0
1580328750.051,15.137,34.180,26.367,22.461,2.441,0
1580328750.055,17.090,34.180,27.344,21.973,28.809,0
1580328750.059,15.137,34.180,27.344,20.508,89.355,0
1580328750.063,16.602,35.156,26.855,24.414,74.219,0
1580328750.067,19.043,37.109,26.367,26.367,51.270,0
1580328750.071,16.602,37.109,26.367,22.949,3.418,0
1580328750.074,12.207,36.133,28.320,23.926,-39.551,0
1580328750.078,10.742,37.109,27.344,25.391,-29.785,0
1580328750.082,12.695,37.598,26.367,27.344,39.062,0
1580328750.086,14.648,39.551,28.320,26.855,52.734,0
1580328750.090,14.160,39.551,29.785,24.414,11.719,0
1580328750.087,8.789,37.598,27.832,20.996,38.086,0
1580328750.091,8.789,35.645,27.832,20.996,26.367,0
1580328750.095,14.160,33.203,31.250,32.227,20.020,0
1580328750.099,20.508,33.203,31.250,40.039,10.254,0
1580328750.103,19.531,36.133,29.297,30.273,22.461,0
1580328750.107,11.719,41.016,28.320,18.066,37.109,0
1580328750.111,5.859,41.992,25.879,11.719,-1.953,0
1580328750.114,4.395,40.527,20.996,5.371,-18.555,0
1580328750.118,7.812,42.480,19.043,3.418,-33.691,0
1580328750.122,10.254,47.852,18.555,-0.488,10.254,0
1580328750.126,7.324,51.270,16.113,-0.977,-0.488,0
1580328750.130,3.906,49.805,16.113,-1.465,19.043,0
1580328750.127,9.766,49.805,16.113,-1.465,64.941,0
1580328750.131,14.648,50.293,17.090,7.812,35.645,0
1580328750.135,13.672,48.340,20.996,8.789,37.109,0
1580328750.139,19.531,45.898,23.438,9.277,41.992,0
1580328750.143,27.344,46.387,22.949,14.160,23.438,0
1580328750.147,26.367,48.828,22.461,19.531,38.086,0
1580328750.151,26.855,47.852,22.949,18.555,51.758,0
1580328750.154,29.785,46.387,22.949,18.555,24.902,0
1580328750.158,26.367,44.922,20.996,19.043,20.020,0
1580328750.162,25.391,44.922,21.973,18.555,50.781,0
1580328750.166,33.203,47.363,24.902,22.461,7.324,0
1580328750.170,39.062,45.410,25.879,21.973,1.465,0
1580328750.187,41.504,44.434,27.344,21.484,49.316,0
1580328750.191,43.457,42.480,26.855,18.555,52.734,0
1580328750.195,47.363,41.504,24.902,18.555,38.086,0
1580328750.199,54.199,43.945,24.902,23.926,7.324,0
1580328750.203,54.199,43.945,25.391,26.855,12.695,0
1580328750.207,52.246,43.945,25.879,27.344,34.180,0
1580328750.211,50.293,44.434,25.391,25.391,28.809,0
1580328750.214,50.781,42.480,22.461,23.926,26.855,0
1580328750.218,53.711,40.527,20.508,24.414,5.859,0
1580328750.222,51.270,41.992,23.438,25.391,-24.414,0
1580328750.226,48.828,40.039,23.438,23.926,23.926,0
1580328750.230,44.922,36.133,21.484,26.855,34.668,0
1580328750.227,42.969,40.039,25.391,30.762,3.906,0
1580328750.231,42.969,42.969,27.832,28.809,57.129,0
1580328750.235,45.898,42.480,28.809,31.738,83.496,0
1580328750.239,51.758,43.457,30.273,36.133,38.574,0
1580328750.243,50.781,41.504,28.809,38.086,53.223,0
1580328750.247,46.387,40.527,29.785,37.598,102.539,0
1580328750.251,41.504,38.086,31.250,35.156,76.660,0
1580328750.254,41.504,38.574,31.738,37.598,-2.930,0
1580328750.258,43.945,39.551,31.738,38.574,-30.762,0
1580328750.262,39.551,37.598,27.344,29.785,50.781,0
1580328750.266,31.250,38.086,25.391,24.902,62.988,0
1580328750.270,29.785,37.598,24.902,30.762,12.695,0
1580328750.267,28.809,38.574,27.344,30.762,25.879,0
1580328750.271,27.832,39.062,31.250,27.832,27.344,0
1580328750.275,29.297,39.062,32.227,29.297,43.945,0
1580328750.279,28.320,39.551,29.785,27.344,35.156,0
1580328750.283,25.879,37.109,27.344,22.461,34.180,0
1580328750.287,30.273,36.621,29.785,24.414,15.137,0
1580328750.291,31.738,36.621,29.297,26.855,21.973,0
1580328750.294,30.762,36.133,28.320,22.461,52.246,0
1580328750.298,32.715,35.156,25.391,22.461,23.438,0
1580328750.302,33.691,35.645,24.902,23.926,-22.461,0
1580328750.306,32.715,37.598,28.809,24.902,-66.406,0
1580328750.310,32.715,36.621,28.320,28.320,-5.371,0
1580328750.327,29.297,37.598,30.762,29.297,38.086,0
1580328750.331,22.461,39.062,30.762,25.391,16.602,0
1580328750.335,24.414,39.551,27.832,22.949,30.273,0
1580328750.339,24.414,39.551,26.367,20.996,29.785,0
1580328750.343,23.926,39.062,28.320,20.996,65.918,0
1580328750.347,22.949,38.086,29.297,22.461,78.613,0
1580328750.351,18.555,37.109,29.297,20.020,35.645,0
1580328750.354,18.555,35.645,28.809,20.508,39.551,0
1580328750.358,19.043,32.715,25.879,19.531,38.574,0
1580328750.362,15.625,33.203,28.809,20.508,38.574,0
1580328750.366,18.555,36.133,31.738,20.996,50.293,0
1580328750.370,19.043,36.133,30.273,21.484,73.730,0
1580328750.367,24.902,35.645,28.809,26.367,14.160,0
1580328750.371,25.391,36.621,31.738,27.344,10.254,0
1580328750.375,16.602,35.645,29.297,25.391,97.168,0
1580328750.379,21.973,35.156,25.391,29.785,58.594,0
1580328750.383,26.367,33.691,29.297,34.668,58.105,0
1580328750.387,11.719,30.273,38.086,25.879,75.684,0
1580328750.391,0.488,27.832,38.574,15.625,-1.465,0
1580328750.394,4.395,22.461,36.133,15.625,-4.395,0
1580328750.398,6.348,22.461,37.598,16.602,36.133,0
1580328750.402,4.883,24.414,37.109,17.090,-4.883,0
1580328750.406,4.883,22.461,37.109,24.902,-10.254,0
1580328750.410,6.348,20.996,38.574,28.320,46.387,0
1580328750.407,5.859,22.461,39.551,24.902,86.426,0
1580328750.411,14.160,25.879,41.016,28.809,48.828,0
1580328750.415,21.484,27.344,38.086,30.762,47.852,0
1580328750.419,22.949,26.367,34.180,34.180,49.316,0
1580328750.423,21.973,24.902,34.180,35.645,61.523,0
1580328750.427,22.461,24.902,32.715,32.715,86.426,0
1580328750.431,21.973,27.344,33.691,32.227,62.012,0
1580328750.434,19.531,30.273,36.621,23.438,35.156,0
1580328750.438,20.996,33.203,36.133,23.438,-24.902,0
1580328750.442,18.066,30.762,34.668,26.367,-8.789,0
1580328750.446,15.137,30.273,33.203,24.902,23.438,0
1580328750.450,16.602,30.762,33.203,25.391,0.977,0
1580328750.466,22.949,31.738,34.180,25.391,26.367,0
1580328750.470,23.926,32.227,34.668,26.367,21.484,0
1580328750.474,21.484,31.738,34.668,22.949,-1.953,0
1580328750.478,21.484,33.203,35.645,26.367,39.062,0
1580328750.482,17.090,33.203,35.156,31.738,94.727,0
1580328750.486,13.672,34.180,32.715,27.832,37.109,0
1580328750.490,17.578,34.668,32.715,27.832,-40.039,0
1580328750.493,18.066,34.668,34.180,30.762,-11.230,0
1580328750.497,16.113,35.156,33.203,29.297,21.484,0
1580328750.501,17.090,35.156,31.250,31.738,43.945,0
1580328750.505,17.090,35.645,33.203,29.297,36.133,0
1580328750.509,17.578,36.621,32.715,26.855,4.395,0
1580328750.528,18.555,35.156,30.273,29.785,41.016,0
1580328750.532,14.648,33.203,32.715,27.344,39.551,0
1580328750.536,13.672,34.180,30.762,23.438,9.277,0
1580328750.540,18.555,36.133,32.227,24.414,46.875,0
1580328750.544,19.531,35.645,36.133,22.461,41.016,0
1580328750.548,19.043,36.133,35.645,25.391,3.418,0
1580328750.552,19.531,37.598,33.203,25.879,-5.371,0
1580328750.555,14.160,35.156,33.691,21.973,21.973,0
1580328750.559,10.742,30.273,33.691,19.043,81.055,0
1580328750.563,16.113,30.762,30.273,20.996,42.480,0
1580328750.567,17.090,32.227,30.762,20.996,-42.969,0
1580328750.571,13.672,32.227,31.250,18.555,-20.508,0
1580328750.549,16.113,35.645,30.762,18.555,32.715,0
1580328750.553,18.066,39.062,32.715,18.555,21.973,0
1580328750.557,17.578,39.062,36.133,19.043,6.348,0
1580328750.561,22.461,37.598,36.133,23.926,15.625,0
1580328750.565,26.855,39.062,35.156,24.902,39.551,0
1580328750.569,26.855,40.039,36.621,25.879,51.758,0
1580328750.573,26.855,37.109,35.645,28.320,31.250,0
1580328750.576,21.973,37.109,34.180,26.367,30.762,0
1580328750.580,20.996,39.062,33.691,29.297,-2.930,0
1580328750.584,20.508,40.039,34.180,30.273,-3.418,0
1580328750.588,14.160,38.574,36.133,25.879,30.273,0
1580328750.592,12.695,37.109,34.180,22.949,25.879,0
1580328750.607,12.207,36.133,31.738,21.484,47.852,0
1580328750.611,11.719,34.668,31.738,25.879,85.938,0
1580328750.615,13.672,35.645,32.227,26.367,42.480,0
1580328750.619,12.695,35.645,32.227,21.484,2.441,0
1580328750.623,9.766,34.668,33.203,18.066,45.898,0
1580328750.627,8.301,37.109,34.180,19.531,65.430,0
1580328750.631,4.883,36.133,28.809,18.066,-2.930,0
1580328750.634,1.465,33.203,28.320,12.695,15.625,0
1580328750.638,5.371,36.621,32.227,15.625,35.156,0
1580328750.642,9.277,37.598,29.297,20.996,52.734,0
1580328750.646,8.301,35.156,26.367,20.020,82.031,0
1580328750.650,11.230,35.645,26.367,22.461,70.801,0
1580328750.647,17.090,37.598,27.344,22.461,56.641,0
1580328750.651,17.090,37.109,26.367,18.066,-5.371,0
1580328750.655,17.090,39.062,27.832,20.996,0.488,0
1580328750.659,18.555,39.062,24.902,20.996,58.105,0
1580328750.663,23.926,39.551,21.973,26.367,62.012,0
1580328750.667,20.020,36.133,28.320,33.203,35.645,0
1580328750.671,4.883,30.273,35.156,22.949,15.137,0
1580328750.674,3.906,28.809,37.109,17.090,26.367,0
1580328750.678,1.465,26.367,42.969,16.113,20.020,0
1580328750.682,2.441,26.367,42.480,16.602,33.691,0
1580328750.686,9.277,26.367,39.551,20.508,38.086,0
1580328750.690,9.277,24.414,41.016,22.461,1.465,0
1580328750.707,7.812,22.949,42.480,20.020,4.395,0
1580328750.711,6.348,24.414,43.945,18.555,26.855,0
1580328750.715,8.301,26.855,41.504,22.461,17.090,0
1580328750.719,12.207,28.320,39.062,26.367,13.184,0
1580328750.723,14.648,30.762,37.598,27.832,39.551,0
1580328750.727,13.672,30.762,38.086,25.391,50.781,0
1580328750.731,14.648,29.785,40.039,27.344,25.391,0
1580328750.734,18.555,31.250,40.527,27.832,21.484,0
1580328750.738,15.625,28.809,39.062,24.414,2.441,0
1580328750.742,17.578,26.367,38.086,26.367,7.812,0
1580328750.746,21.973,28.320,37.109,30.762,-16.113,0
1580328750.750,20.996,30.273,35.645,27.832,-20.996,0
1580328750.747,21.973,30.762,37.109,25.879,13.184,0
1580328750.751,24.902,31.250,36.133,28.320,44.922,0
1580328750.755,27.832,33.691,34.668,29.785,14.648,0
1580328750.759,27.344,32.715,34.180,28.320,20.996,0
1580328750.763,26.855,32.715,34.668,31.738,41.504,0
1580328750.767,25.391,35.156,34.668,33.203,8.789,0
1580328750.771,25.879,36.621,32.227,31.738,4.883,0
1580328750.774,28.809,39.062,30.762,33.203,34.180,0
1580328750.778,31.738,39.551,30.273,32.227,78.613,0
1580328750.782,31.250,36.621,31.250,29.785,38.086,0
1580328750.786,23.438,35.645,32.715,24.414,16.602,0
1580328750.790,23.926,38.086,35.645,27.344,37.109,0
1580328750.787,26.855,39.062,33.691,32.715,31.738,0
1580328750.791,25.879,37.598,32.715,32.227,20.508,0
1580328750.795,30.273,36.133,34.180,31.738,-28.320,0
1580328750.799,29.297,37.109,32.715,28.809,-9.277,0
1580328750.803,27.344,39.062,32.227,29.785,-6.348,0
1580328750.807,27.344,38.086,32.715,30.273,-12.207,0
1580328750.811,27.832,36.133,32.715,28.809,33.203,0
1580328750.814,30.762,37.109,31.738,29.785,41.504,0
1580328750.818,30.762,40.039,32.227,30.273,74.219,0
1580328750.822,28.809,41.992,32.715,29.297,83.984,0
1580328750.826,28.809,41.016,32.715,29.297,54.688,0
1580328750.830,29.785,40.527,30.762,26.855,57.129,0
1580328750.847,31.738,43.945,28.809,27.344,50.293,0
1580328750.851,33.691,43.945,32.227,27.832,61.035,0
1580328750.855,33.203,40.527,33.691,26.855,41.504,0
1580328750.859,36.133,39.551,31.250,30.273,52.246,0
1580328750.863,32.227,40.039,34.668,32.227,63.477,0
1580328750.867,29.785,39.551,37.109,27.832,42.969,0
1580328750.871,30.273,37.598,35.645,19.531,28.320,0
1580328750.874,27.832,38.086,35.156,15.137,42.969,0
1580328750.878,30.273,38.086,33.691,21.484,111.816,0
1580328750.882,37.598,36.133,34.180,24.902,106.445,0
1580328750.886,39.551,36.621,34.668,27.344,65.430,0
1580328750.890,37.598,36.133,34.668,29.785,-12.207,0
1580328750.887,36.621,34.668,35.156,28.809,5.371,0
1580328750.891,37.598,35.645,34.668,30.762,68.359,0
1580328750.895,35.156,37.598,33.691,26.855,87.402,0
1580328750.899,32.227,34.180,34.180,25.391,32.715,0
1580328750.903,37.109,34.668,33.691,31.250,4.395,0
1580328750.907,37.598,39.062,31.738,32.715,15.625,0
1580328750.911,35.156,37.109,32.227,28.809,22.949,0
1580328750.914,37.109,37.109,36.621,29.785,27.832,0
1580328750.918,38.574,36.621,38.086,33.203,-11.230,0
1580328750.922,41.992,34.180,36.621,34.668,-18.066,0
1580328750.926,47.363,35.645,35.645,38.574,64.453,0
1580328750.930,43.457,36.621,34.180,32.715,79.102,0
1580328750.926,33.203,39.062,32.227,19.531,19.531,0
1580328750.930,31.250,41.992,29.297,14.648,-25.879,0
1580328750.934,31.738,39.551,29.785,12.695,-6.836,0
1580328750.938,27.344,37.109,30.273,11.230,7.324,0
1580328750.942,26.855,37.109,26.367,6.836,36.621,0
1580328750.946,30.762,40.527,25.391,6.348,3.906,0
1580328750.950,33.203,40.527,25.391,4.395,-31.738,0
1580328750.953,34.180,38.086,25.879,8.301,34.180,0
1580328750.957,34.668,37.598,24.902,7.324,9.766,0
1580328750.961,33.203,35.645,24.902,3.418,8.789,0
1580328750.965,37.598,36.621,27.344,13.672,26.367,0
1580328750.969,38.574,38.086,28.809,20.508,16.113,0
1580328750.986,34.180,35.645,30.273,21.484,37.598,0
1580328750.990,31.738,34.180,31.250,20.020,54.688,0
1580328750.994,30.273,34.180,32.715,17.578,-14.160,0
1580328750.998,30.273,33.691,30.273,13.184,-10.254,0
1580328751.002,26.855,32.715,28.320,13.672,15.137,0
1580328751.006,24.902,32.227,31.738,14.648,17.090,0
1580328751.010,18.066,30.273,30.273,8.301,75.684,0
1580328751.013,14.648,31.738,30.273,8.789,100.586,0
1580328751.017,20.508,36.133,29.785,16.602,98.633,0
1580328751.021,22.461,37.109,29.785,16.602,60.547,0
1580328751.025,25.879,36.621,32.715,19.043,42.480,0
1580328751.029,24.414,35.156,33.203,19.043,10.254,0
1580328751.026,25.879,35.645,30.762,20.508,-4.395,0
1580328751.030,29.785,33.203,31.250,24.902,-25.879,0
1580328751.034,29.785,30.762,31.738,22.461,0.488,0
1580328751.038,34.668,33.691,29.785,20.996,107.422,0
1580328751.042,37.109,33.203,30.762,24.902,58.594,0
1580328751.046,39.551,32.227,35.156,27.832,6.348,0
1580328751.050,39.062,34.180,33.691,26.367,0.000,0
1580328751.053,35.156,33.203,28.809,23.438,24.902,0
1580328751.057,36.133,31.738,29.785,23.438,90.820,0
1580328751.061,38.086,34.180,32.227,21.484,120.117,0
1580328751.065,40.527,36.621,33.691,16.602,127.441,0
1580328751.069,41.992,38.574,33.203,19.531,72.266,0
1580328751.066,44.922,40.039,30.273,23.438,41.016,0
1580328751.070,46.875,40.039,30.762,20.996,20.996,0
1580328751.074,50.293,39.062,29.297,18.066,-41.504,0
1580328751.078,53.223,39.062,26.855,13.672,3.418,0
1580328751.082,47.363,36.621,28.809,13.672,30.273,0
1580328751.086,47.852,38.574,29.785,20.020,15.625,0
1580328751.090,50.293,39.551,28.809,24.902,-22.461,0
1580328751.093,44.434,37.598,31.250,20.508,-26.855,0
1580328751.097,39.551,37.598,33.691,12.207,32.227,0
1580328751.101,38.574,37.109,30.273,16.602,19.043,0
1580328751.105,35.156,37.109,28.809,24.902,5.371,0
1580328751.109,31.250,36.621,30.273,21.484,18.066,0
1580328751.126,28.809,35.645,30.762,20.020,15.625,0
1580328751.130,24.414,35.645,29.785,19.531,10.254,0
1580328751.134,23.438,33.203,29.297,19.531,44.434,0
1580328751.138,24.902,31.738,27.832,21.973,52.246,0
1580328751.142,27.832,34.180,26.367,21.484,34.180,0
1580328751.146,28.320,37.109,27.344,18.555,40.039,0
1580328751.150,26.367,34.668,26.855,14.648,59.570,0
1580328751.153,33.203,35.156,28.320,19.531,17.090,0
1580328751.157,41.992,37.109,28.809,34.668,-6.836,0
1580328751.161,36.621,33.691,32.227,34.180,12.695,0
1580328751.165,19.043,27.344,35.645,22.461,87.891,0
1580328751.169,10.254,22.949,39.551,21.484,74.219,0
1580328751.166,12.207,22.461,42.480,24.414,26.367,0
1580328751.170,12.207,20.508,40.039,20.508,20.996,0
1580328751.174,11.230,19.043,40.039,19.043,72.266,0
1580328751.178,7.812,24.902,41.992,16.602,76.172,0
1580328751.182,6.836,26.367,44.434,16.602,12.207,0
1580328751.186,11.230,26.367,41.992,19.043,10.254,0
1580328751.190,11.230,27.344,38.086,23.926,-32.227,0
1580328751.193,8.301,25.391,37.598,24.902,6.836,0
1580328751.197,10.742,24.902,37.109,23.926,92.285,0
1580328751.201,14.160,27.344,38.086,20.508,128.418,0
1580328751.205,15.625,29.785,36.621,17.090,33.203,0
1580328751.209,15.137,32.227,35.156,22.949,-32.227,0
1580328751.206,13.184,33.203,34.180,24.902,18.555,0
1580328751.210,14.648,33.691,33.691,24.902,80.566,0
1580328751.214,15.625,32.227,35.645,27.344,85.449,0
1580328751.218,10.254,30.273,34.668,26.855,43.945,0
1580328751.222,9.766,32.227,33.691,26.855,18.066,0
1580328751.226,15.625,33.691,34.180,28.809,-16.113,0
1580328751.230,15.625,33.691,32.715,26.367,9.277,0
1580328751.233,13.672,33.691,32.715,25.879,5.371,0
1580328751.237,14.648,34.180,35.156,27.344,5.371,0
1580328751.241,14.160,33.691,35.156,27.832,-7.812,0
1580328751.245,12.207,32.715,32.227,30.273,-42.969,0
1580328751.249,14.160,31.250,32.715,31.738,-30.273,0
1580328751.266,16.602,29.297,33.203,32.715,-26.367,0
1580328751.270,13.672,30.273,30.762,31.738,-38.574,0
1580328751.274,13.672,32.715,30.273,27.344,-21.973,0
1580328751.278,18.555,36.133,28.809,31.250,4.395,0
1580328751.282,18.555,37.109,26.367,34.180,80.566,0
1580328751.286,15.625,33.203,27.344,28.809,75.195,0
1580328751.290,13.672,30.762,26.855,22.461,26.367,0
1580328751.293,13.672,32.715,24.902,21.484,48.340,0
1580328751.297,13.672,34.180,27.344,21.973,50.781,0
1580328751.301,16.113,34.180,26.855,20.996,1.953,0
1580328751.305,18.555,33.203,27.344,21.973,-8.301,0
1580328751.309,18.066,32.715,29.297,18.555,10.742,0
1580328751.306,19.043,34.180,31.250,16.602,11.719,0
1580328751.310,21.484,34.668,32.227,20.996,72.266,0
1580328751.314,23.438,36.133,29.297,21.973,76.172,0
1580328751.318,26.367,35.156,30.273,24.902,94.238,0
1580328751.322,26.367,32.227,30.273,24.414,45.410,0
1580328751.326,23.438,33.691,28.809,22.949,-21.973,0
1580328751.330,23.438,35.645,30.762,23.926,9.766,0
1580328751.333,20.508,33.691,31.250,22.461,31.250,0
1580328751.337,15.625,31.738,29.785,22.949,45.410,0
1580328751.341,10.742,31.250,30.762,20.508,-0.977,0
1580328751.345,8.301,30.273,29.297,13.672,28.809,0
1580328751.349,9.277,29.785,28.809,14.648,62.988,0
1580328751.346,10.742,30.273,27.344,19.531,56.152,0
1580328751.350,12.207,29.785,29.297,23.926,60.059,0
1580328751.354,13.672,30.273,34.668,25.391,18.555,0
1580328751.358,19.043,33.203,31.250,28.809,29.297,0
1580328751.362,22.949,34.180,27.832,32.715,62.500,0
1580328751.366,23.438,34.180,27.344,30.273,60.547,0
1580328751.370,23.926,34.668,29.785,30.762,78.613,0
1580328751.373,24.902,35.645,34.668,30.762,65.918,0
1580328751.377,20.996,36.133,34.180,25.879,19.043,0
1580328751.381,19.531,34.180,34.180,29.297,25.391,0
1580328751.385,22.461,33.691,34.668,34.668,23.438,0
1580328751.389,17.578,32.715,32.227,29.297,47.363,0
1580328751.406,18.555,32.227,32.227,26.367,39.062,0
1580328751.410,23.926,32.227,34.180,31.250,18.066,0
1580328751.414,20.508,32.227,33.203,28.320,19.043,0
1580328751.418,18.066,31.738,29.297,21.484,32.227,0
1580328751.422,20.020,31.250,28.809,20.020,68.359,0
1580328751.426,21.484,33.203,30.762,21.973,19.531,0
1580328751.430,20.996,33.691,28.320,23.926,7.812,0
1580328751.433,16.602,32.227,26.367,25.391,41.992,0
1580328751.437,16.602,34.180,28.320,27.832,20.996,0
1580328751.441,17.090,36.621,30.273,29.297,-43.457,0
1580328751.445,14.160,37.109,30.273,30.762,-77.148,0
1580328751.449,15.137,36.133,28.320,30.762,-13.184,0
1580328751.446,16.113,36.133,27.832,28.809,20.508,0
1580328751.450,16.602,37.109,25.879,30.762,4.883,0
1580328751.454,18.555,37.598,24.902,31.738,30.762,0
1580328751.458,24.414,39.551,27.344,34.180,54.688,0
1580328751.462,25.391,38.574,30.762,39.062,38.574,0
1580328751.466,24.902,37.109,30.273,36.621,46.387,0
1580328751.470,26.367,38.086,28.320,30.762,53.223,0
1580328751.473,26.367,38.086,29.785,27.344,13.672,0
1580328751.477,27.344,38.086,31.250,29.297,-72.754,0
1580328751.481,25.879,39.062,31.250,25.391,-28.320,0
1580328751.485,19.043,38.086,31.738,18.555,69.336,0
1580328751.489,16.113,36.621,31.250,22.461,64.453,0
1580328751.487,19.043,38.086,32.715,23.438,41.504,0
1580328751.491,18.555,38.086,34.668,20.996,44.434,0
1580328751.495,18.555,38.086,33.203,21.484,26.855,0
1580328751.499,17.578,36.621,31.250,22.461,70.801,0
1580328751.503,13.184,33.691,29.785,18.066,104.004,0
1580328751.507,11.230,35.156,28.320,15.625,54.199,0
1580328751.511,11.230,36.621,29.785,16.602,14.160,0
1580328751.514,11.230,35.645,33.691,13.672,53.711,0
1580328751.518,14.648,35.645,34.180,15.625,49.805,0
1580328751.522,10.742,34.668,33.203,20.508,51.270,0
1580328751.526,10.254,32.715,32.715,20.020,69.336,0
1580328751.530,25.391,34.180,31.250,24.902,5.371,0
1580328751.546,21.973,39.062,27.344,18.066,31.250,0
1580328751.550,10.254,40.527,24.414,10.254,49.316,0
1580328751.554,13.672,40.039,23.926,15.625,32.227,0
1580328751.558,7.324,38.574,20.996,10.742,-32.227,0
1580328751.562,0.977,37.598,21.973,11.230,-6.348,0
1580328751.566,9.277,38.574,27.344,18.555,37.598,0
1580328751.570,10.742,37.109,26.367,11.230,44.922,0
1580328751.573,9.766,35.156,24.414,11.719,53.711,0
1580328751.577,14.648,33.691,28.320,20.508,21.973,0
1580328751.581,13.184,34.180,29.785,22.461,-10.742,0
1580328751.585,9.277,34.668,30.762,23.926,-16.113,0
1580328751.589,9.766,34.180,30.273,27.344,-7.324,0
1580328751.586,10.254,33.203,26.367,24.414,-13.184,0
1580328751.590,11.719,34.668,23.926,25.879,-1.953,0
1580328751.594,13.184,36.133,24.902,29.785,74.707,0
1580328751.598,19.043,38.086,26.367,28.809,54.688,0
1580328751.602,22.949,37.598,24.902,29.297,81.055,0
1580328751.606,23.926,36.133,22.949,29.785,107.422,0
1580328751.610,20.508,36.133,26.367,27.832,71.289,0
1580328751.613,20.508,36.133,29.785,31.738,71.777,0
1580328751.617,22.949,36.621,27.344,31.738,14.160,0
1580328751.621,20.996,37.598,26.855,23.926,-15.137,0
1580328751.625,20.996,36.621,26.855,22.461,9.766,0
1580328751.629,22.461,36.133,27.344,27.832,57.617,0
1580328751.626,26.367,37.598,25.879,29.297,68.848,0
1580328751.630,23.926,37.109,26.855,29.785,36.621,0
1580328751.634,20.996,37.109,26.855,28.809,65.918,0
1580328751.638,19.531,36.621,27.344,26.367,114.258,0
1580328751.642,17.090,35.645,28.809,27.344,24.414,0
1580328751.646,20.020,37.598,31.250,29.297,-18.066,0
1580328751.650,20.996,36.133,31.738,31.250,-12.207,0
1580328751.653,19.043,34.668,27.832,26.855,11.719,0
1580328751.657,18.555,35.156,29.297,21.484,8.789,0
1580328751.661,17.578,34.180,28.809,26.367,-13.672,0
1580328751.665,20.020,33.691,27.344,28.809,6.836,0
1580328751.669,20.996,30.762,25.879,25.879,23.438,0
1580328751.686,19.043,29.785,25.391,25.391,31.250,0
1580328751.690,20.020,29.785,28.320,28.320,70.801,0
1580328751.694,23.438,31.738,33.203,32.715,57.617,0
1580328751.698,21.973,34.180,33.691,31.738,4.883,0
1580328751.702,18.555,32.715,33.203,26.855,37.109,0
1580328751.706,20.020,31.738,34.180,21.973,36.621,0
1580328751.710,20.020,31.250,30.762,17.090,18.066,0
1580328751.713,20.508,28.809,30.273,20.020,73.730,0
1580328751.717,20.508,31.250,32.227,24.414,70.801,0
1580328751.721,24.414,33.203,32.715,26.367,13.672,0
1580328751.725,26.855,31.738,32.715,27.832,15.625,0
1580328751.729,23.438,31.250,32.227,25.391,-3.418,0
1580328751.727,20.996,28.320,29.785,21.484,0.000,0
1580328751.731,21.973,30.273,25.391,21.484,31.250,0
1580328751.735,20.508,31.250,25.391,23.438,32.715,0
1580328751.739,22.949,29.297,27.832,24.902,20.508,0
1580328751.743,26.367,31.250,31.250,26.855,31.250,0
1580328751.747,22.949,32.715,33.691,29.785,29.297,0
1580328751.751,23.438,33.691,32.715,28.809,25.391,0
1580328751.754,22.949,34.180,29.785,28.809,3.906,0
1580328751.758,23.926,36.621,30.273,29.785,16.113,0
1580328751.762,23.438,38.086,30.762,26.367,56.152,0
1580328751.766,20.020,37.598,27.344,21.973,39.062,0
1580328751.770,20.508,36.133,31.738,22.949,53.223,0
1580328751.766,20.508,35.645,31.250,21.973,72.266,0
1580328751.770,20.020,36.133,25.879,19.531,72.266,0
1580328751.774,18.066,34.180,28.320,21.484,49.316,0
1580328751.778,19.043,32.227,30.762,25.879,-8.301,0
1580328751.782,18.066,33.203,28.320,27.832,36.133,0
1580328751.786,19.531,35.645,29.785,28.320,35.156,0
1580328751.790,20.508,34.180,31.738,31.738,53.711,0
1580328751.793,20.508,34.668,32.227,26.855,51.758,0
1580328751.797,19.531,37.109,31.738,20.020,14.648,0
1580328751.801,20.996,35.156,32.227,29.297,74.707,0
1580328751.805,30.273,35.156,32.227,34.180,31.738,0
1580328751.809,31.250,35.156,32.227,32.227,-11.719,0
1580328751.826,29.297,34.180,35.645,30.762,21.973,0
1580328751.830,30.762,34.668,35.156,24.902,28.809,0
1580328751.834,32.715,34.180,30.762,24.902,26.855,0
1580328751.838,30.762,34.180,29.785,27.832,15.137,0
1580328751.842,28.809,34.180,29.785,28.320,-5.371,0
1580328751.846,29.297,35.156,31.250,27.832,10.742,0
1580328751.850,29.297,34.668,32.227,28.320,16.602,0
1580328751.853,32.227,34.668,32.227,29.297,0.000,0
1580328751.857,33.203,35.645,32.715,29.785,-27.832,0
1580328751.861,36.621,37.598,35.156,33.203,-56.641,0
1580328751.865,39.062,37.109,35.645,26.855,74.707,0
1580328751.869,38.574,35.645,33.691,23.926,103.027,0
1580328751.867,37.109,36.621,31.250,25.879,28.809,0
1580328751.871,38.086,40.039,31.250,26.367,35.645,0
1580328751.875,40.039,41.016,33.203,30.273,-12.695,0
1580328751.879,39.062,42.480,32.227,30.273,39.551,0
1580328751.883,34.668,41.504,30.762,27.832,92.285,0
1580328751.887,28.320,35.645,28.809,27.832,55.664,0
1580328751.891,21.973,33.691,27.832,23.926,40.039,0
1580328751.894,20.508,31.738,29.785,20.020,42.480,0
1580328751.898,22.461,29.297,30.762,20.996,30.273,0
1580328751.902,19.043,28.320,27.344,15.625,-2.441,0
1580328751.906,20.020,30.273,27.344,16.602,46.387,0
1580328751.910,31.250,32.715,30.762,26.367,76.172,0
1580328751.927,39.551,32.227,29.297,33.691,44.922,0
1580328751.931,29.297,30.273,31.738,28.320,55.176,0
1580328751.935,17.090,28.320,39.062,19.531,53.223,0
1580328751.939,16.602,26.367,38.574,18.066,36.621,0
1580328751.943,19.043,24.414,37.598,23.926,-29.297,0
1580328751.947,20.996,27.344,39.062,23.438,-40.527,0
1580328751.951,20.020,28.809,37.109,17.090,-0.977,0
1580328751.954,19.043,26.367,39.551,15.625,-18.066,0
1580328751.958,19.043,26.367,41.016,18.066,19.531,0
1580328751.962,21.484,25.879,37.109,24.414,51.758,0
1580328751.966,24.414,27.832,35.645,25.879,-17.090,0
1580328751.970,28.320,30.762,36.133,25.391,20.996,0
1580328751.987,32.227,30.273,35.645,25.391,39.062,0
1580328751.991,35.645,32.227,36.133,25.391,30.273,0
1580328751.995,39.062,33.203,33.691,24.902,76.660,0
1580328751.999,39.062,30.273,33.203,24.902,87.891,0
1580328752.003,38.574,30.273,36.621,24.414,89.355,0
1580328752.007,39.062,34.668,34.668,23.438,94.727,0
1580328752.011,38.574,33.691,31.250,23.926,104.980,0
1580328752.014,38.086,32.715,32.227,28.320,104.980,0
1580328752.018,35.156,33.203,33.203,30.273,83.984,0
1580328752.022,28.809,31.250,34.180,27.832,8.301,0
1580328752.026,26.367,31.738,34.668,26.367,-16.602,0
1580328752.030,24.902,33.691,35.645,25.391,12.695,0
1580328752.007,20.508,32.227,35.645,25.879,51.758,0
1580328752.011,18.066,29.785,32.715,22.949,87.891,0
1580328752.015,20.020,30.762,30.762,22.461,57.617,0
1580328752.019,19.531,34.180,31.250,20.996,61.523,0
1580328752.023,18.555,34.668,33.691,20.508,41.504,0
1580328752.027,22.461,35.156,35.645,26.367,-28.809,0
1580328752.031,21.973,34.668,31.738,26.855,20.020,0
1580328752.034,20.996,33.203,32.227,25.879,64.941,0
1580328752.038,23.926,31.250,34.668,29.297,14.648,0
1580328752.042,20.508,30.762,32.227,31.250,35.645,0
1580328752.046,21.484,32.227,29.297,33.203,47.363,0
1580328752.050,24.414,33.203,29.785,31.250,1.953,0
1580328752.086,20.508,29.785,30.762,27.344,-11.230,0
1580328752.090,20.996,32.227,31.738,29.297,53.711,0
1580328752.094,20.996,34.180,34.180,26.367,48.828,0
1580328752.098,12.695,29.297,34.180,24.902,30.273,0
1580328752.102,8.789,29.785,32.227,26.855,0.488,0
1580328752.106,6.836,31.738,33.691,22.461,-37.598,0
1580328752.110,5.859,32.227,34.668,19.531,32.715,0
1580328752.113,6.836,35.645,31.250,15.137,77.637,0
1580328752.117,7.812,35.645,26.367,15.625,79.102,0
1580328752.121,10.742,34.180,27.344,20.996,118.652,0
1580328752.125,10.254,35.156,30.273,21.973,49.805,0
1580328752.129,14.160,34.668,30.273,21.973,-59.082,0
1580328752.106,13.672,34.668,30.273,20.508,-0.977,0
1580328752.110,9.766,33.203,28.320,20.508,-7.812,0
1580328752.114,11.230,32.715,27.832,20.508,-14.648,0
1580328752.118,12.695,34.668,31.250,20.996,25.879,0
1580328752.122,15.137,36.133,31.738,24.414,-2.930,0
1580328752.126,15.137,35.645,33.203,27.832,44.434,0
1580328752.130,13.184,32.715,34.668,28.809,41.016,0
1580328752.133,11.719,31.738,32.715,25.391,6.836,0
1580328752.137,11.719,32.715,29.297,22.949,-26.367,0
1580328752.141,15.625,33.203,28.809,30.762,29.785,0
1580328752.145,22.949,33.691,29.785,37.109,83.008,0
1580328752.149,28.809,33.691,30.762,36.133,68.359,0
1580328752.146,20.508,29.785,36.621,32.715,57.617,0
1580328752.150,7.812,26.367,39.551,26.855,13.672,0
1580328752.154,10.254,23.926,40.527,27.832,21.484,0
1580328752.158,14.648,23.438,43.457,26.855,1.465,0
1580328752.162,15.625,24.902,45.410,25.391,2.930,0
1580328752.166,14.160,26.367,48.340,27.832,57.617,0
1580328752.170,8.301,25.879,48.828,22.949,34.180,0
1580328752.173,9.277,24.414,43.945,24.414,13.672,0
1580328752.177,9.277,25.391,41.504,24.414,7.324,0
1580328752.181,10.742,26.855,40.039,19.043,-24.902,0
1580328752.185,14.160,29.297,39.551,22.949,6.836,0
1580328752.189,14.160,31.250,39.062,28.320,85.938,0
1580328752.206,13.184,32.715,37.598,29.297,36.133,0
1580328752.210,13.672,32.715,39.062,28.320,7.324,0
1580328752.214,12.695,32.227,40.527,30.762,31.250,0
1580328752.218,12.207,33.203,40.527,32.715,6.348,0
1580328752.222,12.695,32.227,38.574,33.691,5.859,0
1580328752.226,13.672,30.273,38.086,31.250,25.879,0
1580328752.230,13.184,30.762,40.527,25.391,-0.488,0
1580328752.233,12.695,30.273,40.039,25.391,-24.902,0
1580328752.237,11.230,29.785,36.133,29.297,28.809,0
1580328752.241,14.648,29.785,37.109,32.227,25.391,0
1580328752.245,20.020,30.762,39.551,36.133,-21.484,0
1580328752.249,20.508,34.180,38.086,35.156,7.324,0
1580328752.246,21.484,34.180,36.133,31.250,43.457,0
1580328752.250,17.090,32.715,36.621,30.273,35.156,0
1580328752.254,15.137,33.203,36.621,31.250,22.949,0
1580328752.258,20.020,34.668,34.180,35.645,72.754,0
1580328752.262,23.438,35.645,33.203,32.227,55.176,0
1580328752.266,23.438,33.691,34.668,23.926,32.227,0
1580328752.270,24.902,33.691,35.156,26.855,33.691,0
1580328752.273,27.832,35.156,33.691,29.297,37.598,0
1580328752.277,30.762,33.203,32.715,28.809,71.289,0
1580328752.281,37.109,36.621,32.227,30.273,42.969,0
1580328752.285,41.992,38.574,32.715,26.855,3.418,0
1580328752.289,39.551,35.645,34.180,23.926,32.715,0
1580328752.306,40.039,37.109,34.180,27.832,21.484,0
1580328752.310,43.945,39.062,33.691,29.297,25.879,0
1580328752.314,42.480,38.086,31.738,26.367,2.930,0
1580328752.318,39.062,37.598,34.668,22.461,-26.367,0
1580328752.322,35.156,35.645,36.621,22.949,30.762,0
1580328752.326,32.715,33.203,34.668,25.391,43.945,0
1580328752.330,32.227,33.203,32.715,23.438,41.016,0
1580328752.333,36.133,34.180,29.297,24.414,32.715,0
1580328752.337,36.621,35.156,28.809,19.043,63.477,0
1580328752.341,37.598,36.133,28.809,19.043,55.176,0
1580328752.345,37.598,34.180,27.832,24.414,4.395,0
1580328752.349,33.203,33.691,29.785,22.461,1.953,0
1580328752.346,35.156,32.715,32.227,23.438,43.945,0
1580328752.350,37.598,33.203,33.203,26.855,67.383,0
1580328752.354,39.062,33.691,32.715,28.809,47.363,0
1580328752.358,46.387,34.180,31.250,33.691,17.578,0
1580328752.362,51.758,39.062,29.785,33.203,-5.859,0
1580328752.366,39.551,42.969,26.367,22.461,-16.113,0
1580328752.370,27.344,39.551,25.391,17.090,71.289,0
1580328752.373,23.438,36.621,26.855,15.137,57.129,0
1580328752.377,25.879,38.086,25.391,17.090,28.809,0
1580328752.381,32.715,40.039,24.414,19.531,86.914,0
1580328752.385,35.645,38.086,25.879,22.949,39.062,0
1580328752.389,35.645,35.156,27.832,24.414,23.926,0
1580328752.406,33.691,38.086,30.273,20.020,10.254,0
1580328752.410,29.785,38.086,29.297,20.508,25.879,0
1580328752.414,32.227,37.109,29.297,23.438,-3.906,0
1580328752.418,31.738,39.062,28.320,21.484,-39.551,0
1580328752.422,27.832,40.039,24.902,14.648,-12.695,0
1580328752.426,27.832,37.598,25.391,17.578,33.203,0
1580328752.430,32.715,38.086,29.297,22.949,62.500,0
1580328752.433,34.668,40.527,28.320,23.438,58.105,0
1580328752.437,33.691,37.598,30.762,20.020,25.879,0
1580328752.441,40.039,37.598,33.691,20.996,-14.160,0
1580328752.445,42.480,39.551,30.273,22.949,-1.953,0
1580328752.449,38.086,36.133,30.762,25.879,26.367,0
1580328752.427,36.621,36.621,32.227,28.809,59.082,0
1580328752.431,38.574,38.086,28.809,24.414,65.430,0
1580328752.435,44.922,39.551,27.344,26.855,73.730,0
1580328752.439,43.945,37.598,27.832,28.320,44.922,0
1580328752.443,41.016,34.668,24.902,22.461,-12.207,0
1580328752.447,43.945,37.109,26.855,24.902,-42.480,0
1580328752.451,43.945,37.109,30.273,25.391,-17.578,0
1580328752.454,43.457,37.598,30.273,22.949,13.672,0
1580328752.458,44.434,39.062,32.715,24.414,49.805,0
1580328752.462,43.457,36.621,32.227,25.879,26.855,0
1580328752.466,45.898,37.109,30.273,28.320,29.297,0
1580328752.470,48.340,39.062,30.273,30.273,20.508,0
1580328752.486,42.480,37.109,32.227,27.344,32.227,0
1580328752.490,44.922,37.109,34.180,24.414,38.086,0
1580328752.494,47.363,37.598,33.203,26.367,3.418,0
1580328752.498,42.969,35.156,32.227,27.832,-26.367,0
1580328752.502,41.016,35.156,30.762,27.832,-18.066,0
1580328752.506,41.992,36.621,31.250,29.785,5.371,0
1580328752.510,40.039,36.133,31.738,25.391,-19.043,0
1580328752.513,34.668,36.133,28.809,17.578,10.742,0
1580328752.517,35.645,36.621,27.344,18.066,85.938,0
1580328752.521,41.016,38.086,30.273,20.020,84.961,0
1580328752.525,41.016,38.086,29.785,18.555,91.797,0
1580328752.529,38.574,36.621,29.297,20.996,84.473,0
1580328752.526,40.527,38.086,28.809,25.391,66.895,0
1580328752.530,46.387,38.574,28.809,26.855,24.902,0
1580328752.534,43.457,36.133,30.273,24.902,-6.348,0
1580328752.538,40.527,36.133,29.297,23.438,-1.465,0
1580328752.542,44.922,36.621,30.762,30.273,-31.738,0
1580328752.546,45.410,37.109,28.809,33.203,1.953,0
1580328752.550,44.922,39.062,29.785,33.203,66.406,0
1580328752.553,41.504,38.574,33.691,30.273,61.035,0
1580328752.557,35.645,38.086,31.250,25.879,3.418,0
1580328752.561,33.203,36.621,32.715,23.926,-59.082,0
1580328752.565,35.645,35.156,33.691,21.484,3.906,0
1580328752.569,32.715,34.180,28.809,23.438,20.508,0
1580328752.566,27.832,35.156,31.250,25.879,-24.902,0
1580328752.570,28.320,36.133,34.668,28.809,15.137,0
1580328752.574,30.273,34.668,34.180,30.273,45.410,0
1580328752.578,30.762,34.668,34.668,32.227,23.926,0
1580328752.582,30.762,34.668,35.645,30.762,39.551,0
1580328752.586,33.203,34.180,36.133,33.203,76.172,0
1580328752.590,33.691,33.691,36.133,36.621,27.344,0
1580328752.593,32.227,35.645,33.203,33.203,39.062,0
1580328752.597,33.203,36.621,33.691,28.809,41.992,0
1580328752.601,33.691,36.621,36.133,29.785,47.852,0
1580328752.605,31.250,38.574,36.621,31.738,88.867,0
1580328752.609,33.691,39.551,34.180,32.227,78.613,0
1580328752.626,38.574,39.062,34.180,35.645,52.734,0
1580328752.630,39.062,40.527,31.738,32.715,77.637,0
1580328752.634,40.527,39.551,26.367,30.762,82.031,0
1580328752.638,44.922,38.574,25.391,37.109,41.504,0
1580328752.642,43.457,38.086,28.809,36.133,17.090,0
1580328752.646,32.715,34.180,34.180,29.297,31.250,0
1580328752.650,25.879,31.250,38.086,23.926,59.570,0
1580328752.653,30.762,30.762,38.086,25.879,47.363,0
1580328752.657,34.668,30.762,36.133,29.785,9.277,0
1580328752.661,35.156,33.203,34.180,27.344,35.156,0
1580328752.665,33.203,34.668,35.156,29.785,61.035,0
1580328752.669,32.715,33.691,35.645,33.691,21.973,0
1580328752.667,33.691,33.691,33.691,35.645,4.883,0
1580328752.671,31.738,33.691,33.203,37.109,43.457,0
1580328752.675,37.109,34.668,31.250,40.039,46.875,0
1580328752.679,34.668,33.691,29.785,39.062,55.176,0
1580328752.683,28.809,32.715,29.785,32.715,40.039,0
1580328752.687,30.762,34.668,30.762,34.180,-6.836,0
1580328752.691,28.809,34.180,32.227,37.598,7.812,0
1580328752.694,25.879,31.738,32.715,32.227,-7.812,0
1580328752.698,28.809,32.227,31.250,30.762,2.441,0
1580328752.702,34.668,33.691,31.250,34.668,2.441,0
1580328752.706,29.297,31.738,33.691,32.715,11.719,0
1580328752.710,27.344,32.715,35.156,33.691,24.902,0
1580328752.727,34.668,35.645,33.203,40.527,0.977,0
1580328752.731,38.086,33.691,32.227,40.527,14.160,0
1580328752.735,36.133,34.668,35.156,36.133,67.871,0
1580328752.739,35.645,36.621,32.715,32.715,108.887,0
1580328752.743,36.621,33.691,30.273,34.668,87.402,0
1580328752.747,34.180,30.762,33.691,34.180,86.426,0
1580328752.751,33.691,30.762,34.668,34.668,51.758,0
1580328752.754,34.668,34.180,33.691,35.156,16.602,0
1580328752.758,32.227,39.062,35.645,33.691,57.129,0
1580328752.762,29.297,39.551,36.133,36.621,36.621,0
1580328752.766,30.273,39.062,35.156,32.715,56.641,0
1580328752.770,31.250,36.621,32.715,31.250,46.387,0
1580328752.766,29.297,36.621,33.691,29.785,30.762,0
1580328752.770,27.344,35.645,35.645,27.344,88.379,0
1580328752.774,26.855,34.668,32.715,31.250,57.129,0
1580328752.778,26.367,35.645,31.738,31.738,7.812,0
1580328752.782,23.926,33.691,33.203,27.832,17.090,0
1580328752.786,24.414,31.738,32.227,30.762,46.387,0
1580328752.790,26.855,33.691,31.738,29.297,56.152,0
1580328752.793,26.855,33.691,32.227,25.879,6.836,0
1580328752.797,28.809,32.715,29.297,25.879,35.156,0
1580328752.801,30.273,35.645,26.855,25.879,47.852,0
1580328752.805,28.320,35.156,28.320,26.367,-30.273,0
1580328752.809,25.391,33.203,28.809,20.020,35.645,0
1580328752.827,25.879,34.180,26.367,18.555,92.285,0
1580328752.831,29.785,35.156,27.832,25.879,90.332,0
1580328752.835,30.273,35.156,33.203,29.297,67.871,0
1580328752.839,30.762,36.621,34.668,30.273,56.152,0
1580328752.843,29.785,36.133,33.691,27.832,25.391,0
1580328752.847,31.738,34.180,33.691,30.273,12.207,0
1580328752.851,36.133,35.156,32.227,32.715,10.254,0
1580328752.854,34.180,33.691,29.785,29.785,99.609,0
1580328752.858,32.227,32.715,25.879,29.297,101.074,0
1580328752.862,28.809,30.273,24.902,25.879,11.719,0
1580328752.866,25.391,29.785,29.785,22.461,27.832,0
1580328752.870,22.949,31.738,31.250,25.391,73.730,0
1580328752.846,21.484,32.227,31.250,25.879,94.727,0
1580328752.850,24.414,30.762,31.250,22.461,43.457,0
1580328752.854,25.879,30.762,29.785,23.926,15.137,0
1580328752.858,27.832,32.715,29.297,23.926,46.875,0
1580328752.862,34.668,32.227,27.832,23.438,28.320,0
1580328752.866,39.551,34.668,29.785,25.391,14.160,0
1580328752.870,42.480,35.645,31.250,23.926,36.621,0
1580328752.873,43.945,33.203,31.738,21.973,65.918,0
1580328752.877,47.363,34.668,33.691,23.926,76.172,0
1580328752.881,51.270,36.621,30.273,25.391,20.020,0
1580328752.885,46.387,36.133,30.273,25.879,-3.418,0
1580328752.889,41.016,38.086,34.668,28.320,13.672,0
1580328752.906,43.457,42.480,35.156,28.320,38.086,0
1580328752.910,42.480,43.945,34.180,22.949,90.332,0
1580328752.914,35.156,41.016,32.227,23.438,54.199,0
1580328752.918,33.203,40.527,31.250,27.344,6.836,0
1580328752.922,31.250,41.504,31.738,28.320,83.496,0
1580328752.926,29.297,43.457,33.203,30.273,131.348,0
1580328752.930,32.227,43.457,35.645,28.809,55.664,0
1580328752.933,26.367,41.504,36.133,27.344,15.625,0
1580328752.937,22.461,38.574,35.156,27.832,0.977,0
1580328752.941,22.949,35.156,32.227,26.367,-16.602,0
1580328752.945,27.832,36.133,34.180,28.320,49.805,0
1580328752.949,29.297,37.109,36.621,29.297,80.566,0
1580328752.946,26.855,35.645,33.203,29.785,58.105,0
1580328752.950,28.320,37.109,29.297,27.344,11.230,0
1580328752.954,27.344,38.574,31.738,26.855,-6.836,0
1580328752.958,21.973,35.156,34.180,26.367,58.105,0
1580328752.962,14.160,31.250,29.785,21.484,30.762,0
1580328752.966,9.277,31.738,27.832,17.090,9.277,0
1580328752.970,9.277,31.738,28.320,20.996,37.598,0
1580328752.973,11.230,29.297,29.297,21.973,35.156,0
1580328752.977,11.719,30.762,28.809,23.438,42.969,0
1580328752.981,14.160,34.180,27.344,20.020,39.062,0
1580328752.985,18.066,34.668,30.273,18.555,62.988,0
1580328752.989,19.531,31.738,32.227,26.855,53.223,0
1580328752.986,16.113,32.227,28.320,29.297,4.883,0
1580328752.990,17.090,34.668,30.273,29.785,-34.668,0
1580328752.994,17.578,35.156,29.297,27.832,-30.273,0
1580328752.998,15.625,37.598,25.879,28.320,44.434,0
1580328753.002,15.137,37.598,26.367,28.809,22.461,0
1580328753.006,14.648,36.133,26.367,26.855,-33.203,0
1580328753.010,11.230,35.645,26.855,21.484,-26.367,0
1580328753.013,8.789,36.133,26.855,15.137,44.434,0
1580328753.017,9.277,35.156,27.344,15.625,52.734,0
1580328753.021,10.254,35.156,27.832,16.113,72.754,0
1580328753.025,11.230,35.156,30.273,18.066,89.355,0
1580328753.029,11.719,36.621,31.738,20.996,14.160,0
1580328753.046,14.160,34.180,30.273,16.602,23.926,0
1580328753.050,9.766,33.691,29.297,12.695,12.207,0
1580328753.054,11.719,35.156,27.344,16.602,-10.742,0
1580328753.058,16.113,33.203,30.273,17.090,10.742,0
1580328753.062,17.090,33.691,32.715,18.066,-3.418,0
1580328753.066,20.996,35.156,31.738,21.484,-6.348,0
1580328753.070,22.949,35.645,30.273,20.020,14.648,0
1580328753.073,26.367,36.621,29.785,19.043,17.578,0
1580328753.077,25.391,35.645,31.738,20.508,29.785,0
1580328753.081,24.414,35.156,33.691,23.438,28.809,0
1580328753.085,27.832,36.133,33.691,21.973,49.316,0
1580328753.089,26.855,35.156,34.668,19.531,43.457,0
1580328753.086,23.926,34.180,34.180,21.484,19.043,0
1580328753.090,22.949,32.227,31.738,20.996,17.578,0
1580328753.094,21.973,30.273,30.273,20.996,79.590,0
1580328753.098,18.555,29.785,30.762,20.996,41.992,0
1580328753.102,20.508,30.273,31.250,20.508,-24.902,0
1580328753.106,24.414,32.227,31.738,21.973,68.359,0
1580328753.110,23.926,32.715,31.250,21.973,80.566,0
1580328753.113,24.414,32.227,27.344,19.531,37.109,0
1580328753.117,28.809,33.203,29.297,23.438,49.805,0
1580328753.121,29.785,34.668,30.762,26.855,40.527,0
1580328753.125,30.762,37.109,30.762,28.320,25.391,0
1580328753.129,29.785,35.645,29.785,28.809,4.395,0
1580328753.147,28.320,31.738,24.902,25.879,38.574,0
1580328753.151,29.297,33.203,25.391,24.902,54.199,0
1580328753.155,31.250,33.691,26.367,24.902,-24.414,0
1580328753.159,30.273,31.738,29.785,26.855,1.465,0
1580328753.163,26.855,31.250,30.762,26.367,89.844,0
1580328753.167,28.809,32.227,28.809,26.367,91.309,0
1580328753.171,28.809,33.203,30.762,27.832,92.285,0
1580328753.174,31.250,33.203,31.738,26.367,84.961,0
1580328753.178,29.297,33.203,30.762,24.902,50.781,0
1580328753.182,23.926,32.715,27.344,21.973,88.867,0
1580328753.186,26.367,33.691,24.902,20.996,72.266,0
1580328753.190,25.879,34.668,28.809,24.902,40.527,0
1580328753.186,29.297,36.621,26.367,27.344,40.039,0
1580328753.190,31.738,37.109,21.484,25.879,52.246,0
1580328753.194,31.250,33.203,30.273,26.367,55.176,0
1580328753.198,28.809,31.738,34.180,27.344,38.574,0
1580328753.202,24.414,29.785,32.715,24.414,27.832,0
1580328753.206,26.367,27.832,34.180,22.461,10.254,0
1580328753.210,31.738,29.785,31.738,26.367,25.391,0
1580328753.213,28.809,30.273,28.320,26.855,41.016,0
1580328753.217,22.461,27.832,30.762,21.973,-6.348,0
1580328753.221,21.973,29.297,36.621,21.484,49.805,0
1580328753.225,20.508,28.809,36.133,20.020,79.102,0
1580328753.229,18.066,27.344,32.715,15.625,-45.898,0
1580328753.226,18.555,25.879,32.715,16.602,-15.625,0
1580328753.230,20.508,28.320,33.203,18.066,3.906,0
1580328753.234,18.555,30.762,35.156,18.555,-27.344,0
1580328753.238,18.555,31.738,34.668,18.066,7.324,0
1580328753.242,19.043,32.227,30.273,19.043,48.828,0
1580328753.246,17.578,30.762,28.320,20.996,64.453,0
1580328753.250,17.578,30.273,26.855,21.973,43.457,0
1580328753.253,20.020,30.762,30.762,20.508,11.230,0
1580328753.257,20.996,29.297,31.250,16.113,36.133,0
1580328753.261,27.344,26.367,29.785,14.160,14.160,0
1580328753.265,29.785,25.879,32.715,17.090,-7.324,0
1580328753.269,29.785,25.391,32.227,20.508,22.461,0
1580328753.267,36.133,25.879,33.691,21.484,66.406,0
1580328753.271,40.039,26.367,36.133,24.902,79.102,0
1580328753.275,41.992,28.809,35.645,28.320,32.227,0
1580328753.279,45.898,31.738,34.668,28.809,29.297,0
1580328753.283,49.805,33.691,35.645,33.691,15.625,0
1580328753.287,47.363,35.156,38.086,33.203,25.391,0
1580328753.291,41.504,33.691,36.621,25.879,48.828,0
1580328753.294,40.039,33.691,29.785,17.578,17.090,0
1580328753.298,36.133,35.156,27.832,10.254,-4.883,0
1580328753.302,34.180,33.691,30.762,13.184,-5.859,0
1580328753.306,27.344,38.086,36.133,11.719,74.219,0
1580328753.310,20.996,40.527,41.504,5.371,83.984,0
1580328753.326,23.438,39.062,47.852,3.906,40.527,0
1580328753.330,18.555,42.969,50.293,0.000,56.152,0
1580328753.334,7.812,55.176,44.434,-11.230,42.969,0
1580328753.338,-5.859,61.035,42.969,-27.344,14.648,0
1580328753.342,-24.902,56.152,49.805,-40.527,15.625,0
1580328753.346,-44.922,56.641,54.688,-59.570,17.578,0
1580328753.350,-65.918,57.129,54.199,-81.543,35.645,0
1580328753.353,-84.961,58.594,49.805,-100.586,55.176,0
1580328753.357,-87.891,62.012,49.805,-109.375,58.105,0
1580328753.361,-96.191,63.965,53.223,-113.281,45.410,0
1580328753.365,-115.234,61.035,59.082,-129.395,28.320,0
1580328753.369,-126.465,53.711,61.035,-141.113,61.523,0
1580328753.387,-129.395,51.270,58.594,-142.578,50.293,0
1580328753.391,-124.023,56.641,60.059,-141.113,-3.418,0
1580328753.395,-119.629,66.406,56.152,-141.113,-4.395,0
1580328753.399,-118.164,68.359,46.875,-144.043,1.465,0
1580328753.403,-118.652,64.453,46.387,-145.508,11.230,0
1580328753.407,-121.582,63.965,48.828,-145.508,-22.461,0
1580328753.411,-123.047,63.965,51.758,-145.020,-17.578,0
1580328753.414,-120.605,62.012,55.664,-136.719,-41.504,0
1580328753.418,-109.375,56.152,54.199,-125.977,-38.574,0
1580328753.422,-94.238,54.199,49.316,-114.746,69.824,0
1580328753.426,-85.449,51.270,47.363,-102.051,77.148,0
1580328753.430,-77.148,44.922,50.293,-91.797,27.832,0
1580328753.426,-53.223,41.016,53.223,-64.941,-27.832,0
1580328753.430,-34.668,38.086,49.316,-47.363,10.254,0
1580328753.434,-29.785,29.297,44.922,-41.992,36.621,0
1580328753.438,-15.625,24.902,38.574,-20.996,36.621,0
1580328753.442,-4.883,24.902,33.691,-5.371,30.762,0
1580328753.446,11.230,24.414,35.156,6.836,58.105,0
1580328753.450,35.645,25.391,33.691,23.438,63.965,0
1580328753.453,43.457,22.461,28.320,32.227,19.531,0
1580328753.457,47.852,19.531,25.391,41.504,-15.625,0
1580328753.461,62.012,20.996,21.973,50.293,-15.625,0
1580328753.465,72.266,19.531,16.602,53.223,32.715,0
1580328753.469,76.172,16.113,13.672,61.523,16.113,0
1580328753.466,84.961,17.578,11.719,67.871,22.461,0
1580328753.470,95.703,20.020,10.254,74.219,65.918,0
1580328753.474,101.562,18.555,13.672,83.008,28.320,0
1580328753.478,106.934,18.555,13.184,90.332,-30.762,0
1580328753.482,110.840,19.043,12.207,80.566,10.742,0
1580328753.486,107.910,17.090,13.672,80.566,6.836,0
1580328753.490,104.492,18.066,10.254,97.168,-2.441,0
1580328753.493,100.098,19.043,7.324,93.262,-20.508,0
1580328753.497,102.051,21.973,8.301,93.750,-5.371,0
1580328753.501,105.957,20.996,9.766,95.703,34.180,0
1580328753.505,105.469,20.020,9.766,90.332,36.621,0
1580328753.509,107.422,21.973,13.672,89.355,33.691,0
1580328753.506,106.445,20.020,13.672,94.238,-3.906,0
1580328753.510,110.352,23.438,11.230,96.191,46.387,0
1580328753.514,112.793,26.855,16.602,96.680,81.055,0
1580328753.518,113.281,28.320,21.973,96.191,11.719,0
1580328753.522,114.258,30.273,20.020,98.633,-11.230,0
1580328753.526,109.863,28.809,16.113,98.633,1.465,0
1580328753.530,108.398,27.832,18.066,96.680,62.988,0
1580328753.533,107.910,27.832,22.461,98.145,50.293,0
1580328753.537,102.539,27.344,22.461,90.820,23.926,0
1580328753.541,98.145,25.391,20.508,83.496,69.824,0
1580328753.545,98.145,26.367,18.555,84.473,62.012,0
1580328753.549,92.773,25.391,7.812,81.055,34.668,0
1580328753.566,84.473,23.926,1.953,81.055,87.891,0
1580328753.570,86.426,26.367,18.066,84.961,72.754,0
1580328753.574,80.078,26.367,32.227,78.613,11.719,0
1580328753.578,70.801,24.414,29.297,74.219,9.277,0
1580328753.582,71.289,24.414,25.391,76.660,2.930,0
1580328753.586,71.289,25.391,26.855,78.613,24.902,0
1580328753.590,71.289,25.879,27.832,78.613,30.273,0
1580328753.593,71.777,27.344,27.832,73.242,21.973,0
1580328753.597,72.754,32.715,28.809,72.266,-17.090,0
1580328753.601,73.242,32.715,28.809,74.219,27.832,0
1580328753.605,68.848,27.344,24.902,71.777,75.684,0
1580328753.609,70.312,26.855,20.996,72.266,11.719,0
1580328753.607,72.266,30.273,22.461,68.359,19.043,0
1580328753.611,69.824,30.273,25.391,62.988,40.039,0
1580328753.615,69.824,28.809,25.879,65.430,-0.977,0
1580328753.619,68.359,27.832,26.855,64.941,26.855,0
1580328753.623,68.359,29.297,30.762,65.430,89.844,0
1580328753.627,69.336,30.273,29.297,62.500,49.805,0
1580328753.631,68.848,30.762,28.809,60.059,35.645,0
1580328753.634,66.406,34.180,31.738,60.059,53.711,0
1580328753.638,65.918,32.227,30.273,55.176,35.156,0
1580328753.642,61.523,27.344,26.855,55.664,28.320,0
1580328753.646,55.176,29.785,25.391,47.852,4.395,0
1580328753.650,52.734,31.738,24.902,40.039,1.953,0
1580328753.647,53.223,32.715,24.902,43.945,19.531,0
1580328753.651,48.828,34.180,25.879,43.457,7.812,0
1580328753.655,42.969,31.738,26.855,44.434,21.973,0
1580328753.659,43.945,30.762,27.832,45.898,-20.508,0
1580328753.663,44.922,33.691,25.879,46.875,6.836,0
1580328753.667,45.410,33.691,27.832,49.316,64.941,0
1580328753.671,42.969,31.250,32.227,48.340,-18.555,0
1580328753.674,36.133,26.855,32.227,47.363,7.812,0
1580328753.678,35.156,27.832,33.691,43.945,23.438,0
1580328753.682,36.133,33.203,33.691,38.574,7.812,0
1580328753.686,33.691,32.715,31.738,35.156,19.043,0
1580328753.690,33.691,31.250,32.715,35.156,-19.531,0
1580328753.707,32.715,33.691,33.203,38.574,5.859,0
1580328753.711,32.715,34.668,35.156,37.109,11.719,0
1580328753.715,30.273,30.762,34.180,37.109,6.836,0
1580328753.719,27.832,26.855,29.785,40.039,36.621,0
1580328753.723,35.156,27.832,28.809,43.457,36.133,0
1580328753.727,38.574,33.691,28.809,43.945,15.137,0
1580328753.731,27.344,38.574,29.785,29.785,36.133,0
1580328753.734,20.508,38.086,30.273,20.508,84.473,0
1580328753.738,16.602,31.738,26.855,22.949,75.684,0
1580328753.742,17.090,29.297,26.367,25.879,15.625,0
1580328753.746,21.973,32.227,28.320,25.879,-29.297,0
1580328753.750,22.461,31.738,26.367,22.949,46.875,0
1580328753.747,25.879,33.203,23.926,28.320,61.035,0
1580328753.751,27.832,31.738,27.344,29.785,-14.160,0
1580328753.755,32.715,29.785,25.879,26.367,17.090,0
1580328753.759,38.086,31.738,23.438,24.902,45.898,0
1580328753.763,37.109,32.227,26.855,23.926,32.227,0
1580328753.767,42.480,30.273,29.297,24.902,39.062,0
1580328753.771,49.805,28.320,26.367,26.367,44.434,0
1580328753.774,51.758,28.809,24.902,25.879,71.777,0
1580328753.778,49.316,29.785,25.391,28.320,55.664,0
1580328753.782,44.922,30.273,26.367,33.691,67.871,0
1580328753.786,43.457,31.250,28.320,27.832,51.270,0
1580328753.790,45.410,33.203,30.273,27.344,23.926,0
1580328753.788,43.945,32.715,29.785,28.809,62.988,0
1580328753.792,38.086,27.832,29.785,23.926,78.613,0
1580328753.796,39.551,29.785,27.832,26.367,62.012,0
1580328753.800,38.574,33.203,25.879,24.414,16.113,0
1580328753.804,30.273,28.320,26.367,22.949,40.527,0
1580328753.808,27.832,28.809,27.344,25.879,48.340,0
1580328753.812,33.203,34.668,29.785,30.273,75.684,0
1580328753.815,39.062,34.180,31.738,33.691,138.672,0
1580328753.819,41.504,32.227,28.320,27.832,59.082,0
1580328753.823,41.504,34.668,24.902,23.926,0.488,0
1580328753.827,41.016,35.645,24.902,28.809,18.066,0
1580328753.831,39.551,36.621,28.320,31.738,-6.836,0
1580328753.887,39.062,40.039,27.344,31.738,20.020,0
1580328753.891,40.039,41.504,24.414,33.203,77.637,0
1580328753.895,40.039,39.062,26.367,33.691,72.754,0
1580328753.899,41.504,37.109,23.926,32.227,62.012,0
1580328753.903,39.062,36.133,20.996,28.809,16.113,0
1580328753.907,35.645,35.156,22.949,29.297,-5.859,0
1580328753.911,34.668,36.133,25.879,27.832,19.531,0
1580328753.914,33.691,38.086,30.762,24.414,0.977,0
1580328753.918,34.668,37.598,30.273,27.832,-30.273,0
1580328753.922,36.621,38.086,29.297,32.715,44.922,0
1580328753.926,36.133,35.645,31.738,33.691,112.793,0
1580328753.930,35.156,36.621,33.203,34.180,64.941,0
1580328753.890,33.691,39.062,31.250,32.227,34.668,0
1580328753.894,28.320,36.621,30.762,29.297,60.059,0
1580328753.898,23.438,34.668,30.762,29.297,53.711,0
1580328753.902,22.461,33.691,30.762,28.809,82.031,0
1580328753.906,26.367,34.180,33.203,28.809,69.824,0
1580328753.910,27.344,36.621,30.273,31.250,12.695,0
1580328753.914,25.391,35.645,29.785,32.715,19.043,0
1580328753.917,25.879,34.180,34.180,30.273,41.016,0
1580328753.921,25.391,32.715,32.227,27.832,42.969,0
1580328753.925,28.320,32.227,32.715,29.297,94.238,0
1580328753.929,27.344,32.715,33.691,30.762,76.172,0
1580328753.933,25.879,30.273,32.715,28.809,-17.578,0
1580328753.927,24.902,32.227,31.738,27.344,-41.992,0
1580328753.931,20.020,32.227,29.297,26.855,-1.465,0
1580328753.935,24.414,32.227,27.344,29.297,8.789,0
1580328753.939,30.273,33.691,26.367,32.227,-42.480,0
1580328753.943,32.715,35.645,27.344,30.762,14.648,0
1580328753.947,38.086,39.062,26.855,33.203,93.262,0
1580328753.951,39.062,36.133,25.879,31.738,64.941,0
1580328753.954,41.504,33.691,27.832,30.273,28.809,0
1580328753.958,44.434,35.156,30.762,26.367,21.484,0
1580328753.962,43.457,34.668,33.203,21.973,11.230,0
1580328753.966,48.340,35.156,31.250,32.227,8.789,0
1580328753.970,48.828,38.086,29.785,35.645,74.219,0
1580328753.987,46.387,38.086,31.738,30.273,118.652,0
1580328753.991,47.852,36.621,31.738,29.297,38.574,0
1580328753.995,43.457,35.156,28.320,26.855,31.738,0
1580328753.999,36.621,36.133,27.832,25.879,44.922,0
1580328754.003,34.180,36.133,31.738,25.391,21.484,0
1580328754.007,33.203,35.645,32.715,25.391,37.598,0
1580328754.011,28.809,35.645,30.273,20.996,32.715,0
1580328754.014,30.273,35.645,24.414,16.602,59.082,0
1580328754.018,31.250,35.645,20.996,17.578,76.660,0
1580328754.022,29.785,34.180,24.414,21.484,16.113,0
1580328754.026,29.297,34.668,25.879,22.949,3.906,0
1580328754.030,29.785,35.645,28.809,18.555,-7.324,0
1580328754.027,35.645,38.574,31.738,22.461,10.254,0
1580328754.031,39.062,38.574,29.297,24.414,64.941,0
1580328754.035,36.621,36.133,28.320,23.926,94.727,0
1580328754.039,32.227,34.668,28.320,26.855,83.008,0
1580328754.043,32.715,36.133,26.855,25.879,50.781,0
1580328754.047,36.621,36.621,25.879,31.738,29.785,0
1580328754.051,47.363,37.598,27.344,39.551,27.344,0
1580328754.054,47.363,35.645,32.715,39.062,27.832,0
1580328754.058,27.832,29.785,36.133,32.227,29.297,0
1580328754.062,18.555,26.367,39.062,26.855,8.789,0
1580328754.066,21.973,25.391,41.016,26.855,-9.277,0
1580328754.070,26.855,27.344,40.039,34.180,10.254,0
1580328754.067,25.879,28.809,42.480,36.621,-13.672,0
1580328754.071,20.996,25.879,44.922,31.738,0.488,0
1580328754.075,18.555,25.391,45.410,29.297,71.289,0
1580328754.079,20.508,29.297,44.922,32.227,67.383,0
1580328754.083,25.879,31.738,41.504,36.621,11.719,0
1580328754.087,24.414,31.738,40.527,35.156,14.648,0
1580328754.091,18.555,29.297,39.062,30.762,60.547,0
1580328754.094,19.531,27.832,34.180,31.250,38.574,0
1580328754.098,24.414,32.227,32.715,27.344,59.570,0
1580328754.102,25.879,33.691,30.762,24.414,76.660,0
1580328754.106,24.902,35.156,32.715,28.320,23.926,0
1580328754.110,23.438,36.133,32.227,23.926,31.250,0
1580328754.129,18.555,32.227,33.203,21.484,67.871,0
1580328754.133,16.602,32.227,33.203,22.949,51.758,0
1580328754.137,20.996,32.715,31.250,24.414,44.922,0
1580328754.141,24.414,32.227,31.250,25.391,31.250,0
1580328754.145,25.391,31.250,33.203,21.973,-2.441,0
1580328754.149,28.809,29.297,34.180,25.879,10.254,0
1580328754.153,31.738,30.762,32.227,24.902,19.043,0
1580328754.156,34.668,32.715,35.156,21.973,-2.441,0
1580328754.160,38.086,31.738,37.598,26.367,29.785,0
1580328754.164,41.504,31.738,32.715,23.926,83.008,0
1580328754.168,38.086,31.738,30.273,21.973,50.781,0
1580328754.172,36.133,32.227,31.738,25.879,3.906,0
1580328754.167,38.086,31.250,29.785,29.785,20.996,0
1580328754.171,34.668,31.250,28.320,28.320,35.645,0
1580328754.175,30.273,32.715,25.879,23.438,25.879,0
1580328754.179,24.414,30.273,27.832,22.461,6.348,0
1580328754.183,24.414,31.250,30.273,21.484,12.207,0
1580328754.187,18.555,29.785,30.273,20.020,-11.719,0
1580328754.191,12.207,27.344,30.762,19.043,30.762,0
1580328754.194,13.672,29.297,28.809,17.090,65.918,0
1580328754.198,13.672,26.367,27.832,18.555,35.156,0
1580328754.202,16.602,27.832,28.320,17.090,20.508,0
1580328754.206,17.578,30.273,29.785,15.137,1.953,0
1580328754.210,14.648,28.320,29.785,19.043,1.465,0
1580328754.208,18.066,27.832,27.832,21.484,0.977,0
1580328754.212,25.879,27.344,28.809,20.996,6.836,0
1580328754.216,28.320,29.297,27.344,25.879,52.246,0
1580328754.220,28.320,29.297,20.508,25.391,78.125,0
1580328754.224,30.273,28.320,20.508,23.926,52.246,0
1580328754.228,31.250,28.809,24.902,25.879,-31.738,0
1580328754.232,31.250,28.320,28.809,25.879,-10.254,0
1580328754.235,29.297,27.832,30.273,26.855,51.758,0
1580328754.239,29.297,26.367,31.250,21.973,32.715,0
1580328754.243,35.645,26.855,31.250,23.438,64.941,0
1580328754.247,38.574,27.344,27.832,25.879,91.309,0
1580328754.251,33.691,26.367,26.855,21.484,38.086,0
1580328754.266,32.715,28.809,30.273,21.973,-51.270,0
1580328754.270,33.691,28.809,31.738,24.902,-39.551,0
1580328754.274,31.250,27.344,31.738,26.367,46.387,0
1580328754.278,31.250,30.273,32.227,28.809,24.902,0
1580328754.282,32.715,30.762,31.738,27.832,55.664,0
1580328754.286,32.227,27.832,32.715,28.320,96.191,0
1580328754.290,35.645,29.297,29.297,23.438,100.586,0
1580328754.293,35.156,29.785,23.926,19.531,98.145,0
1580328754.297,34.668,30.762,26.367,23.926,31.738,0
1580328754.301,35.156,30.762,30.762,24.902,-44.922,0
1580328754.305,37.598,31.738,28.320,25.879,-32.715,0
1580328754.309,38.086,32.227,26.367,22.949,83.008,0
1580328754.306,33.203,30.273,25.391,19.043,91.309,0
1580328754.310,32.227,30.273,27.344,20.996,12.207,0
1580328754.314,33.691,29.297,32.227,26.855,3.906,0
1580328754.318,46.387,33.691,32.715,36.133,45.898,0
1580328754.322,37.598,40.039,30.273,25.391,43.945,0
1580328754.326,20.508,42.480,24.414,9.277,43.457,0
1580328754.330,27.344,42.969,17.578,12.695,43.945,0
1580328754.333,25.391,42.969,16.602,6.836,8.789,0
1580328754.337,18.066,43.945,15.137,0.000,39.062,0
1580328754.341,12.207,40.039,13.184,-2.441,61.523,0
1580328754.345,9.766,42.480,13.672,-8.301,40.039,0
1580328754.349,17.090,46.387,10.254,-2.441,13.672,0
1580328754.346,20.996,45.410,11.230,4.883,9.766,0
1580328754.350,21.973,47.852,15.625,12.207,-14.648,0
1580328754.354,23.926,44.922,17.578,15.625,-6.836,0
1580328754.358,24.902,40.527,18.555,15.625,75.684,0
1580328754.362,25.879,40.527,16.602,13.672,50.293,0
1580328754.366,26.855,41.992,15.625,14.648,11.230,0
1580328754.370,28.809,42.480,16.113,18.555,43.457,0
1580328754.373,30.762,42.969,18.066,19.531,75.195,0
1580328754.377,28.320,42.480,18.555,17.090,46.875,0
1580328754.381,27.832,42.480,20.020,18.066,22.461,0
1580328754.385,28.809,41.504,22.949,19.043,19.531,0
1580328754.389,30.273,40.527,20.020,20.508,37.109,0
1580328754.406,32.715,41.992,22.949,21.973,84.961,0
1580328754.410,31.738,40.039,27.344,20.020,77.148,0
1580328754.414,32.227,38.574,27.344,23.926,23.926,0
1580328754.418,33.691,39.062,26.855,26.855,-20.508,0
1580328754.422,33.691,39.062,26.367,21.973,1.465,0
1580328754.426,33.203,40.527,25.391,23.926,58.594,0
1580328754.430,33.691,38.086,26.367,22.949,42.480,0
1580328754.433,30.273,37.109,27.832,24.414,0.000,0
1580328754.437,29.297,38.574,27.344,28.320,4.883,0
1580328754.441,30.273,37.109,26.855,27.832,-7.324,0
1580328754.445,34.180,35.645,30.273,28.809,22.461,0
1580328754.449,34.180,35.156,32.227,26.855,52.246,0
1580328754.467,30.762,34.180,34.668,26.855,5.859,0
1580328754.471,29.785,34.668,31.250,26.367,-20.996,0
1580328754.475,30.273,34.180,24.414,22.461,0.977,0
1580328754.479,35.645,35.156,24.902,24.902,45.410,0
1580328754.483,31.738,36.621,27.832,26.367,30.273,0
1580328754.487,27.832,36.133,28.809,24.902,-22.949,0
1580328754.491,30.762,37.598,26.855,26.367,38.574,0
1580328754.494,29.785,36.621,24.414,25.879,99.609,0
1580328754.498,27.344,36.133,26.367,27.344,66.895,0
1580328754.502,27.344,36.621,30.273,29.785,44.922,0
1580328754.506,28.320,37.109,30.762,27.344,16.602,0
1580328754.510,28.809,36.621,32.715,24.414,5.859,0
1580328754.486,25.391,34.180,31.738,26.367,18.555,0
1580328754.490,26.855,35.156,27.344,27.832,37.598,0
1580328754.494,31.250,37.598,28.320,26.855,31.738,0
1580328754.498,28.320,35.645,28.320,22.461,61.035,0
1580328754.502,28.320,34.180,26.855,22.461,89.355,0
1580328754.506,34.180,34.668,29.785,28.320,80.078,0
1580328754.510,35.156,35.645,35.156,32.227,86.914,0
1580328754.513,34.668,36.621,35.645,29.785,-2.441,0
1580328754.517,32.227,36.133,31.738,26.855,-14.160,0
1580328754.521,28.809,36.133,31.250,27.344,87.402,0
1580328754.525,28.320,35.645,30.273,26.367,72.266,0
1580328754.529,29.785,37.598,26.855,24.902,62.500,0
1580328754.546,29.785,38.574,27.344,21.484,82.520,0
1580328754.550,30.762,36.621,30.273,16.113,38.574,0
1580328754.554,32.227,36.621,28.320,20.020,-29.297,0
1580328754.558,27.344,35.645,26.367,21.484,23.926,0
1580328754.562,23.438,33.691,30.273,22.461,89.355,0
1580328754.566,23.926,31.738,28.809,21.484,69.824,0
1580328754.570,26.367,33.691,24.902,15.625,54.199,0
1580328754.573,29.785,38.086,28.320,19.531,35.156,3
1580328754.577,31.250,34.180,35.156,24.414,10.742,0
1580328754.581,29.297,29.297,36.621,27.832,7.324,0
1580328754.585,27.832,33.691,35.156,26.855,-13.184,0
1580328754.589,27.344,35.645,34.668,23.926,-11.719,0
1580328754.586,28.320,34.668,34.668,27.832,4.883,0
1580328754.590,31.250,34.668,35.645,31.250,46.387,0
1580328754.594,32.227,35.156,37.109,32.227,60.059,0
1580328754.598,31.250,33.203,34.180,32.715,20.020,0
1580328754.602,31.250,32.227,33.203,33.691,30.762,0
1580328754.606,32.715,33.203,33.691,36.133,-4.395,0
1580328754.610,30.273,32.227,30.762,33.691,-0.488,0
1580328754.613,24.902,30.762,26.367,27.344,14.160,0
1580328754.617,23.926,32.227,26.855,27.832,13.672,0
1580328754.621,25.879,32.227,31.738,25.391,0.000,0
1580328754.625,27.344,32.227,30.273,24.902,-16.113,0
1580328754.629,25.391,31.250,29.297,25.879,10.742,0
1580328754.666,25.391,31.250,32.715,25.391,20.996,0
1580328754.670,25.879,31.738,34.180,28.320,59.082,0
1580328754.674,24.414,30.273,35.156,27.832,67.383,0
1580328754.678,24.414,31.738,33.203,28.809,51.270,0
1580328754.682,25.879,33.203,34.180,29.785,35.645,0
1580328754.686,25.879,31.738,34.180,27.344,15.137,0
1580328754.690,23.926,31.250,29.785,24.902,11.719,0
1580328754.693,20.996,32.227,27.344,20.020,-0.488,0
1580328754.697,23.926,35.156,27.832,17.090,18.555,0
1580328754.701,26.855,34.180,29.297,17.090,71.777,0
1580328754.705,29.297,33.691,29.297,19.043,51.270,0
1580328754.709,33.203,32.227,31.738,20.020,-23.926,0
1580328754.686,36.621,31.250,32.715,19.043,2.441,0
1580328754.690,38.086,33.691,28.320,14.648,22.461,0
1580328754.694,39.551,34.180,30.273,14.160,25.879,0
1580328754.698,40.039,36.133,34.180,22.949,14.648,0
1580328754.702,37.598,36.621,33.691,23.438,37.598,0
1580328754.706,35.156,35.156,34.180,20.020,62.988,0
1580328754.710,38.086,34.668,31.250,28.809,33.691,0
1580328754.713,42.969,38.086,28.320,32.715,45.898,0
1580328754.717,35.156,45.410,24.414,22.461,21.973,0
1580328754.721,22.949,47.852,21.973,8.789,-15.625,0
1580328754.725,19.043,48.340,22.461,4.883,-16.602,0
1580328754.729,23.438,49.316,19.043,11.719,19.043,0
1580328754.726,25.391,47.852,18.555,12.207,33.691,0
1580328754.730,21.973,47.363,17.578,3.906,6.348,0
1580328754.734,22.949,47.852,14.160,1.953,37.109,0
1580328754.738,21.484,44.922,14.648,4.395,27.832,0
1580328754.742,21.484,41.504,12.695,5.371,-13.672,0
1580328754.746,24.414,41.504,10.742,1.953,26.367,0
1580328754.750,26.367,41.504,14.648,6.836,55.176,0
1580328754.753,28.809,43.457,16.602,14.160,24.414,0
1580328754.757,34.668,44.434,17.090,18.066,36.133,0
1580328754.761,40.527,45.898,14.160,14.160,11.719,0
1580328754.765,37.598,43.457,15.625,3.906,17.578,0
1580328754.769,35.645,41.992,20.508,20.020,70.312,0
1580328754.766,35.645,43.457,20.508,28.320,10.254,0
1580328754.770,35.156,42.480,21.973,24.414,28.320,0
1580328754.774,34.180,41.016,27.344,26.367,45.898,0
1580328754.778,34.668,39.062,23.438,24.902,42.480,0
1580328754.782,36.621,34.668,18.555,24.902,85.449,0
1580328754.786,39.062,35.645,23.438,27.344,59.570,0
1580328754.790,38.086,38.086,23.926,25.879,2.930,0
1580328754.793,33.691,37.109,25.879,17.578,66.895,0
1580328754.797,34.668,38.086,27.344,14.648,63.965,0
1580328754.801,36.133,40.527,26.367,20.508,52.246,0
1580328754.805,35.645,42.480,27.344,20.996,68.359,0
1580328754.809,36.621,44.922,28.809,22.461,38.574,0
1580328754.826,34.180,41.992,26.855,21.484,-7.324,0
1580328754.830,30.273,39.551,24.414,18.555,-31.250,0
1580328754.834,28.809,37.598,24.902,18.066,39.062,0
1580328754.838,29.785,35.156,25.391,18.555,12.695,0
1580328754.842,26.855,33.691,29.785,17.090,8.301,0
1580328754.846,23.438,34.180,32.715,16.113,-2.930,0
1580328754.850,26.367,35.645,30.762,21.484,22.461,0
1580328754.853,27.344,35.156,25.391,20.996,67.871,0
1580328754.857,24.902,35.156,24.414,18.066,20.508,0
1580328754.861,24.414,33.691,29.297,19.531,42.480,0
1580328754.865,21.973,33.203,30.273,15.137,75.195,0
1580328754.869,23.926,35.645,31.250,18.555,38.574,0
1580328754.866,27.832,36.133,30.273,26.855,13.672,0
1580328754.870,23.926,34.668,29.785,30.273,31.738,0
1580328754.874,22.461,35.156,32.715,29.785,16.602,0
1580328754.878,22.461,37.598,31.738,27.344,60.547,0
1580328754.882,19.043,38.086,26.855,22.461,75.684,0
1580328754.886,17.090,36.133,23.438,18.066,49.805,0
1580328754.890,21.484,35.156,23.438,19.043,44.922,0
1580328754.893,21.484,34.180,24.902,19.531,19.531,0
1580328754.897,20.996,34.668,26.855,19.531,-6.348,0
1580328754.901,24.414,36.621,29.785,19.043,20.996,0
1580328754.905,23.926,35.156,30.273,22.461,20.996,0
1580328754.909,29.297,34.180,28.320,24.902,4.395,0
1580328754.914,31.738,35.156,29.297,24.902,11.230,0
1580328754.918,30.273,35.645,31.250,24.902,-3.418,0
1580328754.922,33.203,35.156,31.738,28.809,25.391,0
1580328754.926,34.668,33.691,28.809,25.879,77.148,0
1580328754.930,33.203,34.668,26.367,23.438,31.250,0
1580328754.934,33.203,33.203,29.785,29.785,35.645,0
1580328754.938,31.738,33.203,27.832,29.297,49.805,0
1580328754.941,35.156,35.156,26.855,28.320,33.203,0
1580328754.945,37.109,33.203,27.344,28.809,81.055,0
1580328754.949,35.645,35.645,31.250,27.832,83.496,0
1580328754.953,31.250,35.156,36.133,29.785,20.020,0
1580328754.957,24.902,31.738,33.203,32.715,-13.672,0
1580328754.986,22.949,33.691,35.156,33.691,38.574,0
1580328754.990,27.344,35.645,36.621,35.645,87.402,0
1580328754.994,28.320,33.203,35.156,34.668,47.852,0
1580328754.998,27.832,31.738,35.156,30.273,-10.254,0
1580328755.002,30.273,32.227,36.621,30.762,-19.043,0
1580328755.006,27.344,31.738,35.156,29.297,15.625,0
1580328755.010,27.832,32.227,35.645,27.344,15.137,0
1580328755.013,32.227,32.227,34.668,26.855,-20.508,0
1580328755.017,37.109,32.715,28.809,28.809,-0.488,0
1580328755.021,42.969,31.250,30.273,33.691,43.457,0
1580328755.025,25.391,26.367,37.598,23.926,60.547,0
1580328755.029,14.160,25.391,41.016,19.043,6.836,0
1580328755.047,22.949,25.879,41.016,28.809,-25.391,0
1580328755.051,20.996,24.902,41.992,28.809,21.484,0
1580328755.055,14.160,21.484,43.457,27.344,30.273,0
1580328755.059,10.742,24.414,45.898,20.020,44.922,0
1580328755.063,5.859,24.902,51.270,15.625,57.617,0
1580328755.067,7.324,22.461,47.852,21.973,49.805,0
1580328755.071,11.230,26.855,42.480,23.926,54.199,0
1580328755.074,9.766,26.367,43.457,24.414,45.410,0
1580328755.078,10.742,25.879,41.992,24.902,35.156,0
1580328755.082,15.625,27.344,39.551,26.367,44.922,0
1580328755.086,15.137,27.832,41.016,26.855,69.824,0
1580328755.090,15.625,27.832,41.992,28.320,59.082,0
1580328755.051,19.531,26.367,40.527,30.762,25.879,0
1580328755.055,26.367,26.855,39.062,35.645,42.480,0
1580328755.059,31.738,29.785,40.527,38.574,91.309,0
1580328755.063,33.203,33.203,40.527,34.668,65.430,0
1580328755.067,34.180,32.715,37.598,32.227,23.926,0
1580328755.071,32.227,33.203,39.062,33.203,77.148,0
1580328755.075,29.297,32.715,39.551,31.738,65.918,0
1580328755.078,28.809,29.297,37.598,27.832,14.160,0
1580328755.082,26.367,28.809,34.180,25.879,26.367,0
1580328755.086,23.438,29.297,31.250,25.879,77.148,0
1580328755.090,20.996,28.809,30.762,28.809,71.777,0
1580328755.094,17.090,28.320,33.203,29.297,21.973,0
1580328755.106,19.531,29.785,33.691,28.809,-8.301,0
1580328755.110,23.438,28.320,33.203,31.250,17.578,0
1580328755.114,26.367,26.367,33.691,33.691,23.438,0
1580328755.118,27.832,26.855,34.180,33.203,-0.488,0
1580328755.122,28.809,27.344,33.691,34.180,66.406,0
1580328755.126,25.391,29.785,33.203,31.738,52.246,0
1580328755.130,28.320,31.250,29.785,23.438,32.227,0
1580328755.133,37.109,31.250,29.297,30.762,60.059,0
1580328755.137,41.992,31.738,32.227,36.133,36.133,0
1580328755.141,45.898,31.250,31.250,36.133,27.344,0
1580328755.145,49.316,33.691,29.297,39.551,24.414,0
1580328755.149,52.246,35.645,29.785,36.621,57.617,0
1580328755.146,51.270,33.203,28.320,33.203,54.199,0
1580328755.150,50.293,33.203,23.438,32.715,-18.066,0
1580328755.154,50.293,36.133,25.879,35.645,-1.953,0
1580328755.158,46.387,35.645,28.809,35.645,23.438,0
1580328755.162,46.387,35.156,28.320,34.180,29.785,0
1580328755.166,53.711,36.133,29.297,36.133,2.930,0
1580328755.170,56.641,37.598,31.250,33.203,1.953,0
1580328755.173,53.711,36.621,33.203,31.738,7.324,0
1580328755.177,56.641,37.109,34.668,30.273,0.977,0
1580328755.181,56.152,37.109,33.203,28.809,-16.602,0
1580328755.185,50.781,37.109,28.320,31.250,18.066,0
1580328755.189,48.340,37.109,28.320,28.809,49.805,0
1580328755.206,48.340,35.156,25.879,28.809,83.496,0
1580328755.210,46.875,35.645,24.902,24.414,96.191,0
1580328755.214,43.945,38.574,29.785,22.949,42.969,0
1580328755.218,45.898,37.109,31.250,30.762,5.371,0
1580328755.222,46.387,36.621,32.715,34.668,14.648,0
1580328755.226,45.898,37.109,33.203,34.668,53.223,0
1580328755.230,47.852,35.645,31.738,33.203,50.293,0
1580328755.233,45.898,36.621,29.785,27.832,43.945,0
1580328755.237,44.434,35.156,25.391,24.902,47.852,0
1580328755.241,41.504,35.645,25.391,28.320,29.297,0
1580328755.245,38.574,35.645,28.320,28.320,8.789,0
1580328755.249,38.574,35.156,30.762,29.297,43.945,0
1580328755.247,37.598,38.574,27.832,30.273,112.305,0
1580328755.251,35.645,38.086,25.879,28.809,68.359,0
1580328755.255,35.156,35.645,27.832,28.809,32.227,0
1580328755.259,38.086,36.133,25.391,31.738,43.945,0
1580328755.263,38.086,38.574,23.438,33.691,14.648,0
1580328755.267,32.227,37.109,26.855,29.297,41.992,0
1580328755.271,32.715,35.645,28.320,26.855,54.199,0
1580328755.274,33.203,34.180,27.344,26.367,58.105,0
1580328755.278,32.715,33.691,27.344,21.973,55.176,0
1580328755.282,35.156,33.691,30.273,21.484,9.766,0
1580328755.286,29.297,32.227,32.227,21.484,-7.812,0
1580328755.290,33.203,33.203,30.273,22.461,25.391,0
1580328755.286,35.645,34.668,29.785,24.902,63.965,0
1580328755.290,29.297,33.691,29.297,24.414,15.625,0
1580328755.294,33.203,33.691,29.785,26.367,-21.973,0
1580328755.298,31.738,33.691,33.203,24.902,14.648,0
1580328755.302,28.809,33.203,31.250,21.484,19.531,0
1580328755.306,34.180,34.668,27.832,26.367,-26.367,0
1580328755.310,27.344,36.133,28.320,28.320,-4.395,0
1580328755.313,20.996,34.180,31.250,27.832,87.891,0
1580328755.317,29.297,31.250,35.156,33.203,41.504,0
1580328755.321,36.621,30.273,36.133,37.109,-49.316,0
1580328755.325,31.738,34.668,30.762,21.973,-23.926,0
1580328755.329,23.926,37.109,24.414,8.789,67.871,0
1580328755.366,23.438,35.645,24.902,13.184,90.332,0
1580328755.370,26.367,36.621,26.367,12.207,34.668,0
1580328755.374,25.879,36.133,31.250,8.789,48.340,0
1580328755.378,23.438,31.738,28.320,5.371,76.172,0
1580328755.382,24.902,30.273,20.508,9.277,67.383,0
1580328755.386,26.367,33.691,23.926,20.508,19.531,0
1580328755.390,27.832,33.691,24.902,14.648,40.527,0
1580328755.393,28.320,31.738,24.414,10.254,69.824,0
1580328755.397,29.785,33.203,27.344,15.625,40.527,0
1580328755.401,31.250,36.133,29.297,18.066,26.367,0
1580328755.405,31.250,37.598,29.297,21.484,17.578,0
1580328755.409,29.297,37.109,28.809,16.602,2.930,0
1580328755.386,24.414,32.227,24.414,11.719,-3.418,0
1580328755.390,24.902,30.273,21.484,12.695,-4.883,0
1580328755.394,28.320,33.203,23.926,13.672,-26.367,0
1580328755.398,28.320,32.227,25.879,14.160,-12.695,0
1580328755.402,26.855,33.203,22.949,11.230,38.086,0
1580328755.406,30.762,34.668,24.414,14.648,76.172,0
1580328755.410,36.621,34.180,27.832,16.602,103.027,0
1580328755.413,36.133,37.598,25.879,14.160,73.242,0
1580328755.417,36.133,36.133,25.391,17.578,2.930,0
1580328755.421,38.086,31.250,26.367,18.555,-29.785,0
1580328755.425,37.598,33.203,26.367,23.438,33.691,0
1580328755.429,35.156,36.621,26.367,28.809,63.477,0
1580328755.426,36.133,37.109,25.391,29.297,27.344,0
1580328755.430,36.621,37.109,26.367,27.832,47.852,0
1580328755.434,33.691,35.645,28.320,30.762,42.969,0
1580328755.438,30.273,32.715,32.715,25.391,9.766,0
1580328755.442,31.250,33.691,32.715,21.973,68.848,0
1580328755.446,32.227,33.203,29.785,29.785,95.703,0
1580328755.450,30.762,30.273,30.273,28.320,42.969,0
1580328755.453,33.203,31.738,31.738,25.879,32.715,0
1580328755.457,34.668,33.203,33.691,24.414,33.691,0
1580328755.461,30.762,33.691,32.227,22.949,24.414,0
1580328755.465,24.414,33.203,32.227,23.438,11.719,0
1580328755.469,23.926,31.250,33.691,24.902,18.555,0
1580328755.486,23.926,32.227,32.227,26.855,41.016,0
1580328755.490,21.973,34.668,32.227,25.879,67.383,0
1580328755.494,20.508,34.180,32.715,20.020,15.625,0
1580328755.498,19.043,33.691,30.273,18.555,36.621,0
1580328755.502,20.508,33.691,28.320,25.391,54.199,0
1580328755.506,20.996,34.668,34.180,27.344,22.461,0
1580328755.510,22.461,36.621,37.109,20.996,32.227,0
1580328755.513,21.973,34.668,32.715,15.137,39.551,0
1580328755.517,20.996,32.715,30.762,20.508,31.250,0
1580328755.521,21.484,32.715,33.691,23.926,39.062,0
1580328755.525,24.414,34.668,34.668,26.367,57.617,0
1580328755.529,27.344,34.668,31.250,25.391,22.949,0
1580328755.526,27.832,31.738,30.273,22.461,43.457,0
1580328755.530,30.762,32.227,27.344,26.855,24.414,0
1580328755.534,34.180,34.180,27.832,32.227,-23.438,0
1580328755.538,36.621,34.180,30.762,29.297,12.695,0
1580328755.542,39.062,35.645,30.762,27.832,31.250,0
1580328755.546,34.668,35.156,32.715,29.297,32.715,0
1580328755.550,33.691,34.668,29.785,29.297,49.316,0
1580328755.553,37.598,34.668,28.809,30.273,50.781,0
1580328755.557,39.062,34.668,32.227,32.227,56.152,0
1580328755.561,40.039,35.156,29.297,35.645,13.672,0
1580328755.565,27.344,30.762,30.273,22.949,38.574,0
1580328755.569,12.207,24.414,32.227,8.301,25.879,0
1580328755.566,15.625,25.879,32.715,11.230,45.898,0
1580328755.570,20.508,28.320,34.668,17.090,67.871,0
1580328755.574,20.020,28.809,34.180,15.625,-9.277,0
1580328755.578,24.414,31.738,33.203,16.602,14.648,0
1580328755.582,27.344,28.809,33.691,20.020,-10.742,0
1580328755.586,26.855,25.879,31.738,20.020,-7.324,0
1580328755.590,29.297,28.809,30.273,22.949,44.434,0
1580328755.593,31.738,28.809,28.320,29.297,26.367,0
1580328755.597,30.762,28.320,28.809,24.902,17.090,0
1580328755.601,26.855,26.367,30.273,20.020,41.016,0
1580328755.605,28.320,26.855,30.273,24.902,79.102,0
1580328755.609,32.715,27.832,28.809,27.832,46.387,0
1580328755.626,34.668,29.297,28.809,26.367,52.246,0
1580328755.630,35.156,32.227,28.320,24.902,13.672,0
1580328755.634,36.621,32.715,28.809,27.344,5.859,0
1580328755.638,34.668,34.668,27.832,25.879,54.688,0
1580328755.642,31.738,35.645,27.832,21.484,31.738,0
1580328755.646,36.621,36.133,30.762,22.461,-7.324,0
1580328755.650,40.527,36.133,30.762,16.602,26.855,0
1580328755.653,40.039,35.645,30.273,10.742,58.594,0
1580328755.657,42.969,37.109,28.809,13.672,33.691,0
1580328755.661,43.457,38.574,28.809,16.602,55.664,0
1580328755.665,41.016,38.574,31.250,19.531,93.750,0
1580328755.669,39.062,38.086,32.227,26.367,82.031,0
1580328755.666,36.621,39.062,31.250,28.809,-30.273,0
1580328755.670,31.738,36.621,28.809,24.414,-1.953,0
1580328755.674,27.832,36.133,26.855,23.926,92.773,0
1580328755.678,34.180,36.133,28.809,29.785,36.133,0
1580328755.682,32.227,35.156,31.738,33.203,-15.137,0
1580328755.686,30.273,35.156,36.133,26.855,-5.371,0
1580328755.690,30.273,33.691,39.062,25.391,54.688,0
1580328755.693,29.785,33.203,34.668,26.855,56.641,0
1580328755.697,33.203,36.133,30.273,25.391,66.406,0
1580328755.701,29.785,36.133,32.227,22.461,74.707,0
1580328755.705,28.320,34.180,32.227,19.531,-8.789,0
1580328755.709,27.344,34.180,28.320,19.531,-20.508,0
1580328755.706,26.367,35.156,28.809,21.484,-1.953,0
1580328755.710,25.879,33.691,29.297,21.973,33.691,0
1580328755.714,25.391,31.738,31.250,20.996,42.969,0
1580328755.718,25.879,31.250,31.738,20.996,2.930,0
1580328755.722,24.902,32.715,31.250,21.973,52.734,0
1580328755.726,22.949,33.203,30.762,23.438,62.988,0
1580328755.730,20.996,29.297,29.785,8.301,38.086,0
1580328755.733,22.461,31.250,30.273,10.254,46.875,0
1580328755.737,24.902,34.180,30.762,27.832,79.590,0
1580328755.741,27.832,34.180,30.273,28.320,66.406,0
1580328755.745,31.738,37.109,31.250,29.297,35.645,0
1580328755.749,37.598,38.086,32.227,29.785,55.176,0
1580328755.786,41.992,37.598,31.738,30.273,46.387,4
1580328755.790,37.598,36.621,28.809,27.344,11.719,0
1580328755.794,32.227,33.691,26.367,25.879,-22.949,0
1580328755.798,31.738,30.762,29.297,25.879,39.551,0
1580328755.802,33.691,29.785,32.227,26.855,73.730,0
1580328755.806,35.645,33.691,31.250,33.203,7.812,0
1580328755.810,36.133,37.598,28.320,31.738,0.977,0
1580328755.813,36.621,36.621,25.879,26.367,28.320,0
1580328755.817,34.180,35.156,28.809,26.855,21.484,0
1580328755.821,32.715,36.133,29.297,25.879,9.766,0
1580328755.825,33.203,35.156,28.809,23.926,25.391,0
1580328755.829,32.227,33.691,29.297,20.508,-16.602,0
1580328755.846,28.320,33.691,29.297,19.531,4.883,0
1580328755.850,28.320,33.691,28.809,20.020,29.785,0
1580328755.854,30.273,33.203,28.809,20.996,-35.156,0
1580328755.858,30.273,35.645,28.809,20.508,-12.207,0
1580328755.862,33.203,36.133,30.273,16.602,1.465,0
1580328755.866,37.109,34.668,30.273,16.113,-14.160,0
1580328755.870,37.109,35.156,29.297,20.996,4.395,0
1580328755.873,36.133,34.180,32.715,24.414,23.926,0
1580328755.877,39.551,33.691,33.203,30.273,-14.160,0
1580328755.881,40.527,35.645,33.691,33.691,29.785,0
1580328755.885,38.574,34.668,32.227,30.762,71.289,0
1580328755.889,41.016,33.691,32.227,31.250,60.059,0
1580328755.849,41.992,34.668,30.762,27.832,45.898,0
1580328755.853,40.527,33.691,25.391,26.855,39.551,0
1580328755.857,42.480,34.668,26.855,29.785,63.965,0
1580328755.861,39.551,35.645,29.297,26.367,14.160,0
1580328755.865,36.621,33.691,27.344,20.996,-5.371,0
1580328755.869,40.039,34.668,27.832,21.484,52.246,0
1580328755.873,41.504,36.133,28.809,27.344,82.031,0
1580328755.876,42.480,38.574,28.320,29.297,56.152,0
1580328755.880,44.434,37.109,26.855,23.926,43.457,0
1580328755.884,42.969,35.156,28.320,22.949,80.566,0
1580328755.888,39.062,37.109,28.809,22.461,66.895,0
1580328755.892,36.621,37.109,28.809,19.531,57.617,0
1580328755.906,39.551,36.133,32.715,20.508,39.062,0
1580328755.910,41.992,37.109,29.785,19.531,42.480,0
1580328755.914,37.109,35.156,23.926,20.020,10.742,0
1580328755.918,36.621,33.691,22.949,22.461,9.766,0
1580328755.922,36.133,36.133,24.414,22.949,49.805,0
1580328755.926,33.203,32.715,27.344,24.414,14.160,0
1580328755.930,30.273,34.668,29.297,16.113,30.273,0
1580328755.933,27.832,39.551,25.879,11.230,62.012,0
1580328755.937,25.879,35.156,24.414,18.066,83.984,0
1580328755.941,27.344,33.691,25.879,24.414,57.129,0
1580328755.945,29.785,34.668,28.809,23.438,14.160,0
1580328755.949,28.809,33.203,30.762,21.484,-3.418,0
1580328755.947,31.738,34.180,29.785,24.902,16.113,0
1580328755.951,30.273,33.691,31.250,29.297,57.617,0
1580328755.955,27.344,33.203,32.715,29.297,15.137,0
1580328755.959,29.297,32.715,29.297,30.273,4.883,0
1580328755.963,27.832,31.738,28.320,28.320,38.574,0
1580328755.967,25.879,32.715,30.273,25.879,31.738,0
1580328755.971,28.809,34.180,33.203,29.297,-11.719,0
1580328755.974,30.273,33.203,32.227,33.203,29.785,0
1580328755.978,27.344,31.250,26.855,30.762,77.148,0
1580328755.982,23.438,33.203,24.902,26.367,23.438,0
1580328755.986,22.461,35.645,25.391,27.344,56.152,0
1580328755.990,22.949,36.133,30.273,27.832,60.547,0
1580328756.006,19.043,33.203,35.156,23.926,-10.742,0
1580328756.010,17.578,30.762,35.156,20.996,49.805,0
1580328756.014,18.555,31.250,32.715,19.531,79.102,0
1580328756.018,18.555,30.762,31.250,16.113,71.777,0
1580328756.022,20.508,33.203,31.250,19.043,64.453,0
1580328756.026,19.531,32.227,32.715,23.438,66.895,0
1580328756.030,18.555,33.691,32.715,26.367,60.059,0
1580328756.033,21.484,35.645,32.227,25.391,33.203,0
1580328756.037,18.555,32.227,31.738,22.949,83.008,0
1580328756.041,16.113,30.273,31.738,25.879,87.402,0
1580328756.045,21.973,28.809,32.715,24.902,76.660,0
1580328756.049,22.949,29.785,29.297,24.902,84.961,0
1580328756.046,22.949,32.227,27.832,26.855,15.625,0
1580328756.050,25.879,31.738,27.344,27.832,47.363,0
1580328756.054,25.879,32.715,25.879,27.344,93.262,0
1580328756.058,25.879,34.180,24.902,27.344,8.789,0
1580328756.062,23.926,32.715,23.438,28.809,-18.555,0
1580328756.066,26.855,31.250,25.391,26.855,12.207,0
1580328756.070,32.227,34.668,27.344,20.508,-0.977,0
1580328756.073,33.203,37.109,29.297,23.438,2.930,0
1580328756.077,32.227,36.133,31.250,30.762,10.254,0
1580328756.081,30.273,35.645,31.738,30.762,46.875,0
1580328756.085,30.762,38.574,32.227,28.809,41.992,0
1580328756.089,34.668,39.062,33.691,27.344,41.992,0
1580328756.108,38.086,37.598,35.645,31.738,65.918,0
1580328756.112,39.551,39.551,36.133,36.621,46.387,0
1580328756.116,36.133,39.062,32.715,36.133,22.949,0
1580328756.120,37.109,36.621,31.250,34.668,11.719,0
1580328756.124,41.504,38.574,34.668,34.180,27.344,0
1580328756.128,42.969,38.086,37.109,35.645,8.301,0
1580328756.132,41.504,37.109,36.133,36.621,-1.465,0
