timestamps,TP9,AF7,AF8,TP10,Right AUX,Marker0
1580493050.478,65.430,52.734,38.574,40.527,13.672,0
1580493050.482,64.941,53.711,41.504,36.621,36.621,0
1580493050.486,57.129,57.617,44.922,41.016,45.410,0
1580493050.490,55.176,56.152,42.480,41.504,31.250,0
1580493050.494,60.059,50.781,40.527,29.785,79.102,0
1580493050.498,65.430,51.758,39.062,27.832,112.793,0
1580493050.501,53.223,52.734,38.574,33.203,39.062,0
1580493050.505,36.133,47.363,41.504,32.715,48.828,0
1580493050.509,45.410,45.410,41.016,30.273,72.754,0
1580493050.513,61.035,46.875,38.574,34.180,48.340,0
1580493050.517,52.246,44.922,37.598,34.668,37.109,0
1580493050.521,38.574,43.945,40.527,39.551,58.105,0
1580493050.518,43.457,42.969,40.527,48.340,41.504,0
1580493050.522,54.688,40.527,37.598,47.852,72.266,0
1580493050.526,45.898,39.551,39.062,41.016,78.613,0
1580493050.530,26.367,38.086,44.434,42.969,25.391,0
1580493050.534,22.949,33.691,46.875,45.898,89.355,0
1580493050.538,31.250,30.273,45.410,43.457,55.664,0
1580493050.541,34.180,33.691,45.410,48.340,18.555,0
1580493050.545,20.996,36.621,47.363,56.152,57.129,0
1580493050.549,11.719,34.180,47.852,51.758,19.043,0
1580493050.553,23.438,33.691,46.875,52.734,8.789,0
1580493050.557,32.715,35.156,48.828,57.617,5.859,0
1580493050.561,20.508,37.598,48.340,58.105,37.598,0
1580493050.578,6.348,40.039,46.387,53.223,34.668,0
1580493050.582,18.066,38.086,43.457,42.969,45.898,0
1580493050.586,30.762,34.180,39.062,39.062,55.664,0
1580493050.590,19.531,38.574,39.062,39.551,47.852,0
1580493050.594,11.230,41.992,40.039,36.621,77.637,0
1580493050.598,21.484,41.504,40.527,38.574,63.477,0
1580493050.601,37.109,39.551,41.992,36.621,34.668,0
1580493050.605,28.320,38.086,41.504,26.367,49.316,0
1580493050.609,3.906,37.598,41.992,19.043,15.625,0
1580493050.613,5.859,34.668,40.527,11.719,-19.043,0
1580493050.617,17.578,33.691,36.621,6.836,-17.090,0
1580493050.621,11.719,33.203,40.039,1.953,17.090,0
1580493050.618,-2.930,30.273,41.504,5.371,38.574,0
1580493050.622,0.977,31.250,40.527,20.508,30.273,0
1580493050.626,21.973,34.668,39.551,31.738,15.625,0
1580493050.630,29.297,33.691,41.016,38.086,18.555,0
1580493050.634,24.414,34.180,43.457,48.340,27.832,0
1580493050.638,27.344,36.621,40.039,56.152,-38.574,0
1580493050.641,43.457,37.109,40.039,57.617,-10.742,0
1580493050.645,56.152,36.133,40.039,62.012,97.168,0
1580493050.649,45.898,36.621,39.551,57.129,103.516,0
1580493050.653,39.551,39.062,38.086,48.828,3.418,0
1580493050.657,55.176,39.551,31.738,51.758,-20.996,0
1580493050.661,67.871,38.574,28.320,53.711,29.785,0
1580493050.658,58.105,38.086,31.250,43.457,9.277,0
1580493050.662,41.504,37.598,35.645,34.180,27.344,0
1580493050.666,37.109,35.645,37.109,20.508,26.367,0
1580493050.670,41.504,32.227,35.156,6.348,-10.742,0
1580493050.674,40.039,33.203,34.180,8.789,20.508,0
1580493050.678,28.809,37.109,36.621,10.742,21.484,0
1580493050.681,25.879,37.598,38.086,9.766,29.297,0
1580493050.685,33.203,39.551,32.715,7.812,41.504,0
1580493050.689,40.039,39.062,26.855,12.695,16.113,0
1580493050.693,35.645,37.109,26.855,19.531,59.570,0
1580493050.697,27.344,38.574,27.832,26.855,75.195,0
1580493050.701,32.227,38.574,25.879,29.297,-3.906,0
1580493050.718,41.992,37.598,26.367,29.297,-4.395,0
1580493050.722,35.156,34.668,30.273,33.691,18.555,0
1580493050.726,21.484,33.691,35.156,31.250,16.602,0
1580493050.730,24.414,31.738,38.086,20.996,41.992,0
1580493050.734,34.668,25.879,37.598,21.484,65.918,0
1580493050.738,32.227,28.320,38.086,26.855,35.156,0
1580493050.741,18.066,32.715,41.504,26.367,39.062,0
1580493050.745,24.414,34.668,40.527,31.738,10.742,0
1580493050.749,42.480,32.715,38.086,38.574,-1.953,0
1580493050.753,38.086,31.250,39.551,39.062,96.680,0
1580493050.757,27.832,34.668,41.504,41.992,67.871,0
1580493050.761,24.902,34.668,41.504,43.945,6.836,0
1580493050.759,34.668,31.738,39.062,38.086,11.719,0
1580493050.763,50.293,34.668,36.133,33.691,41.016,0
1580493050.767,42.480,39.551,37.598,33.203,88.867,0
1580493050.771,33.203,40.527,39.062,27.832,88.379,0
1580493050.775,46.875,40.527,35.156,20.996,42.480,0
1580493050.779,58.594,41.016,34.668,18.555,68.848,0
1580493050.782,49.805,43.945,35.156,16.113,84.961,0
1580493050.786,34.668,48.340,36.133,16.113,38.574,0
1580493050.790,37.109,47.363,33.691,20.508,20.996,0
1580493050.794,49.805,46.387,30.273,22.461,15.625,0
1580493050.798,45.410,46.875,30.762,30.273,31.250,0
1580493050.802,30.273,44.922,31.738,42.480,59.082,0
1580493050.798,27.344,44.434,35.156,41.016,69.336,0
1580493050.802,34.668,41.504,36.133,36.621,40.527,0
1580493050.806,38.086,40.039,35.645,40.039,28.320,0
1580493050.810,24.902,41.992,38.574,41.504,44.434,0
1580493050.814,16.602,40.039,39.062,45.898,42.969,0
1580493050.818,36.133,36.621,38.086,45.898,33.203,0
1580493050.821,46.875,37.598,40.527,44.922,46.387,0
1580493050.825,40.527,37.598,42.969,42.969,31.250,0
1580493050.829,32.227,39.062,44.922,41.016,-31.250,0
1580493050.833,34.180,35.645,44.922,43.457,26.855,0
1580493050.837,51.758,33.203,39.551,46.387,13.672,0
1580493050.841,50.293,41.016,37.109,49.805,-27.832,0
1580493050.858,32.227,41.016,36.621,47.363,-9.766,0
1580493050.862,38.574,39.062,36.621,42.969,15.625,0
1580493050.866,51.758,40.527,37.598,36.133,62.012,0
1580493050.870,48.340,41.992,38.086,31.738,10.254,0
1580493050.874,27.344,46.875,38.086,34.668,-0.977,0
1580493050.878,22.461,49.316,37.598,35.645,38.086,0
1580493050.881,38.574,44.922,37.109,20.996,78.613,0
1580493050.885,41.992,41.016,37.109,19.043,41.992,0
1580493050.889,32.715,41.992,39.551,24.902,25.391,0
1580493050.893,25.391,44.922,39.551,28.809,34.668,0
1580493050.897,33.691,42.480,37.598,30.273,41.016,0
1580493050.901,45.898,37.598,38.574,31.250,60.547,0
1580493050.898,39.062,38.086,40.527,33.203,39.551,0
1580493050.902,25.879,40.039,39.551,34.180,22.461,0
1580493050.906,28.809,37.598,37.598,32.227,24.902,0
1580493050.910,39.062,39.062,37.109,28.320,6.348,0
1580493050.914,35.156,41.992,37.109,27.832,-16.602,0
1580493050.918,23.926,41.504,40.039,31.738,-32.227,0
1580493050.921,19.043,41.016,41.504,33.691,18.555,0
1580493050.925,25.879,36.133,39.551,25.879,38.574,0
1580493050.929,24.902,35.645,38.574,27.344,30.273,0
1580493050.933,19.043,40.039,40.527,25.879,25.879,0
1580493050.937,16.602,42.480,41.504,29.785,-0.488,0
1580493050.941,23.926,41.992,40.527,35.645,-9.277,0
1580493050.938,35.645,41.016,39.551,28.320,7.324,0
1580493050.942,24.902,42.480,43.945,30.273,-3.906,0
1580493050.946,16.602,45.898,47.363,38.086,15.137,0
1580493050.950,36.133,46.387,41.992,41.992,44.434,0
1580493050.954,51.270,43.457,39.551,34.180,12.207,0
1580493050.958,42.969,46.387,42.480,33.691,4.883,0
1580493050.961,30.762,46.875,44.434,34.180,-4.883,0
1580493050.965,36.621,42.969,44.922,31.250,-25.391,0
1580493050.969,44.434,41.016,47.852,32.715,25.879,0
1580493050.973,41.016,39.551,48.340,33.203,27.832,0
1580493050.977,29.785,40.527,48.340,36.133,-0.977,0
1580493050.981,27.344,41.016,50.781,38.086,38.574,0
1580493050.998,39.551,39.062,49.316,36.133,45.410,0
1580493051.002,43.457,40.039,47.852,37.109,64.941,0
1580493051.006,35.645,43.945,47.852,40.039,95.703,0
1580493051.010,29.297,43.945,46.875,36.621,72.266,0
1580493051.014,38.086,41.992,43.457,36.621,61.523,0
1580493051.018,48.340,42.480,41.016,38.574,30.273,0
1580493051.021,40.039,43.457,41.016,39.062,-13.184,0
1580493051.025,27.832,45.410,42.969,38.574,-8.789,0
1580493051.029,36.621,43.945,43.457,35.156,19.043,0
1580493051.033,47.852,40.527,42.969,36.621,13.672,0
1580493051.037,42.480,40.527,46.387,37.109,58.594,0
1580493051.041,33.203,38.574,46.387,31.250,106.445,0
1580493051.038,35.645,38.086,45.898,30.273,73.730,0
1580493051.042,48.340,37.598,47.852,34.668,8.789,0
1580493051.046,45.898,39.062,49.316,37.598,-32.715,0
1580493051.050,30.762,42.480,49.316,35.156,17.090,0
1580493051.054,25.391,41.992,47.852,30.273,43.457,0
1580493051.058,31.250,34.180,43.457,33.203,43.457,0
1580493051.061,34.180,31.738,36.621,37.109,59.082,0
1580493051.065,21.484,34.668,37.598,38.086,39.551,0
1580493051.069,16.602,35.645,41.016,38.086,25.879,0
1580493051.073,31.738,35.645,35.645,31.738,33.691,0
1580493051.077,39.551,35.645,30.762,27.832,43.945,0
1580493051.081,25.391,40.039,33.203,30.762,41.504,0
1580493051.078,16.113,41.992,36.621,34.180,11.230,0
1580493051.082,28.809,39.062,34.668,35.156,-22.949,0
1580493051.086,47.363,38.574,33.203,33.691,41.504,0
1580493051.090,45.898,38.574,38.574,28.809,83.984,0
1580493051.094,32.227,40.527,40.527,33.203,48.340,0
1580493051.098,31.250,41.016,38.574,33.203,21.484,0
1580493051.101,41.992,41.504,40.039,28.320,20.996,0
1580493051.105,41.504,42.480,37.109,32.227,53.223,0
1580493051.109,24.902,42.480,37.109,31.738,73.242,0
1580493051.113,24.902,41.504,40.039,37.109,30.762,0
1580493051.117,40.039,42.969,38.574,39.551,20.508,0
1580493051.121,41.016,44.922,39.062,36.133,79.590,0
1580493051.138,23.438,44.922,42.969,38.574,76.172,0
1580493051.142,17.578,43.457,43.945,38.574,25.391,0
1580493051.146,25.391,39.062,44.922,31.250,34.668,0
1580493051.150,33.203,37.598,45.410,25.391,29.785,0
1580493051.154,31.250,41.504,47.363,30.762,30.762,0
1580493051.158,17.578,42.480,46.875,31.250,54.688,0
1580493051.161,21.484,40.527,42.480,26.367,43.457,0
1580493051.165,34.180,38.086,35.645,28.809,50.781,0
1580493051.169,38.086,38.574,36.621,39.551,31.250,0
1580493051.173,31.738,42.480,41.016,42.969,35.645,0
1580493051.177,33.691,46.387,39.062,36.621,49.316,0
1580493051.181,48.340,43.457,35.156,34.668,20.996,0
1580493051.178,44.434,41.016,34.180,31.738,7.812,0
1580493051.182,27.344,42.480,37.598,24.414,16.113,0
1580493051.186,24.902,42.480,37.109,22.949,33.691,0
1580493051.190,32.715,43.945,36.621,23.438,94.727,0
1580493051.194,43.457,46.387,39.062,24.902,105.469,0
1580493051.198,37.598,45.410,44.434,29.785,31.250,0
1580493051.201,22.949,44.434,41.992,33.691,45.898,0
1580493051.205,36.621,43.457,39.062,32.227,68.848,0
1580493051.209,53.223,44.434,38.086,33.691,67.871,0
1580493051.213,46.387,44.434,37.109,37.109,16.602,0
1580493051.217,33.203,42.480,38.086,37.598,-5.859,0
1580493051.221,43.945,43.945,39.062,42.969,4.395,0
1580493051.238,60.059,44.922,38.086,42.480,49.316,0
1580493051.242,57.617,44.434,36.133,47.852,64.453,0
1580493051.246,50.293,46.875,34.668,56.641,53.711,0
1580493051.250,48.340,46.875,32.715,51.758,84.473,0
1580493051.254,58.594,45.410,33.691,50.293,39.062,0
1580493051.258,62.988,46.875,37.109,59.082,24.414,0
1580493051.261,44.434,46.875,39.551,62.988,49.805,0
1580493051.265,32.715,44.434,35.156,51.270,26.855,0
1580493051.269,45.410,41.016,35.645,41.992,3.906,0
1580493051.273,53.711,40.039,38.086,37.598,13.184,0
1580493051.277,34.668,42.480,37.109,31.250,15.137,0
1580493051.281,24.414,41.016,38.574,35.156,-17.090,0
1580493051.278,33.691,39.062,37.109,34.668,-10.742,0
1580493051.282,39.062,39.062,33.691,30.273,44.434,0
1580493051.286,36.133,40.039,36.133,35.156,42.969,0
1580493051.290,19.043,38.086,37.109,34.180,46.387,0
1580493051.294,20.020,33.691,30.762,27.344,59.082,0
1580493051.298,37.109,35.645,28.320,25.879,46.387,0
1580493051.301,37.598,40.527,27.344,27.832,21.484,0
1580493051.305,29.297,43.457,21.973,31.250,34.668,0
1580493051.309,32.227,45.410,24.414,34.180,35.156,0
1580493051.313,50.293,45.410,26.855,35.156,15.625,0
1580493051.317,59.082,45.898,28.809,33.691,44.922,0
1580493051.321,54.199,46.387,28.809,37.598,75.684,0
1580493051.318,55.664,46.875,26.367,47.363,102.539,0
1580493051.322,67.383,45.898,26.367,53.711,89.844,0
1580493051.326,72.266,43.945,27.832,57.617,46.387,0
1580493051.330,60.059,41.992,30.273,58.594,52.246,0
1580493051.334,47.852,41.992,32.227,56.152,60.059,0
1580493051.338,50.781,38.574,29.297,50.781,61.035,0
1580493051.341,59.082,35.156,28.320,48.340,61.035,0
1580493051.345,51.758,40.039,31.250,49.805,19.531,0
1580493051.349,31.738,42.969,33.203,41.504,55.664,0
1580493051.353,30.762,40.527,35.645,36.133,74.707,0
1580493051.357,47.363,41.016,34.180,38.574,41.992,0
1580493051.361,41.016,42.480,33.203,35.156,46.875,0
1580493051.378,21.973,41.504,38.086,33.691,43.457,0
1580493051.382,21.484,43.945,40.527,36.621,32.227,0
1580493051.386,35.645,46.387,41.992,39.551,-7.324,0
1580493051.390,38.574,46.387,41.504,40.527,1.953,0
1580493051.394,26.367,44.922,42.480,41.992,42.969,0
1580493051.398,23.438,43.945,42.969,43.945,76.660,0
1580493051.401,33.203,41.504,41.992,42.969,83.984,0
1580493051.405,41.016,41.016,42.480,40.039,51.758,0
1580493051.409,35.156,40.527,39.551,34.668,45.410,0
1580493051.413,25.391,41.992,39.551,35.156,41.016,0
1580493051.417,28.809,44.922,39.062,33.203,17.090,0
1580493051.421,41.992,44.434,35.156,32.227,-11.719,0
1580493051.418,41.016,44.434,38.086,40.527,8.301,0
1580493051.422,25.879,44.434,41.992,41.992,4.395,0
1580493051.426,26.367,42.969,41.504,38.574,40.039,0
1580493051.430,42.480,39.551,39.062,35.645,87.891,0
1580493051.434,47.363,39.551,40.527,36.133,37.598,0
1580493051.438,36.621,41.016,41.016,38.086,-39.551,0
1580493051.441,31.738,42.969,36.621,37.109,-33.203,0
1580493051.445,42.969,42.969,36.621,41.016,25.391,0
1580493051.449,46.875,41.016,36.133,43.457,18.066,0
1580493051.453,36.133,42.480,39.062,44.434,-1.953,0
1580493051.457,28.320,43.945,41.016,41.992,16.113,0
1580493051.461,38.574,42.480,38.086,37.109,36.621,0
1580493051.458,49.316,41.992,39.062,41.016,60.059,0
1580493051.462,42.480,43.457,41.992,44.922,10.254,0
1580493051.466,29.785,45.410,40.039,45.898,-13.672,0
1580493051.470,31.738,45.898,36.133,43.457,22.949,0
1580493051.474,41.992,42.480,33.203,37.598,24.414,0
1580493051.478,34.180,42.969,35.156,33.691,22.461,0
1580493051.481,20.020,45.898,38.574,34.668,39.062,0
1580493051.485,24.414,45.410,38.086,35.645,13.672,0
1580493051.489,34.668,44.434,41.016,33.691,18.066,0
1580493051.493,41.992,48.340,42.480,39.062,28.809,0
1580493051.497,35.156,49.316,41.992,47.852,16.602,0
1580493051.501,29.785,49.805,41.992,49.805,41.992,0
1580493051.518,47.363,48.340,41.504,52.734,21.484,0
1580493051.522,58.594,46.387,40.527,50.293,36.621,0
1580493051.526,47.363,45.898,42.969,47.363,55.664,0
1580493051.530,32.715,43.457,44.434,46.387,58.105,0
1580493051.534,38.574,41.016,46.875,40.039,62.988,0
1580493051.538,50.293,39.551,45.410,40.527,27.832,0
1580493051.541,38.574,39.062,42.969,43.945,51.758,0
1580493051.545,23.438,41.016,46.387,41.992,83.496,0
1580493051.549,35.645,42.480,46.387,41.016,58.594,0
1580493051.553,47.852,41.504,46.387,39.551,49.805,0
1580493051.557,43.945,42.969,47.363,42.969,17.090,0
1580493051.561,29.785,47.363,47.852,46.387,1.953,0
1580493051.558,25.879,45.410,42.480,41.992,8.301,0
1580493051.562,46.875,45.410,36.621,40.527,4.883,0
1580493051.566,54.199,45.898,38.574,41.016,3.906,0
1580493051.570,40.527,42.480,39.551,41.504,-3.906,0
1580493051.574,35.156,40.039,38.086,41.016,15.625,0
1580493051.578,47.363,38.086,38.574,39.551,26.855,0
1580493051.581,60.059,40.527,39.062,44.434,28.320,0
1580493051.585,46.387,42.480,41.016,48.828,47.852,0
1580493051.589,24.414,40.527,41.992,45.410,16.602,0
1580493051.593,25.879,40.527,41.504,40.039,6.836,0
1580493051.597,30.273,41.504,41.992,33.691,-1.465,0
1580493051.601,18.555,43.457,41.992,35.645,34.668,0
1580493051.598,10.742,43.457,41.504,46.387,61.035,0
1580493051.602,24.902,47.363,38.574,49.316,25.391,0
1580493051.606,43.457,49.316,37.109,52.734,28.320,0
1580493051.610,44.922,45.898,38.086,54.199,24.902,0
1580493051.614,39.551,46.875,40.527,56.641,50.781,0
1580493051.618,40.039,45.898,41.992,58.105,103.516,0
1580493051.621,48.828,43.457,41.504,51.270,107.422,0
1580493051.625,55.664,44.922,41.016,49.805,78.125,0
1580493051.629,41.504,44.434,41.016,43.945,87.891,0
1580493051.633,31.738,44.434,41.016,37.598,77.637,0
1580493051.637,49.316,43.457,36.621,41.504,11.230,0
1580493051.641,61.035,41.504,36.133,44.434,34.180,0
1580493051.658,45.898,40.527,38.086,44.434,83.984,0
1580493051.662,31.738,41.016,36.133,39.551,29.297,0
1580493051.666,37.109,41.504,37.598,30.762,9.277,0
1580493051.670,41.504,40.039,35.156,24.902,47.363,0
1580493051.674,35.645,40.039,32.715,28.809,86.914,0
1580493051.678,20.996,42.480,37.109,29.297,67.383,0
1580493051.681,19.043,41.992,39.062,24.902,36.133,0
1580493051.685,32.715,39.062,35.156,20.508,51.270,0
1580493051.689,32.715,38.086,33.691,26.367,75.684,0
1580493051.693,21.484,38.574,39.062,39.551,63.477,0
1580493051.697,18.066,38.086,38.574,41.016,16.113,0
1580493051.701,33.691,37.109,34.180,37.598,-24.902,0
1580493051.698,40.527,36.621,35.645,36.621,1.953,0
1580493051.702,24.902,36.133,40.039,39.062,43.457,0
1580493051.706,11.230,34.180,39.551,38.086,29.297,0
1580493051.710,21.973,34.180,35.645,33.203,80.078,0
1580493051.714,38.086,36.621,36.133,36.133,78.613,0
1580493051.718,31.738,39.062,36.621,42.480,36.621,0
1580493051.721,26.367,41.504,37.109,43.945,57.617,0
1580493051.725,36.133,40.527,39.062,47.363,-9.277,0
1580493051.729,46.875,37.598,39.062,49.316,-0.488,0
1580493051.733,47.852,40.527,38.086,46.387,55.176,0
1580493051.737,34.668,46.875,37.109,45.410,27.832,0
1580493051.741,32.715,45.898,38.086,40.527,37.109,0
1580493051.738,48.340,43.457,36.133,37.109,38.086,0
1580493051.742,54.199,42.969,31.738,37.109,40.039,0
1580493051.746,41.504,47.363,30.273,35.156,21.973,0
1580493051.750,31.250,47.363,31.250,31.738,38.574,0
1580493051.754,42.480,42.480,32.227,31.738,38.574,0
1580493051.758,48.340,38.086,35.645,31.738,27.344,0
1580493051.761,33.691,35.645,39.551,31.250,47.363,0
1580493051.765,23.438,36.133,40.527,34.668,10.742,0
1580493051.769,28.320,35.156,38.086,28.320,15.137,0
1580493051.773,32.715,32.227,38.574,24.414,38.086,0
1580493051.777,20.996,33.203,41.504,31.250,42.480,0
1580493051.781,6.836,37.109,40.527,37.109,9.766,0
1580493051.798,10.742,39.062,38.574,35.156,8.301,0
1580493051.802,30.273,42.480,35.645,35.156,63.965,0
1580493051.806,30.273,46.875,37.598,38.574,79.102,0
1580493051.810,14.648,45.898,40.039,36.621,28.320,0
1580493051.814,12.207,44.434,39.062,32.715,10.742,0
1580493051.818,26.367,43.945,39.062,31.738,30.273,0
1580493051.821,31.250,40.527,39.062,27.832,55.176,0
1580493051.825,17.578,39.551,40.039,22.461,33.203,0
1580493051.829,15.625,37.598,40.039,25.879,39.062,0
1580493051.833,26.367,35.645,34.180,26.855,58.105,0
1580493051.837,33.203,35.645,28.809,22.461,-47.852,0
1580493051.841,26.855,37.598,30.762,22.949,-19.043,0
1580493051.838,21.973,40.039,34.180,24.902,31.738,0
1580493051.842,34.180,37.109,36.133,26.855,-22.461,0
1580493051.846,50.781,36.133,40.527,32.227,18.555,0
1580493051.850,53.711,39.062,42.480,35.645,26.367,0
1580493051.854,39.062,42.480,40.039,34.668,19.531,0
1580493051.858,41.504,43.457,37.109,34.668,38.574,0
1580493051.861,58.105,41.504,33.203,33.691,20.996,0
1580493051.865,53.223,40.039,32.227,28.320,17.090,0
1580493051.869,39.551,42.969,35.156,32.227,51.270,0
1580493051.873,37.109,44.434,35.645,32.715,51.270,0
1580493051.877,44.434,42.969,36.133,30.762,58.105,0
1580493051.881,46.387,43.945,35.645,36.133,21.484,0
1580493051.878,27.344,43.945,36.621,35.156,-21.973,0
1580493051.882,11.719,41.016,37.109,32.715,-29.785,0
1580493051.886,22.949,36.621,33.691,34.668,-21.973,0
1580493051.890,37.109,35.156,31.738,32.715,-9.277,0
1580493051.894,26.367,36.621,30.273,30.762,-3.418,0
1580493051.898,20.020,38.574,29.785,32.227,11.230,0
1580493051.901,25.391,35.156,30.762,27.344,15.137,0
1580493051.905,29.297,31.250,31.250,25.391,-24.414,0
1580493051.909,21.973,32.715,32.715,24.902,-15.137,0
1580493051.913,7.812,31.738,33.203,21.973,59.570,0
1580493051.917,12.207,30.762,30.273,20.020,89.355,0
1580493051.921,24.902,30.273,26.855,16.113,89.844,0
1580493051.938,24.414,30.273,27.832,16.602,82.520,0
1580493051.942,11.230,34.180,29.297,19.043,140.137,0
1580493051.946,8.789,35.156,24.414,18.066,119.141,0
1580493051.950,21.484,32.715,21.484,17.578,55.664,0
1580493051.954,28.809,29.297,23.926,18.066,36.621,0
1580493051.958,15.137,28.809,25.391,23.926,25.879,0
1580493051.961,3.906,23.926,24.414,27.344,47.852,0
1580493051.965,18.066,18.555,22.949,21.484,50.293,0
1580493051.969,27.344,17.090,19.531,14.160,17.090,0
1580493051.973,19.531,18.555,18.555,17.578,-37.109,0
1580493051.977,10.254,18.066,17.578,25.391,-55.176,0
1580493051.981,19.043,16.113,13.672,21.973,-58.594,0
1580493051.978,31.250,15.625,13.184,18.555,-50.293,0
1580493051.982,23.926,17.090,14.648,20.996,-24.414,0
1580493051.986,4.883,16.602,16.602,24.414,-20.508,0
1580493051.990,3.906,18.066,16.602,20.996,27.344,0
1580493051.994,19.531,17.090,16.602,18.066,73.730,0
1580493051.998,16.602,13.184,18.066,19.531,46.387,0
1580493052.001,4.883,15.137,18.555,20.020,29.785,0
1580493052.005,8.301,15.137,16.602,20.020,23.438,0
1580493052.009,25.879,13.184,14.160,19.043,60.059,0
1580493052.013,33.203,14.648,16.113,15.625,69.336,0
1580493052.017,15.137,16.602,19.043,7.324,32.227,0
1580493052.021,2.441,20.996,20.996,10.254,21.973,0
1580493052.018,15.625,22.949,20.996,12.695,37.598,0
1580493052.022,28.320,23.438,23.438,13.672,39.062,0
1580493052.026,20.508,28.809,27.832,19.043,-14.160,0
1580493052.030,9.277,29.297,31.250,21.973,-2.441,0
1580493052.034,18.066,27.344,29.297,22.461,64.453,0
1580493052.038,31.250,26.855,29.785,15.137,39.062,0
1580493052.041,27.344,30.762,32.715,16.602,2.930,0
1580493052.045,15.625,36.621,32.715,22.949,7.812,0
1580493052.049,18.066,38.086,31.738,20.020,0.488,0
1580493052.053,34.668,37.598,30.273,24.902,-3.418,0
1580493052.057,41.504,41.016,30.273,30.273,-11.230,0
1580493052.061,29.785,43.457,30.273,32.715,0.488,0
1580493052.078,30.762,45.410,28.320,36.621,37.598,0
1580493052.082,50.293,43.945,29.297,32.227,15.625,0
1580493052.086,54.199,39.062,34.180,32.715,34.668,0
1580493052.090,43.457,39.551,37.598,40.039,64.453,0
1580493052.094,33.691,39.062,41.016,37.109,71.289,0
1580493052.098,39.062,39.551,40.527,34.668,50.293,0
1580493052.101,51.270,40.527,37.109,32.227,16.113,0
1580493052.105,43.945,37.598,40.039,30.762,11.719,0
1580493052.109,32.715,40.527,39.551,40.039,-31.250,0
1580493052.113,39.551,41.016,39.551,43.945,-12.695,0
1580493052.117,52.734,38.086,44.922,39.062,90.820,0
1580493052.121,50.781,40.527,45.410,46.875,100.098,0
1580493052.118,41.016,44.434,43.457,53.223,32.715,0
1580493052.122,41.504,44.922,41.504,47.852,75.195,0
1580493052.126,57.617,45.410,39.551,44.434,82.520,0
1580493052.130,66.895,48.340,40.039,48.340,38.086,0
1580493052.134,51.270,49.316,44.434,51.270,91.797,0
1580493052.138,40.527,48.340,45.898,47.852,65.918,0
1580493052.141,52.734,46.387,42.969,49.805,35.156,0
1580493052.145,55.176,44.434,41.504,49.316,100.098,0
1580493052.149,40.039,44.922,41.504,50.293,78.125,0
1580493052.153,30.762,46.875,42.969,44.922,38.574,0
1580493052.157,41.992,47.363,42.480,33.203,8.301,0
1580493052.161,58.105,46.387,39.551,35.645,-64.941,0
1580493052.159,51.270,46.875,41.504,39.551,-42.480,0
1580493052.163,33.691,49.805,42.969,37.109,23.438,0
1580493052.167,34.668,54.688,40.039,34.668,91.797,0
1580493052.171,49.316,55.664,40.039,38.086,104.004,0
1580493052.175,47.363,55.664,42.969,37.109,29.785,0
1580493052.179,33.691,58.105,42.969,37.109,26.367,0
1580493052.182,30.762,57.129,40.527,41.992,30.273,0
1580493052.186,42.969,50.293,39.062,43.945,41.504,0
1580493052.190,51.270,48.828,39.062,44.434,24.414,0
1580493052.194,39.062,49.805,40.039,43.945,-18.066,0
1580493052.198,31.250,45.410,43.457,44.434,-9.277,0
1580493052.202,40.527,42.480,44.434,45.410,6.836,0
1580493052.218,51.758,44.922,42.480,51.270,45.898,0
1580493052.222,45.410,45.898,41.992,52.734,40.039,0
1580493052.226,35.156,43.945,42.480,51.758,24.902,0
1580493052.230,46.875,43.457,41.992,51.758,84.961,0
1580493052.234,61.035,43.457,38.086,49.316,57.617,0
1580493052.238,51.758,43.945,39.062,44.922,2.441,0
1580493052.241,32.227,47.363,45.410,38.086,79.102,0
1580493052.245,33.691,47.852,43.945,37.598,114.746,0
1580493052.249,44.922,43.457,39.062,39.551,68.848,0
1580493052.253,43.457,44.434,37.598,41.504,60.059,0
1580493052.257,28.809,46.875,38.574,36.621,61.035,0
1580493052.261,23.438,46.387,40.527,33.203,-9.277,0
1580493052.258,36.621,42.969,42.480,35.645,-67.383,0
1580493052.262,43.945,42.480,42.969,39.551,-34.668,0
1580493052.266,29.785,43.457,42.480,44.434,10.254,0
1580493052.270,17.578,41.992,43.457,42.969,4.395,0
1580493052.274,30.762,41.992,42.480,43.457,22.461,0
1580493052.278,42.969,43.457,41.992,42.969,3.418,0
1580493052.281,36.133,45.410,41.016,43.945,-28.809,0
1580493052.285,24.902,45.410,42.480,41.992,49.805,0
1580493052.289,31.738,45.410,42.969,33.691,55.664,0
1580493052.293,49.805,44.922,38.574,36.621,30.273,0
1580493052.297,42.480,42.969,41.504,37.598,60.547,0
1580493052.301,23.438,42.969,44.922,34.180,36.133,0
1580493052.299,25.391,44.922,39.551,34.180,36.621,0
1580493052.303,44.434,43.945,36.133,36.621,122.070,0
1580493052.307,54.199,43.945,38.086,38.086,101.074,0
1580493052.311,45.898,46.387,37.109,41.504,8.301,0
1580493052.315,35.645,44.434,38.086,41.992,43.457,0
1580493052.319,47.363,41.992,39.551,41.992,48.340,0
1580493052.322,58.105,41.016,40.527,47.852,25.879,0
1580493052.326,42.969,38.574,43.945,46.387,65.918,0
1580493052.330,32.715,41.016,42.969,44.434,66.406,0
1580493052.334,44.922,42.480,41.016,43.945,1.465,0
1580493052.338,50.781,40.527,40.039,35.156,7.812,0
1580493052.342,33.691,39.551,39.551,32.715,59.082,0
1580493052.358,21.973,42.480,42.480,36.133,41.992,0
1580493052.362,25.391,41.992,42.969,35.645,-14.648,0
1580493052.366,36.621,40.039,38.574,33.691,-45.898,0
1580493052.370,38.086,42.969,38.086,33.691,-41.504,0
1580493052.374,27.344,45.410,39.062,36.621,43.457,0
1580493052.378,32.715,47.363,38.574,33.691,95.215,0
1580493052.381,50.293,45.898,38.086,25.879,40.527,0
1580493052.385,55.176,42.969,34.180,26.367,25.391,0
1580493052.389,44.922,42.480,32.715,31.250,77.637,0
1580493052.393,33.691,41.504,34.668,27.832,95.703,0
1580493052.397,41.992,41.016,34.668,25.391,56.152,0
1580493052.401,46.387,39.062,36.133,26.367,27.832,0
1580493052.399,29.297,38.086,38.086,29.785,-6.836,0
1580493052.403,21.973,38.086,39.551,33.203,20.508,0
1580493052.407,36.133,35.156,38.086,31.738,76.660,0
1580493052.411,49.805,34.180,36.133,33.691,68.848,0
1580493052.415,41.992,35.645,40.039,35.645,10.254,0
1580493052.419,22.461,39.551,42.969,33.203,16.113,0
1580493052.422,27.832,42.480,37.598,33.691,47.852,0
1580493052.426,41.992,41.504,32.227,30.762,2.441,0
1580493052.430,35.645,39.551,32.715,25.391,15.625,0
1580493052.434,27.344,43.945,34.668,31.250,69.336,0
1580493052.438,25.879,46.387,36.133,34.180,54.688,0
1580493052.442,35.645,41.992,33.691,31.250,27.832,0
1580493052.438,39.551,39.062,30.273,32.715,4.883,0
1580493052.442,24.414,38.086,31.738,35.645,25.879,0
1580493052.446,17.578,38.574,34.668,33.691,16.602,0
1580493052.450,32.227,36.133,32.227,33.203,20.020,0
1580493052.454,40.527,34.180,33.691,35.156,8.789,0
1580493052.458,32.715,34.180,36.621,37.598,-16.602,0
1580493052.461,22.949,34.180,37.598,44.434,52.246,0
1580493052.465,30.273,34.668,36.133,33.203,78.613,0
1580493052.469,41.992,31.738,32.227,19.043,-11.719,0
1580493052.473,37.109,33.203,32.715,27.832,-9.766,0
1580493052.477,27.344,37.109,32.715,38.574,61.523,0
1580493052.481,29.297,37.109,32.715,40.039,53.711,0
1580493052.498,39.062,35.645,32.227,32.715,18.066,0
1580493052.502,40.527,34.180,29.297,30.762,-0.977,0
1580493052.506,23.926,34.668,30.762,30.273,40.039,0
1580493052.510,18.555,35.645,28.809,24.414,34.668,0
1580493052.514,34.668,33.203,23.926,26.367,24.414,0
1580493052.518,35.156,34.668,27.344,22.949,29.297,0
1580493052.521,14.160,35.645,29.785,14.160,65.430,0
1580493052.525,3.906,30.762,27.344,16.602,67.383,0
1580493052.529,17.578,30.762,26.367,22.949,43.457,0
1580493052.533,31.738,30.273,28.809,23.438,101.074,0
1580493052.537,22.949,28.320,33.203,21.484,70.312,0
1580493052.541,17.090,32.715,33.203,31.738,27.832,0
1580493052.538,31.250,34.180,33.691,40.527,88.379,0
1580493052.542,49.805,34.180,34.668,44.434,99.609,0
1580493052.546,43.945,34.668,33.203,42.480,70.312,0
1580493052.550,27.344,35.645,33.203,37.598,69.336,0
1580493052.554,31.250,34.668,34.668,35.645,33.691,0
1580493052.558,43.945,33.203,36.621,37.109,0.000,0
1580493052.561,42.969,35.156,35.645,38.574,52.734,0
1580493052.565,30.273,37.109,35.156,39.062,14.160,0
1580493052.569,23.926,35.645,37.109,36.133,-1.465,0
1580493052.573,34.180,34.180,37.109,28.809,57.129,0
1580493052.577,44.922,34.668,32.227,32.715,18.555,0
1580493052.581,33.203,36.133,34.668,37.598,6.836,0
1580493052.579,20.020,37.109,40.039,38.574,26.367,0
1580493052.583,37.109,39.062,37.598,40.039,26.855,0
1580493052.587,44.922,42.480,37.109,34.668,-15.137,0
1580493052.591,31.250,42.969,39.551,35.645,-50.781,0
1580493052.595,23.926,42.969,41.016,33.203,-24.902,0
1580493052.599,28.809,44.922,38.086,29.785,-30.273,0
1580493052.602,40.039,42.480,35.156,30.762,12.695,0
1580493052.606,36.621,41.016,34.668,28.320,49.805,0
1580493052.610,17.578,39.551,32.715,24.414,48.340,0
1580493052.614,12.695,36.621,36.133,20.996,52.734,0
1580493052.618,27.832,37.598,36.621,20.020,50.781,0
1580493052.622,36.621,37.598,32.227,21.484,-3.906,0
1580493052.639,24.414,38.086,36.621,22.949,-6.836,0
1580493052.643,10.742,38.086,41.504,17.090,67.871,0
1580493052.647,20.996,37.598,36.133,18.066,45.898,0
1580493052.651,30.762,37.109,36.621,24.902,30.762,0
1580493052.655,21.973,34.668,42.969,29.297,10.254,0
1580493052.659,19.531,38.086,44.434,40.039,18.555,0
1580493052.662,31.738,39.551,40.039,41.992,32.227,0
1580493052.666,44.922,37.598,36.621,38.574,-12.695,0
1580493052.670,46.387,41.504,36.621,41.016,-20.508,0
1580493052.674,38.574,43.945,38.086,44.922,20.508,0
1580493052.678,44.434,47.363,37.598,39.062,-34.180,0
1580493052.682,57.129,47.363,37.109,32.715,-71.777,0
1580493052.678,51.758,41.504,37.109,31.250,-5.859,0
1580493052.682,37.598,43.945,36.621,30.273,22.949,0
1580493052.686,38.574,44.434,33.691,34.668,63.477,0
1580493052.690,48.828,38.574,31.738,29.785,55.176,0
1580493052.694,50.293,38.086,32.715,24.414,60.547,0
1580493052.698,40.039,40.527,34.668,35.156,57.617,0
1580493052.701,25.879,41.992,36.621,44.434,36.621,0
1580493052.705,35.645,39.062,36.133,41.016,83.008,0
1580493052.709,41.504,36.133,35.156,40.039,51.270,0
1580493052.713,25.391,37.598,38.574,40.039,-12.695,0
1580493052.717,14.160,38.574,41.016,35.645,-22.949,0
1580493052.721,23.438,36.621,39.062,39.551,-15.137,0
1580493052.719,35.645,36.133,36.133,39.062,44.922,0
1580493052.723,31.738,40.039,39.062,35.156,35.645,0
1580493052.727,23.438,42.969,42.480,39.062,58.594,0
1580493052.731,21.973,38.086,41.504,34.180,87.891,0
1580493052.735,29.785,35.156,39.551,30.762,13.184,0
1580493052.739,30.762,38.574,38.086,38.086,3.906,0
1580493052.742,20.508,41.504,40.039,33.203,26.855,0
1580493052.746,19.531,39.551,41.504,27.344,32.715,0
1580493052.750,32.715,34.668,40.527,26.855,-0.488,0
1580493052.754,41.504,35.156,38.574,28.320,-9.766,0
1580493052.758,27.344,37.109,38.574,28.809,-6.348,0
1580493052.762,20.020,36.621,40.527,34.668,-14.648,0
1580493052.778,37.109,34.668,41.016,37.598,48.828,0
1580493052.782,49.316,31.250,38.574,35.645,41.992,0
1580493052.786,48.340,31.738,39.062,45.410,84.473,0
1580493052.790,42.969,37.109,39.062,50.781,100.586,0
1580493052.794,55.176,40.527,38.574,50.781,7.812,0
1580493052.798,66.895,40.039,39.062,49.805,20.020,0
1580493052.801,54.199,38.574,39.062,48.828,35.156,0
1580493052.805,37.598,38.574,39.551,48.340,5.859,0
1580493052.809,33.203,37.109,38.574,44.922,59.082,0
1580493052.813,43.457,34.180,35.645,38.086,24.902,0
1580493052.817,42.969,34.668,35.156,25.879,46.387,0
1580493052.821,24.902,36.133,36.621,23.926,103.516,0
1580493052.818,19.043,35.645,39.062,28.320,55.176,0
1580493052.822,35.156,34.180,39.551,33.691,54.688,0
1580493052.826,43.457,35.645,38.574,32.227,95.703,0
1580493052.830,34.668,40.527,39.062,31.250,85.449,0
1580493052.834,24.902,39.062,40.527,37.109,40.527,0
1580493052.838,28.320,32.227,40.527,35.645,-0.977,0
1580493052.841,39.062,29.785,37.598,31.250,-19.043,0
1580493052.845,31.738,31.250,35.645,32.715,8.789,0
1580493052.849,18.555,31.738,38.086,33.203,28.320,0
1580493052.853,29.785,30.273,37.598,30.273,20.020,0
1580493052.857,44.922,27.832,34.668,32.715,-29.297,0
1580493052.861,44.434,31.250,36.621,41.992,-15.625,0
1580493052.879,33.203,35.645,38.574,49.316,39.062,0
1580493052.883,34.180,37.109,37.109,44.434,92.285,0
1580493052.887,46.875,37.109,35.156,38.086,81.055,0
1580493052.891,53.711,38.574,34.668,39.062,34.180,0
1580493052.895,44.922,40.527,39.551,43.457,-3.906,0
1580493052.899,37.598,41.504,41.016,45.898,2.930,0
1580493052.902,46.875,39.551,38.086,41.992,57.617,0
1580493052.906,49.805,39.551,37.109,34.180,62.012,0
1580493052.910,40.039,39.551,37.109,30.762,35.156,0
1580493052.914,27.344,37.109,36.621,32.715,50.781,0
1580493052.918,36.621,36.133,35.156,35.156,82.031,0
1580493052.922,54.199,35.156,34.668,35.156,36.133,0
1580493052.919,47.852,34.668,36.133,38.086,38.086,0
1580493052.923,38.574,37.109,38.574,47.363,34.180,0
1580493052.927,48.340,39.551,40.039,53.223,5.859,0
1580493052.931,59.570,36.133,38.086,45.898,23.926,0
1580493052.935,53.711,33.691,36.621,39.062,49.316,0
1580493052.939,36.133,39.551,38.086,36.621,42.969,0
1580493052.942,31.738,39.551,36.621,29.785,26.367,0
1580493052.946,46.875,40.527,33.691,24.902,3.906,0
1580493052.950,50.781,41.992,34.668,25.879,-18.555,0
1580493052.954,32.715,41.504,34.668,28.809,-9.766,0
1580493052.958,19.043,39.551,33.691,20.020,-36.133,0
1580493052.962,26.855,35.645,32.715,9.277,-10.254,0
1580493052.959,41.016,36.621,34.180,21.973,-10.254,0
1580493052.963,28.320,35.645,41.016,30.273,35.645,0
1580493052.967,13.672,33.203,41.016,30.273,78.125,0
1580493052.971,20.996,31.250,37.109,35.156,38.086,0
1580493052.975,28.809,28.320,36.621,37.109,-4.883,0
1580493052.979,20.508,31.738,39.062,39.551,4.883,0
1580493052.982,9.277,33.691,40.039,41.016,23.926,0
1580493052.986,15.625,31.250,37.109,40.527,26.855,0
1580493052.990,30.762,32.227,36.621,37.598,20.020,0
1580493052.994,37.598,35.156,36.133,33.203,42.480,0
1580493052.998,31.738,38.086,37.598,38.574,93.262,0
1580493053.002,30.273,39.062,38.086,41.504,56.152,0
1580493053.018,46.387,36.621,37.109,40.527,6.348,0
1580493053.022,55.176,36.621,37.109,39.551,9.277,0
1580493053.026,44.434,42.480,37.598,38.574,55.664,0
1580493053.030,35.645,43.945,38.086,42.969,62.012,0
1580493053.034,44.434,42.480,35.645,40.527,18.555,0
1580493053.038,56.641,42.480,32.227,37.598,14.160,0
1580493053.041,51.270,45.410,34.668,43.945,26.855,0
1580493053.045,33.203,45.410,38.574,36.133,36.621,0
1580493053.049,34.668,40.527,36.133,31.738,39.551,0
1580493053.053,51.758,41.016,36.133,34.180,58.594,0
1580493053.057,49.316,42.480,38.086,32.715,72.754,0
1580493053.061,30.762,41.016,38.086,36.133,74.219,0
1580493053.058,28.320,39.062,37.598,36.621,48.828,0
1580493053.062,40.527,36.621,39.062,34.180,23.926,0
1580493053.066,39.551,37.598,42.969,38.574,46.387,0
1580493053.070,24.414,39.551,44.434,40.527,25.879,0
1580493053.074,20.020,39.062,45.410,38.086,47.363,0
1580493053.078,36.621,38.574,42.969,38.086,26.367,0
1580493053.081,44.922,38.574,38.574,39.062,-14.648,0
1580493053.085,25.391,38.086,37.109,34.668,18.555,0
1580493053.089,16.602,37.109,35.645,29.297,42.969,0
1580493053.093,30.762,39.062,29.297,31.738,43.457,0
1580493053.097,35.645,39.551,26.855,28.809,72.754,0
1580493053.101,25.391,39.551,29.785,27.344,36.621,0
1580493053.099,16.113,41.016,32.227,31.738,20.996,0
1580493053.103,28.320,38.574,31.250,28.809,31.250,0
1580493053.107,46.875,32.715,29.297,23.438,42.480,0
1580493053.111,41.016,34.668,31.738,25.879,57.129,0
1580493053.115,26.367,38.086,34.180,33.203,80.078,0
1580493053.119,35.156,38.086,34.668,38.086,48.828,0
1580493053.122,55.664,35.645,32.715,37.109,12.207,0
1580493053.126,59.570,33.203,32.227,44.434,21.973,0
1580493053.130,45.410,36.133,32.227,46.875,13.184,0
1580493053.134,40.527,37.598,32.715,46.875,50.781,0
1580493053.138,53.711,38.086,32.227,46.875,66.895,0
1580493053.142,56.641,39.551,32.715,43.457,76.660,0
1580493053.158,41.504,41.992,36.133,47.363,35.645,0
1580493053.162,33.691,42.480,39.551,48.340,-4.395,0
1580493053.166,44.922,40.527,39.062,48.828,-0.977,0
1580493053.170,49.805,35.645,37.109,47.363,7.812,0
1580493053.174,38.574,33.203,39.551,46.387,42.969,0
1580493053.178,32.227,34.180,41.016,52.734,40.527,0
1580493053.181,38.574,34.180,40.039,47.363,29.785,0
1580493053.185,51.758,31.250,35.645,43.457,-10.254,0
1580493053.189,50.293,31.738,34.668,48.828,16.602,0
1580493053.193,34.180,34.668,39.062,49.805,52.246,0
1580493053.197,32.715,36.621,37.598,48.340,1.465,0
1580493053.201,38.574,37.598,36.133,37.598,34.180,0
1580493053.198,37.598,38.574,37.109,34.180,31.738,0
1580493053.202,23.926,39.062,37.109,32.715,-20.020,0
1580493053.206,17.090,40.527,38.086,28.320,-17.578,0
1580493053.210,29.785,40.527,39.062,27.832,9.766,0
1580493053.214,33.203,39.062,41.016,23.926,39.062,0
1580493053.218,21.484,38.574,41.016,27.832,28.809,0
1580493053.221,12.695,35.645,38.086,29.297,34.668,0
1580493053.225,21.484,33.691,35.645,26.855,34.180,0
1580493053.229,32.715,33.203,37.109,22.461,3.906,0
1580493053.233,29.785,33.691,39.551,24.414,-0.488,0
1580493053.237,19.531,38.086,41.992,28.320,66.895,0
1580493053.241,24.902,39.062,43.457,30.762,79.590,0
1580493053.238,43.945,40.039,42.480,33.691,-19.043,0
1580493053.242,45.898,41.992,40.527,35.645,-14.648,0
1580493053.246,35.156,41.504,38.574,41.504,41.504,0
1580493053.250,34.668,40.039,39.551,41.016,37.109,0
1580493053.254,40.527,37.598,40.527,36.621,46.875,0
1580493053.258,40.039,37.109,36.133,37.598,-2.441,0
1580493053.261,27.832,36.621,34.180,39.551,12.207,0
1580493053.265,20.996,36.133,36.621,40.527,63.965,0
1580493053.269,36.621,36.133,38.574,38.574,22.461,0
1580493053.273,44.434,34.668,37.109,37.109,62.012,0
1580493053.277,35.645,35.156,39.551,43.457,31.738,0
1580493053.281,26.855,37.109,39.062,45.898,-12.695,0
1580493053.298,37.598,34.668,37.109,42.969,74.219,0
1580493053.302,59.082,33.691,40.527,47.852,37.598,0
1580493053.306,51.758,36.133,41.504,52.246,-0.488,0
1580493053.310,32.715,35.156,38.086,44.922,46.387,0
1580493053.314,34.668,34.180,36.133,34.180,39.551,0
1580493053.318,48.340,35.645,37.598,34.180,29.297,0
1580493053.321,46.875,37.109,36.621,27.344,22.949,0
1580493053.325,31.250,37.109,34.180,20.996,54.199,0
1580493053.329,32.715,39.062,32.227,31.250,34.668,0
1580493053.333,45.410,39.551,33.203,33.203,49.805,0
1580493053.337,49.316,40.039,34.180,37.109,119.629,0
1580493053.341,39.062,42.480,33.691,38.574,56.641,0
1580493053.339,30.273,43.945,34.180,34.180,51.758,0
1580493053.343,38.574,41.992,34.180,35.156,73.730,0
1580493053.347,49.805,38.574,33.691,37.598,-4.395,0
1580493053.351,39.551,37.598,34.668,33.203,-53.711,0
1580493053.355,27.344,36.621,35.156,33.203,35.645,0
1580493053.359,33.691,36.621,34.668,35.156,114.258,0
1580493053.362,40.039,33.203,32.715,31.250,58.105,0
1580493053.366,30.273,29.785,33.203,25.391,23.438,0
1580493053.370,15.625,28.320,34.668,23.926,53.711,0
1580493053.374,17.578,29.297,34.180,26.367,73.730,0
1580493053.378,31.738,29.297,31.738,21.484,46.387,0
1580493053.382,28.809,25.391,32.227,20.996,53.711,0
1580493053.379,11.230,27.344,35.156,26.855,68.848,0
1580493053.383,9.277,30.273,36.621,28.809,41.504,0
1580493053.387,25.391,26.855,34.180,25.879,36.133,0
1580493053.391,33.691,26.367,36.133,27.832,36.621,0
1580493053.395,22.461,30.273,37.598,32.715,39.551,0
1580493053.399,15.137,31.738,38.086,37.109,10.742,0
1580493053.402,23.926,29.785,36.621,31.250,3.418,0
1580493053.406,30.762,28.809,34.180,22.949,38.574,0
1580493053.410,25.391,31.250,35.645,26.855,38.086,0
1580493053.414,12.207,32.227,33.691,26.367,0.977,0
1580493053.418,13.672,31.250,31.250,17.578,-35.156,0
1580493053.422,30.762,32.227,28.809,19.043,-3.418,0
1580493053.439,31.738,32.227,30.273,22.949,20.996,0
1580493053.443,17.578,32.227,32.715,20.508,-2.930,0
1580493053.447,18.555,32.227,32.227,24.414,11.230,0
1580493053.451,40.039,31.250,31.738,33.203,38.086,0
1580493053.455,44.434,34.180,31.738,37.598,67.383,0
1580493053.459,31.250,36.621,32.227,38.574,84.961,0
1580493053.462,27.344,36.133,32.715,29.297,47.363,0
1580493053.466,35.645,36.621,32.227,24.414,34.180,0
1580493053.470,40.527,36.133,33.203,27.832,54.688,0
1580493053.474,30.273,37.598,31.738,25.391,10.742,0
1580493053.478,16.113,37.598,32.227,21.484,-9.277,0
1580493053.482,19.531,32.715,33.203,16.602,37.598,0
1580493053.479,32.715,31.250,32.715,17.090,2.930,0
1580493053.483,30.273,33.691,33.691,21.973,-16.602,0
1580493053.487,24.414,34.180,36.621,29.297,19.043,0
1580493053.491,35.156,34.668,34.668,33.691,17.578,0
1580493053.495,52.246,33.203,31.738,33.203,-2.930,0
1580493053.499,54.199,34.668,33.691,36.621,20.996,0
1580493053.502,38.574,38.574,39.062,38.086,41.504,0
1580493053.506,34.668,38.086,36.621,37.109,24.902,0
1580493053.510,48.340,38.574,28.320,37.598,16.602,0
1580493053.514,49.316,38.574,29.297,35.156,1.953,0
1580493053.518,35.645,38.086,31.738,32.227,34.668,0
1580493053.522,29.297,37.598,35.156,34.668,31.250,0
1580493053.519,33.691,34.180,39.062,32.227,1.465,0
1580493053.523,39.551,32.227,40.039,32.715,50.781,0
1580493053.527,36.621,35.156,41.016,36.621,50.293,0
1580493053.531,31.250,38.086,41.016,36.133,54.688,0
1580493053.535,41.504,39.551,40.039,37.598,45.410,0
1580493053.539,48.340,41.016,39.062,34.668,-32.227,0
1580493053.542,37.598,40.039,36.621,33.691,2.441,0
1580493053.546,23.438,41.016,37.598,37.598,54.688,0
1580493053.550,18.555,41.504,41.504,37.598,25.879,0
1580493053.554,30.273,38.574,40.527,36.133,-4.883,0
1580493053.558,34.180,37.109,39.551,38.086,-12.695,0
1580493053.562,19.043,37.598,40.527,38.574,30.273,0
1580493053.579,17.090,38.086,40.527,36.133,49.316,0
1580493053.583,31.738,36.133,37.109,32.715,20.020,0
1580493053.587,35.156,35.645,38.086,26.367,-0.488,0
1580493053.591,24.414,38.574,38.574,25.391,-1.953,0
1580493053.595,20.020,41.504,36.621,26.855,55.176,0
1580493053.599,31.250,41.504,38.086,27.344,66.406,0
1580493053.602,43.945,41.016,36.621,26.855,-4.883,0
1580493053.606,37.109,40.527,39.551,32.715,8.789,0
1580493053.610,26.855,41.016,41.504,38.574,50.293,0
1580493053.614,32.227,39.062,41.016,30.762,72.266,0
1580493053.618,42.480,38.574,41.016,31.738,22.461,0
1580493053.622,40.039,40.039,39.551,40.039,-5.371,0
1580493053.619,26.367,40.527,39.062,41.504,9.766,0
1580493053.623,26.367,41.504,41.992,40.039,-23.438,0
1580493053.627,41.992,41.504,40.039,40.527,3.418,0
1580493053.631,41.016,41.016,33.691,38.086,34.668,0
1580493053.635,26.855,43.457,35.645,37.109,7.812,0
1580493053.639,23.926,42.480,36.133,40.039,19.531,0
1580493053.642,37.109,39.551,32.715,41.016,31.738,0
1580493053.646,43.945,39.062,34.180,40.527,-3.906,0
1580493053.650,31.738,41.992,37.598,38.086,0.488,0
1580493053.654,20.020,41.504,41.016,33.203,52.246,0
1580493053.658,28.320,39.551,39.062,28.320,111.328,0
1580493053.662,40.527,41.016,35.156,31.250,115.723,0
1580493053.659,33.203,40.527,37.109,32.715,78.125,0
1580493053.663,22.949,40.527,39.551,31.738,35.645,0
1580493053.667,31.738,41.504,38.574,31.738,57.129,0
1580493053.671,46.875,39.551,37.109,31.250,83.008,0
1580493053.675,47.852,39.551,37.598,33.691,42.480,0
1580493053.679,35.645,41.504,40.527,34.180,-8.789,0
1580493053.682,37.109,41.016,40.527,38.086,45.898,0
1580493053.686,52.246,39.062,38.086,34.668,59.570,0
1580493053.690,46.875,36.133,37.109,24.414,-4.883,0
1580493053.694,29.785,37.109,35.645,27.344,53.711,0
1580493053.698,27.832,39.551,35.645,34.180,50.781,0
1580493053.702,42.969,39.062,35.645,38.086,11.719,0
1580493053.719,47.852,39.062,37.109,39.551,23.438,0
1580493053.723,37.109,38.574,39.551,38.574,3.906,0
1580493053.727,29.297,39.062,41.016,36.621,24.414,0
1580493053.731,38.086,38.086,41.016,37.109,29.297,0
1580493053.735,50.293,34.180,38.574,39.551,42.480,0
1580493053.739,41.504,34.180,37.598,41.992,63.965,0
1580493053.742,29.785,36.621,36.133,41.504,42.480,0
1580493053.746,34.180,32.715,34.668,33.691,60.059,0
1580493053.750,41.504,30.273,35.156,26.855,60.059,0
1580493053.754,41.016,32.715,34.668,27.344,-7.812,0
1580493053.758,34.180,36.621,35.156,32.715,11.719,0
1580493053.762,31.738,36.621,36.133,32.227,16.602,0
1580493053.759,35.645,33.203,34.668,27.344,21.484,0
1580493053.763,38.574,31.250,34.668,28.320,21.973,0
1580493053.767,26.367,30.273,34.668,31.738,4.883,0
1580493053.771,17.090,31.250,36.621,28.320,5.859,0
1580493053.775,30.273,32.227,38.574,22.461,6.836,0
1580493053.779,42.480,32.227,36.621,26.367,75.684,0
1580493053.782,34.668,35.156,35.645,32.227,106.445,0
1580493053.786,26.855,37.598,38.086,34.180,54.199,0
1580493053.790,36.621,38.086,39.062,36.133,13.672,0
1580493053.794,47.852,36.133,39.062,31.250,34.668,0
1580493053.798,43.945,36.133,40.039,30.762,20.020,0
1580493053.802,31.250,36.621,41.504,35.645,49.316,0
1580493053.801,29.297,34.180,41.504,32.715,108.398,0
1580493053.805,42.969,32.715,38.086,32.227,86.914,0
1580493053.809,44.922,36.133,39.551,30.762,27.344,0
1580493053.813,27.344,39.062,45.410,28.809,11.230,0
1580493053.817,23.438,36.621,43.945,29.297,6.348,0
1580493053.821,41.992,36.621,40.527,33.691,46.387,0
1580493053.824,51.270,38.086,41.504,38.086,82.031,0
1580493053.828,34.180,38.086,43.457,31.738,5.371,0
1580493053.832,22.461,39.062,42.969,30.762,-3.906,0
1580493053.836,32.227,36.621,38.574,29.785,13.672,0
1580493053.840,39.551,35.645,38.086,24.414,49.805,0
1580493053.844,37.109,40.039,39.551,34.180,38.574,0
1580493053.859,23.438,39.551,37.598,31.738,28.320,0
1580493053.863,22.461,36.133,32.715,26.855,52.246,0
1580493053.867,38.574,35.645,27.344,28.320,48.340,0
1580493053.871,34.668,35.156,30.273,31.738,8.789,0
1580493053.875,18.066,37.109,33.203,41.016,22.461,0
1580493053.879,22.461,37.598,35.156,44.434,61.523,0
1580493053.882,36.621,34.668,36.133,41.504,11.230,0
1580493053.886,36.621,34.668,33.691,38.086,0.488,0
1580493053.890,17.578,35.645,37.109,37.109,60.059,0
1580493053.894,13.672,35.645,37.109,45.410,64.941,0
1580493053.898,28.320,34.668,35.645,43.457,16.602,0
1580493053.902,29.785,34.668,38.086,35.156,-12.695,0
1580493053.899,19.043,36.621,36.133,37.109,34.180,0
1580493053.903,16.113,37.598,36.621,39.062,53.223,0
1580493053.907,28.320,36.621,36.133,36.133,22.949,0
1580493053.911,39.062,37.109,33.203,36.133,12.695,0
1580493053.915,28.809,35.156,32.715,35.156,26.367,0
1580493053.919,14.648,34.668,34.668,35.156,-5.371,0
1580493053.922,23.926,36.133,36.621,32.715,-5.371,0
1580493053.926,40.039,36.133,38.086,26.367,16.602,0
1580493053.930,34.668,33.691,39.551,22.461,4.883,0
1580493053.934,24.414,36.133,34.668,25.879,11.719,0
1580493053.938,24.414,36.133,27.832,22.461,30.273,0
1580493053.942,38.574,32.227,28.809,23.926,52.734,0
1580493053.939,42.480,35.156,33.203,31.250,9.277,0
1580493053.943,27.344,35.645,36.133,30.762,27.832,0
1580493053.947,27.832,35.156,35.645,33.691,75.195,0
1580493053.951,41.992,34.180,34.180,40.527,57.617,0
1580493053.955,44.922,34.668,35.645,40.527,71.289,0
1580493053.959,32.715,33.203,35.645,41.016,89.844,0
1580493053.962,23.926,35.156,36.133,45.898,74.707,0
1580493053.966,33.691,38.574,33.691,41.016,34.180,0
1580493053.970,44.434,37.109,33.203,36.133,27.344,0
1580493053.974,34.180,38.574,35.645,40.039,35.645,0
1580493053.978,18.066,41.016,34.668,38.086,34.668,0
1580493053.982,24.414,39.062,32.715,29.297,-5.371,0
1580493053.999,38.086,37.109,32.227,24.902,-22.949,0
1580493054.003,35.645,38.574,37.598,29.785,33.203,0
1580493054.007,21.484,40.039,41.016,33.203,-0.488,0
1580493054.011,17.090,38.574,37.109,30.273,-8.789,0
1580493054.015,29.297,36.133,35.645,31.250,43.945,0
1580493054.019,35.156,38.086,37.109,36.133,40.527,0
1580493054.022,21.973,40.039,38.574,29.785,76.660,0
1580493054.026,16.602,39.062,38.574,29.297,44.434,0
1580493054.030,37.109,38.574,36.133,34.668,7.812,0
1580493054.034,46.387,35.645,35.156,32.715,69.824,0
1580493054.038,33.691,36.621,36.133,35.156,29.297,0
1580493054.042,23.438,37.598,36.621,33.691,22.949,0
1580493054.039,30.273,36.133,35.645,29.297,28.809,0
1580493054.043,42.480,36.133,33.691,30.273,-6.836,0
1580493054.047,37.109,35.645,33.691,29.297,8.301,0
1580493054.051,28.320,38.086,35.156,30.273,45.898,0
1580493054.055,30.762,37.598,34.180,28.320,58.105,0
1580493054.059,36.133,33.691,33.691,21.973,0.000,0
1580493054.062,34.180,34.180,36.133,21.973,18.555,0
1580493054.066,24.414,33.203,38.574,27.832,32.227,0
1580493054.070,27.832,34.180,36.621,30.762,23.438,0
1580493054.074,44.434,34.180,33.203,27.344,40.527,0
1580493054.078,50.293,34.180,33.203,30.762,22.461,0
1580493054.082,38.086,36.621,35.645,34.668,32.227,0
1580493054.078,31.738,36.621,35.645,30.273,-14.160,0
1580493054.082,37.598,36.621,32.715,24.902,-17.090,0
1580493054.086,41.016,35.156,32.227,22.461,27.832,0
1580493054.090,31.250,37.109,34.668,27.832,8.789,0
1580493054.094,19.531,37.598,34.668,33.203,79.590,0
1580493054.098,23.926,34.180,35.645,29.297,103.516,0
1580493054.101,34.180,33.691,39.062,26.855,29.297,0
1580493054.105,35.156,37.598,34.668,26.855,17.090,0
1580493054.109,26.855,37.598,32.227,27.832,0.977,0
1580493054.113,25.879,34.180,33.203,34.668,-10.742,0
1580493054.117,38.574,33.203,32.715,32.715,29.297,0
1580493054.121,40.039,32.227,34.668,28.809,63.965,0
1580493054.139,23.926,35.156,38.574,30.273,75.195,0
1580493054.143,23.438,37.109,34.180,28.809,4.395,0
1580493054.147,35.156,33.203,29.297,22.461,-8.301,0
1580493054.151,36.621,33.203,33.691,23.926,4.395,0
1580493054.155,30.273,36.133,36.621,28.320,14.160,0
1580493054.159,24.414,37.598,34.180,24.414,46.387,0
1580493054.162,30.273,36.621,33.691,25.391,48.828,0
1580493054.166,38.574,34.180,33.203,27.832,30.762,0
1580493054.170,28.809,36.133,34.668,24.414,35.645,0
1580493054.174,19.531,38.574,37.598,26.855,52.734,0
1580493054.178,29.297,38.086,36.133,25.879,50.293,0
1580493054.182,40.039,36.621,33.203,19.043,32.227,0
1580493054.179,36.621,35.645,34.180,20.996,-5.859,0
1580493054.183,28.320,36.133,34.668,26.367,2.930,0
1580493054.187,33.203,37.109,33.203,23.438,57.129,0
1580493054.191,45.898,37.109,36.621,21.973,85.449,0
1580493054.195,50.293,37.598,36.133,33.691,67.383,0
1580493054.199,37.598,39.551,36.133,39.062,46.387,0
1580493054.202,32.715,42.480,37.109,42.969,35.645,0
1580493054.206,42.969,41.016,36.133,45.410,44.434,0
1580493054.210,43.945,37.598,33.691,39.062,41.016,0
1580493054.214,25.879,38.086,32.715,27.832,71.777,0
1580493054.218,15.625,38.086,35.156,27.344,58.105,0
1580493054.222,24.414,36.133,34.668,29.785,-0.488,0
1580493054.218,33.203,37.598,32.715,25.879,19.043,0
1580493054.222,27.344,39.551,39.062,31.250,4.395,0
1580493054.226,13.672,41.504,38.574,34.668,-17.578,0
1580493054.230,19.043,41.016,33.203,29.297,41.992,0
1580493054.234,34.180,38.086,34.180,29.297,50.293,0
1580493054.238,27.832,38.086,34.668,28.809,-32.715,0
1580493054.241,12.695,35.645,35.645,25.879,-28.809,0
1580493054.245,14.160,32.715,36.133,23.438,30.762,0
1580493054.249,31.250,30.273,36.133,28.809,36.621,0
1580493054.253,38.086,26.855,35.156,35.156,26.367,0
1580493054.257,23.926,30.273,36.621,33.691,43.457,0
1580493054.261,21.973,33.203,39.551,33.691,20.996,0
1580493054.278,35.645,30.762,37.109,31.738,45.410,0
1580493054.282,44.922,31.250,33.691,29.297,89.844,0
1580493054.286,33.203,33.203,35.645,31.738,46.387,0
1580493054.290,20.508,33.691,37.109,24.902,32.715,0
1580493054.294,32.227,35.156,35.156,21.973,27.344,0
1580493054.298,45.410,36.133,34.668,30.273,-15.137,0
1580493054.301,36.133,36.133,36.621,37.598,17.578,0
1580493054.305,21.973,36.133,39.551,34.180,74.219,0
1580493054.309,23.438,35.156,41.504,30.273,76.660,0
1580493054.313,37.109,35.156,37.598,33.691,60.547,0
1580493054.317,37.109,38.574,37.598,36.133,-3.906,0
1580493054.321,22.461,38.574,38.574,33.203,27.344,0
1580493054.318,21.484,36.133,36.133,32.227,49.805,0
1580493054.322,39.062,32.715,37.598,36.133,13.672,0
1580493054.326,46.875,32.227,38.574,36.621,38.574,0
1580493054.330,30.762,33.691,41.016,34.668,40.039,0
1580493054.334,21.973,33.691,42.969,41.504,4.883,0
1580493054.338,34.668,33.691,40.039,41.016,-53.223,0
1580493054.341,43.945,33.203,38.574,35.645,-41.016,0
1580493054.345,31.250,33.691,37.109,36.621,35.156,0
1580493054.349,16.602,34.180,35.156,38.574,5.859,0
1580493054.353,23.438,32.227,37.109,33.691,5.371,0
1580493054.357,34.180,29.297,36.133,30.762,52.734,0
1580493054.361,29.785,30.273,37.598,31.738,77.148,0
1580493054.378,20.020,34.180,39.551,35.645,64.453,0
1580493054.382,20.508,35.645,39.062,35.156,32.227,0
1580493054.386,32.227,33.691,37.598,31.250,21.973,0
1580493054.390,33.691,34.180,37.598,29.785,-1.465,0
1580493054.394,17.090,36.133,39.062,23.438,67.871,0
1580493054.398,13.672,36.133,37.109,19.531,75.684,0
1580493054.401,26.855,36.133,35.156,22.949,-5.371,0
1580493054.405,32.715,37.109,33.691,22.949,40.039,0
1580493054.409,30.762,38.086,32.715,27.344,47.363,0
1580493054.413,25.879,36.621,35.645,28.809,50.781,0
1580493054.417,34.668,35.156,36.133,23.438,75.684,0
1580493054.421,46.387,37.109,36.133,25.391,22.461,0
1580493054.418,38.086,38.574,38.086,26.367,-48.828,0
1580493054.422,27.832,36.621,38.574,26.855,-8.301,0
1580493054.426,31.250,33.203,36.621,26.855,62.012,0
1580493054.430,43.945,33.203,34.180,31.738,43.457,0
1580493054.434,44.922,38.574,32.715,42.969,48.340,0
1580493054.438,29.785,40.039,37.109,44.434,68.359,0
1580493054.441,27.344,38.086,36.621,44.434,57.129,0
1580493054.445,40.039,36.133,34.180,41.504,68.359,0
1580493054.449,39.551,38.574,35.156,37.109,34.180,0
1580493054.453,20.020,39.062,38.086,38.086,21.973,0
1580493054.457,11.230,34.668,35.645,35.645,46.387,0
1580493054.461,22.461,33.691,32.227,34.180,39.062,0
1580493054.458,28.809,34.668,33.203,30.273,0.488,0
1580493054.462,17.090,35.156,33.203,26.855,-61.035,0
1580493054.466,11.230,36.133,31.738,31.738,-32.227,0
1580493054.470,23.926,38.574,32.715,25.879,32.715,0
1580493054.474,37.598,39.551,34.180,19.043,2.441,0
1580493054.478,31.738,39.062,33.691,23.438,57.617,0
1580493054.481,22.949,41.992,33.691,26.855,106.934,0
1580493054.485,31.738,42.480,33.691,28.320,47.363,0
1580493054.489,41.504,39.551,34.668,21.484,27.832,0
1580493054.493,38.086,40.039,36.133,22.949,43.945,0
1580493054.497,27.344,38.574,36.133,25.879,82.031,0
1580493054.501,30.762,36.133,36.621,25.391,48.340,0
1580493054.518,49.316,34.180,36.133,31.250,41.992,0
1580493054.522,50.293,35.645,34.668,33.691,59.082,0
1580493054.526,33.691,37.598,35.645,37.109,-3.906,0
1580493054.530,30.273,37.598,38.086,40.527,0.488,0
1580493054.534,43.945,35.645,36.621,39.551,42.480,0
1580493054.538,47.363,35.156,34.668,36.621,70.312,0
1580493054.541,33.203,34.668,34.180,32.715,76.172,0
1580493054.545,20.508,34.180,36.133,29.785,66.895,0
1580493054.549,30.762,32.227,34.180,33.691,34.668,0
1580493054.553,48.828,31.250,33.203,41.992,62.012,0
1580493054.557,46.387,35.645,35.156,43.457,49.316,0
1580493054.561,32.715,36.621,37.598,39.062,-9.277,0
1580493054.558,33.203,35.156,35.645,37.598,8.789,0
1580493054.562,43.945,31.738,30.273,30.273,89.355,0
1580493054.566,41.504,31.250,30.762,29.297,86.914,0
1580493054.570,25.391,33.691,34.180,31.738,23.926,0
1580493054.574,26.855,35.156,35.156,32.227,40.039,0
1580493054.578,42.969,34.180,34.668,32.715,25.391,0
1580493054.581,40.039,34.668,35.645,29.297,49.316,0
1580493054.585,26.367,37.598,36.133,30.273,41.992,0
1580493054.589,23.438,35.645,35.156,33.691,10.254,0
1580493054.593,30.762,32.227,34.180,32.227,30.273,0
1580493054.597,35.645,32.227,32.227,24.902,31.738,0
1580493054.601,25.879,35.156,29.785,23.926,-7.324,0
1580493054.598,16.113,33.203,31.738,27.344,15.137,0
1580493054.602,26.367,29.297,28.809,25.391,45.898,0
1580493054.606,38.086,30.762,28.320,23.926,-22.949,0
1580493054.610,31.250,32.227,30.273,23.926,3.906,0
1580493054.614,18.066,32.227,30.273,26.367,13.184,0
1580493054.618,24.902,31.738,32.227,26.367,34.668,0
1580493054.621,43.945,31.738,31.250,26.855,89.355,0
1580493054.625,43.457,29.785,33.691,29.785,27.832,0
1580493054.629,28.809,32.227,36.133,29.785,25.879,0
1580493054.633,25.879,35.645,35.645,31.738,81.543,0
1580493054.637,42.480,34.180,33.691,34.668,73.242,0
1580493054.641,48.828,34.668,33.203,32.715,50.781,0
1580493054.658,28.809,35.156,32.715,30.273,10.254,0
1580493054.662,15.625,33.203,30.762,20.996,37.598,0
1580493054.666,24.414,30.762,31.738,19.531,94.238,0
1580493054.670,29.297,29.785,35.645,23.438,69.336,0
1580493054.674,17.090,31.250,35.645,21.484,62.988,0
1580493054.678,4.883,32.227,34.180,23.438,62.988,0
1580493054.681,8.789,30.273,36.621,24.902,37.109,0
1580493054.685,27.344,28.809,34.180,24.902,-3.906,0
1580493054.689,27.832,29.297,29.785,26.855,5.371,0
1580493054.693,13.672,32.227,33.203,27.344,15.137,0
1580493054.697,21.484,35.156,35.645,31.250,63.965,0
1580493054.701,41.504,34.668,35.156,31.250,87.402,0
1580493054.698,40.039,34.180,33.691,28.320,48.828,0
1580493054.702,26.367,35.156,33.203,32.715,52.246,0
1580493054.706,25.879,35.645,33.691,27.832,14.160,0
1580493054.710,37.109,30.273,32.715,17.578,-37.109,0
1580493054.714,40.039,29.297,31.738,16.113,-44.922,0
1580493054.718,22.949,31.738,35.156,16.113,22.949,0
1580493054.721,9.766,30.762,37.598,13.672,21.484,0
1580493054.725,18.066,29.785,36.621,14.160,-7.812,0
1580493054.729,29.297,31.738,32.715,19.043,-1.465,0
1580493054.733,20.996,34.180,32.715,25.879,32.227,0
1580493054.737,7.812,37.109,36.133,25.879,41.016,0
1580493054.741,20.996,37.109,34.668,29.297,15.625,0
1580493054.738,40.527,33.203,35.156,40.527,12.695,0
1580493054.742,38.086,33.203,37.598,48.828,4.883,0
1580493054.746,22.949,34.668,38.086,51.758,46.387,0
1580493054.750,25.391,33.691,36.621,41.992,43.457,0
1580493054.754,34.180,32.715,33.203,29.297,57.617,0
1580493054.758,32.715,33.691,35.156,33.691,61.035,0
1580493054.761,17.578,33.203,36.621,35.156,-14.160,0
1580493054.765,13.672,32.715,33.691,30.273,-7.324,0
1580493054.769,29.785,32.227,35.645,23.926,29.297,0
1580493054.773,36.621,32.715,33.691,20.020,-12.207,0
1580493054.777,23.438,34.180,33.203,21.484,5.859,0
1580493054.781,16.602,35.645,32.227,24.902,24.414,0
1580493054.798,29.297,34.180,26.367,20.508,46.875,0
1580493054.802,40.527,31.738,26.855,18.066,79.590,0
1580493054.806,34.180,31.738,31.250,30.762,-22.949,0
1580493054.810,18.066,32.715,35.645,37.109,12.207,0
1580493054.814,19.043,33.691,35.156,35.156,93.750,0
1580493054.818,28.809,33.691,31.250,32.227,45.898,0
1580493054.821,29.785,35.645,30.273,25.391,78.613,0
1580493054.825,16.113,37.109,31.738,22.461,120.117,0
1580493054.829,12.695,37.598,29.785,24.902,57.129,0
1580493054.833,28.809,36.621,28.809,27.832,-1.465,0
1580493054.837,36.133,37.109,30.273,29.785,36.621,0
1580493054.841,20.020,37.598,31.738,26.367,77.637,0
1580493054.839,10.742,37.598,31.250,32.227,51.270,0
1580493054.843,29.297,36.621,29.297,38.574,22.461,0
1580493054.847,40.527,36.133,31.738,36.133,28.320,0
1580493054.851,27.344,38.574,33.203,39.551,58.594,0
1580493054.855,17.578,37.109,35.156,41.992,11.719,0
1580493054.859,27.344,33.691,36.621,38.574,12.207,0
1580493054.862,38.574,29.297,34.180,33.691,82.520,0
1580493054.866,35.156,31.250,33.691,38.086,75.195,0
1580493054.870,22.949,32.227,36.621,40.039,11.719,0
1580493054.874,30.273,30.273,35.645,33.691,20.996,0
1580493054.878,47.852,31.250,31.738,28.320,80.078,0
1580493054.882,41.992,31.250,31.250,27.832,43.457,0
1580493054.880,27.832,33.203,32.715,33.691,41.992,0
1580493054.884,27.344,37.598,27.832,38.574,59.570,0
1580493054.888,40.527,37.598,27.344,37.109,24.902,0
1580493054.892,46.875,39.062,28.809,34.180,-11.230,0
1580493054.896,31.250,37.598,29.785,32.715,20.508,0
1580493054.900,19.531,36.133,30.762,31.738,65.430,0
1580493054.903,27.832,33.203,27.344,25.879,55.664,0
1580493054.907,29.785,27.832,25.879,21.484,44.922,0
1580493054.911,15.625,29.297,28.320,22.461,53.711,0
1580493054.915,9.277,31.738,26.855,21.973,59.570,0
1580493054.919,16.602,29.785,28.320,20.508,39.551,0
1580493054.923,25.879,26.367,31.738,20.996,12.695,0
1580493054.939,26.367,30.762,31.738,33.203,13.672,0
1580493054.943,19.043,35.645,32.227,38.086,5.371,0
1580493054.947,23.926,34.180,33.203,29.297,-15.625,0
1580493054.951,38.574,32.227,31.250,30.273,45.898,0
1580493054.955,36.133,35.156,30.273,30.273,71.777,0
1580493054.959,24.902,38.086,32.227,30.273,56.152,0
1580493054.962,24.414,36.133,30.762,25.879,96.680,0
1580493054.966,38.574,38.574,27.344,16.602,14.160,0
1580493054.970,41.016,37.598,25.391,19.531,-48.828,0
1580493054.974,26.367,35.645,27.344,23.438,8.789,0
1580493054.978,19.043,39.062,30.273,20.996,39.062,0
1580493054.982,25.391,34.180,28.320,20.020,0.977,0
1580493054.979,39.551,32.715,26.855,27.832,1.953,0
1580493054.983,35.156,37.109,26.367,31.250,57.617,0
1580493054.987,22.461,36.133,27.832,31.250,48.340,0
1580493054.991,30.273,35.645,28.809,34.668,19.531,0
1580493054.995,45.898,36.621,27.832,37.109,30.273,0
1580493054.999,41.504,39.551,28.320,34.668,40.039,0
1580493055.002,31.250,41.504,29.297,32.715,12.695,0
1580493055.006,34.180,40.527,30.762,35.645,40.039,0
1580493055.010,43.945,37.598,29.297,38.086,14.648,0
1580493055.014,41.504,37.109,31.738,37.598,-43.945,0
1580493055.018,31.738,38.086,35.645,39.551,-8.301,0
1580493055.022,32.715,37.598,36.621,43.457,14.160,0
1580493055.019,43.457,35.156,37.109,45.410,-1.953,0
1580493055.023,51.270,35.156,33.691,46.875,31.250,0
1580493055.027,37.598,36.621,35.156,47.852,37.598,0
1580493055.031,22.461,35.645,35.156,42.480,10.254,0
1580493055.035,25.391,32.715,31.738,37.109,20.020,0
1580493055.039,28.809,31.250,33.203,34.668,30.762,0
1580493055.042,14.648,33.691,32.227,26.855,68.848,0
1580493055.046,6.348,38.574,28.809,24.414,77.637,0
1580493055.050,22.461,38.574,29.785,24.414,32.715,0
1580493055.054,38.086,38.086,28.809,21.973,38.574,0
1580493055.058,40.039,39.551,28.320,31.738,-8.301,0
1580493055.062,29.297,39.551,31.250,37.598,-23.438,0
1580493055.079,28.320,37.109,32.227,32.715,18.555,0
1580493055.083,46.387,36.621,31.250,22.949,29.785,0
1580493055.087,46.875,38.574,32.227,17.090,40.527,0
1580493055.091,30.762,41.016,37.598,24.414,60.547,0
1580493055.095,28.320,41.992,37.598,28.320,53.223,0
1580493055.099,39.062,39.551,31.738,30.762,11.719,0
1580493055.102,43.457,35.645,31.738,24.902,-5.859,0
1580493055.106,34.668,35.156,30.762,29.297,1.953,0
1580493055.110,28.320,35.156,26.855,37.598,8.301,0
1580493055.114,40.039,35.156,26.855,32.715,-30.273,0
1580493055.118,48.340,32.715,29.785,30.762,28.320,0
1580493055.122,40.039,32.715,29.785,30.762,40.039,0
1580493055.119,26.367,35.156,27.832,34.668,36.133,0
1580493055.123,32.227,33.203,31.250,40.527,57.617,0
1580493055.127,49.805,33.203,30.273,42.969,16.602,0
1580493055.131,43.945,33.691,28.320,40.039,62.500,0
1580493055.135,28.809,34.668,35.156,40.039,44.922,0
1580493055.139,27.832,31.738,37.598,40.039,23.926,0
1580493055.142,40.039,27.832,35.645,33.203,61.523,0
1580493055.146,39.062,26.855,37.598,29.785,40.039,0
1580493055.150,24.902,30.273,38.574,37.598,47.363,0
1580493055.154,23.926,35.156,36.133,40.039,92.773,0
1580493055.158,31.738,34.180,33.691,34.180,83.984,0
1580493055.162,40.039,32.715,31.738,31.738,76.172,0
1580493055.159,30.762,34.180,35.156,33.691,-35.156,0
1580493055.163,15.137,33.691,37.109,34.180,-26.855,0
1580493055.167,22.949,32.715,34.180,32.715,87.891,0
1580493055.171,36.133,34.668,30.273,36.621,63.477,0
1580493055.175,28.809,35.645,32.715,36.621,-21.973,0
1580493055.179,19.531,37.598,34.668,35.156,0.977,0
1580493055.182,26.367,36.133,31.738,39.551,9.766,0
1580493055.186,41.504,33.203,32.227,38.086,36.621,0
1580493055.190,41.016,35.156,34.180,33.203,83.008,0
1580493055.194,22.949,34.180,32.715,35.645,20.508,0
1580493055.198,23.438,32.227,33.203,41.016,50.293,0
1580493055.202,40.039,31.250,31.738,37.109,60.547,0
1580493055.219,44.922,31.738,32.227,37.109,20.508,0
1580493055.223,34.180,33.691,34.668,41.992,18.555,0
1580493055.227,23.926,32.715,35.156,36.621,-7.812,0
1580493055.231,33.203,35.156,31.250,39.062,6.348,0
1580493055.235,44.922,37.598,27.344,37.598,54.688,0
1580493055.239,34.668,36.621,31.738,28.320,7.324,0
1580493055.242,25.879,37.598,33.203,27.344,49.316,0
1580493055.246,31.250,38.086,31.738,24.902,90.820,0
1580493055.250,39.551,38.086,30.273,21.973,33.203,0
1580493055.254,30.762,39.062,34.180,19.531,23.926,0
1580493055.258,5.859,39.551,37.109,19.043,36.621,0
1580493055.262,3.906,41.992,37.598,20.508,31.250,0
1580493055.259,8.301,35.156,40.527,10.742,6.348,0
1580493055.263,-3.418,33.691,40.527,1.953,25.391,0
1580493055.267,-27.344,48.340,41.504,-5.371,31.250,0
1580493055.271,-38.574,53.711,43.457,-21.973,8.789,0
1580493055.275,-32.227,53.711,44.922,-33.691,12.695,0
1580493055.279,-42.480,51.758,51.758,-49.316,53.711,0
1580493055.282,-64.941,55.176,54.199,-63.477,41.992,0
1580493055.286,-78.125,61.523,53.711,-71.777,0.488,0
1580493055.290,-74.219,61.523,57.617,-79.590,7.812,0
1580493055.294,-74.707,57.617,59.082,-101.562,26.367,0
1580493055.298,-91.797,60.059,60.547,-108.887,31.738,0
1580493055.302,-106.445,60.547,64.453,-100.586,40.039,0
1580493055.299,-103.516,56.152,65.918,-102.539,44.434,0
1580493055.303,-92.773,52.734,64.453,-97.168,34.668,0
1580493055.307,-96.191,53.711,65.430,-88.379,62.500,0
1580493055.311,-106.934,53.223,65.430,-83.008,64.453,0
1580493055.315,-95.215,48.828,62.500,-75.195,25.879,0
1580493055.319,-72.266,42.480,58.105,-68.848,15.625,0
1580493055.322,-56.641,40.039,56.152,-55.176,54.688,0
1580493055.326,-54.688,41.016,54.688,-41.992,29.785,0
1580493055.330,-47.852,38.574,48.828,-39.062,7.324,0
1580493055.334,-22.461,34.180,43.457,-29.785,36.133,0
1580493055.338,-3.906,33.203,41.016,-17.090,5.371,0
1580493055.342,-2.441,33.691,39.551,-2.441,-9.766,0
1580493055.359,-1.465,30.273,38.086,14.160,20.020,0
1580493055.363,13.184,28.809,34.668,20.508,45.410,0
1580493055.367,32.227,29.297,28.809,25.391,22.461,0
1580493055.371,27.832,25.391,29.785,31.738,-1.465,0
1580493055.375,14.648,22.461,30.273,34.180,33.691,0
1580493055.379,25.879,23.438,25.391,33.691,32.227,0
1580493055.382,42.969,21.484,22.949,37.109,64.941,0
1580493055.386,40.527,17.578,23.926,44.922,92.285,0
1580493055.390,30.762,20.996,25.879,45.410,-39.062,0
1580493055.394,36.621,22.949,24.414,51.270,-32.715,0
1580493055.398,55.176,20.020,19.531,57.129,69.824,0
1580493055.402,59.570,21.973,16.602,54.199,57.617,0
1580493055.399,54.199,22.949,15.137,55.664,40.527,0
1580493055.403,50.293,23.926,14.160,51.758,75.195,0
1580493055.407,61.523,21.973,16.602,49.316,81.543,0
1580493055.411,73.242,20.996,15.625,54.199,58.105,0
1580493055.415,63.965,23.438,16.113,61.035,39.551,0
1580493055.419,56.641,22.461,19.531,67.871,5.859,0
1580493055.422,70.801,21.973,18.555,64.941,20.996,0
1580493055.426,83.008,20.996,19.531,64.453,53.711,0
1580493055.430,75.684,24.414,21.484,69.824,42.480,0
1580493055.434,61.035,26.367,24.902,62.988,43.945,0
1580493055.438,62.012,21.973,24.414,55.664,39.551,0
1580493055.442,72.754,19.043,20.508,59.082,41.504,0
1580493055.439,64.941,20.508,20.508,58.105,-1.953,0
1580493055.443,48.828,20.996,21.973,56.641,14.648,0
1580493055.447,50.293,20.508,22.949,53.711,36.621,0
1580493055.451,63.477,19.043,19.043,44.434,19.043,0
1580493055.455,76.172,20.996,16.113,52.246,42.480,0
1580493055.459,72.266,25.391,20.996,63.965,24.902,0
1580493055.462,66.406,24.414,21.973,64.453,16.113,0
1580493055.466,76.172,22.949,18.066,67.871,83.984,0
1580493055.470,84.961,23.438,18.555,70.312,71.289,0
1580493055.474,72.754,22.949,21.484,77.148,35.156,0
1580493055.478,54.199,22.949,23.438,74.707,40.039,0
1580493055.482,65.430,20.996,20.020,65.918,57.129,0
1580493055.499,72.266,18.066,20.020,61.523,87.402,0
1580493055.503,57.617,19.043,23.438,61.035,15.137,0
1580493055.507,45.898,19.531,21.973,62.500,-14.648,0
1580493055.511,47.363,19.531,21.484,61.523,90.820,0
1580493055.515,65.430,20.020,21.484,63.477,85.938,0
1580493055.519,69.824,21.484,22.949,63.965,33.691,0
1580493055.522,53.711,24.902,22.461,64.941,62.988,0
1580493055.526,52.734,26.855,21.973,67.383,66.895,0
1580493055.530,68.359,25.879,23.926,65.430,21.973,0
1580493055.534,75.684,24.414,25.879,66.406,25.879,0
1580493055.538,65.430,25.879,26.367,65.918,28.320,0
1580493055.542,54.199,25.391,25.391,60.059,3.418,0
1580493055.539,58.594,20.996,23.926,56.152,-27.344,0
1580493055.543,63.477,19.531,22.949,51.270,-16.113,0
1580493055.547,49.805,22.461,25.879,49.805,39.551,0
1580493055.551,39.062,26.367,25.391,54.199,52.734,0
1580493055.555,48.828,25.879,22.949,59.082,42.969,0
1580493055.559,62.012,26.367,24.902,57.617,30.273,0
1580493055.562,58.594,29.297,25.879,56.152,11.719,0
1580493055.566,41.016,28.809,27.344,54.199,48.828,0
1580493055.570,40.527,28.320,24.902,54.688,66.895,0
1580493055.574,55.664,26.855,23.438,52.734,21.973,0
1580493055.578,51.270,26.367,25.879,49.805,21.973,0
1580493055.582,33.203,28.809,30.762,53.223,70.801,0
1580493055.579,33.203,33.203,30.273,56.641,44.922,0
1580493055.583,48.340,32.227,26.855,54.199,54.688,0
1580493055.587,56.641,30.762,25.879,51.270,70.801,0
1580493055.591,46.387,32.227,26.855,54.688,20.020,0
1580493055.595,40.527,30.762,29.297,51.758,24.414,0
1580493055.599,55.176,29.785,27.832,45.410,41.504,0
1580493055.602,63.965,28.320,25.391,44.922,29.785,0
1580493055.606,54.688,29.297,27.344,43.945,19.531,0
1580493055.610,40.039,32.715,27.832,46.387,58.594,0
1580493055.614,42.480,31.738,28.809,45.898,56.641,0
1580493055.618,51.758,31.738,30.273,41.016,32.715,0
1580493055.622,47.852,33.691,29.297,44.434,-1.953,0
1580493055.639,30.762,36.621,30.762,40.039,16.113,0
1580493055.643,32.715,34.668,31.738,38.574,44.434,0
1580493055.647,51.758,32.715,29.297,42.480,44.434,0
1580493055.651,51.758,34.180,29.297,42.480,27.832,0
1580493055.655,36.133,36.133,32.227,45.898,-31.250,0
1580493055.659,34.668,37.109,32.715,38.574,-41.992,0
1580493055.662,49.805,33.203,29.297,31.738,-23.926,0
1580493055.666,55.176,30.273,29.297,32.715,-9.277,0
1580493055.670,42.480,33.691,28.320,34.180,51.270,0
1580493055.674,27.832,34.668,29.297,34.668,61.523,0
1580493055.678,41.016,31.738,31.250,35.156,44.434,0
1580493055.682,54.688,30.762,32.227,36.133,33.691,0
1580493055.679,40.527,32.227,33.203,33.691,35.156,0
1580493055.683,29.785,33.691,33.203,34.180,-1.465,0
1580493055.687,38.574,34.180,34.180,38.086,-16.113,0
1580493055.691,55.664,34.180,32.715,45.410,37.109,0
1580493055.695,50.293,33.691,32.715,45.410,50.293,0
1580493055.699,32.715,34.180,33.691,45.410,36.621,0
1580493055.702,33.203,34.180,31.250,44.434,82.031,0
1580493055.706,49.805,33.203,28.320,44.922,75.195,0
1580493055.710,48.828,33.203,32.715,47.852,-15.137,0
1580493055.714,29.297,32.715,37.109,41.016,49.805,0
1580493055.718,22.949,32.715,38.086,40.527,80.566,0
1580493055.722,38.086,31.250,37.109,49.805,20.508,0
1580493055.719,41.016,32.227,33.691,50.293,73.730,0
1580493055.723,28.809,31.250,34.668,50.781,51.758,0
1580493055.727,18.555,29.785,34.668,47.363,-37.598,0
1580493055.731,30.762,31.250,30.762,41.016,7.324,0
1580493055.735,49.316,32.715,31.250,41.016,61.523,0
1580493055.739,40.039,34.668,36.621,49.316,56.641,0
1580493055.742,21.973,32.715,37.598,47.852,34.668,0
1580493055.746,23.926,30.273,37.109,27.832,6.348,0
1580493055.750,36.621,29.785,36.133,16.602,27.832,0
1580493055.754,36.621,33.203,33.203,23.926,61.035,0
1580493055.758,22.461,34.180,32.715,21.973,67.383,0
1580493055.762,17.090,33.691,32.227,14.648,16.113,0
1580493055.779,28.809,34.180,31.738,16.113,11.230,0
1580493055.783,32.227,34.180,29.297,18.066,6.836,0
1580493055.787,20.020,35.156,32.227,21.484,-20.020,0
1580493055.791,15.625,32.227,35.645,28.320,48.828,0
1580493055.795,30.762,30.273,33.691,32.227,58.105,0
1580493055.799,45.898,33.203,32.715,39.062,15.625,0
1580493055.802,35.645,32.227,37.109,41.504,18.066,0
1580493055.806,21.973,31.738,41.016,43.945,36.621,0
1580493055.810,32.715,34.668,41.016,48.340,9.277,0
1580493055.814,48.340,31.738,41.504,46.875,7.812,0
1580493055.818,41.504,32.227,41.504,44.434,-23.926,0
1580493055.822,25.879,36.621,39.551,47.852,-20.508,0
1580493055.819,27.832,37.598,38.574,46.875,35.156,0
1580493055.823,40.039,34.668,37.109,40.039,23.438,0
1580493055.827,33.203,33.691,35.645,36.133,43.945,0
1580493055.831,22.461,36.133,36.133,38.086,52.734,0
1580493055.835,23.926,34.668,34.668,38.574,33.203,0
1580493055.839,35.156,34.668,32.715,37.109,-2.441,0
1580493055.842,43.457,37.109,36.621,37.598,31.738,0
1580493055.846,33.203,40.039,38.574,41.992,63.965,0
1580493055.850,25.391,39.062,37.598,46.387,63.477,0
1580493055.854,34.180,36.133,36.621,37.598,95.215,0
1580493055.858,40.039,34.180,35.645,30.762,62.500,0
1580493055.862,32.715,32.227,36.133,34.180,36.621,0
1580493055.879,18.066,31.250,36.621,34.668,29.297,0
1580493055.883,24.414,30.762,32.715,28.809,-24.902,0
1580493055.887,37.109,31.738,30.273,26.367,13.672,0
1580493055.891,34.668,34.668,30.273,25.879,65.918,0
1580493055.895,22.949,34.668,32.227,24.902,29.297,0
1580493055.899,23.926,34.668,36.621,27.344,11.230,0
1580493055.902,40.527,32.227,33.203,32.715,12.207,0
1580493055.906,40.039,31.738,32.227,31.250,75.195,0
1580493055.910,28.809,33.203,35.156,29.297,39.062,0
1580493055.914,21.973,31.250,35.156,27.344,7.324,0
1580493055.918,29.297,29.297,33.203,28.809,53.223,0
1580493055.922,30.273,28.320,31.250,26.855,44.922,0
1580493055.919,17.578,31.738,31.250,23.926,75.195,0
1580493055.923,7.812,31.250,30.762,21.973,45.898,0
1580493055.927,20.996,28.320,30.762,20.996,-4.883,0
1580493055.931,38.574,29.297,31.738,21.973,38.574,0
1580493055.935,30.762,29.785,33.203,21.484,66.406,0
1580493055.939,15.137,31.250,33.203,24.902,36.133,0
1580493055.942,22.461,31.250,30.762,27.832,9.277,0
1580493055.946,37.598,28.809,29.297,27.832,-8.301,0
1580493055.950,30.273,26.855,29.785,26.367,6.836,0
1580493055.954,12.695,27.832,33.203,26.855,36.133,0
1580493055.958,17.090,29.297,32.715,20.996,53.223,0
1580493055.962,35.645,29.297,27.344,17.578,50.293,0
1580493055.959,38.086,28.809,25.879,24.902,19.531,0
1580493055.963,22.461,30.273,29.785,23.926,16.113,0
1580493055.967,13.672,32.227,31.250,28.809,53.223,0
1580493055.971,20.020,30.762,26.855,27.344,21.484,0
1580493055.975,27.344,29.297,24.414,24.414,47.852,0
1580493055.979,20.996,32.227,24.902,28.809,52.734,0
1580493055.982,18.066,36.133,28.809,27.832,-30.762,0
1580493055.986,31.250,39.062,27.344,27.344,-29.785,0
1580493055.990,39.551,37.598,23.926,20.996,5.859,0
1580493055.994,33.203,37.598,24.902,23.438,-9.277,0
1580493055.998,22.949,41.504,27.344,26.367,11.230,0
1580493056.002,26.367,42.480,27.344,20.020,-4.395,0
1580493056.019,40.039,40.527,23.438,19.531,-3.906,0
1580493056.023,36.133,40.039,25.391,18.555,40.039,0
1580493056.027,16.602,41.504,28.320,19.043,7.812,0
1580493056.031,12.695,40.039,25.879,20.996,22.461,0
1580493056.035,25.879,37.109,23.438,17.090,11.719,0
1580493056.039,34.180,38.086,23.438,17.578,-40.527,0
1580493056.042,20.508,40.039,24.902,21.973,20.508,0
1580493056.046,11.230,39.551,29.297,22.461,60.547,0
1580493056.050,30.762,40.527,29.297,25.391,49.805,0
1580493056.054,46.387,40.527,26.855,28.809,37.598,0
1580493056.058,35.156,37.109,28.320,33.691,71.289,0
1580493056.062,21.484,35.645,30.762,36.621,123.535,0
1580493056.059,26.367,36.621,29.785,32.715,105.469,0
1580493056.063,36.133,32.715,27.832,30.273,51.270,0
1580493056.067,33.203,34.180,27.344,35.645,18.555,0
1580493056.071,18.066,37.598,30.273,41.016,26.855,0
1580493056.075,21.484,38.086,29.785,33.203,72.754,0
1580493056.079,38.574,38.574,29.785,30.762,72.266,0
1580493056.082,43.457,37.109,30.273,32.227,70.801,0
1580493056.086,28.809,38.086,27.344,36.133,36.621,0
1580493056.090,22.949,36.133,23.926,36.133,18.555,0
1580493056.094,39.551,33.691,20.508,30.273,30.762,0
1580493056.098,48.828,35.645,19.043,31.250,-18.066,0
1580493056.102,41.016,34.668,18.066,33.691,-53.711,0
1580493056.099,34.668,35.156,17.578,38.574,-72.266,0
1580493056.103,45.898,36.621,19.043,39.551,-3.418,0
1580493056.107,56.641,34.180,19.043,35.156,42.969,0
1580493056.111,41.016,35.156,19.531,29.297,1.953,0
1580493056.115,27.832,37.109,20.996,31.738,19.043,0
1580493056.119,36.133,34.668,22.461,34.668,-8.789,0
1580493056.122,40.527,32.227,24.414,31.250,50.781,0
1580493056.126,35.645,32.715,24.414,34.180,105.469,0
1580493056.130,25.879,35.156,23.438,36.133,31.738,0
1580493056.134,25.879,35.645,24.414,39.062,9.766,0
1580493056.138,37.598,31.250,25.391,35.645,62.500,0
1580493056.142,37.109,30.762,24.902,33.691,83.496,0
1580493056.159,24.414,33.203,25.391,41.504,76.172,0
1580493056.163,24.414,32.715,28.320,41.992,114.258,0
1580493056.167,37.598,31.738,27.344,35.645,92.773,0
1580493056.171,43.945,32.227,23.438,32.715,47.852,0
1580493056.175,35.645,35.156,24.414,32.715,40.039,0
1580493056.179,27.832,34.180,25.391,28.809,13.672,0
1580493056.182,37.109,30.762,23.926,19.043,-13.672,0
1580493056.186,48.340,30.273,22.461,17.090,17.090,0
1580493056.190,37.598,29.297,20.508,22.461,6.836,0
1580493056.194,21.973,30.273,23.438,27.344,-30.273,0
1580493056.198,24.902,32.227,24.414,31.738,50.293,0
1580493056.202,36.133,31.250,20.996,31.250,80.566,0
1580493056.199,32.227,32.227,21.973,30.762,21.484,0
1580493056.203,16.113,31.738,26.367,35.645,48.340,0
1580493056.207,16.113,29.785,26.367,30.273,101.562,0
1580493056.211,29.785,32.227,25.879,22.461,81.543,0
1580493056.215,33.691,32.715,27.832,25.879,23.438,0
1580493056.219,25.391,33.691,30.762,29.785,22.461,0
1580493056.222,22.949,35.156,31.250,34.668,27.344,0
1580493056.226,29.297,29.297,31.738,30.273,82.031,0
1580493056.230,41.992,27.344,30.273,30.762,77.148,0
1580493056.234,41.504,31.738,29.297,41.992,36.621,0
1580493056.238,31.738,34.668,32.715,39.062,56.641,0
1580493056.242,40.039,32.715,33.203,33.203,58.594,0
1580493056.239,47.852,32.227,30.762,37.598,69.336,0
1580493056.243,34.180,32.715,31.738,36.133,98.633,0
1580493056.247,20.508,34.668,31.250,32.715,54.199,0
1580493056.251,27.344,34.668,26.367,34.180,53.223,0
1580493056.255,44.922,36.133,23.926,36.133,20.508,0
1580493056.259,41.504,36.621,24.414,32.227,-9.277,0
1580493056.262,29.297,37.109,21.484,26.855,45.898,0
1580493056.266,29.785,36.621,23.926,33.203,-1.953,0
1580493056.270,33.691,33.203,32.715,30.762,-34.180,0
1580493056.274,36.621,33.691,31.738,25.879,-3.906,0
1580493056.278,26.855,32.227,31.738,32.715,6.836,0
1580493056.282,16.602,28.320,35.645,31.250,25.879,0
1580493056.299,29.785,25.879,35.156,31.738,87.402,0
1580493056.303,39.551,27.344,36.621,35.645,79.590,0
1580493056.307,23.926,28.809,40.039,35.645,-16.602,0
1580493056.311,10.254,27.344,37.598,35.645,1.465,0
1580493056.315,20.996,25.879,37.109,34.180,36.133,0
1580493056.319,41.016,26.367,34.668,31.738,19.043,0
1580493056.322,40.039,30.273,34.668,31.250,21.973,0
1580493056.326,26.855,28.320,37.598,33.203,58.105,0
1580493056.330,30.273,25.879,34.668,31.738,76.660,0
1580493056.334,43.457,25.391,28.809,26.855,37.109,0
1580493056.338,45.410,24.414,29.785,32.227,78.613,0
1580493056.342,30.762,28.320,36.133,36.133,31.738,0
1580493056.339,26.367,28.809,35.156,33.691,-22.949,0
1580493056.343,42.480,26.367,30.762,36.133,37.598,0
1580493056.347,44.922,24.414,29.297,33.203,-15.137,0
1580493056.351,32.227,27.832,29.297,34.180,-85.449,0
1580493056.355,25.391,29.785,29.785,34.180,-63.477,0
1580493056.359,36.621,28.320,28.320,30.762,-0.977,0
1580493056.362,41.504,28.809,25.879,29.785,39.062,0
1580493056.366,27.344,26.367,26.855,25.391,72.754,0
1580493056.370,19.043,28.320,24.902,31.738,6.348,0
1580493056.374,29.785,29.297,22.949,31.738,-43.945,0
1580493056.378,42.969,27.344,24.414,20.508,8.301,0
1580493056.382,37.109,28.320,25.879,22.461,43.457,0
1580493056.379,25.391,33.691,24.414,33.203,37.109,0
1580493056.383,31.738,35.156,23.926,36.133,32.715,0
1580493056.387,48.340,30.762,23.926,33.203,15.625,0
1580493056.391,48.828,30.762,26.367,31.250,23.926,0
1580493056.395,29.785,31.250,29.785,33.691,56.152,0
1580493056.399,22.949,31.738,27.832,37.109,33.691,0
1580493056.402,36.133,28.809,25.391,34.668,15.625,0
1580493056.406,41.992,25.879,25.391,32.715,-8.301,0
1580493056.410,26.367,28.809,25.879,27.344,-4.395,0
1580493056.414,11.230,27.832,26.367,20.020,28.320,0
1580493056.418,17.578,25.391,27.832,19.531,43.457,0
1580493056.422,31.250,26.367,25.391,20.020,59.570,0
1580493056.439,30.273,29.297,23.438,21.484,84.961,0
1580493056.443,18.066,31.250,28.320,27.344,73.730,0
1580493056.447,26.367,28.320,28.320,28.320,22.461,0
1580493056.451,45.898,27.344,26.855,27.832,60.547,0
1580493056.455,40.039,28.809,29.297,30.273,75.684,0
1580493056.459,25.879,29.297,29.297,33.691,45.410,0
1580493056.462,30.762,27.344,27.832,34.180,20.508,0
1580493056.466,41.504,24.902,26.367,26.855,70.801,0
1580493056.470,43.457,26.367,30.762,21.484,73.730,0
1580493056.474,33.203,31.250,29.785,31.250,29.297,0
1580493056.478,28.320,33.203,25.879,37.109,77.148,0
1580493056.482,38.086,29.785,26.367,30.273,64.453,0
1580493056.479,43.945,29.297,25.391,27.832,52.734,0
1580493056.483,28.809,29.785,27.832,31.738,38.086,0
1580493056.487,14.648,32.715,29.297,34.668,-23.926,0
1580493056.491,24.902,32.227,26.367,32.715,-7.812,0
1580493056.495,37.598,30.273,26.855,31.738,25.879,0
1580493056.499,30.762,32.227,32.227,33.203,31.738,0
1580493056.502,18.066,33.203,31.738,36.621,13.672,0
1580493056.506,22.949,31.738,31.250,32.227,31.738,0
1580493056.510,35.645,30.762,31.250,25.391,41.016,0
1580493056.514,33.691,33.691,29.785,26.367,9.766,0
1580493056.518,15.625,32.715,30.273,22.461,33.691,0
1580493056.522,9.766,31.738,29.297,21.973,76.660,0
1580493056.519,26.367,32.227,22.949,26.855,27.344,0
1580493056.523,33.691,30.762,20.996,29.297,-25.879,0
1580493056.527,21.484,31.250,23.926,28.320,66.406,0
1580493056.531,12.695,30.762,25.879,24.902,78.125,0
1580493056.535,30.762,30.762,24.902,24.902,5.371,0
1580493056.539,44.434,31.738,24.902,25.879,19.043,0
1580493056.542,25.879,30.273,26.367,30.273,0.000,0
1580493056.546,13.672,31.250,26.367,31.738,-27.344,0
1580493056.550,23.438,30.762,26.855,26.855,28.320,0
1580493056.554,33.203,29.297,25.391,14.160,58.105,0
1580493056.558,24.414,30.762,28.320,8.301,-17.578,0
1580493056.562,11.230,31.250,29.297,17.578,-22.949,0
1580493056.579,12.207,30.273,25.391,19.531,19.043,0
1580493056.583,25.879,30.273,22.949,13.672,43.945,0
1580493056.587,29.297,31.250,25.879,19.043,49.805,0
1580493056.591,12.207,32.227,30.273,30.273,17.578,0
1580493056.595,11.230,33.691,30.762,32.227,58.594,0
1580493056.599,29.785,33.203,31.250,29.297,3.906,0
1580493056.602,31.738,30.273,29.297,20.508,-9.277,0
1580493056.606,18.066,30.273,28.320,22.461,-1.953,0
1580493056.610,9.766,29.785,27.832,28.809,4.883,0
1580493056.614,23.438,27.832,23.926,25.879,23.926,0
1580493056.618,39.062,29.785,21.973,24.902,32.715,0
1580493056.622,24.414,31.738,25.879,21.484,91.309,0
1580493056.620,11.719,29.785,26.855,20.996,91.309,0
1580493056.624,23.926,29.297,22.949,20.508,21.973,0
1580493056.628,37.109,30.273,24.902,21.484,28.320,0
1580493056.632,34.180,29.297,27.344,27.832,43.457,0
1580493056.636,19.043,30.273,26.855,30.273,31.738,0
1580493056.640,20.508,33.203,29.297,32.715,61.523,0
1580493056.643,37.109,31.738,29.785,33.691,41.504,0
1580493056.647,36.621,29.785,29.785,29.297,34.180,0
1580493056.651,21.484,32.227,28.809,30.762,80.078,0
1580493056.655,16.602,35.645,30.762,31.738,55.176,0
1580493056.659,27.344,34.668,32.715,30.273,63.477,0
1580493056.663,32.715,34.180,33.203,30.762,72.266,0
1580493056.660,21.484,36.133,32.715,30.273,23.926,0
1580493056.664,16.113,36.621,32.715,31.250,-1.953,0
1580493056.668,26.855,33.203,33.691,27.344,5.371,0
1580493056.672,35.645,31.250,29.297,26.855,27.832,0
1580493056.676,28.809,34.668,28.809,25.391,26.855,0
1580493056.680,20.996,35.156,31.738,20.996,27.832,0
1580493056.683,23.926,32.715,32.715,22.461,19.043,0
1580493056.687,33.691,32.715,31.250,26.855,0.488,0
1580493056.691,29.785,31.738,31.250,19.531,23.926,0
1580493056.695,13.184,32.227,37.109,16.602,7.324,0
1580493056.699,13.672,34.180,36.133,24.414,-3.906,0
1580493056.703,28.809,31.738,33.691,24.414,55.664,0
1580493056.718,33.203,29.297,34.180,26.855,89.844,0
1580493056.722,21.973,32.715,34.668,31.738,108.398,0
1580493056.726,21.484,33.691,33.691,38.086,47.363,0
1580493056.730,33.691,31.250,32.227,38.086,6.348,0
1580493056.734,38.086,31.738,31.738,32.715,-4.883,0
1580493056.738,26.855,34.668,34.180,35.156,26.855,0
1580493056.741,16.113,35.645,35.156,37.598,21.484,0
1580493056.745,21.973,33.691,32.227,30.273,-32.227,0
1580493056.749,30.762,31.250,29.297,25.391,-29.297,0
1580493056.753,25.879,34.180,30.762,22.949,5.859,0
1580493056.757,16.113,36.133,33.691,24.414,82.520,0
1580493056.761,23.926,35.156,33.203,34.668,47.363,0
1580493056.759,39.062,33.691,28.809,31.738,26.855,0
1580493056.763,39.551,35.156,26.367,29.785,39.551,0
1580493056.767,28.809,38.574,27.832,42.480,74.707,0
1580493056.771,27.832,39.551,31.250,43.945,42.969,0
1580493056.775,45.410,40.527,31.250,41.504,-35.156,0
1580493056.779,49.316,37.598,30.762,43.945,17.578,0
1580493056.782,30.273,37.598,33.203,41.504,43.945,0
1580493056.786,23.438,38.086,32.715,37.598,48.828,0
1580493056.790,36.621,31.738,30.762,37.109,68.359,0
1580493056.794,43.457,29.785,29.785,33.203,29.785,0
1580493056.798,27.344,31.250,29.785,27.832,45.898,0
1580493056.802,17.578,30.762,28.320,28.320,62.012,0
1580493056.799,26.855,32.227,28.320,25.879,43.945,0
1580493056.803,39.062,30.273,28.320,21.484,12.207,0
1580493056.807,36.133,31.250,25.879,20.508,24.902,0
1580493056.811,19.043,31.738,26.855,21.484,57.617,0
1580493056.815,22.461,30.273,27.832,27.344,1.465,0
1580493056.819,34.668,28.809,26.855,29.297,40.527,0
1580493056.822,33.203,31.738,28.320,27.344,83.984,0
1580493056.826,20.996,35.156,30.762,27.344,65.430,0
1580493056.830,20.508,34.668,30.273,31.250,62.500,0
1580493056.834,35.645,31.738,28.809,36.133,17.578,0
1580493056.838,37.598,30.273,29.297,35.156,13.672,0
1580493056.842,23.926,32.715,30.273,35.645,47.363,0
1580493056.860,12.207,31.250,33.691,33.691,59.082,0
1580493056.864,20.508,28.809,34.180,28.809,19.531,0
1580493056.868,26.855,27.832,30.762,24.902,-43.945,0
1580493056.872,12.207,25.879,31.250,29.785,-25.391,0
1580493056.876,6.836,30.273,34.180,30.762,52.734,0
1580493056.880,21.484,33.203,32.715,23.438,50.781,0
1580493056.883,34.180,32.227,29.785,20.508,19.531,0
1580493056.887,32.715,36.133,30.762,23.926,56.152,0
1580493056.891,25.879,39.062,30.762,31.738,114.258,0
1580493056.895,26.855,37.109,27.832,28.320,69.824,0
1580493056.899,38.574,37.109,25.879,17.090,-2.930,0
1580493056.903,44.434,38.086,25.391,17.090,37.598,0
1580493056.899,30.273,39.551,25.391,22.949,97.656,0
1580493056.903,19.531,39.062,26.367,16.602,72.754,0
1580493056.907,30.762,35.156,24.902,9.277,16.113,0
1580493056.911,39.551,36.621,22.949,19.043,33.203,0
1580493056.915,28.809,39.062,21.973,23.438,35.645,0
1580493056.919,24.414,37.598,24.414,23.926,16.602,0
1580493056.922,36.621,35.156,24.902,28.809,15.625,0
1580493056.926,42.969,35.156,25.391,30.762,-22.461,0
1580493056.930,25.391,33.203,28.320,30.762,11.230,0
1580493056.934,12.207,33.203,29.297,32.227,45.410,0
1580493056.938,18.555,35.645,30.273,33.203,35.156,0
1580493056.942,27.832,35.156,30.273,36.621,70.801,0
1580493056.939,29.785,35.645,30.273,42.969,59.570,0
1580493056.943,18.555,36.133,26.367,45.410,38.574,0
1580493056.947,20.020,36.133,24.414,41.016,45.898,0
1580493056.951,39.062,36.133,23.926,36.621,-5.371,0
1580493056.955,35.645,34.668,21.484,33.203,34.668,0
1580493056.959,16.602,37.598,28.320,30.762,86.426,0
1580493056.962,13.184,37.109,30.762,32.715,63.965,0
1580493056.966,28.809,32.715,25.391,27.832,85.938,0
1580493056.970,40.039,30.762,23.438,26.855,53.711,0
1580493056.974,33.691,32.227,27.344,33.203,48.340,0
1580493056.978,25.391,37.598,28.320,29.297,14.160,0
1580493056.982,34.180,35.645,27.344,27.344,-31.738,0
1580493056.999,49.805,35.645,29.297,35.645,25.391,0
1580493057.003,41.504,37.598,30.273,33.203,75.195,0
1580493057.007,30.273,35.645,28.809,29.785,90.332,0
1580493057.011,39.062,34.180,25.391,31.738,68.848,0
1580493057.015,49.805,34.180,26.855,33.203,57.617,0
1580493057.019,46.875,37.109,28.809,32.715,52.246,0
1580493057.022,33.691,40.527,27.344,32.227,38.086,0
1580493057.026,31.738,38.086,27.344,31.250,38.086,0
1580493057.030,48.340,31.738,27.344,29.785,34.180,0
1580493057.034,50.293,32.227,28.320,30.762,6.836,0
1580493057.038,35.645,33.691,29.785,30.273,-32.715,0
1580493057.042,31.250,32.227,28.809,28.320,1.953,0
1580493057.039,45.898,31.738,26.855,27.832,29.785,0
1580493057.043,48.340,29.297,25.391,25.879,37.109,0
1580493057.047,33.691,29.785,24.902,26.367,55.664,0
1580493057.051,22.461,30.273,29.297,26.367,33.203,0
1580493057.055,27.832,30.273,29.297,25.391,38.574,0
1580493057.059,35.645,30.762,24.414,22.949,27.832,0
1580493057.062,20.020,29.785,29.297,21.484,-5.371,0
1580493057.066,0.000,29.297,34.668,26.855,-3.906,0
1580493057.070,0.977,31.250,31.250,25.391,-12.207,0
1580493057.074,12.695,31.250,27.832,19.531,43.457,0
1580493057.078,14.160,31.738,30.273,25.879,63.965,0
1580493057.082,9.277,35.645,33.203,34.668,53.223,0
1580493057.079,11.719,37.109,34.668,34.180,80.566,0
1580493057.083,31.738,37.598,34.180,32.227,62.012,0
1580493057.087,39.551,38.086,33.203,34.180,29.297,0
1580493057.091,27.344,37.109,31.738,35.645,50.781,0
1580493057.095,23.438,34.668,33.203,32.715,102.051,0
1580493057.099,34.668,34.180,31.738,26.367,56.641,0
1580493057.102,42.969,34.668,28.320,26.367,11.230,0
1580493057.106,32.715,35.645,30.762,21.973,-9.277,0
1580493057.110,17.090,35.645,29.785,15.137,28.320,0
1580493057.114,24.414,33.203,24.902,20.996,57.129,0
1580493057.118,39.062,32.227,23.926,24.902,47.852,0
1580493057.122,33.691,34.180,25.879,27.344,55.176,0
1580493057.141,22.949,35.156,27.344,26.855,12.207,0
1580493057.145,29.297,33.691,26.855,27.832,22.949,0
1580493057.149,46.875,29.297,25.879,27.832,15.137,0
1580493057.153,35.645,27.344,27.344,24.902,-13.184,0
1580493057.157,7.812,29.785,32.715,20.508,37.598,0
1580493057.161,2.441,28.809,33.203,19.043,40.527,0
1580493057.164,16.113,25.391,29.785,13.184,45.898,0
1580493057.168,20.508,21.484,31.738,10.254,18.066,0
1580493057.172,12.207,23.438,30.273,15.137,-9.766,0
1580493057.176,13.184,28.320,29.785,23.438,41.016,0
1580493057.180,24.902,28.320,33.691,21.973,67.383,0
1580493057.184,36.133,29.785,35.156,20.020,-34.180,0
1580493057.178,29.785,35.156,37.109,22.949,-13.672,0
1580493057.182,10.742,38.086,38.086,23.438,76.172,0
1580493057.186,15.625,38.086,33.203,25.879,20.020,0
1580493057.190,30.762,34.668,32.227,20.508,20.996,0
1580493057.194,25.391,35.645,34.668,16.602,29.785,0
1580493057.198,11.719,39.062,35.645,21.484,-27.344,0
1580493057.201,16.113,37.109,35.645,23.438,34.668,0
1580493057.205,34.668,33.691,32.715,21.973,98.633,0
1580493057.209,34.668,33.691,32.715,25.391,45.898,0
1580493057.213,20.508,36.133,34.668,28.809,8.301,0
1580493057.217,20.508,34.668,34.668,33.691,44.922,0
1580493057.221,38.086,31.250,34.668,36.621,56.152,0
1580493057.218,41.992,32.715,34.668,32.715,76.660,0
1580493057.222,30.273,35.645,33.691,31.738,66.406,0
1580493057.226,24.414,37.598,34.668,29.785,10.742,0
1580493057.230,28.809,35.645,33.203,24.902,-9.766,0
1580493057.234,41.016,33.203,34.180,23.926,-19.531,0
1580493057.238,36.621,38.086,33.691,31.738,42.969,0
1580493057.241,23.926,36.621,33.691,30.762,56.641,0
1580493057.245,29.297,31.738,36.621,30.273,51.270,0
1580493057.249,44.434,31.738,34.180,34.668,45.898,0
1580493057.253,42.969,34.180,34.668,37.598,47.363,0
1580493057.257,30.273,38.086,36.133,41.992,94.238,0
1580493057.261,30.273,37.598,32.715,41.504,73.242,0
1580493057.278,40.039,34.180,28.320,31.738,12.695,0
1580493057.282,41.992,36.133,27.344,29.297,-5.371,0
1580493057.286,28.809,36.621,30.762,35.156,2.930,0
1580493057.290,22.461,35.156,30.762,31.250,3.418,0
1580493057.294,32.227,32.227,29.297,24.902,45.410,0
1580493057.298,35.156,29.785,30.762,22.949,40.527,0
1580493057.301,20.996,32.715,34.668,21.484,42.480,0
1580493057.305,13.672,31.738,36.621,19.531,74.707,0
1580493057.309,27.832,31.250,29.785,19.531,87.402,0
1580493057.313,38.086,30.273,27.344,16.602,66.406,0
1580493057.317,28.809,30.762,31.250,13.672,82.031,0
1580493057.321,20.508,34.668,35.645,21.484,41.992,0
1580493057.318,32.227,35.156,35.156,27.832,-12.695,0
1580493057.322,48.340,35.645,31.738,28.809,35.156,0
1580493057.326,44.434,37.109,34.668,29.297,39.551,0
1580493057.330,29.785,38.574,34.668,31.738,4.883,0
1580493057.334,26.367,37.109,32.715,34.668,29.297,0
1580493057.338,38.574,34.668,32.715,39.062,58.105,0
1580493057.341,41.992,31.738,31.738,41.016,28.809,0
1580493057.345,28.809,32.715,31.738,38.086,-22.461,0
1580493057.349,23.926,35.645,33.203,31.738,10.742,0
1580493057.353,35.156,33.691,32.715,33.203,48.828,0
1580493057.357,40.527,30.273,31.250,35.156,20.020,0
1580493057.361,28.320,28.809,30.762,35.645,58.594,0
1580493057.359,21.973,31.250,31.250,37.109,104.980,0
1580493057.363,34.180,33.691,32.227,35.156,41.016,0
1580493057.367,44.922,32.227,31.250,31.738,-9.766,0
1580493057.371,41.992,35.645,30.273,37.598,8.789,0
1580493057.375,30.273,37.598,31.250,43.457,12.695,0
1580493057.379,31.250,34.668,29.785,35.645,-41.992,0
1580493057.382,43.457,34.668,26.855,26.855,-47.852,0
1580493057.386,40.527,35.645,28.320,27.832,-11.719,0
1580493057.390,23.438,36.621,29.785,30.762,45.410,0
1580493057.394,19.043,35.156,29.785,21.973,34.668,0
1580493057.398,32.227,32.227,27.344,17.090,10.254,0
1580493057.402,34.668,32.227,26.855,14.648,87.402,0
1580493057.419,17.578,32.715,28.320,12.695,99.609,0
1580493057.423,10.742,29.785,28.320,14.160,78.613,0
1580493057.427,23.926,29.297,29.297,18.555,46.387,0
1580493057.431,35.156,30.273,33.691,24.902,31.738,0
1580493057.435,30.762,32.715,39.062,30.273,34.668,0
1580493057.439,23.438,35.645,38.086,35.156,34.180,0
1580493057.442,32.715,33.691,35.645,34.180,6.836,0
1580493057.446,43.945,34.180,35.156,35.645,19.043,0
1580493057.450,37.598,36.621,35.156,42.480,70.801,0
1580493057.454,20.996,35.156,34.180,45.410,62.012,0
1580493057.458,18.555,36.133,31.250,47.363,43.457,0
1580493057.462,35.156,34.180,28.320,48.340,41.992,0
1580493057.459,38.086,33.691,27.832,41.504,35.156,0
1580493057.463,22.949,35.645,30.273,38.574,87.402,0
1580493057.467,19.531,35.645,34.180,36.621,59.082,0
1580493057.471,33.691,32.715,33.691,29.297,-42.969,0
1580493057.475,40.527,32.227,33.203,33.691,-26.855,0
1580493057.479,33.203,38.574,36.133,39.062,12.207,0
1580493057.482,26.855,41.992,36.133,34.668,-16.113,0
1580493057.486,34.668,41.016,35.645,32.715,-43.945,0
1580493057.490,45.410,40.039,33.691,28.320,25.879,0
1580493057.494,34.180,40.039,33.203,21.484,33.691,0
1580493057.498,19.043,39.551,37.109,23.926,4.883,0
1580493057.502,21.973,38.574,33.691,23.926,17.578,0
1580493057.518,33.691,34.668,29.297,19.043,22.949,0
1580493057.522,26.367,34.180,31.738,17.578,7.812,0
1580493057.526,11.719,37.109,34.668,16.113,48.340,0
1580493057.530,15.625,41.504,35.156,16.602,82.520,0
1580493057.534,26.855,40.039,33.691,16.602,100.098,0
1580493057.538,28.320,36.133,34.668,14.648,72.754,0
1580493057.541,15.625,39.551,36.621,21.973,33.691,0
1580493057.545,8.789,38.574,35.645,18.555,8.301,0
1580493057.549,22.461,38.086,33.691,17.578,-34.668,0
1580493057.553,31.738,38.086,35.156,25.879,-22.949,0
1580493057.557,20.020,36.133,38.086,26.367,10.254,0
1580493057.561,10.254,36.133,38.574,26.855,0.977,0
1580493057.559,25.879,34.180,32.715,31.250,38.574,0
1580493057.563,43.457,31.738,29.785,36.133,73.730,0
1580493057.567,39.551,33.203,31.250,39.551,68.359,0
1580493057.571,26.855,32.715,31.250,39.062,47.852,0
1580493057.575,27.344,30.762,31.738,35.645,-13.672,0
1580493057.579,43.457,29.297,28.809,33.203,2.441,0
1580493057.582,41.992,30.762,28.809,31.250,28.809,0
1580493057.586,21.484,33.203,31.738,30.273,28.320,0
1580493057.590,16.602,32.715,30.273,22.949,38.086,0
1580493057.594,32.715,32.715,29.785,15.625,71.289,0
1580493057.598,37.109,33.691,33.203,12.695,58.105,0
1580493057.602,24.902,37.598,34.180,18.555,26.367,0
1580493057.598,20.508,37.598,33.691,28.809,83.008,0
1580493057.602,33.691,36.133,33.203,29.297,89.355,0
1580493057.606,43.457,36.621,32.715,30.273,20.020,3
1580493057.610,31.250,36.621,34.668,32.715,12.695,0
1580493057.614,18.555,35.156,35.156,30.762,20.020,0
1580493057.618,26.855,33.203,31.250,28.809,41.016,0
1580493057.621,36.621,32.227,29.297,24.414,42.969,0
1580493057.625,26.367,34.668,31.738,25.879,14.648,0
1580493057.629,17.090,37.109,30.273,35.645,36.621,0
1580493057.633,24.414,37.598,30.762,34.180,6.348,0
1580493057.637,37.109,39.062,30.273,25.391,15.625,0
1580493057.641,34.668,40.527,29.297,22.461,68.359,0
1580493057.658,18.066,41.016,30.762,22.461,45.898,0
1580493057.662,15.625,41.016,31.738,16.602,15.137,0
1580493057.666,30.762,37.109,29.785,15.625,26.855,0
1580493057.670,37.109,34.668,28.320,22.949,-6.836,0
1580493057.674,23.926,39.551,29.785,28.809,22.461,0
1580493057.678,19.531,41.016,30.762,33.203,34.180,0
1580493057.681,34.180,39.062,29.785,32.227,-16.113,0
1580493057.685,43.945,40.527,28.809,27.832,-4.395,0
1580493057.689,34.180,41.016,29.297,30.273,43.945,0
1580493057.693,19.531,39.062,33.203,33.203,31.250,0
1580493057.697,24.414,36.133,33.203,29.785,0.977,0
1580493057.701,33.691,34.668,32.715,23.926,2.930,0
1580493057.699,30.762,34.180,33.203,28.809,-2.930,0
1580493057.703,25.391,36.621,33.691,41.504,29.297,0
1580493057.707,30.762,38.086,35.156,42.480,34.668,0
1580493057.711,39.062,33.691,38.086,30.762,31.738,0
1580493057.715,41.992,32.227,37.598,30.273,37.598,0
1580493057.719,30.273,34.180,36.133,37.598,-12.695,0
1580493057.722,19.531,33.691,36.133,33.691,10.254,0
1580493057.726,35.156,33.691,33.691,33.691,71.289,0
1580493057.730,40.039,33.691,32.715,35.156,49.805,0
1580493057.734,24.414,35.156,33.691,37.598,42.480,0
1580493057.738,21.973,36.621,37.598,38.086,71.289,0
1580493057.742,33.691,35.156,37.598,40.039,60.547,0
1580493057.738,45.410,35.645,32.715,41.016,39.062,0
1580493057.742,33.691,35.645,31.250,32.715,39.062,0
1580493057.746,23.926,37.598,31.250,38.574,11.230,0
1580493057.750,34.668,39.062,31.738,34.180,26.367,0
1580493057.754,42.480,35.156,29.785,26.367,62.500,0
1580493057.758,42.480,35.645,30.762,37.598,31.250,0
1580493057.761,29.297,39.062,35.645,39.062,81.543,0
1580493057.765,27.832,38.574,34.180,33.691,131.836,0
1580493057.769,41.992,35.645,33.691,33.203,31.738,0
1580493057.773,37.109,33.691,35.156,31.250,20.020,0
1580493057.777,19.531,36.133,36.621,34.180,4.395,0
1580493057.781,14.160,36.621,34.180,36.621,-28.809,0
1580493057.798,26.855,30.273,29.297,29.785,2.441,0
1580493057.802,33.203,27.832,27.344,26.367,3.906,0
1580493057.806,15.625,31.738,30.762,26.367,0.977,0
1580493057.810,6.836,33.203,34.668,25.879,59.570,0
1580493057.814,19.043,31.250,34.668,21.973,70.801,0
1580493057.818,31.250,33.691,35.156,22.949,7.324,0
1580493057.821,23.438,38.574,35.156,20.996,-4.395,0
1580493057.825,6.836,36.621,32.715,13.184,43.945,0
1580493057.829,10.742,31.738,32.715,16.113,54.199,0
1580493057.833,26.855,27.344,31.738,18.066,42.969,0
1580493057.837,29.297,29.297,31.250,19.043,25.391,0
1580493057.841,10.742,31.738,34.180,20.020,68.359,0
1580493057.839,9.277,31.738,32.227,19.531,48.340,0
1580493057.843,25.391,29.785,29.297,18.555,-35.156,0
1580493057.847,28.320,28.809,27.832,19.531,11.230,0
1580493057.851,12.207,29.785,30.273,20.020,70.801,0
1580493057.855,4.883,29.785,30.762,16.113,73.242,0
1580493057.859,19.531,28.320,28.320,11.230,29.785,0
1580493057.862,29.297,28.809,31.738,13.184,-79.590,0
1580493057.866,18.555,32.227,33.203,18.066,-71.777,0
1580493057.870,7.812,33.691,30.762,14.648,-14.648,0
1580493057.874,18.066,32.227,28.320,13.672,0.488,0
1580493057.878,30.762,32.715,30.273,10.742,-13.672,0
1580493057.882,23.438,31.250,31.250,12.207,-12.695,0
1580493057.879,12.207,31.738,30.762,20.020,42.969,0
1580493057.883,18.555,31.250,32.227,16.113,77.148,0
1580493057.887,35.645,31.250,32.715,20.508,86.914,0
1580493057.891,39.551,34.668,29.297,28.809,33.203,0
1580493057.895,22.461,35.645,27.832,31.738,20.020,0
1580493057.899,17.578,35.156,29.785,33.691,93.750,0
1580493057.902,31.738,34.668,32.715,33.691,27.344,0
1580493057.906,38.574,34.180,32.227,36.621,-20.996,0
1580493057.910,26.367,35.645,30.273,39.062,20.020,0
1580493057.914,18.066,32.715,32.715,39.062,55.176,0
1580493057.918,33.203,30.762,32.227,35.645,80.566,0
1580493057.922,44.434,32.715,30.762,31.250,39.062,0
1580493057.938,33.203,33.691,34.180,30.762,41.504,0
1580493057.942,23.438,34.180,35.156,28.320,43.945,0
1580493057.946,35.645,33.203,29.785,25.391,-2.441,0
1580493057.950,52.734,31.250,25.879,27.832,70.312,0
1580493057.954,45.898,33.203,27.832,24.902,98.145,0
1580493057.958,30.273,35.645,30.762,26.855,39.551,0
1580493057.961,36.621,36.621,30.762,30.273,58.105,0
1580493057.965,47.852,36.133,30.762,30.273,29.785,0
1580493057.969,44.434,33.203,30.762,28.809,3.418,0
1580493057.973,28.320,34.668,29.297,32.715,68.359,0
1580493057.977,20.020,36.621,29.785,31.738,48.828,0
1580493057.981,31.738,34.668,31.250,27.832,-12.695,0
1580493057.978,35.645,34.180,31.250,32.715,8.301,0
1580493057.982,20.508,33.203,33.203,30.273,8.789,0
1580493057.986,9.766,33.203,33.203,26.855,2.441,0
1580493057.990,21.484,31.250,31.738,28.809,47.852,0
1580493057.994,38.086,31.738,29.297,25.391,13.184,0
1580493057.998,31.738,33.203,29.297,26.367,9.277,0
1580493058.001,20.020,34.180,32.227,29.297,40.039,0
1580493058.005,28.809,30.762,32.715,27.832,9.277,0
1580493058.009,43.945,27.832,29.785,29.785,12.695,0
1580493058.013,43.457,31.250,27.832,31.738,15.625,0
1580493058.017,25.391,32.227,33.691,27.832,75.684,0
1580493058.021,21.484,29.297,35.156,27.832,87.891,0
1580493058.018,34.668,28.809,30.273,25.391,38.086,0
1580493058.022,30.762,30.273,25.879,20.020,70.801,0
1580493058.026,12.695,32.227,26.855,14.160,1.465,0
1580493058.030,6.348,34.180,27.832,9.766,-34.668,0
1580493058.034,23.438,35.156,23.926,11.719,72.266,0
1580493058.038,36.621,37.109,24.902,13.184,82.031,0
1580493058.041,31.738,40.527,25.879,18.555,42.480,0
1580493058.045,26.367,39.551,26.855,28.320,69.336,0
1580493058.049,34.668,36.133,27.344,29.785,80.566,0
1580493058.053,45.898,34.180,26.855,33.203,-1.953,0
1580493058.057,39.062,32.227,31.250,40.527,-9.766,0
1580493058.061,25.879,32.227,31.738,37.598,42.480,0
1580493058.079,24.902,28.809,27.832,32.227,-0.488,0
1580493058.083,35.156,21.973,27.344,23.926,-20.996,0
1580493058.087,25.879,20.508,26.367,18.555,46.387,0
1580493058.091,6.836,21.973,23.926,24.414,52.734,0
1580493058.095,2.930,21.484,21.973,18.555,18.066,0
1580493058.099,17.090,20.996,22.461,15.137,-10.254,0
1580493058.102,23.438,22.949,24.902,18.066,-9.766,0
1580493058.106,8.789,22.461,23.926,11.719,35.156,0
1580493058.110,0.977,21.484,24.414,14.648,60.059,0
1580493058.114,14.160,21.973,24.902,16.113,37.109,0
1580493058.118,28.320,26.367,20.508,18.555,2.930,0
1580493058.122,20.508,27.832,21.484,23.926,10.254,0
1580493058.119,11.230,26.855,21.973,25.391,13.184,0
1580493058.123,27.344,25.879,18.066,24.902,52.246,0
1580493058.127,41.992,24.414,16.113,22.949,72.266,0
1580493058.131,30.762,26.367,18.066,27.832,12.207,0
1580493058.135,15.625,27.344,22.949,32.227,-11.230,0
1580493058.139,21.484,25.391,24.414,31.738,53.711,0
1580493058.142,32.227,22.461,24.414,28.320,47.363,0
1580493058.146,28.320,21.484,24.902,24.414,31.250,0
1580493058.150,9.277,20.508,26.855,25.879,28.809,0
1580493058.154,6.836,20.508,25.879,24.902,-2.930,0
1580493058.158,29.785,22.949,21.973,19.531,-43.457,0
1580493058.162,35.645,22.461,22.461,28.809,18.555,0
1580493058.159,8.789,21.484,28.320,32.227,97.656,0
1580493058.163,-6.348,22.461,29.785,23.438,22.949,0
1580493058.167,13.184,22.461,27.344,23.438,17.578,0
1580493058.171,23.438,22.461,26.855,24.902,49.316,0
1580493058.175,9.277,23.926,26.855,23.926,18.066,0
1580493058.179,-0.488,24.902,27.344,21.484,70.312,0
1580493058.182,13.672,24.902,23.926,19.043,60.059,0
1580493058.186,27.344,24.902,21.484,10.254,-16.602,0
1580493058.190,21.484,27.344,19.531,11.230,17.578,0
1580493058.194,12.695,29.785,15.625,22.949,27.832,0
1580493058.198,14.648,26.367,18.066,20.508,10.742,0
1580493058.202,20.996,23.438,19.531,9.766,55.664,0
1580493058.218,16.602,21.973,20.996,6.836,89.844,0
1580493058.222,5.859,21.973,26.367,7.812,66.406,0
1580493058.226,9.766,22.949,27.832,6.836,45.410,0
1580493058.230,29.297,24.902,25.391,7.812,53.223,0
1580493058.234,39.062,25.879,23.438,9.766,42.969,0
1580493058.238,35.156,28.809,22.949,17.578,83.008,0
1580493058.241,33.691,32.227,23.438,20.996,40.039,0
1580493058.245,46.875,35.156,21.973,28.320,23.926,0
1580493058.249,60.059,37.598,24.414,37.109,36.621,0
1580493058.253,53.711,41.016,27.832,43.945,48.340,0
1580493058.257,45.898,42.480,24.902,52.246,59.570,0
1580493058.261,50.293,41.016,22.949,47.852,30.762,0
1580493058.259,56.641,38.086,22.949,42.969,43.945,0
1580493058.263,50.293,36.133,24.414,43.457,63.477,0
1580493058.267,39.551,34.180,27.832,44.922,58.594,0
1580493058.271,40.039,31.738,26.855,42.969,26.855,0
1580493058.275,48.340,29.785,23.926,44.434,23.926,0
1580493058.279,42.969,30.273,24.902,43.945,25.879,0
1580493058.282,20.508,32.227,25.391,36.133,44.922,0
1580493058.286,13.672,34.180,22.949,32.715,77.148,0
1580493058.290,25.391,33.691,25.391,31.738,68.359,0
1580493058.294,31.738,33.203,27.832,30.273,66.895,0
1580493058.298,20.996,34.180,29.785,25.391,53.711,0
1580493058.302,9.766,32.227,33.691,27.344,28.809,0
1580493058.298,17.578,29.785,34.180,26.367,62.012,0
1580493058.302,29.297,30.762,32.715,20.508,75.195,0
1580493058.306,20.996,32.227,33.203,23.926,38.574,0
1580493058.310,6.348,32.715,34.180,24.902,88.867,0
1580493058.314,9.766,30.273,32.715,18.066,90.332,0
1580493058.318,18.555,29.297,33.691,13.672,36.621,0
1580493058.321,13.184,28.809,36.621,15.137,57.129,0
1580493058.325,0.000,25.391,37.109,16.602,67.871,0
1580493058.329,0.000,21.484,38.086,20.508,59.082,0
1580493058.333,19.043,22.461,35.156,28.809,91.309,0
1580493058.337,21.484,25.391,30.762,24.902,91.797,0
1580493058.341,2.441,24.902,30.273,26.367,70.312,0
1580493058.358,-4.395,24.414,31.250,32.227,39.551,0
1580493058.362,7.812,22.461,28.320,29.297,13.184,0
1580493058.366,11.719,20.020,27.832,30.762,-29.785,0
1580493058.370,0.488,20.020,29.297,33.203,3.906,0
1580493058.374,-8.301,20.020,27.832,26.855,14.160,0
1580493058.378,2.930,20.508,24.902,21.973,37.109,0
1580493058.381,20.508,19.531,21.484,20.996,71.777,0
1580493058.385,11.230,21.973,23.926,20.996,32.715,0
1580493058.389,-4.883,25.391,29.297,25.391,22.949,0
1580493058.393,1.953,25.391,29.785,24.902,55.664,0
1580493058.397,20.508,23.438,27.344,24.902,1.953,0
1580493058.401,18.555,25.391,28.809,26.855,2.441,0
1580493058.400,5.859,29.785,31.250,30.273,43.457,0
1580493058.404,9.766,31.738,30.762,30.762,27.344,0
1580493058.408,28.320,30.273,26.855,27.344,41.016,0
1580493058.412,31.250,30.273,28.809,24.902,-20.996,0
1580493058.416,17.578,33.691,31.738,24.902,7.324,0
1580493058.420,15.137,35.156,31.738,23.926,31.738,0
1580493058.423,30.762,34.668,27.832,18.066,26.855,0
1580493058.427,42.480,36.621,22.949,18.066,15.625,0
1580493058.431,29.297,40.039,23.438,21.484,24.902,0
1580493058.435,15.625,41.504,28.320,17.090,100.586,0
1580493058.439,27.832,41.016,28.809,12.695,62.988,0
1580493058.443,41.504,40.039,26.367,17.090,9.766,0
1580493058.439,34.668,39.062,27.832,23.438,14.648,0
1580493058.443,22.949,39.551,31.738,27.344,26.367,0
1580493058.447,27.344,40.039,32.715,26.855,-6.348,0
1580493058.451,42.969,37.109,34.180,26.855,-19.043,0
1580493058.455,43.945,33.203,38.574,29.297,39.551,0
1580493058.459,26.855,29.785,42.969,30.273,-1.465,0
1580493058.462,27.832,26.855,41.992,31.738,14.160,0
1580493058.466,41.992,26.855,39.062,25.879,72.266,0
1580493058.470,36.133,29.785,35.645,18.066,23.438,0
1580493058.474,17.090,33.691,33.691,16.113,17.090,0
1580493058.478,13.184,37.109,34.180,14.648,29.785,0
1580493058.482,33.203,38.086,28.809,8.301,14.648,0
1580493058.499,48.340,40.527,27.832,10.742,65.430,0
1580493058.503,44.922,41.992,34.668,21.973,54.688,0
1580493058.507,37.598,41.504,37.109,27.344,28.320,0
1580493058.511,44.922,41.016,34.668,34.180,37.598,0
1580493058.515,62.988,40.527,36.621,44.434,27.832,0
1580493058.519,60.059,39.062,41.992,51.270,55.664,0
1580493058.522,40.527,39.062,42.969,45.410,51.758,0
1580493058.526,37.109,39.551,38.574,41.504,72.266,0
1580493058.530,45.898,36.133,39.062,41.992,82.031,0
1580493058.534,36.621,35.645,41.504,31.250,26.855,0
1580493058.538,21.484,41.016,40.039,28.320,19.531,0
1580493058.542,21.973,42.480,36.621,29.297,31.250,0
1580493058.540,30.762,37.598,34.668,21.973,59.570,0
1580493058.544,29.297,37.109,36.133,20.020,22.949,0
1580493058.548,14.160,38.574,36.133,20.020,-8.301,0
1580493058.552,0.977,35.645,36.621,18.555,48.828,0
1580493058.556,9.766,34.180,36.133,19.531,35.156,0
1580493058.560,25.879,34.668,33.691,24.414,21.484,0
1580493058.563,15.625,32.715,36.133,27.344,54.199,0
1580493058.567,5.371,33.203,36.621,34.668,20.020,0
1580493058.571,19.043,35.156,35.645,41.504,-14.648,0
1580493058.575,36.133,35.156,36.621,37.598,-7.324,0
1580493058.579,31.250,32.715,40.527,37.109,-25.879,0
1580493058.583,20.996,33.691,41.016,48.340,11.719,0
1580493058.580,23.926,35.156,38.574,53.711,41.016,0
1580493058.584,36.621,33.691,39.551,49.316,-9.277,0
1580493058.588,36.133,32.227,41.016,37.109,36.133,0
1580493058.592,21.484,31.738,41.504,36.621,60.547,0
1580493058.596,21.484,32.715,41.016,42.480,39.551,0
1580493058.600,36.621,32.227,37.109,37.598,93.750,0
1580493058.603,42.969,33.691,34.180,37.109,100.586,0
1580493058.607,27.832,37.109,36.133,37.598,23.438,0
1580493058.611,17.578,36.621,36.133,32.227,21.973,0
1580493058.615,28.809,36.133,35.156,32.227,38.086,0
1580493058.619,40.527,38.086,32.715,30.762,76.172,0
1580493058.623,33.203,38.086,31.738,27.344,123.535,0
1580493058.639,23.438,40.527,33.203,31.250,111.328,0
1580493058.643,27.344,38.086,33.203,26.855,39.551,0
1580493058.647,42.969,36.133,32.227,24.414,16.113,0
1580493058.651,43.457,40.527,33.203,29.785,14.160,0
1580493058.655,30.762,42.480,35.156,31.250,3.418,0
1580493058.659,29.785,42.969,35.645,25.391,10.254,0
1580493058.662,43.457,43.945,33.203,20.508,-26.367,0
1580493058.666,49.805,44.434,32.227,24.414,-40.527,0
1580493058.670,31.738,43.945,33.691,26.367,7.812,0
1580493058.674,23.438,42.480,32.715,20.996,44.922,0
1580493058.678,35.156,41.504,31.250,17.578,8.301,0
1580493058.682,38.086,39.062,28.320,13.672,37.598,0
1580493058.685,22.949,38.574,25.391,16.113,75.684,0
1580493058.689,9.277,39.551,27.344,15.625,66.895,0
1580493058.693,17.578,39.551,27.832,13.672,36.621,0
1580493058.697,27.832,37.109,24.902,16.602,59.082,0
1580493058.701,25.391,35.156,26.367,17.090,48.340,0
1580493058.705,16.113,35.156,29.297,14.648,17.090,0
1580493058.708,21.973,32.715,29.785,20.020,63.965,0
1580493058.712,40.039,28.809,28.809,26.367,71.289,0
1580493058.716,36.621,27.344,32.227,24.414,50.293,0
1580493058.720,23.926,29.785,31.250,21.973,31.738,0
1580493058.724,26.367,31.738,28.320,24.902,47.852,0
1580493058.728,38.574,30.762,29.297,26.367,82.520,0
1580493058.718,43.945,31.738,31.250,26.367,35.645,0
1580493058.722,32.227,36.621,34.668,25.391,-10.254,0
1580493058.726,24.902,39.551,31.738,27.832,21.484,0
1580493058.730,43.945,37.598,27.832,36.621,58.105,0
1580493058.734,57.129,36.621,29.297,37.109,59.570,0
1580493058.738,48.340,39.062,31.250,39.551,33.203,0
1580493058.741,38.574,38.574,34.180,43.945,14.648,0
1580493058.745,44.434,36.621,34.180,37.598,-0.977,0
1580493058.749,55.176,35.156,31.250,28.809,1.465,0
1580493058.753,43.457,31.250,29.785,27.832,33.203,0
1580493058.757,22.461,32.227,32.227,27.344,62.500,0
1580493058.761,23.438,34.180,33.203,29.785,37.598,0
1580493058.779,32.715,31.738,29.785,25.879,41.504,0
1580493058.783,23.438,29.297,31.250,21.973,104.980,0
1580493058.787,9.766,32.715,34.180,23.926,68.359,0
1580493058.791,14.648,37.109,27.344,22.949,30.273,0
1580493058.795,30.762,35.645,21.973,19.043,10.742,0
1580493058.799,38.086,36.133,25.391,19.043,18.555,0
1580493058.802,25.391,38.574,28.809,21.484,83.984,2
1580493058.806,19.531,40.039,30.273,24.414,45.410,0
1580493058.810,37.598,41.504,29.785,30.762,-11.719,0
1580493058.814,47.363,41.504,31.250,40.039,18.555,0
1580493058.818,38.086,42.480,33.691,36.621,69.336,0
1580493058.822,26.855,39.551,35.156,32.715,28.809,0
1580493058.818,29.785,37.598,34.180,36.133,13.672,0
1580493058.822,42.480,36.133,32.227,34.668,58.594,0
1580493058.826,32.227,36.621,36.621,32.227,56.641,0
1580493058.830,17.090,38.574,36.621,32.715,9.277,0
1580493058.834,20.508,36.621,35.156,33.691,-5.371,0
1580493058.838,33.691,33.691,36.133,29.297,13.672,0
1580493058.841,34.180,35.645,37.598,25.391,56.152,0
1580493058.845,22.949,39.062,39.062,24.902,-0.488,0
1580493058.849,21.973,37.109,36.621,23.438,-15.137,0
1580493058.853,39.062,35.645,34.180,20.508,84.473,0
1580493058.857,47.363,35.156,36.133,24.902,66.406,0
1580493058.861,33.691,38.574,39.062,30.273,36.621,0
1580493058.858,21.973,39.062,41.016,37.109,21.484,0
1580493058.862,27.344,33.691,40.039,38.574,43.457,0
1580493058.866,36.621,31.738,40.039,41.016,61.523,0
1580493058.870,30.273,34.180,41.992,47.363,9.766,0
1580493058.874,13.672,34.180,44.434,47.363,0.000,0
1580493058.878,16.113,32.715,43.457,42.480,33.203,0
1580493058.881,27.832,32.715,41.992,41.504,67.383,0
1580493058.885,20.508,32.715,40.527,36.621,70.312,0
1580493058.889,5.371,34.668,39.062,33.203,26.367,0
1580493058.893,10.254,35.645,39.062,35.156,37.598,0
1580493058.897,23.438,32.715,37.598,29.297,81.543,0
1580493058.901,28.320,32.715,35.645,26.367,84.961,0
1580493058.918,19.531,36.133,38.086,28.320,8.789,0
1580493058.922,16.602,39.551,41.504,28.320,-71.777,0
1580493058.926,34.180,39.551,39.062,27.832,-12.695,0
1580493058.930,39.551,40.039,36.133,27.832,52.734,0
1580493058.934,28.320,43.457,40.527,33.691,22.949,0
1580493058.938,29.297,46.875,41.016,36.621,1.465,0
1580493058.941,42.480,45.898,39.062,31.738,31.250,0
1580493058.945,53.223,42.969,37.109,30.273,55.664,0
1580493058.949,55.176,47.363,37.109,38.574,49.316,0
1580493058.953,47.852,48.828,38.086,46.387,75.684,0
1580493058.957,53.711,43.945,34.668,42.969,59.570,0
1580493058.961,73.730,42.480,31.250,38.086,40.039,0
1580493058.958,75.195,42.969,33.691,42.480,-7.812,0
1580493058.962,59.082,44.434,39.062,49.805,2.441,0
1580493058.966,55.664,44.922,38.086,48.340,67.383,0
1580493058.970,65.918,44.922,32.227,44.922,1.465,0
1580493058.974,62.988,43.457,34.668,42.969,-12.695,0
1580493058.978,41.504,43.945,38.086,41.504,46.875,0
1580493058.981,30.273,44.434,33.203,39.551,27.832,0
1580493058.985,38.086,43.457,30.273,37.598,38.086,0
1580493058.989,42.969,46.875,32.227,33.691,32.227,0
1580493058.993,29.785,47.852,31.738,25.879,-18.555,0
1580493058.997,15.625,44.434,32.715,22.461,2.441,0
1580493059.001,20.996,43.945,33.691,23.438,39.062,0
1580493059.021,31.250,42.480,33.203,23.926,18.555,0
1580493059.025,25.391,41.504,32.227,21.973,25.391,0
1580493059.029,10.742,41.992,32.715,18.555,74.219,0
1580493059.033,14.160,41.016,32.715,16.602,56.152,0
1580493059.037,32.227,39.062,29.785,18.555,57.129,0
1580493059.041,33.691,38.574,32.227,20.508,57.129,0
1580493059.044,20.508,39.062,35.156,21.484,26.855,0
1580493059.048,22.461,39.062,34.180,20.996,24.414,0
1580493059.052,43.457,37.598,33.203,24.902,35.645,0
1580493059.056,58.105,39.551,33.203,37.109,4.395,0
1580493059.060,47.363,41.504,34.668,40.039,40.039,0
1580493059.064,42.969,40.527,34.668,37.598,45.898,0
1580493059.059,55.176,40.039,33.203,35.156,-19.531,0
1580493059.063,58.105,37.109,31.738,33.203,19.531,0
1580493059.067,42.969,35.156,35.156,38.574,60.059,0
1580493059.071,33.203,35.156,37.109,41.016,7.812,0
1580493059.075,47.363,32.715,33.691,44.922,2.441,0
1580493059.079,58.105,31.250,35.645,46.875,63.477,0
1580493059.082,46.387,30.762,40.039,43.457,29.297,0
1580493059.086,29.785,33.691,40.527,42.480,28.809,0
1580493059.090,32.227,34.180,39.551,38.086,69.824,0
1580493059.094,44.922,30.273,37.109,34.180,57.129,0
1580493059.098,46.387,32.227,38.574,32.715,13.672,0
1580493059.102,29.297,36.621,37.109,31.738,57.617,0
1580493059.100,26.855,35.645,37.109,36.133,77.637,0
1580493059.104,44.434,36.621,34.180,37.109,-44.922,0
1580493059.108,48.828,38.086,31.738,34.180,20.020,0
1580493059.112,29.297,37.598,33.203,34.180,120.605,0
1580493059.116,15.137,39.062,35.156,33.691,0.000,0
1580493059.120,27.832,37.109,32.715,36.621,-4.395,0
1580493059.123,38.086,33.691,27.344,38.086,45.898,0
1580493059.127,28.809,35.645,30.762,40.527,14.648,0
1580493059.131,20.996,38.086,36.133,42.969,28.320,0
1580493059.135,24.902,36.621,36.621,37.598,58.594,0
1580493059.139,36.133,32.715,33.691,37.598,45.410,0
1580493059.143,37.109,32.227,33.691,37.109,1.465,0
1580493059.159,23.438,34.668,34.668,35.645,7.324,0
1580493059.163,22.461,34.668,33.203,31.738,37.109,0
1580493059.167,38.574,36.133,31.738,27.832,50.781,0
1580493059.171,44.434,40.039,32.715,35.156,47.852,0
1580493059.175,32.715,42.480,35.156,41.992,32.715,0
1580493059.179,29.785,38.574,35.156,41.504,0.000,0
1580493059.182,43.945,38.086,33.203,36.133,-27.832,0
1580493059.186,48.828,39.062,32.227,29.785,27.832,0
1580493059.190,37.109,38.574,33.691,32.715,50.781,0
1580493059.194,28.320,36.621,33.691,28.320,55.176,0
1580493059.198,36.133,33.691,30.762,21.973,65.430,0
1580493059.202,47.363,35.156,30.762,30.273,19.043,0
1580493059.201,41.504,36.133,32.227,30.762,4.395,0
1580493059.205,31.250,39.062,36.133,32.227,60.059,0
1580493059.209,36.621,37.109,36.133,32.715,18.555,0
1580493059.213,45.898,35.645,33.203,31.250,-37.598,0
1580493059.217,40.039,39.551,35.645,33.203,22.949,0
1580493059.221,24.414,40.527,37.598,34.668,69.824,0
1580493059.224,23.438,38.086,36.133,33.691,39.062,0
1580493059.228,33.203,37.109,32.715,33.691,29.297,0
1580493059.232,33.691,36.133,28.809,31.738,44.434,0
1580493059.236,18.555,33.691,30.273,30.762,62.012,0
1580493059.240,8.301,36.621,31.250,24.902,53.711,0
1580493059.244,21.484,36.133,28.320,19.531,25.391,0
1580493059.238,32.715,35.156,31.250,28.320,57.129,0
1580493059.242,20.996,35.645,34.668,34.180,8.789,0
1580493059.246,9.766,33.203,34.180,31.738,14.160,0
1580493059.250,20.020,33.203,33.203,30.273,88.867,0
1580493059.254,36.133,33.203,32.227,26.855,37.598,0
1580493059.258,32.715,32.227,33.203,26.367,-2.441,0
1580493059.261,16.602,33.691,33.203,27.832,24.414,0
1580493059.265,22.949,35.156,32.227,32.715,55.664,0
1580493059.269,43.945,37.598,33.203,37.109,71.289,0
1580493059.273,45.898,37.598,32.227,31.738,42.480,0
1580493059.277,26.367,37.598,33.203,30.273,65.430,0
1580493059.281,19.043,37.109,32.227,28.320,81.055,0
1580493059.298,34.180,34.668,29.785,26.855,9.277,0
1580493059.302,37.109,39.062,30.273,25.391,3.418,0
1580493059.306,21.973,41.504,30.273,22.461,51.758,0
1580493059.310,15.625,39.551,30.273,25.879,50.781,0
1580493059.314,25.879,37.598,33.691,24.902,55.176,0
1580493059.318,39.062,35.645,34.668,31.738,44.434,0
1580493059.321,31.250,38.086,34.180,37.598,27.344,0
