timestamps,TP9,AF7,AF8,TP10,Right AUX,Marker0
1580492911.379,19.043,33.203,28.320,15.625,-7.324,0
1580492911.383,11.230,32.227,32.227,19.043,39.551,0
1580492911.387,20.020,27.832,30.273,19.531,62.500,0
1580492911.391,35.156,29.785,29.785,19.043,33.691,0
1580492911.395,34.180,33.203,34.668,23.438,50.781,0
1580492911.399,17.578,32.715,38.574,26.855,31.738,0
1580492911.403,25.391,33.203,34.180,19.531,-4.395,0
1580492911.406,42.480,32.715,29.297,16.113,70.312,0
1580492911.410,41.992,36.621,28.809,28.809,61.523,0
1580492911.414,29.297,40.039,30.762,29.785,-16.602,0
1580492911.418,31.250,40.039,28.809,26.855,38.574,0
1580492911.422,51.758,41.016,25.879,30.273,76.172,0
1580492911.439,52.734,41.016,25.879,29.785,48.828,0
1580492911.443,34.180,40.527,26.855,30.762,20.996,0
1580492911.447,30.273,42.480,30.762,30.273,-40.527,0
1580492911.451,39.551,40.527,32.227,25.391,-48.828,0
1580492911.455,36.621,36.133,31.250,22.461,3.418,0
1580492911.459,19.531,34.668,31.738,19.043,43.945,0
1580492911.463,3.418,32.715,30.762,15.137,53.223,0
1580492911.466,14.160,30.273,26.855,13.184,14.648,0
1580492911.470,32.715,28.809,25.879,11.230,2.930,0
1580492911.474,26.367,30.273,30.273,15.625,41.504,0
1580492911.478,11.719,32.715,32.715,22.949,63.965,0
1580492911.482,18.555,33.203,31.250,22.949,50.781,0
1580492911.499,38.086,34.668,30.762,20.996,54.199,0
1580492911.503,35.156,39.062,30.762,20.508,28.809,0
1580492911.507,17.578,40.527,32.227,18.555,62.500,0
1580492911.511,21.484,39.062,29.785,15.625,64.453,0
1580492911.515,35.645,36.133,26.367,16.113,33.203,0
1580492911.519,42.480,33.691,27.832,21.973,49.805,0
1580492911.523,32.227,33.691,30.762,30.762,31.738,0
1580492911.526,26.367,36.133,32.715,35.156,-9.277,0
1580492911.530,39.062,38.086,32.227,31.738,33.203,0
1580492911.534,44.434,35.645,30.273,31.250,54.199,0
1580492911.538,26.855,33.691,30.273,31.250,38.086,0
1580492911.542,14.648,33.691,29.297,26.367,76.172,0
1580492911.501,28.809,33.691,24.902,20.996,-3.906,0
1580492911.505,40.527,33.203,23.438,18.555,-72.754,0
1580492911.509,30.273,34.668,24.902,14.648,1.953,0
1580492911.513,15.137,37.109,25.391,10.254,57.617,0
1580492911.517,23.438,36.133,22.949,8.789,85.449,0
1580492911.521,40.527,36.621,21.484,7.812,63.965,0
1580492911.525,37.109,38.086,22.461,6.836,22.949,0
1580492911.528,20.020,38.574,23.438,10.742,57.129,0
1580492911.532,20.020,39.062,23.438,15.625,24.414,0
1580492911.536,36.621,35.645,22.461,12.207,-2.441,0
1580492911.540,40.039,31.250,25.391,18.555,53.223,0
1580492911.544,26.855,34.180,27.344,24.414,74.219,0
1580492911.558,21.973,38.086,27.344,26.367,29.785,0
1580492911.562,41.504,36.133,29.297,28.809,-40.039,0
1580492911.566,54.199,35.645,27.832,30.273,15.137,0
1580492911.570,41.016,37.109,29.297,32.227,55.176,0
1580492911.574,30.273,39.551,30.762,36.133,82.031,0
1580492911.578,44.434,41.016,25.879,31.738,99.121,0
1580492911.582,55.664,35.645,23.438,21.484,26.367,0
1580492911.585,43.945,36.621,26.367,20.996,-5.371,0
1580492911.589,27.832,41.016,28.809,26.367,-1.465,0
1580492911.593,28.320,40.039,28.320,28.320,-4.883,0
1580492911.597,41.992,39.551,26.367,25.391,29.785,0
1580492911.601,44.434,38.086,27.832,24.902,35.156,0
1580492911.598,26.367,39.551,31.250,22.461,9.277,0
1580492911.602,24.902,38.574,32.715,21.973,-16.113,0
1580492911.606,38.086,34.668,32.715,17.578,20.020,0
1580492911.610,44.434,36.133,30.762,15.137,82.031,0
1580492911.614,35.645,39.062,29.297,22.461,79.102,0
1580492911.618,22.949,35.645,35.645,16.113,41.504,0
1580492911.622,33.691,34.180,35.645,16.113,51.270,0
1580492911.625,46.875,34.668,33.691,26.855,53.711,0
1580492911.629,35.156,32.715,36.621,21.973,38.574,0
1580492911.633,21.484,33.203,34.180,20.020,55.176,0
1580492911.637,29.785,35.645,31.250,22.949,64.941,0
1580492911.641,47.852,36.621,31.738,29.297,60.059,0
1580492911.658,39.551,38.574,34.180,31.738,41.016,0
1580492911.662,21.973,39.551,32.715,28.809,16.602,0
1580492911.666,22.949,36.133,26.367,26.367,54.199,0
1580492911.670,37.109,34.668,22.949,19.531,18.555,0
1580492911.674,40.527,35.645,21.973,21.484,-8.301,0
1580492911.678,21.973,37.109,22.461,20.020,29.297,0
1580492911.682,10.742,35.645,23.926,7.812,-0.977,0
1580492911.685,27.832,30.273,23.926,8.301,-13.184,0
1580492911.689,43.457,29.785,23.926,13.184,24.414,0
1580492911.693,33.203,35.156,28.320,16.113,50.293,0
1580492911.697,20.996,37.109,29.785,20.996,25.391,0
1580492911.701,31.738,34.180,25.879,16.602,8.789,0
1580492911.699,49.805,35.156,24.902,10.742,53.223,0
1580492911.703,40.039,40.527,28.809,10.254,39.551,0
1580492911.707,19.043,41.992,30.762,9.766,32.227,0
1580492911.711,25.391,39.062,30.762,6.348,69.824,0
1580492911.715,41.992,36.133,31.738,6.348,46.387,0
1580492911.719,37.598,38.574,29.785,9.766,25.391,0
1580492911.723,22.461,38.574,29.785,5.371,54.199,0
1580492911.726,19.531,34.668,31.738,6.836,42.480,0
1580492911.730,35.645,33.691,27.832,14.648,74.707,0
1580492911.734,34.180,33.203,29.297,16.602,25.391,0
1580492911.738,17.578,33.203,34.180,19.531,11.230,0
1580492911.742,14.160,34.668,33.691,24.902,54.688,0
1580492911.738,26.367,33.691,30.273,23.438,40.039,0
1580492911.742,39.062,33.203,26.855,27.344,7.812,0
1580492911.746,24.902,34.668,30.273,28.809,-11.230,0
1580492911.750,11.719,35.156,32.227,24.902,21.973,0
1580492911.754,25.879,33.203,27.832,25.879,48.828,0
1580492911.758,38.574,33.691,28.809,22.949,77.148,0
1580492911.762,32.715,36.133,33.203,22.461,73.242,0
1580492911.765,18.066,37.109,36.133,24.902,64.941,0
1580492911.769,25.879,38.086,30.762,22.949,75.684,0
1580492911.773,42.969,37.109,28.320,24.414,55.176,0
1580492911.777,34.180,36.621,34.180,27.344,8.301,0
1580492911.781,17.578,37.109,35.156,29.297,13.672,0
1580492911.798,19.531,37.598,32.715,25.391,12.207,0
1580492911.802,36.621,37.109,29.785,20.508,-28.320,0
1580492911.806,35.645,31.250,27.344,19.043,3.906,0
1580492911.810,17.578,28.320,29.297,18.555,52.734,0
1580492911.814,16.113,34.668,29.297,26.855,19.531,0
1580492911.818,33.203,33.203,28.809,27.832,30.273,0
1580492911.822,40.527,30.762,28.320,13.672,51.270,0
1580492911.825,31.738,36.133,30.273,20.020,52.734,0
1580492911.829,20.508,36.133,35.156,24.414,59.570,0
1580492911.833,29.785,35.156,32.715,14.648,45.410,0
1580492911.837,41.992,34.180,31.738,15.625,40.039,0
1580492911.841,28.320,33.691,34.180,15.137,17.578,0
1580492911.838,13.184,34.668,31.738,13.672,62.500,0
1580492911.842,18.555,32.227,31.738,12.207,59.082,0
1580492911.846,30.762,26.367,30.273,11.230,14.648,0
1580492911.850,30.273,27.344,27.832,10.254,-16.113,0
1580492911.854,14.648,31.738,33.203,16.113,-24.414,0
1580492911.858,14.648,33.691,34.180,20.508,26.855,0
1580492911.862,32.227,33.203,29.297,14.648,40.039,0
1580492911.865,37.598,34.180,29.785,19.043,40.039,0
1580492911.869,20.996,35.156,32.715,27.832,33.691,0
1580492911.873,11.230,37.109,30.273,20.508,26.367,0
1580492911.877,23.438,38.086,26.367,13.184,72.266,0
1580492911.881,35.645,34.668,25.879,17.578,76.660,0
1580492911.878,29.785,36.621,25.879,15.625,44.434,0
1580492911.882,19.531,37.598,26.855,12.695,9.277,0
1580492911.886,24.414,33.203,27.832,11.719,72.754,0
1580492911.890,35.645,30.762,24.414,7.324,75.195,0
1580492911.894,31.738,31.250,24.902,8.789,-6.836,0
1580492911.898,15.137,31.738,29.297,9.277,1.465,0
1580492911.902,15.137,32.715,27.832,3.418,7.812,0
1580492911.905,32.715,32.227,25.879,8.301,4.395,0
1580492911.909,33.203,33.691,27.832,7.324,4.883,0
1580492911.913,23.926,38.086,27.832,13.672,31.250,0
1580492911.917,25.879,38.574,27.832,26.367,54.199,0
1580492911.921,41.992,37.109,29.785,28.320,32.227,0
1580492911.938,58.105,39.551,29.297,39.062,38.574,0
1580492911.942,47.363,39.551,32.227,44.922,20.020,0
1580492911.946,33.691,37.109,33.691,38.086,22.461,0
1580492911.950,49.316,37.598,29.297,37.109,29.785,0
1580492911.954,58.594,36.133,28.809,37.109,42.480,0
1580492911.958,41.504,38.086,31.250,30.273,68.848,0
1580492911.962,26.855,40.039,31.738,26.855,-8.301,0
1580492911.965,35.156,38.574,29.785,30.762,-24.902,0
1580492911.969,56.152,38.574,29.785,35.645,11.230,0
1580492911.973,53.711,38.574,27.832,33.203,22.461,0
1580492911.977,32.227,40.039,28.809,32.227,47.852,0
1580492911.981,32.227,41.016,28.809,34.668,62.012,0
1580492911.978,44.922,42.480,26.855,25.879,75.684,0
1580492911.982,48.340,41.992,29.785,20.508,23.438,0
1580492911.986,31.250,39.062,32.715,25.879,24.902,0
1580492911.990,24.414,38.086,31.738,24.414,107.910,0
1580492911.994,35.156,39.062,34.668,14.648,97.168,0
1580492911.998,38.574,39.062,36.133,10.254,35.645,0
1580492912.002,24.902,38.574,33.691,9.766,39.551,0
1580492912.005,8.301,35.645,33.691,7.324,58.105,0
1580492912.009,20.020,34.668,32.227,13.184,5.859,0
1580492912.013,38.086,32.715,31.250,16.113,41.016,0
1580492912.017,24.902,29.785,30.273,18.066,41.992,0
1580492912.021,9.277,29.785,30.762,28.320,-33.203,0
1580492912.018,16.113,29.785,31.738,30.762,0.000,0
1580492912.022,30.273,28.809,29.297,26.367,27.344,0
1580492912.026,31.250,29.785,30.762,27.344,-5.371,0
1580492912.030,21.484,33.203,38.086,33.203,5.859,0
1580492912.034,21.484,34.668,37.109,38.574,0.488,0
1580492912.038,39.062,32.227,31.738,33.691,-12.207,0
1580492912.042,47.363,31.250,29.785,26.855,3.418,0
1580492912.045,31.738,34.180,32.227,27.344,-9.766,0
1580492912.049,20.020,36.621,34.668,26.855,-10.742,0
1580492912.053,30.762,35.645,32.715,24.414,75.195,0
1580492912.057,38.574,31.250,32.227,19.531,75.195,0
1580492912.061,24.902,33.203,34.180,18.555,63.477,0
1580492912.078,12.695,37.109,36.133,18.555,81.055,0
1580492912.082,19.531,34.180,32.715,14.648,15.625,0
1580492912.086,37.598,31.738,31.738,13.184,0.488,0
1580492912.090,36.133,30.762,37.598,16.113,58.105,0
1580492912.094,16.113,32.227,39.062,15.137,107.910,0
1580492912.098,17.578,34.668,37.109,14.648,64.941,0
1580492912.102,34.180,35.645,33.691,16.602,18.066,0
1580492912.105,34.668,36.621,31.250,20.020,31.250,0
1580492912.109,22.461,39.062,31.738,20.020,30.273,0
1580492912.113,19.043,39.551,30.762,16.113,25.879,0
1580492912.117,32.715,40.039,27.344,19.531,32.715,0
1580492912.121,35.645,40.039,27.832,19.531,45.410,0
1580492912.119,20.020,35.645,29.785,19.531,58.105,0
1580492912.123,14.160,34.668,29.785,22.461,68.848,0
1580492912.127,25.879,35.156,31.738,21.973,40.527,0
1580492912.131,35.156,32.227,34.668,24.414,21.973,0
1580492912.135,27.832,32.227,38.574,27.344,15.137,0
1580492912.139,18.066,34.668,41.992,33.691,-52.246,0
1580492912.143,29.297,35.156,41.016,41.504,-24.902,0
1580492912.146,52.734,36.133,33.203,37.598,20.996,0
1580492912.150,45.898,38.086,35.156,30.762,69.824,0
1580492912.154,23.926,41.504,40.039,29.785,96.191,0
1580492912.158,26.855,40.039,38.574,31.250,71.777,0
1580492912.162,43.945,37.109,37.598,31.250,17.090,0
1580492912.159,45.898,38.086,37.598,25.391,39.551,0
1580492912.163,29.297,39.062,40.527,20.508,78.125,0
1580492912.167,21.973,38.574,39.551,19.043,41.504,0
1580492912.171,34.668,38.086,35.156,11.230,62.988,0
1580492912.175,40.039,36.621,34.180,6.348,62.988,0
1580492912.179,20.508,34.180,37.109,4.395,57.617,0
1580492912.183,9.277,34.668,37.598,8.789,45.898,0
1580492912.186,20.508,34.180,34.668,9.277,28.809,0
1580492912.190,31.738,34.180,30.762,3.906,17.578,0
1580492912.194,23.438,33.203,32.715,10.254,-36.133,0
1580492912.198,10.254,34.668,36.133,16.113,17.578,0
1580492912.202,18.066,34.180,35.645,14.160,23.438,0
1580492912.219,39.062,32.715,33.691,12.207,-75.684,0
1580492912.223,36.133,31.250,36.133,16.113,-29.785,0
1580492912.227,14.648,31.738,37.598,13.672,60.059,0
1580492912.231,17.578,31.738,35.156,12.695,38.574,0
1580492912.235,39.062,29.297,32.715,20.508,1.953,0
1580492912.239,44.922,31.250,32.227,18.555,28.320,0
1580492912.243,26.367,33.203,35.156,14.648,44.922,0
1580492912.246,16.113,34.180,33.691,18.066,18.066,0
1580492912.250,29.785,32.227,31.738,15.625,72.266,0
1580492912.254,35.645,29.785,30.273,11.719,83.496,0
1580492912.258,17.090,31.738,29.785,10.254,39.062,0
1580492912.262,0.977,30.762,31.250,9.277,48.340,0
1580492912.259,10.742,27.344,27.832,12.695,-0.977,0
1580492912.263,24.902,26.367,24.414,17.090,-15.137,0
1580492912.267,16.602,27.344,26.367,18.066,12.207,0
1580492912.271,3.418,28.320,29.785,21.973,59.570,0
1580492912.275,16.113,30.762,30.273,23.926,55.176,0
1580492912.279,40.039,35.156,29.297,22.461,22.949,0
1580492912.283,43.945,37.598,30.762,21.973,51.270,0
1580492912.286,30.762,41.016,34.668,25.879,20.020,0
1580492912.290,31.250,41.992,34.180,29.297,31.738,0
1580492912.294,49.805,38.574,29.785,22.949,82.520,0
1580492912.298,54.199,37.598,29.785,21.484,37.598,0
1580492912.302,36.133,37.598,33.203,24.414,78.613,0
1580492912.299,25.391,38.086,34.668,23.438,70.312,0
1580492912.303,34.180,37.109,30.273,21.484,-23.926,0
1580492912.307,43.945,36.621,31.738,17.090,-16.113,0
1580492912.311,35.156,39.062,34.668,20.996,12.695,0
1580492912.315,25.879,41.992,32.715,26.855,28.809,0
1580492912.319,35.156,44.434,30.273,23.438,-23.926,0
1580492912.323,50.293,43.457,29.297,23.438,-7.812,0
1580492912.326,46.875,44.434,32.227,23.438,39.551,0
1580492912.330,26.855,45.410,32.715,22.461,51.758,0
1580492912.334,23.438,42.969,32.715,16.602,38.086,0
1580492912.338,38.086,41.504,32.227,11.719,2.930,0
1580492912.342,36.133,40.527,30.762,15.625,31.738,0
1580492912.359,17.578,41.992,32.227,12.207,-2.441,0
1580492912.363,17.090,40.527,33.203,15.625,1.465,0
1580492912.367,37.109,38.086,33.691,22.461,32.715,0
1580492912.371,43.457,40.039,36.133,25.879,8.789,0
1580492912.375,27.832,41.504,36.621,31.738,7.324,0
1580492912.379,16.113,42.480,37.109,35.645,49.316,0
1580492912.383,29.785,42.480,33.691,35.156,53.711,0
1580492912.386,45.898,40.039,32.227,29.297,49.805,0
1580492912.390,37.598,40.527,33.691,30.273,20.020,0
1580492912.394,26.855,41.504,38.086,32.715,-11.230,0
1580492912.398,34.668,39.551,36.133,30.273,80.078,0
1580492912.402,41.992,37.109,33.691,29.785,86.914,0
1580492912.399,37.598,38.574,38.574,31.738,-7.324,0
1580492912.403,24.902,42.480,38.574,31.738,-47.852,0
1580492912.407,25.391,42.969,39.551,21.973,-9.277,0
1580492912.411,43.457,45.410,34.668,15.625,26.367,0
1580492912.415,43.945,45.898,31.250,11.230,-14.648,0
1580492912.419,22.461,43.945,35.156,5.859,-25.879,0
1580492912.423,17.090,43.457,32.227,5.371,47.852,0
1580492912.426,33.691,41.016,29.297,4.395,78.125,0
1580492912.430,41.016,40.039,29.297,4.883,68.359,0
1580492912.434,26.855,41.016,32.715,5.859,57.617,0
1580492912.438,17.578,41.016,35.645,11.719,64.941,0
1580492912.442,34.668,41.504,33.691,19.043,47.363,0
1580492912.438,47.852,41.016,31.738,19.043,57.617,0
1580492912.442,36.621,39.551,32.227,19.531,48.828,0
1580492912.446,24.414,41.504,33.203,27.344,17.578,0
1580492912.450,31.250,42.969,36.133,27.344,28.320,0
1580492912.454,46.875,38.574,34.668,21.973,37.598,0
1580492912.458,40.527,35.645,33.203,20.508,42.480,0
1580492912.462,23.926,38.086,36.133,21.973,33.203,0
1580492912.465,21.484,40.527,36.133,15.137,20.020,0
1580492912.469,35.645,38.574,33.203,11.230,48.828,0
1580492912.473,40.527,35.645,33.203,15.625,50.781,0
1580492912.477,25.879,38.086,34.668,18.066,50.293,0
1580492912.481,19.531,40.039,34.180,17.578,47.852,0
1580492912.498,34.180,38.574,33.691,15.137,60.547,0
1580492912.502,42.969,37.109,35.645,13.184,30.273,0
1580492912.506,32.227,38.086,38.574,16.113,47.363,0
1580492912.510,22.461,40.039,41.016,19.043,58.594,0
1580492912.514,29.297,36.621,42.480,15.137,6.348,0
1580492912.518,41.504,34.668,38.086,14.160,-12.207,0
1580492912.522,33.203,39.062,35.645,16.113,6.348,0
1580492912.525,13.184,41.016,37.598,14.160,-3.418,0
1580492912.529,20.020,37.598,35.645,14.648,-19.531,0
1580492912.533,41.016,36.133,39.062,28.809,-41.016,0
1580492912.537,36.621,36.621,43.457,28.809,16.602,0
1580492912.541,20.020,36.133,42.969,18.555,74.707,0
1580492912.539,26.367,36.133,37.598,21.484,37.598,0
1580492912.543,39.551,35.156,33.203,21.973,24.414,0
1580492912.547,38.574,37.109,35.156,24.414,9.766,0
1580492912.551,23.438,38.574,35.645,20.508,27.344,0
1580492912.555,18.066,38.086,32.715,21.973,46.875,0
1580492912.559,34.668,33.691,32.227,31.250,38.574,0
1580492912.563,41.992,31.250,34.180,29.785,61.523,0
1580492912.566,30.762,32.715,34.668,31.250,21.973,0
1580492912.570,19.531,31.738,35.645,31.738,31.250,0
1580492912.574,31.738,29.297,32.715,23.926,42.969,0
1580492912.578,48.340,27.832,30.273,26.367,-41.504,0
1580492912.582,43.945,33.203,32.715,30.762,-10.742,0
1580492912.579,31.250,37.109,34.180,31.738,47.852,0
1580492912.583,35.156,34.668,32.715,29.785,93.750,0
1580492912.587,49.316,35.156,31.738,25.879,60.547,0
1580492912.591,48.340,35.156,29.297,20.020,14.160,0
1580492912.595,28.320,33.203,29.785,11.230,21.484,0
1580492912.599,19.043,32.715,30.273,12.207,35.156,0
1580492912.603,32.715,35.156,28.320,13.184,31.738,0
1580492912.606,37.109,35.645,30.273,4.395,11.719,0
1580492912.610,20.996,35.645,32.227,6.348,25.391,0
1580492912.614,14.648,35.645,33.691,14.648,23.926,0
1580492912.618,27.344,33.691,35.156,15.137,81.543,0
1580492912.622,41.504,32.227,34.668,22.461,59.570,0
1580492912.639,36.621,31.250,34.668,30.273,12.695,0
1580492912.643,22.461,32.715,37.598,33.203,-23.926,0
1580492912.647,30.273,32.715,38.574,37.109,-27.832,0
1580492912.651,47.852,32.227,37.109,37.598,47.363,0
1580492912.655,43.945,35.156,34.180,35.645,62.988,0
1580492912.659,28.320,39.062,33.203,31.250,35.645,0
1580492912.663,33.203,38.574,32.227,29.297,33.203,0
1580492912.666,47.852,33.203,27.832,30.273,14.160,0
1580492912.670,45.898,33.203,27.832,30.273,0.977,0
1580492912.674,31.738,36.621,31.738,27.832,-8.301,0
1580492912.678,30.273,37.598,32.227,27.832,21.973,0
1580492912.682,44.922,37.109,28.320,27.344,53.223,0
1580492912.679,51.270,40.039,26.367,26.855,38.086,0
1580492912.683,40.527,43.457,27.832,30.273,51.270,0
1580492912.687,28.809,43.945,30.273,27.344,112.793,0
1580492912.691,40.039,41.016,30.762,20.020,110.352,0
1580492912.695,51.758,36.133,26.855,18.066,41.992,0
1580492912.699,41.504,37.109,24.414,16.602,67.383,0
1580492912.703,26.367,39.062,25.879,15.137,60.059,0
1580492912.706,31.250,38.574,25.879,15.137,64.453,0
1580492912.710,48.828,39.551,23.438,7.324,49.805,0
1580492912.714,45.410,41.016,21.973,5.371,42.969,0
1580492912.718,28.809,43.457,27.344,15.625,9.277,0
1580492912.722,23.926,40.527,32.227,15.137,-42.969,0
1580492912.738,36.133,37.109,29.785,15.137,-25.391,0
1580492912.742,41.504,37.109,26.367,20.996,3.906,0
1580492912.746,27.344,35.156,27.832,21.973,57.129,0
1580492912.750,20.020,34.668,28.809,19.043,104.492,0
1580492912.754,31.250,36.133,28.320,17.090,120.117,0
1580492912.758,40.039,35.156,25.879,15.137,125.977,0
1580492912.762,26.367,37.109,25.391,17.090,123.047,0
1580492912.765,18.066,41.992,26.855,23.438,30.762,0
1580492912.769,33.203,39.062,23.438,24.414,9.277,0
1580492912.773,50.781,35.645,21.484,20.020,68.848,0
1580492912.777,43.457,37.598,24.902,20.020,50.293,0
1580492912.781,24.414,41.016,30.762,21.484,1.465,0
1580492912.779,36.133,40.039,31.250,25.391,-20.508,0
1580492912.783,57.617,35.645,27.344,26.855,8.789,0
1580492912.787,50.293,34.668,29.785,27.832,62.988,0
1580492912.791,32.715,38.086,33.691,34.180,46.875,0
1580492912.795,29.297,39.062,34.668,35.645,24.902,0
1580492912.799,44.434,37.109,33.203,31.738,56.641,0
1580492912.803,46.875,34.668,31.250,31.250,32.227,0
1580492912.806,26.855,34.180,31.250,31.250,-13.184,0
1580492912.810,18.555,34.668,32.715,22.949,15.625,0
1580492912.814,35.156,35.156,30.762,20.508,12.695,0
1580492912.818,44.922,34.668,28.809,22.949,22.949,0
1580492912.822,30.762,37.109,32.715,22.949,102.539,0
1580492912.818,22.461,39.551,32.227,28.320,82.031,0
1580492912.822,34.180,38.086,26.367,28.320,31.738,0
1580492912.826,45.898,35.645,24.414,28.320,2.930,0
1580492912.830,40.039,37.109,25.391,30.762,26.367,0
1580492912.834,21.973,37.109,27.832,30.273,21.484,0
1580492912.838,23.438,35.156,29.785,29.297,46.387,0
1580492912.842,40.527,31.250,30.762,29.297,50.781,0
1580492912.845,47.852,31.738,31.738,32.227,-6.348,0
1580492912.849,36.621,39.551,33.203,31.738,22.461,0
1580492912.853,32.715,40.527,32.227,24.902,68.848,0
1580492912.857,47.852,38.574,27.344,21.973,32.227,0
1580492912.861,45.898,41.992,27.832,21.484,-22.949,0
1580492912.878,26.367,43.457,33.203,18.066,23.438,0
1580492912.882,18.066,41.016,34.180,20.508,18.555,0
1580492912.886,23.926,37.109,30.762,18.555,31.738,0
1580492912.890,26.855,32.715,28.809,15.625,101.562,0
1580492912.894,16.113,32.715,33.203,19.531,83.984,0
1580492912.898,6.836,36.621,36.621,19.043,59.082,0
1580492912.902,15.625,35.645,37.109,20.508,40.527,0
1580492912.905,31.738,32.715,34.668,17.578,12.207,0
1580492912.909,32.715,36.621,33.691,20.508,-41.992,0
1580492912.913,20.996,39.551,36.621,28.809,-0.977,0
1580492912.917,23.926,35.645,36.133,24.902,66.895,0
1580492912.921,40.039,35.156,32.715,20.996,71.777,0
1580492912.918,34.668,35.156,34.668,15.137,100.586,0
1580492912.922,17.578,35.645,33.203,12.695,83.984,0
1580492912.926,11.230,37.109,30.273,10.254,50.781,0
1580492912.930,25.391,35.156,30.273,13.672,47.363,0
1580492912.934,39.551,34.668,27.832,17.090,54.688,0
1580492912.938,24.902,37.598,27.832,14.160,62.012,0
1580492912.942,14.160,39.062,30.273,14.160,32.715,0
1580492912.945,25.879,36.621,32.715,12.695,11.230,0
1580492912.949,36.621,34.668,33.203,14.160,-18.066,0
1580492912.953,28.809,35.645,35.645,23.438,25.879,0
1580492912.957,13.184,35.645,37.598,17.578,91.309,0
1580492912.961,16.113,32.715,36.133,11.719,53.711,0
1580492912.958,37.598,30.762,28.320,16.602,24.902,0
1580492912.962,38.086,33.203,26.855,17.578,37.109,0
1580492912.966,14.648,33.691,31.738,20.996,19.043,0
1580492912.970,6.836,31.738,35.645,13.184,22.461,0
1580492912.974,23.438,32.715,32.715,10.254,24.902,0
1580492912.978,27.344,36.621,29.785,12.695,18.066,0
1580492912.982,11.719,36.621,31.738,13.184,43.457,0
1580492912.985,4.395,37.109,31.738,16.113,39.062,0
1580492912.989,19.531,38.574,31.738,9.277,6.348,0
1580492912.993,33.691,35.156,29.785,12.207,33.691,0
1580492912.997,24.414,33.203,30.762,20.996,43.945,0
1580492913.001,18.555,36.133,29.785,22.461,-5.859,0
1580492913.018,31.250,33.691,26.855,23.438,-4.395,0
1580492913.022,42.969,31.738,31.738,23.438,23.438,0
1580492913.026,38.574,35.156,38.086,30.273,49.805,0
1580492913.030,28.320,37.598,37.109,35.156,120.117,0
1580492913.034,31.250,33.691,31.250,31.250,64.453,0
1580492913.038,48.340,34.180,28.809,29.785,-30.762,0
1580492913.042,48.828,37.109,32.227,28.320,40.527,0
1580492913.045,30.273,34.180,36.621,28.809,59.082,0
1580492913.049,21.484,31.738,37.109,30.762,59.570,0
1580492913.053,31.250,28.809,31.250,26.855,57.617,0
1580492913.057,39.551,28.809,28.320,23.926,13.184,0
1580492913.061,29.297,31.250,28.320,19.531,25.879,0
1580492913.058,17.578,30.762,25.391,20.996,7.812,0
1580492913.062,27.344,29.785,21.973,20.996,36.621,0
1580492913.066,38.574,30.273,21.973,21.484,1.953,0
1580492913.070,21.973,31.738,23.926,21.484,-32.227,0
1580492913.074,6.348,31.738,25.879,19.043,24.414,0
1580492913.078,18.555,28.320,29.297,20.020,-66.406,0
1580492913.082,30.762,26.855,30.762,20.508,-17.578,0
1580492913.085,21.973,29.297,26.855,25.391,63.965,0
1580492913.089,10.254,30.762,29.297,29.297,28.809,0
1580492913.093,23.438,30.762,27.832,28.320,51.758,0
1580492913.097,41.016,28.320,23.926,21.484,21.973,0
1580492913.101,37.109,26.855,24.414,26.855,10.742,0
1580492913.099,26.855,27.344,28.809,36.133,-2.930,0
1580492913.103,27.344,27.832,30.273,34.668,-10.742,0
1580492913.107,40.527,29.785,29.297,26.367,-35.156,0
1580492913.111,42.480,31.250,32.715,22.949,33.691,0
1580492913.115,31.738,35.156,35.156,32.715,65.918,0
1580492913.119,22.949,37.598,32.715,27.344,30.273,0
1580492913.123,27.832,31.738,28.320,17.090,43.457,0
1580492913.126,36.133,28.809,28.320,12.695,76.172,0
1580492913.130,24.414,33.203,31.738,11.230,64.941,0
1580492913.134,9.766,33.691,31.250,16.113,-21.973,0
1580492913.138,14.648,32.227,30.273,11.230,-1.953,0
1580492913.142,30.273,33.203,27.832,9.277,29.297,0
1580492913.159,29.297,34.180,25.879,15.625,29.297,0
1580492913.163,10.742,33.691,27.344,10.254,54.199,0
1580492913.167,10.742,34.180,29.785,5.371,10.742,0
1580492913.171,27.832,35.645,27.344,10.254,-31.250,0
1580492913.175,26.367,35.156,26.367,9.277,-19.043,0
1580492913.179,9.277,35.645,32.227,11.719,13.672,0
1580492913.183,6.348,36.621,37.598,15.625,79.590,0
1580492913.186,27.344,33.691,34.180,17.578,87.402,0
1580492913.190,39.062,32.227,30.762,17.578,7.324,0
1580492913.194,31.738,35.156,33.691,21.973,-4.395,0
1580492913.198,24.414,37.109,38.086,26.855,33.203,0
1580492913.202,39.551,39.062,37.598,29.297,43.457,0
1580492913.198,55.176,38.086,33.691,28.320,38.574,0
1580492913.202,41.504,38.574,32.715,29.297,-12.695,0
1580492913.206,26.367,38.086,35.156,30.762,-11.719,0
1580492913.210,29.297,35.156,33.691,29.297,66.406,0
1580492913.214,42.969,36.621,30.762,29.297,146.484,0
1580492913.218,40.039,39.062,35.156,28.809,58.594,0
1580492913.222,22.949,39.062,36.621,29.785,-0.977,0
1580492913.225,18.555,38.574,36.133,23.438,7.324,0
1580492913.229,32.227,38.086,34.668,24.414,16.113,0
1580492913.233,41.992,39.062,34.668,25.879,94.238,0
1580492913.237,27.344,40.039,35.645,21.973,66.895,0
1580492913.241,20.020,36.133,32.227,31.250,44.434,0
1580492913.238,41.016,33.203,30.762,36.621,33.203,0
1580492913.242,50.293,32.227,32.227,32.227,-24.414,0
1580492913.246,34.180,33.203,31.738,29.785,-0.488,0
1580492913.250,17.090,35.645,31.738,27.832,12.207,0
1580492913.254,24.414,32.715,31.250,21.484,18.555,0
1580492913.258,39.551,35.156,28.809,25.879,-9.277,0
1580492913.262,23.438,35.156,32.227,24.902,12.695,0
1580492913.265,5.859,32.715,32.227,15.137,53.223,0
1580492913.269,17.090,30.273,27.832,11.719,21.484,0
1580492913.273,33.203,32.227,27.344,14.648,30.273,0
1580492913.277,31.738,34.668,27.832,15.137,121.094,0
1580492913.281,18.555,33.203,27.832,16.113,73.242,0
1580492913.298,14.648,33.691,28.320,18.555,5.371,0
1580492913.302,32.227,32.715,31.738,13.184,48.340,0
1580492913.306,39.551,30.762,32.227,18.066,92.285,0
1580492913.310,32.227,33.691,30.273,23.438,92.773,0
1580492913.314,23.926,34.668,30.762,23.438,58.594,0
1580492913.318,38.086,30.273,27.344,27.344,96.680,0
1580492913.322,47.852,26.855,27.344,17.578,135.742,0
1580492913.325,27.832,25.879,30.762,14.160,98.145,0
1580492913.329,10.742,28.809,30.273,26.855,67.383,0
1580492913.333,13.184,28.809,29.785,25.879,49.316,0
1580492913.337,22.949,24.902,30.273,22.461,-1.465,0
1580492913.341,15.137,25.879,28.320,27.344,-13.672,0
1580492913.338,-0.977,27.344,30.762,26.367,16.113,0
1580492913.342,4.883,26.855,33.203,21.973,15.137,0
1580492913.346,25.391,26.855,31.250,20.020,39.551,0
1580492913.350,29.297,29.297,31.250,19.531,70.312,0
1580492913.354,17.090,33.691,32.227,19.531,80.078,0
1580492913.358,13.184,34.668,34.668,19.043,29.785,0
1580492913.362,24.414,33.203,31.738,20.508,-21.484,0
1580492913.365,27.832,32.715,24.902,21.484,4.883,0
1580492913.369,16.113,37.109,26.855,16.113,75.684,0
1580492913.373,18.066,42.480,31.738,8.301,45.410,0
1580492913.377,36.133,40.039,30.273,6.348,-3.906,0
1580492913.381,50.781,38.574,26.855,16.113,11.719,0
1580492913.399,45.898,44.434,27.344,22.461,22.949,0
1580492913.403,31.250,42.969,31.250,22.461,31.250,0
1580492913.407,38.574,39.551,32.227,24.414,54.688,0
1580492913.411,54.199,38.574,30.762,20.508,56.641,0
1580492913.415,45.410,38.574,31.738,18.066,-7.324,0
1580492913.419,27.832,37.109,31.250,16.113,-59.082,0
1580492913.423,27.344,36.133,31.250,13.184,-15.625,0
1580492913.426,37.109,37.109,31.738,16.602,30.762,0
1580492913.430,35.156,37.109,30.273,18.555,91.309,0
1580492913.434,18.555,33.203,27.832,21.484,65.918,0
1580492913.438,13.184,29.785,27.832,20.996,-6.836,0
1580492913.442,27.832,30.762,28.320,18.555,70.801,0
1580492913.439,38.086,32.715,26.855,17.578,58.594,0
1580492913.443,33.203,35.645,27.832,20.020,-0.977,0
1580492913.447,22.461,34.180,34.180,25.391,-6.348,0
1580492913.451,27.344,31.250,37.109,20.996,-23.926,0
1580492913.455,37.598,30.273,35.645,15.625,10.254,0
1580492913.459,31.250,31.250,38.574,22.461,43.945,0
1580492913.463,19.531,31.738,41.504,26.367,72.266,0
1580492913.466,27.832,27.832,40.039,24.414,17.090,0
1580492913.470,39.062,26.855,37.109,18.555,9.277,0
1580492913.474,34.180,28.320,37.598,18.555,29.297,0
1580492913.478,16.602,27.832,38.086,18.066,7.324,0
1580492913.482,12.695,28.320,39.062,11.719,44.922,0
1580492913.479,29.785,27.344,37.109,9.277,33.691,0
1580492913.483,38.086,30.273,35.645,14.160,13.184,0
1580492913.487,22.461,34.180,39.062,21.484,20.996,0
1580492913.491,13.184,35.156,40.527,24.414,51.758,0
1580492913.495,28.320,35.156,38.574,19.531,36.621,0
1580492913.499,40.039,34.668,37.598,19.043,57.129,0
1580492913.503,36.133,37.598,38.086,29.297,82.520,0
1580492913.506,26.855,39.062,38.086,35.156,-2.441,0
1580492913.510,37.109,37.598,36.133,29.785,33.691,0
1580492913.514,49.316,35.645,36.621,25.879,56.152,0
1580492913.518,38.574,36.133,35.156,27.344,9.766,0
1580492913.522,26.367,34.668,34.180,27.344,-20.508,0
1580492913.518,34.180,30.273,33.691,24.414,66.406,0
1580492913.522,46.875,29.297,34.180,27.832,111.328,0
1580492913.526,42.969,32.715,35.156,29.297,29.297,0
1580492913.530,24.902,35.156,36.621,24.414,23.926,0
1580492913.534,20.996,36.621,38.574,22.949,66.406,0
1580492913.538,38.086,36.133,36.621,22.949,47.852,0
1580492913.542,42.480,33.203,33.203,27.832,-1.953,0
1580492913.545,26.855,32.715,32.715,27.832,20.020,0
1580492913.549,20.996,34.180,34.668,21.484,33.203,0
1580492913.553,35.645,29.785,33.691,21.973,91.797,0
1580492913.557,49.805,32.227,32.227,27.832,83.984,0
1580492913.561,38.086,35.645,33.691,30.762,30.273,0
1580492913.579,25.879,35.645,32.227,32.227,2.930,0
1580492913.583,34.668,36.621,30.273,26.855,32.227,0
1580492913.587,42.480,32.715,31.250,20.020,89.355,0
1580492913.591,35.645,32.227,29.297,23.926,138.184,0
1580492913.595,19.531,32.715,30.762,25.879,108.887,0
1580492913.599,26.367,31.738,34.180,25.391,11.230,0
1580492913.603,44.434,30.273,30.273,16.602,-26.855,0
1580492913.606,39.551,29.297,29.785,19.531,29.785,0
1580492913.610,20.996,31.250,34.180,21.973,58.594,0
1580492913.614,13.184,34.668,31.250,14.648,29.785,0
1580492913.618,22.461,33.691,26.367,5.859,46.387,0
1580492913.622,27.832,27.832,28.320,-3.418,6.836,0
1580492913.618,19.531,28.320,33.203,8.789,20.508,0
1580492913.622,6.348,30.273,33.203,11.719,61.035,0
1580492913.626,10.742,29.297,31.738,3.418,19.531,0
1580492913.630,21.973,29.297,30.762,1.953,15.137,0
1580492913.634,5.859,28.320,32.227,7.324,28.320,0
1580492913.638,-12.207,28.809,33.691,11.230,17.090,0
1580492913.642,-0.977,29.785,33.203,6.836,32.715,0
1580492913.645,10.254,26.367,30.273,6.836,58.594,0
1580492913.649,2.930,27.344,31.250,11.719,59.570,0
1580492913.653,-6.348,32.227,36.621,17.578,38.574,0
1580492913.657,-6.348,29.297,35.156,15.137,13.184,0
1580492913.661,9.277,23.926,31.738,6.836,-33.691,0
1580492913.658,16.602,24.414,31.250,9.277,-1.953,0
1580492913.662,-2.441,28.809,29.785,9.277,62.988,0
1580492913.666,-13.672,31.250,30.273,-3.906,27.832,0
1580492913.670,1.465,28.809,28.809,-5.859,22.461,0
1580492913.674,6.836,27.832,30.273,5.371,83.984,0
1580492913.678,-10.254,31.250,33.203,-0.488,41.016,0
1580492913.682,-15.137,34.668,31.250,-2.441,-19.043,0
1580492913.685,-3.418,34.180,32.227,-7.324,-38.574,0
1580492913.689,12.207,32.715,30.762,-8.789,6.348,0
1580492913.693,4.395,33.203,31.250,0.000,15.137,0
1580492913.697,-12.207,32.715,33.691,4.395,-26.367,0
1580492913.701,0.977,30.273,31.738,10.254,-15.625,0
1580492913.718,19.531,32.715,29.297,6.348,-6.348,0
1580492913.722,17.090,33.691,33.203,8.301,-27.832,0
1580492913.726,-0.977,36.133,33.691,10.742,-21.973,0
1580492913.730,-0.488,37.598,28.809,0.488,37.598,0
1580492913.734,21.484,34.180,24.902,-1.953,53.223,0
1580492913.738,24.414,36.133,27.344,-6.836,7.324,0
1580492913.742,11.719,36.133,28.320,-11.230,22.461,0
1580492913.745,2.930,34.668,28.320,-7.324,78.125,0
1580492913.749,12.207,33.203,27.832,-5.371,45.410,0
1580492913.753,20.996,32.715,26.855,-8.789,12.695,0
1580492913.757,10.254,34.668,28.320,-7.324,30.273,0
1580492913.761,-1.465,33.691,29.785,-3.418,45.898,0
1580492913.759,7.324,32.227,28.809,-4.395,1.953,0
1580492913.763,17.578,32.227,30.273,4.883,16.113,0
1580492913.767,14.160,33.203,36.133,9.277,34.668,0
1580492913.771,-0.977,32.715,39.062,9.766,19.531,0
1580492913.775,4.395,30.762,35.645,7.812,12.207,0
1580492913.779,24.414,30.273,34.180,4.883,4.395,0
1580492913.783,20.996,32.227,32.227,6.348,41.504,0
1580492913.786,1.465,32.227,29.785,5.859,87.402,0
1580492913.790,3.906,34.180,27.344,2.441,47.852,0
1580492913.794,21.484,33.691,28.320,-8.789,16.602,0
1580492913.798,23.438,29.297,30.273,-7.324,41.016,0
1580492913.802,17.090,31.250,27.832,1.465,46.387,0
1580492913.799,10.254,31.738,29.297,1.465,83.984,0
1580492913.803,23.438,32.715,28.320,4.395,102.051,0
1580492913.807,36.621,34.668,27.344,-0.977,60.059,0
1580492913.811,27.344,37.598,28.320,3.418,36.133,0
1580492913.815,11.230,36.133,28.320,8.301,63.477,0
1580492913.819,15.137,29.297,27.832,1.465,59.570,0
1580492913.823,33.203,27.832,24.902,1.953,52.734,0
1580492913.826,24.414,31.250,24.902,1.465,64.941,0
1580492913.830,9.766,31.738,27.832,-1.953,39.551,0
1580492913.834,17.090,31.738,26.855,9.766,-8.301,0
1580492913.838,36.133,32.715,25.391,15.625,11.719,0
1580492913.842,33.203,30.762,26.855,8.301,49.316,0
1580492913.859,0.000,31.250,30.273,3.418,77.148,0
1580492913.863,1.465,33.691,27.832,11.230,57.129,0
1580492913.867,32.227,35.645,28.320,7.812,8.301,0
1580492913.871,33.691,33.203,33.691,3.418,28.809,0
1580492913.875,24.414,32.715,30.762,20.508,4.395,0
1580492913.879,16.113,37.109,27.344,16.113,25.879,0
1580492913.883,25.879,34.180,28.320,14.160,36.621,0
1580492913.886,35.645,29.785,27.344,22.949,21.973,0
1580492913.890,20.020,31.250,30.273,21.484,-3.906,0
1580492913.894,4.883,34.180,32.227,18.066,-42.969,0
1580492913.898,16.113,31.738,32.227,9.277,35.156,0
1580492913.902,39.062,32.227,32.715,6.348,45.898,0
1580492913.899,32.227,32.715,34.668,9.766,-25.879,0
1580492913.903,9.277,30.273,35.645,11.230,-12.207,0
1580492913.907,17.090,32.715,28.809,9.766,38.574,0
1580492913.911,32.227,31.250,27.832,-0.488,51.758,0
1580492913.915,22.949,27.832,30.273,-0.977,15.625,0
1580492913.919,5.859,29.785,29.785,6.348,40.039,0
1580492913.923,0.000,32.715,28.320,-0.488,65.430,0
1580492913.926,17.090,28.809,30.273,-1.465,26.855,0
1580492913.930,24.902,28.320,33.691,3.418,15.137,0
1580492913.934,9.277,32.715,33.691,1.953,15.625,0
1580492913.938,-1.465,32.715,36.133,2.930,-17.578,0
1580492913.942,8.301,33.203,35.156,1.953,-5.371,0
1580492913.959,22.461,32.227,30.273,1.953,43.457,0
1580492913.963,11.230,31.250,28.320,0.488,-10.742,0
1580492913.967,-6.836,31.738,33.203,-1.465,12.207,0
1580492913.971,7.324,31.250,34.180,-1.465,74.707,0
1580492913.975,28.809,33.203,30.273,-1.465,34.180,0
1580492913.979,13.184,31.250,31.738,-3.906,29.297,0
1580492913.983,-4.883,31.738,33.203,2.441,58.594,0
1580492913.986,10.254,35.156,33.691,8.789,92.285,0
1580492913.990,27.832,32.715,31.250,5.371,107.422,0
1580492913.994,30.273,29.785,32.715,16.113,42.480,0
1580492913.998,19.043,32.715,36.621,20.020,-9.277,0
1580492914.002,9.766,37.109,35.156,12.695,2.930,0
1580492913.999,23.926,35.156,37.109,18.066,61.523,0
1580492914.003,34.180,34.180,39.551,13.672,20.996,0
1580492914.007,23.926,37.598,36.133,11.230,4.395,0
1580492914.011,5.371,35.645,36.133,17.090,19.043,0
1580492914.015,18.555,31.738,37.109,15.137,43.945,0
1580492914.019,42.480,32.715,36.133,17.090,48.340,0
1580492914.023,31.250,28.809,35.645,18.555,4.395,0
1580492914.026,17.578,29.297,35.156,21.973,44.922,0
1580492914.030,23.438,29.785,30.762,15.625,40.527,0
1580492914.034,38.086,30.762,26.855,6.836,-9.277,0
1580492914.038,33.691,38.086,28.320,6.348,-53.223,0
1580492914.042,19.043,41.992,26.855,5.859,-36.621,0
1580492914.039,25.391,40.527,26.367,14.160,13.184,0
1580492914.043,40.039,43.945,23.926,9.766,25.391,0
1580492914.047,42.480,44.922,22.461,10.254,-3.906,0
1580492914.051,29.785,39.551,29.785,27.832,49.316,0
1580492914.055,27.832,42.480,32.227,28.809,104.492,0
1580492914.059,41.016,42.480,30.762,22.461,14.160,0
1580492914.063,47.852,39.062,29.297,19.043,24.414,0
1580492914.066,35.645,42.969,28.320,27.344,54.688,0
1580492914.070,25.879,44.922,30.762,36.621,-10.254,0
1580492914.074,32.227,41.504,31.738,21.973,4.395,0
1580492914.078,46.387,36.133,32.227,15.625,70.312,0
1580492914.082,32.715,37.109,30.762,30.762,77.637,0
1580492914.099,15.137,39.062,29.297,35.645,14.648,0
1580492914.103,28.809,34.180,33.203,31.738,41.016,0
1580492914.107,31.738,35.156,29.785,22.461,90.332,0
1580492914.111,30.273,36.133,27.344,17.578,53.711,0
1580492914.115,26.855,30.273,31.250,24.902,68.848,0
1580492914.119,18.066,29.785,30.762,23.438,106.934,0
1580492914.123,30.273,32.227,24.414,18.555,78.125,0
1580492914.126,31.738,32.227,22.461,4.883,37.598,0
1580492914.130,16.602,31.738,27.832,2.930,20.020,0
1580492914.134,19.531,31.250,31.250,19.043,-14.648,0
1580492914.138,44.434,28.809,30.273,22.949,14.648,0
1580492914.142,58.105,24.902,30.273,18.555,35.645,0
1580492914.139,47.363,25.391,32.715,18.066,-23.438,0
1580492914.143,36.133,27.344,33.691,26.367,2.930,0
1580492914.147,41.016,27.832,36.621,22.461,60.547,0
1580492914.151,49.805,28.809,39.551,17.090,76.172,0
1580492914.155,46.875,32.715,40.039,30.273,4.883,0
1580492914.159,31.250,38.086,42.480,35.156,-9.277,0
1580492914.163,30.762,40.039,40.039,29.785,-14.648,0
1580492914.166,47.852,39.551,33.691,29.297,-33.691,0
1580492914.170,34.180,40.039,36.621,26.367,-5.859,0
1580492914.174,10.742,38.574,38.574,20.020,37.598,0
1580492914.178,8.301,37.598,38.574,14.648,39.551,0
1580492914.182,32.715,35.156,35.645,7.812,17.090,0
1580492914.181,45.410,34.668,35.645,4.883,15.137,0
1580492914.185,29.297,37.109,36.133,11.230,38.574,0
1580492914.189,22.949,38.086,34.180,12.695,-13.672,0
1580492914.193,30.762,35.645,34.180,10.254,-25.391,0
1580492914.197,43.945,36.133,29.785,19.043,52.246,0
1580492914.201,37.598,40.527,31.250,16.113,69.824,0
1580492914.205,20.020,41.016,36.133,11.719,68.359,0
1580492914.208,22.461,36.133,36.133,18.555,32.715,0
1580492914.212,38.086,34.668,35.156,13.672,53.223,0
1580492914.216,28.320,36.133,36.621,8.789,27.832,0
1580492914.220,1.465,34.180,37.109,11.719,-2.441,0
1580492914.224,10.742,33.691,36.133,12.207,41.504,0
1580492914.240,37.109,35.156,34.180,13.184,-18.555,0
1580492914.244,40.527,38.086,35.156,18.555,-51.758,0
1580492914.248,20.996,40.527,37.109,15.625,18.066,0
1580492914.252,23.926,38.574,35.156,21.484,24.902,0
1580492914.256,43.945,31.250,33.691,25.391,34.180,0
1580492914.260,45.898,35.156,27.832,18.066,71.289,0
1580492914.264,41.016,41.992,31.250,30.762,22.949,0
1580492914.267,33.691,44.434,37.598,30.273,43.457,0
1580492914.271,57.129,45.410,35.156,24.414,38.574,0
1580492914.275,75.684,44.434,30.762,31.250,5.859,0
1580492914.279,50.293,44.922,37.109,29.297,38.574,0
1580492914.283,31.738,46.387,41.016,9.766,16.602,0
1580492914.280,39.551,42.969,36.621,11.230,6.348,0
1580492914.284,52.246,36.621,38.086,19.043,14.160,0
1580492914.288,49.805,35.645,41.016,11.719,-5.859,0
1580492914.292,31.250,38.574,38.086,25.391,47.852,0
1580492914.296,37.598,35.156,40.527,36.621,48.340,0
1580492914.300,51.758,30.762,37.598,26.855,-41.992,0
1580492914.304,58.594,34.180,37.109,21.484,41.504,0
1580492914.307,56.641,35.645,43.457,32.227,89.355,0
1580492914.311,48.340,39.062,41.504,41.992,33.203,0
1580492914.315,62.012,42.480,37.109,43.945,28.809,0
1580492914.319,69.824,41.504,33.691,38.086,41.504,0
1580492914.323,59.570,44.922,30.762,25.879,38.086,0
1580492914.319,58.594,48.340,30.762,32.227,28.809,0
1580492914.323,64.453,48.828,30.762,43.945,-19.531,0
1580492914.327,69.824,42.969,31.738,40.039,-19.531,0
1580492914.331,62.500,41.016,36.621,35.156,20.508,0
1580492914.335,42.480,42.480,36.621,29.297,12.207,0
1580492914.339,38.086,36.133,35.156,26.367,37.109,0
1580492914.343,43.457,32.715,37.109,17.090,32.715,0
1580492914.346,53.223,35.645,35.645,37.109,13.672,0
1580492914.350,44.922,39.062,38.574,45.410,41.992,0
1580492914.354,43.945,38.574,35.156,30.762,22.949,0
1580492914.358,69.336,36.133,29.785,41.016,-0.488,0
1580492914.362,67.871,37.598,30.273,47.852,32.227,0
1580492914.379,41.504,38.574,33.203,42.969,39.062,0
1580492914.383,36.621,37.598,33.203,39.551,-36.133,0
1580492914.387,56.152,34.668,32.715,32.715,-15.625,0
1580492914.391,59.082,34.180,37.109,21.484,57.129,0
1580492914.395,50.293,41.992,30.273,24.902,19.531,0
1580492914.399,48.828,46.875,27.832,30.762,37.109,0
1580492914.403,63.477,45.898,29.297,31.250,34.668,0
1580492914.406,70.312,44.922,26.855,28.320,-4.395,0
1580492914.410,62.500,48.828,24.414,26.367,14.648,0
1580492914.414,43.457,47.363,35.156,30.762,14.160,0
1580492914.418,39.551,39.062,40.039,25.391,-14.648,0
1580492914.422,61.035,43.457,28.809,30.762,-0.977,0
1580492914.420,65.918,47.363,30.762,33.203,82.520,0
1580492914.424,48.828,43.457,36.133,36.133,84.961,0
1580492914.428,31.738,39.551,30.273,24.414,20.508,0
1580492914.432,48.828,42.480,30.762,29.297,29.785,0
1580492914.436,52.734,45.410,41.504,31.738,44.922,0
1580492914.440,36.621,47.852,40.039,24.414,11.230,0
1580492914.444,14.160,52.246,41.504,14.160,7.812,0
1580492914.447,1.953,45.410,55.176,-8.789,31.250,0
1580492914.451,7.812,46.875,47.852,-20.508,43.945,0
1580492914.455,-18.555,56.152,36.621,-31.738,45.410,0
1580492914.459,-41.016,60.059,41.016,-39.551,57.617,0
1580492914.463,-45.898,60.547,48.340,-53.223,79.590,0
1580492914.460,-44.434,62.988,45.898,-76.660,51.270,0
1580492914.464,-46.875,65.430,43.945,-75.684,99.121,0
1580492914.468,-79.102,62.012,58.105,-73.730,75.684,0
1580492914.472,-80.566,62.988,51.270,-88.867,57.129,0
1580492914.476,-63.965,57.617,65.918,-93.262,87.891,0
1580492914.480,-62.500,56.641,68.359,-82.520,75.195,0
1580492914.484,-66.895,60.059,48.340,-69.336,70.801,0
1580492914.487,-75.684,55.176,56.152,-69.336,44.922,0
1580492914.491,-54.688,55.176,53.711,-72.266,51.758,0
1580492914.495,-44.434,52.246,51.758,-66.895,12.207,0
1580492914.499,-55.176,51.758,52.734,-52.246,7.324,0
1580492914.503,-50.293,55.176,50.781,-43.945,44.922,0
1580492914.519,-21.484,55.176,48.828,-38.574,28.320,0
1580492914.523,4.395,52.734,46.387,-35.645,23.438,0
1580492914.527,3.906,51.758,41.992,-29.785,-7.324,0
1580492914.531,0.000,51.270,40.039,-10.742,30.273,0
1580492914.535,11.719,43.457,41.016,-7.812,39.551,0
1580492914.539,30.273,38.574,35.645,-5.371,1.953,0
1580492914.543,40.527,41.016,30.273,11.230,85.938,0
1580492914.546,31.738,38.574,31.738,13.672,111.328,0
1580492914.550,33.203,36.621,32.227,22.461,-4.395,0
1580492914.554,50.293,35.156,29.785,23.926,-49.805,0
1580492914.558,50.293,34.180,29.297,25.391,16.113,0
1580492914.562,45.898,34.668,29.785,37.109,40.039,0
1580492914.559,45.410,31.738,27.832,41.016,50.781,0
1580492914.563,59.082,26.855,23.438,35.645,53.711,0
1580492914.567,71.289,24.414,22.461,36.133,48.828,0
1580492914.571,61.523,26.367,24.414,44.434,80.566,0
1580492914.575,54.688,28.809,24.414,49.316,70.801,0
1580492914.579,65.430,27.344,24.414,51.270,55.664,0
1580492914.583,78.613,25.391,23.438,47.363,104.492,0
1580492914.586,71.289,26.367,22.949,43.457,78.125,0
1580492914.590,59.082,29.297,22.461,53.711,3.906,0
1580492914.594,68.359,30.762,19.531,56.152,7.324,0
1580492914.598,86.914,31.738,15.625,52.734,30.762,0
1580492914.602,81.543,30.762,19.043,60.547,-12.207,0
1580492914.599,55.664,28.320,24.414,58.594,9.277,0
1580492914.603,54.199,30.273,19.531,54.688,49.316,0
1580492914.607,71.777,29.785,16.113,57.129,38.574,0
1580492914.611,76.660,31.250,17.090,56.641,15.137,0
1580492914.615,58.594,32.715,19.531,61.523,23.926,0
1580492914.619,46.387,31.250,24.414,67.383,41.992,0
1580492914.623,55.664,30.762,22.949,65.918,82.031,0
1580492914.626,71.289,29.297,24.902,68.359,44.434,0
1580492914.630,61.523,29.297,26.855,65.430,26.367,0
1580492914.634,43.945,30.762,23.926,60.547,40.527,0
1580492914.638,52.734,27.832,25.879,71.777,23.438,0
1580492914.642,61.523,25.391,28.809,78.125,25.879,0
1580492914.659,56.641,27.832,29.785,75.195,71.289,0
1580492914.663,45.898,33.203,29.297,69.824,78.125,0
1580492914.667,42.969,31.250,29.297,67.871,52.734,0
1580492914.671,63.477,28.320,28.320,75.684,60.547,0
1580492914.675,68.359,31.738,27.832,78.613,122.070,0
1580492914.679,44.434,33.203,31.738,73.242,138.672,0
1580492914.683,33.691,32.227,31.738,66.406,40.527,0
1580492914.686,41.016,27.832,25.879,60.059,-13.672,0
1580492914.690,49.316,25.391,23.926,57.617,6.348,0
1580492914.694,40.039,28.320,25.879,63.965,3.418,0
1580492914.698,31.250,32.227,27.832,64.941,26.855,0
1580492914.702,46.875,31.738,27.344,59.082,46.387,0
1580492914.699,57.129,28.320,26.855,58.594,54.199,0
1580492914.703,47.363,30.273,27.344,55.176,44.922,0
1580492914.707,36.133,36.133,31.250,53.223,31.250,0
1580492914.711,44.434,31.738,30.762,47.363,55.176,0
1580492914.715,52.734,28.809,25.391,37.109,34.668,0
1580492914.719,48.828,32.715,29.297,38.086,6.836,0
1580492914.723,40.039,35.156,31.738,39.062,-46.387,0
1580492914.726,37.598,34.180,30.273,37.109,-6.836,0
1580492914.730,50.781,31.738,30.762,36.133,39.551,0
1580492914.734,51.758,31.250,30.762,32.227,-32.227,0
1580492914.738,35.645,32.715,33.203,30.273,-16.113,0
1580492914.742,25.391,32.227,35.645,31.738,41.992,0
1580492914.739,42.969,29.297,33.691,31.738,41.992,0
1580492914.743,53.711,32.227,29.785,30.762,13.672,0
1580492914.747,31.738,38.086,30.762,28.320,-42.969,0
1580492914.751,21.484,41.504,34.668,34.180,12.695,0
1580492914.755,33.691,39.062,34.180,33.691,57.617,0
1580492914.759,49.805,39.062,30.273,29.785,36.621,0
1580492914.763,42.969,41.504,32.715,32.715,44.922,0
1580492914.766,23.926,40.039,36.621,31.250,46.387,0
1580492914.770,30.273,38.574,39.062,20.508,-8.789,0
1580492914.774,45.898,35.156,35.156,24.414,32.227,0
1580492914.778,35.156,32.715,34.180,30.273,54.199,0
1580492914.782,16.113,34.668,36.133,27.344,14.648,0
1580492914.801,16.602,35.156,35.645,24.414,72.266,0
1580492914.805,30.762,33.691,32.227,18.066,47.852,0
1580492914.809,33.691,33.203,30.273,17.090,11.719,0
1580492914.813,22.461,36.133,33.691,15.625,62.988,0
1580492914.817,21.484,36.621,34.668,12.695,83.984,0
1580492914.821,36.133,34.180,33.691,14.648,19.531,0
1580492914.825,46.875,33.203,34.180,17.578,13.184,0
1580492914.828,33.203,32.715,34.180,21.484,74.219,0
1580492914.832,19.531,35.156,35.645,20.996,87.891,0
1580492914.836,31.738,36.621,33.691,16.602,54.199,0
1580492914.840,48.340,34.180,31.250,14.648,23.926,0
1580492914.844,41.016,34.668,31.250,16.113,19.531,0
1580492914.839,23.438,35.156,32.227,17.090,41.992,0
1580492914.843,26.367,33.691,33.691,17.578,61.035,0
1580492914.847,40.527,33.203,32.715,14.648,7.812,0
1580492914.851,33.691,34.668,28.809,14.648,-13.672,0
1580492914.855,13.184,35.645,29.297,13.672,68.359,0
1580492914.859,9.766,37.109,29.297,11.719,58.105,0
1580492914.863,20.020,33.691,26.367,9.766,27.344,0
1580492914.866,22.461,32.715,31.250,7.324,5.371,0
1580492914.870,3.418,34.668,35.645,11.230,0.000,0
1580492914.874,-4.395,35.645,35.156,8.301,44.434,0
1580492914.878,7.812,30.762,34.668,-0.977,61.523,0
1580492914.882,16.602,28.809,29.297,7.812,42.480,0
1580492914.879,10.254,29.785,28.320,8.789,11.230,0
1580492914.883,-0.977,28.809,31.738,3.906,-3.418,0
1580492914.887,13.672,30.273,32.227,6.836,-43.457,0
1580492914.891,33.203,29.785,30.273,0.000,-6.348,0
1580492914.895,27.832,29.297,30.762,6.348,70.312,0
1580492914.899,11.719,30.762,32.227,11.719,40.039,0
1580492914.903,11.230,31.738,29.785,12.207,32.715,0
1580492914.906,29.785,30.762,30.762,11.230,96.191,0
1580492914.910,31.738,31.250,31.738,3.906,-1.953,0
1580492914.914,15.625,35.645,30.762,6.348,-34.668,0
1580492914.918,18.555,36.133,29.297,12.207,34.180,0
1580492914.922,32.715,31.250,29.785,13.184,24.414,0
1580492914.939,32.227,35.645,30.762,6.348,61.035,0
1580492914.943,16.602,41.992,32.227,3.418,110.352,0
1580492914.947,-0.977,42.969,39.062,-0.977,70.801,0
1580492914.951,4.883,41.016,38.574,-6.836,41.992,0
1580492914.955,11.230,43.457,35.156,-19.043,36.133,0
1580492914.959,-2.930,52.246,39.551,-29.785,-3.906,0
1580492914.963,-24.414,55.176,41.504,-43.457,-17.090,0
1580492914.966,-29.785,55.664,40.039,-67.871,42.969,0
1580492914.970,-18.555,58.105,40.039,-73.242,23.926,0
1580492914.974,-41.992,56.152,49.316,-74.219,27.344,0
1580492914.978,-81.055,53.711,61.035,-78.613,-7.812,0
1580492914.982,-88.867,54.199,62.988,-83.008,-26.367,0
1580492914.981,-72.266,48.340,62.012,-82.031,68.848,0
1580492914.985,-67.871,41.504,64.941,-77.148,74.707,0
1580492914.989,-83.984,43.945,70.801,-78.613,34.180,0
1580492914.993,-86.914,46.387,71.289,-82.520,28.320,0
1580492914.997,-63.965,39.551,72.754,-72.754,61.035,0
1580492915.001,-55.176,34.180,79.102,-61.523,26.855,0
1580492915.005,-67.871,33.691,80.078,-51.758,21.484,0
1580492915.008,-69.824,30.762,74.707,-42.480,59.570,0
1580492915.012,-51.270,26.855,70.801,-42.969,-4.395,0
1580492915.016,-32.227,25.391,67.383,-42.480,-9.277,0
1580492915.020,-29.297,25.391,61.523,-22.949,77.637,0
1580492915.024,-26.855,27.832,58.594,-6.348,-35.156,0
1580492915.019,-5.371,27.344,52.734,-6.348,-48.828,0
1580492915.023,21.484,22.949,47.852,2.930,60.059,0
1580492915.027,27.344,23.438,46.387,12.695,27.832,0
1580492915.031,20.996,25.391,41.992,22.949,22.461,0
1580492915.035,25.879,24.414,41.016,33.203,4.883,0
1580492915.039,39.062,23.438,38.086,33.203,-20.996,0
1580492915.043,47.852,23.926,32.227,35.645,32.227,0
1580492915.046,34.180,24.414,33.691,37.598,49.805,0
1580492915.050,33.691,25.391,27.832,36.133,77.148,0
1580492915.054,56.641,21.484,22.949,40.527,44.434,0
1580492915.058,63.477,20.996,24.414,47.852,65.430,0
1580492915.062,50.781,23.926,25.391,50.781,58.594,0
1580492915.079,48.828,25.879,25.391,50.293,-6.836,0
1580492915.083,61.523,23.438,24.902,51.758,78.613,0
1580492915.087,75.684,21.973,23.438,59.570,75.684,0
1580492915.091,70.312,23.926,23.926,67.871,39.062,0
1580492915.095,59.082,26.367,28.320,67.871,31.250,0
1580492915.099,72.266,26.855,29.297,67.871,-14.648,0
1580492915.103,82.520,22.949,26.855,56.641,5.371,0
1580492915.106,77.148,20.996,26.367,57.129,63.477,0
1580492915.110,59.570,21.973,25.879,62.012,82.031,0
1580492915.114,51.270,21.973,22.949,58.105,-3.418,0
1580492915.118,64.941,21.973,22.949,56.152,-16.602,0
1580492915.122,69.336,24.902,24.414,57.617,53.223,0
1580492915.119,59.570,32.227,25.879,57.129,43.457,0
1580492915.123,57.129,32.227,28.320,55.176,21.484,0
1580492915.127,69.824,29.297,25.879,58.105,-8.789,0
1580492915.131,76.660,28.320,28.320,63.965,-5.371,0
1580492915.135,61.035,27.832,29.297,63.965,68.848,0
1580492915.139,50.781,28.809,26.855,55.176,64.453,0
1580492915.143,58.105,27.832,27.832,49.805,39.551,0
1580492915.146,71.289,25.879,25.879,48.828,42.480,0
1580492915.150,62.500,26.367,24.902,43.945,-15.625,0
1580492915.154,41.992,25.879,26.367,37.598,24.902,0
1580492915.158,50.781,23.926,25.391,43.457,62.988,0
1580492915.162,73.242,25.879,23.438,47.363,23.438,0
1580492915.160,73.730,29.297,24.902,34.668,-6.836,0
1580492915.164,57.129,31.250,25.879,33.691,21.484,0
1580492915.168,49.805,29.785,28.320,46.875,93.750,0
1580492915.172,71.777,30.273,24.902,63.477,41.504,0
1580492915.176,75.195,30.762,20.508,63.965,-3.418,0
1580492915.180,62.012,30.273,24.902,62.988,54.199,0
1580492915.184,61.035,31.738,29.785,77.637,7.324,0
1580492915.187,64.941,30.273,30.273,69.336,-11.719,0
1580492915.191,71.777,29.297,26.367,62.500,44.922,0
1580492915.195,56.641,30.762,28.320,59.570,61.523,0
1580492915.199,40.527,31.250,31.250,66.895,43.945,0
1580492915.203,42.969,27.832,29.297,67.383,44.434,0
1580492915.219,56.641,26.855,28.320,43.945,-7.812,0
1580492915.223,51.758,26.855,28.320,46.387,-11.230,0
1580492915.227,32.227,25.391,29.785,54.688,41.016,0
1580492915.231,30.273,29.297,27.832,59.082,43.945,0
1580492915.235,47.852,32.715,25.879,51.270,37.109,0
1580492915.239,47.852,29.785,31.738,49.805,43.457,0
1580492915.243,29.785,30.762,35.645,58.105,39.551,0
1580492915.246,31.738,32.715,28.320,49.316,10.742,0
1580492915.250,49.316,30.273,23.926,38.574,82.520,0
1580492915.254,53.223,28.320,28.809,47.363,64.941,0
1580492915.258,34.180,30.762,31.738,57.617,18.066,0
1580492915.262,15.137,31.250,30.762,49.805,58.105,0
1580492915.259,27.344,28.809,30.273,51.758,42.969,0
1580492915.263,39.551,27.832,29.785,46.875,27.832,0
1580492915.267,25.879,28.809,30.762,37.598,29.785,0
1580492915.271,14.648,32.227,30.273,35.156,8.789,0
1580492915.275,20.508,30.273,29.785,35.156,-25.391,0
1580492915.279,34.668,30.762,29.297,26.855,3.906,0
1580492915.283,33.691,33.203,33.691,32.227,39.062,0
1580492915.286,19.531,35.645,33.691,39.551,0.977,0
1580492915.290,18.555,34.668,30.273,33.691,13.672,0
1580492915.294,38.086,33.203,30.273,35.645,68.359,0
1580492915.298,47.852,36.621,27.832,39.062,74.219,0
1580492915.302,28.809,41.992,29.785,37.598,36.133,0
1580492915.299,23.926,45.410,30.762,38.086,-0.488,0
1580492915.303,43.945,43.457,25.879,40.039,9.277,0
1580492915.307,49.316,43.945,20.508,26.367,36.621,0
1580492915.311,30.273,50.781,18.066,19.531,26.855,0
1580492915.315,17.090,53.223,14.648,16.113,34.180,0
1580492915.319,26.855,49.805,12.695,14.160,61.035,0
1580492915.323,40.039,50.293,8.789,14.648,13.672,0
1580492915.326,24.902,50.781,12.207,-2.441,34.180,0
1580492915.330,5.859,50.781,17.090,-4.883,51.758,0
1580492915.334,21.973,51.270,13.672,22.949,22.949,0
1580492915.338,41.992,47.363,16.113,37.109,24.902,0
1580492915.342,37.109,46.875,16.602,38.086,-3.906,0
1580492915.359,23.438,50.781,18.555,29.785,-9.766,0
1580492915.363,26.367,50.293,21.973,17.090,-11.230,0
1580492915.367,36.133,48.828,16.602,16.113,17.090,0
1580492915.371,35.156,44.434,18.066,8.789,52.734,0
1580492915.375,20.020,41.504,27.832,6.836,62.988,0
1580492915.379,12.207,45.410,24.414,12.695,25.879,0
1580492915.383,37.109,47.852,17.578,9.277,-17.090,0
1580492915.386,46.875,42.480,17.090,15.137,41.992,0
1580492915.390,33.691,41.504,17.090,18.066,51.758,0
1580492915.394,32.227,43.945,20.996,20.508,3.906,0
1580492915.398,34.668,39.551,21.973,21.973,8.789,0
1580492915.402,51.270,38.574,19.043,24.902,14.648,0
1580492915.399,47.363,43.457,19.043,21.973,18.555,0
1580492915.403,22.949,43.457,20.996,29.785,20.508,0
1580492915.407,21.484,43.457,27.344,32.227,-6.348,0
1580492915.411,29.785,40.039,30.273,12.695,2.930,0
1580492915.415,39.062,37.598,26.855,19.531,24.902,0
1580492915.419,31.738,40.527,27.832,26.367,61.035,0
1580492915.423,31.250,39.062,31.738,24.414,86.426,0
1580492915.426,46.387,37.109,24.414,25.879,70.312,0
1580492915.430,48.340,35.645,25.879,17.090,115.723,0
1580492915.434,32.227,37.109,35.645,25.391,45.898,0
1580492915.438,28.809,40.039,32.227,28.809,-23.926,0
1580492915.442,42.480,39.062,29.297,21.484,30.762,0
1580492915.439,53.711,39.062,26.855,27.344,39.062,0
1580492915.443,34.180,39.551,25.879,15.137,7.812,0
1580492915.447,18.066,39.551,28.809,16.602,10.742,0
1580492915.451,31.250,41.504,29.297,22.949,69.336,0
1580492915.455,45.410,42.480,27.832,14.648,70.801,0
1580492915.459,44.922,43.945,30.762,22.461,4.883,0
1580492915.463,36.133,44.434,30.762,31.250,42.480,0
1580492915.466,36.133,41.016,26.367,22.949,76.660,0
1580492915.470,52.734,41.504,27.344,21.484,28.809,0
1580492915.474,46.875,41.016,30.762,18.066,52.734,0
1580492915.478,32.227,38.574,32.715,17.578,60.547,0
1580492915.482,29.785,41.016,29.297,20.020,16.113,0
1580492915.500,40.039,38.574,30.273,20.020,27.344,0
1580492915.504,52.246,39.551,31.250,21.484,32.227,0
1580492915.508,41.016,42.969,27.832,17.578,20.508,0
1580492915.512,31.738,40.527,28.320,21.973,14.648,0
1580492915.516,41.992,41.504,26.855,18.066,42.969,0
1580492915.520,53.223,41.504,23.438,10.254,0.488,0
1580492915.524,38.086,40.527,29.297,4.395,1.953,0
1580492915.527,20.508,41.016,27.832,3.418,79.590,0
1580492915.531,21.973,39.062,19.531,7.812,122.559,0
1580492915.535,38.086,36.621,24.902,4.883,88.379,0
1580492915.539,35.156,36.133,25.879,3.906,46.875,0
1580492915.543,8.789,36.133,25.391,6.348,65.918,0
1580492915.539,6.348,34.180,26.367,5.371,87.402,0
1580492915.543,28.809,32.227,22.949,10.254,66.895,0
1580492915.547,37.598,33.691,20.508,8.789,44.434,0
1580492915.551,18.555,37.598,27.344,3.906,11.230,0
1580492915.555,24.902,41.016,29.297,6.836,1.953,0
1580492915.559,41.504,40.527,24.414,11.719,45.898,0
1580492915.563,50.781,41.016,25.879,10.254,57.129,0
1580492915.566,43.945,41.992,28.809,20.020,74.219,0
1580492915.570,35.156,38.574,25.879,14.648,41.016,0
1580492915.574,43.457,38.086,25.879,5.371,33.691,0
1580492915.578,43.945,39.551,30.273,10.254,21.973,0
1580492915.582,31.250,39.551,30.762,12.207,20.508,0
1580492915.599,18.555,39.062,33.691,17.090,30.762,0
1580492915.603,33.691,36.621,36.133,17.578,-5.371,0
1580492915.607,43.945,34.180,34.668,21.973,-32.227,0
1580492915.611,37.598,35.156,35.645,18.066,-9.766,0
1580492915.615,28.320,39.062,35.156,13.672,40.039,0
1580492915.619,32.227,41.992,35.156,29.297,7.324,0
1580492915.623,50.293,43.945,33.691,25.391,3.418,0
1580492915.626,42.969,43.945,30.273,-0.977,77.148,0
1580492915.630,18.555,41.504,36.133,-18.555,45.410,0
1580492915.634,15.625,40.527,36.133,-5.859,-13.184,0
1580492915.638,28.320,39.551,28.809,10.254,-10.742,0
1580492915.642,31.250,39.062,31.738,3.906,20.020,0
1580492915.639,14.160,37.109,33.203,5.371,34.668,0
1580492915.643,10.742,34.668,33.203,4.395,0.000,0
1580492915.647,32.715,37.598,30.762,1.465,-20.508,0
1580492915.651,46.875,39.551,31.250,14.648,-1.953,0
1580492915.655,38.574,38.086,33.203,20.020,39.062,0
1580492915.659,30.273,38.086,35.645,20.508,15.625,0
1580492915.663,36.621,41.992,33.203,20.508,5.371,0
1580492915.666,50.781,39.062,32.227,12.207,59.082,0
1580492915.670,48.340,39.062,32.227,7.812,14.160,0
1580492915.674,38.574,47.363,29.785,4.883,-6.836,0
1580492915.678,33.203,48.340,30.273,12.207,32.715,0
1580492915.682,45.898,44.434,30.273,11.719,46.875,0
1580492915.679,56.641,41.016,31.738,16.602,93.262,0
1580492915.683,32.227,40.527,37.109,25.391,48.340,0
1580492915.687,20.020,39.062,32.715,18.555,5.371,0
1580492915.691,30.762,36.133,28.320,8.301,35.156,0
1580492915.695,35.645,32.715,31.250,3.418,36.621,0
1580492915.699,23.926,32.715,31.250,0.488,15.137,0
1580492915.703,3.906,35.645,32.227,1.465,59.570,0
1580492915.706,10.254,37.109,28.320,-1.953,67.871,0
1580492915.710,27.344,35.645,24.414,2.930,7.324,0
1580492915.714,18.555,33.691,26.855,-2.930,-6.836,0
1580492915.718,1.953,34.668,29.297,-3.906,0.488,0
1580492915.722,19.043,38.086,25.391,0.000,46.387,0
1580492915.739,30.762,35.645,22.461,-9.277,62.012,0
1580492915.743,25.879,34.668,28.320,-9.277,34.180,0
1580492915.747,19.043,37.109,35.156,-7.812,72.754,0
1580492915.751,16.113,38.574,32.227,0.977,107.910,0
1580492915.755,23.438,40.527,29.297,0.000,52.246,0
1580492915.759,34.180,38.574,29.297,-0.977,19.531,0
1580492915.763,28.320,38.574,30.762,6.348,22.461,0
1580492915.766,31.738,43.457,33.203,8.301,39.062,0
1580492915.770,47.363,41.504,29.785,5.859,23.438,0
1580492915.774,47.363,36.133,30.273,13.672,41.504,0
1580492915.778,42.969,36.621,34.668,17.578,59.082,0
1580492915.782,29.785,39.551,36.133,14.648,27.344,0
1580492915.779,32.227,39.062,33.691,5.859,31.250,0
1580492915.783,46.387,36.133,31.738,0.000,7.324,0
1580492915.787,47.852,36.133,35.645,10.254,-14.648,0
1580492915.791,21.484,36.133,38.086,16.113,-31.738,0
1580492915.795,0.000,37.598,36.133,0.000,-25.879,0
1580492915.799,17.578,35.645,31.250,2.441,28.809,0
1580492915.803,19.043,30.273,34.180,13.672,13.672,0
1580492915.806,-9.277,33.203,36.133,-1.953,16.113,0
1580492915.810,-22.461,31.738,33.691,9.277,28.809,0
1580492915.814,0.977,24.902,36.621,7.324,-1.465,0
1580492915.818,30.762,30.762,29.785,-23.926,-6.348,0
1580492915.822,5.371,32.715,33.203,-44.434,9.277,0
1580492915.819,-6.836,31.738,35.645,-10.742,-28.809,0
1580492915.823,5.371,32.715,27.344,1.953,18.066,0
1580492915.827,9.766,32.715,27.344,-25.391,87.891,0
1580492915.831,5.859,34.180,29.297,-28.320,76.172,0
1580492915.835,-12.695,33.203,33.691,-29.297,66.895,0
1580492915.839,7.812,41.504,29.785,-27.344,47.363,0
1580492915.843,20.508,37.598,35.156,-16.602,9.766,0
1580492915.846,0.000,29.297,40.527,13.184,22.461,0
1580492915.850,9.766,36.133,33.203,4.883,35.645,0
1580492915.854,15.137,41.992,31.738,-47.852,49.316,0
1580492915.858,10.254,34.180,35.645,-13.672,71.777,0
1580492915.862,25.879,34.180,32.715,27.344,11.230,0
1580492915.879,14.648,35.645,33.691,14.648,0.488,0
1580492915.883,6.348,32.715,34.668,26.367,74.707,0
1580492915.887,29.785,37.598,26.855,36.133,59.082,0
1580492915.891,45.410,34.668,29.785,31.250,61.035,0
1580492915.895,25.879,40.039,36.133,39.062,85.938,0
1580492915.899,36.621,44.922,34.668,46.387,69.824,0
1580492915.903,41.016,34.668,37.598,27.344,93.750,0
1580492915.906,35.645,36.621,35.645,-9.277,33.203,0
1580492915.910,22.461,37.109,36.621,-1.465,-36.621,0
1580492915.914,-10.254,24.414,49.316,20.996,-1.465,0
1580492915.918,30.762,24.902,46.875,26.367,53.711,0
1580492915.922,54.688,33.203,30.762,18.555,60.059,0
1580492915.919,32.715,31.250,31.250,17.090,7.812,0
1580492915.923,27.832,28.809,39.062,20.996,7.812,0
1580492915.927,12.207,29.297,39.551,30.762,25.879,0
1580492915.931,29.297,32.715,34.180,34.180,34.180,0
1580492915.935,62.500,36.621,39.551,24.902,10.742,0
1580492915.939,55.176,40.527,37.598,23.438,54.688,0
1580492915.943,47.363,36.133,37.109,20.508,71.777,0
1580492915.946,57.129,32.227,45.898,13.672,31.250,0
1580492915.950,67.871,34.668,38.086,14.160,91.797,0
1580492915.954,45.410,35.645,32.227,38.574,102.051,0
1580492915.958,27.344,36.621,34.668,51.758,38.574,0
1580492915.962,39.551,32.715,37.598,32.227,46.875,0
1580492915.959,60.547,33.691,32.715,24.902,103.027,0
1580492915.963,41.504,32.227,41.504,21.973,76.660,0
1580492915.967,15.137,32.227,53.711,26.367,74.707,0
1580492915.971,28.809,37.109,38.574,17.578,62.988,0
1580492915.975,39.551,31.250,30.273,14.648,-3.906,0
1580492915.979,33.691,29.785,43.457,22.949,40.527,0
1580492915.983,47.852,46.387,29.785,24.414,16.113,0
1580492915.986,43.945,42.969,24.414,24.414,-14.160,0
1580492915.990,35.156,31.250,31.250,17.578,39.551,0
1580492915.994,36.621,32.227,26.855,12.695,42.480,0
1580492915.998,32.227,33.203,27.344,27.344,63.477,0
1580492916.002,25.391,31.738,35.645,42.480,32.715,0
1580492916.019,42.480,32.715,31.738,28.320,16.113,0
1580492916.023,51.270,36.621,25.391,19.531,15.625,0
1580492916.027,32.227,35.645,33.203,26.855,-27.832,0
1580492916.031,17.578,32.715,35.645,20.508,6.836,0
1580492916.035,25.879,36.133,31.250,23.438,42.969,0
1580492916.039,49.805,37.598,26.367,36.621,29.785,0
1580492916.043,40.527,34.180,26.855,22.461,24.902,0
1580492916.046,10.254,31.250,32.227,16.602,49.316,0
1580492916.050,5.371,28.809,32.227,22.461,9.277,0
1580492916.054,37.109,30.273,30.762,36.133,21.973,0
1580492916.058,37.598,26.367,37.109,31.738,23.438,0
1580492916.062,11.230,27.344,33.203,23.438,13.672,0
1580492916.059,14.648,29.785,29.785,21.484,64.941,0
1580492916.063,37.109,26.367,29.785,33.203,34.668,0
1580492916.067,38.086,28.320,30.762,29.297,38.086,0
1580492916.071,18.066,30.762,33.691,24.902,17.578,0
1580492916.075,17.578,29.297,40.039,24.902,61.035,0
1580492916.079,43.945,32.715,34.180,15.625,76.172,0
1580492916.083,43.457,29.785,28.320,30.762,26.855,0
1580492916.086,28.809,26.855,38.574,48.340,8.301,0
1580492916.090,27.344,33.203,37.109,21.484,-44.922,0
1580492916.094,36.133,35.156,24.902,-5.371,-35.645,0
1580492916.098,39.062,30.273,28.809,-6.348,11.719,0
1580492916.102,23.926,30.273,32.227,-4.395,10.742,0
1580492916.099,20.508,34.668,29.297,22.949,12.695,0
1580492916.103,24.414,31.738,29.297,31.738,14.160,0
1580492916.107,54.199,32.227,25.391,30.273,20.020,0
1580492916.111,52.734,30.762,30.273,30.762,-5.371,0
1580492916.115,5.371,27.832,32.715,21.484,26.855,0
1580492916.119,-0.977,27.832,36.133,9.277,57.617,0
1580492916.123,20.508,31.250,29.297,-1.953,66.406,0
1580492916.126,36.133,34.180,25.391,7.812,72.266,0
1580492916.130,31.738,32.227,27.832,14.648,62.012,0
1580492916.134,2.441,28.320,29.785,24.902,20.996,0
1580492916.138,0.488,27.344,29.785,29.785,-18.066,0
1580492916.142,20.508,27.344,29.785,8.301,50.293,0
1580492916.159,20.020,36.133,28.809,-18.066,63.965,0
1580492916.163,3.906,40.039,31.738,12.695,15.625,0
1580492916.167,12.207,38.086,29.785,30.273,45.898,0
1580492916.171,29.297,39.062,22.461,10.254,70.801,0
1580492916.175,30.273,40.039,26.367,-3.906,61.035,0
1580492916.179,25.879,40.039,27.344,-5.859,33.691,0
1580492916.183,17.090,36.621,27.344,8.301,2.930,0
1580492916.186,25.391,34.180,22.949,2.441,43.457,0
1580492916.190,51.270,34.180,25.391,-4.395,65.430,0
1580492916.194,43.457,36.133,29.297,20.020,20.508,0
1580492916.198,18.066,38.086,19.531,32.715,29.297,0
1580492916.202,22.949,31.738,30.273,-2.441,71.289,0
1580492916.199,32.227,25.879,34.180,-24.414,31.738,0
1580492916.203,33.691,33.691,25.391,-1.953,-0.488,0
1580492916.207,30.273,41.992,20.508,-5.371,10.254,0
1580492916.211,13.672,35.156,22.949,11.230,30.273,0
1580492916.215,18.555,27.344,31.738,28.320,20.020,0
1580492916.219,41.016,31.250,26.855,6.836,16.113,0
1580492916.223,35.645,36.133,25.879,-4.883,0.488,0
1580492916.226,20.508,37.109,25.391,-0.977,-11.719,0
1580492916.230,24.414,32.227,30.273,14.648,78.125,0
1580492916.234,51.758,32.715,36.621,20.508,115.234,0
1580492916.238,26.367,36.621,32.715,37.109,102.539,0
1580492916.242,12.695,41.016,29.297,34.180,52.734,0
1580492916.239,47.363,41.504,31.250,22.461,1.465,0
1580492916.243,41.992,35.645,37.109,16.113,-13.184,0
1580492916.247,17.090,42.969,33.691,-14.648,44.922,0
1580492916.251,4.395,49.316,36.133,-18.555,88.379,0
1580492916.255,24.902,45.898,40.527,3.418,32.227,0
1580492916.259,37.109,44.922,34.180,-6.348,9.277,0
1580492916.263,-25.879,47.363,43.945,-41.016,48.340,0
1580492916.266,-55.664,50.293,44.922,-51.270,30.762,0
1580492916.270,-20.996,53.223,42.480,-64.941,-5.859,0
1580492916.274,-27.344,55.176,55.176,-80.566,-1.953,0
1580492916.278,-72.266,54.688,58.105,-73.242,32.715,0
1580492916.282,-104.492,59.082,55.176,-120.117,18.066,0
1580492916.299,-114.746,54.199,65.918,-139.160,37.109,0
1580492916.303,-88.867,59.570,66.406,-125.977,50.781,0
1580492916.307,-98.145,52.734,63.477,-132.324,51.270,0
1580492916.311,-116.211,39.551,61.035,-127.930,48.340,0
1580492916.315,-111.328,46.875,62.012,-137.695,36.133,0
1580492916.319,-111.816,46.387,60.059,-139.160,37.109,0
1580492916.323,-102.539,41.504,52.246,-140.137,38.086,0
1580492916.326,-104.492,45.898,51.758,-133.789,76.172,0
1580492916.330,-118.652,43.457,59.082,-123.535,55.176,0
1580492916.334,-101.562,42.969,57.129,-115.234,23.926,0
1580492916.338,-76.172,47.852,58.594,-100.098,34.668,0
1580492916.342,-73.730,50.293,54.199,-93.262,37.598,0
1580492916.339,-82.520,51.758,52.246,-112.793,-33.691,0
1580492916.343,-63.965,49.316,47.363,-88.379,0.977,0
1580492916.347,-42.969,42.480,48.828,-41.016,67.383,0
1580492916.351,-42.969,45.898,55.176,-62.500,12.207,0
1580492916.355,-41.992,49.316,46.875,-74.707,12.207,0
1580492916.359,-28.809,41.504,53.223,-39.551,57.617,0
1580492916.363,-21.973,38.086,51.270,-34.668,21.484,0
1580492916.366,-24.902,38.086,37.109,-59.570,10.742,0
1580492916.370,-20.508,38.086,41.016,-43.457,10.742,0
1580492916.374,-14.160,36.133,42.969,-22.949,-20.508,0
1580492916.378,-0.977,33.203,37.598,-9.766,19.043,0
1580492916.382,29.785,33.691,32.227,3.906,21.973,0
1580492916.379,32.715,33.203,35.156,7.812,-12.695,0
1580492916.383,17.090,31.250,30.762,21.973,0.977,0
1580492916.387,27.832,25.879,27.832,33.691,44.434,0
1580492916.391,56.641,23.438,27.832,28.809,-0.488,0
1580492916.395,69.824,26.855,24.902,38.574,31.738,0
1580492916.399,63.477,28.320,26.367,41.504,85.938,0
1580492916.403,52.734,22.461,25.879,37.598,67.871,0
1580492916.406,67.871,19.043,23.438,69.336,63.965,0
1580492916.410,91.309,22.949,18.555,69.824,37.598,0
1580492916.414,77.148,24.902,12.207,73.242,34.180,0
1580492916.418,76.660,24.414,13.672,82.520,6.836,0
1580492916.422,100.586,24.414,7.324,69.824,17.090,0
1580492916.439,95.215,23.926,6.348,83.496,60.547,0
1580492916.443,77.148,22.949,17.090,86.914,53.223,0
1580492916.447,67.871,20.508,18.555,70.801,-36.133,0
1580492916.451,83.984,19.531,12.207,62.988,-10.742,0
1580492916.455,96.191,19.043,18.555,71.289,62.988,0
1580492916.459,84.961,21.973,16.113,88.379,57.129,0
1580492916.463,68.359,23.926,12.695,82.031,29.785,0
1580492916.466,79.102,22.949,18.066,78.125,28.809,0
1580492916.470,97.168,24.414,10.254,79.590,75.684,0
1580492916.474,78.613,24.902,15.137,88.379,53.223,0
1580492916.478,71.777,22.949,26.367,104.004,60.059,0
1580492916.482,83.984,21.973,23.438,95.703,87.891,0
1580492916.479,95.703,21.484,14.648,88.867,63.477,0
1580492916.483,87.402,17.578,17.090,90.332,98.145,0
1580492916.487,80.566,21.973,17.090,89.355,58.594,0
1580492916.491,85.449,26.855,13.672,74.707,2.441,0
1580492916.495,88.379,22.949,21.484,82.031,26.367,0
1580492916.499,83.496,19.531,25.391,81.055,-3.418,0
1580492916.503,74.707,22.949,19.043,70.312,-25.391,0
1580492916.506,69.336,25.391,18.555,69.824,16.602,0
1580492916.510,75.195,21.973,22.461,69.336,32.227,0
1580492916.514,81.543,24.414,21.973,64.453,-19.043,0
1580492916.518,70.312,26.367,22.461,57.617,-4.883,0
1580492916.522,59.570,28.809,24.414,65.430,47.852,0
1580492916.519,71.777,29.297,23.438,71.289,70.312,0
1580492916.523,81.055,26.367,25.391,73.730,88.379,0
1580492916.527,74.707,28.320,24.902,72.266,82.520,0
1580492916.531,62.988,31.250,23.438,63.477,60.059,0
1580492916.535,59.082,29.297,25.391,63.477,7.812,0
1580492916.539,77.637,26.855,23.926,66.895,13.184,0
1580492916.543,76.172,26.367,22.949,62.012,18.555,0
1580492916.546,45.898,25.879,29.785,56.152,30.273,0
1580492916.550,38.086,27.344,33.203,53.223,76.660,0
1580492916.554,61.523,26.855,25.879,53.711,11.230,0
1580492916.558,71.289,27.832,21.484,53.711,-13.184,0
1580492916.562,57.129,29.297,22.461,46.875,33.691,0
1580492916.579,50.781,29.297,23.438,46.875,25.391,0
1580492916.583,62.012,27.344,24.414,41.504,-4.395,0
1580492916.587,70.801,23.438,25.391,36.621,45.410,0
1580492916.591,56.152,23.926,28.809,45.898,103.027,0
1580492916.595,38.574,26.855,35.645,46.875,121.582,0
1580492916.599,43.457,26.855,35.156,39.062,45.410,0
1580492916.603,55.176,26.855,27.344,41.992,-9.277,0
1580492916.606,47.363,27.832,29.785,47.852,16.602,0
1580492916.610,32.227,30.762,34.668,46.875,66.895,0
1580492916.614,28.809,32.715,36.133,36.133,38.574,0
1580492916.618,45.410,29.297,34.180,30.762,41.016,0
1580492916.622,48.828,27.832,30.762,36.133,69.336,0
1580492916.619,29.297,30.762,33.203,32.715,12.695,0
1580492916.623,26.367,35.645,34.668,42.480,-17.578,0
1580492916.627,41.992,35.645,33.203,39.551,-2.930,0
1580492916.631,50.293,37.109,37.109,36.621,-25.391,0
1580492916.635,41.504,38.574,40.039,45.410,-20.996,0
1580492916.639,29.785,37.109,37.109,45.410,31.250,0
1580492916.643,37.109,34.180,34.668,39.551,68.848,0
1580492916.646,56.641,31.738,30.762,33.691,94.238,0
1580492916.650,43.945,31.738,33.203,42.969,72.754,0
1580492916.654,20.996,34.180,41.504,46.875,20.020,0
1580492916.658,31.250,34.668,38.086,43.457,-7.324,0
1580492916.662,39.551,31.250,35.645,38.086,9.766,0
1580492916.659,31.250,28.809,37.109,34.668,42.969,0
1580492916.663,22.461,33.203,37.109,44.434,31.738,0
1580492916.667,25.391,35.156,34.180,42.480,-1.465,0
1580492916.671,39.062,28.809,30.273,28.320,32.227,0
1580492916.675,46.387,29.297,33.203,27.832,82.031,0
1580492916.679,38.574,35.645,33.691,36.621,82.520,0
1580492916.683,23.438,31.738,33.203,36.133,48.340,0
1580492916.686,28.809,28.320,32.227,29.297,12.695,0
1580492916.690,48.828,32.227,28.809,24.902,15.625,0
1580492916.694,41.992,33.691,29.297,30.762,20.020,0
1580492916.698,22.949,32.715,36.133,28.809,32.227,0
1580492916.702,25.879,31.250,34.668,19.531,35.645,0
1580492916.719,40.527,30.762,26.855,21.484,7.812,0
1580492916.723,31.738,36.133,23.438,21.973,-19.043,0
1580492916.727,9.277,38.574,24.902,14.648,-15.137,0
1580492916.731,13.184,33.203,28.320,0.977,16.113,0
1580492916.735,29.785,31.250,24.902,3.418,59.570,0
1580492916.739,27.344,34.668,26.367,12.207,72.266,0
1580492916.743,10.742,38.086,28.320,7.324,104.492,0
1580492916.746,13.672,38.086,27.344,6.836,86.426,0
1580492916.750,33.691,32.715,28.320,6.348,38.086,0
1580492916.754,36.133,30.273,30.273,4.395,6.836,0
1580492916.758,19.043,33.691,30.273,11.719,11.230,0
1580492916.762,17.090,35.645,26.367,21.484,48.340,0
1580492916.759,31.738,33.203,24.902,20.996,40.527,0
1580492916.763,49.316,34.180,26.855,22.461,27.832,0
1580492916.767,38.086,33.691,31.250,27.344,43.457,0
1580492916.771,16.113,31.738,32.715,32.715,82.031,0
1580492916.775,23.438,33.691,32.227,35.645,21.973,0
1580492916.779,42.480,32.227,29.785,24.902,15.625,0
1580492916.783,35.156,31.250,28.809,20.996,66.406,0
1580492916.786,12.695,32.227,31.738,20.996,41.992,0
1580492916.790,15.625,31.738,33.691,15.625,27.344,0
1580492916.794,28.320,29.297,28.809,4.395,9.766,0
1580492916.798,25.391,27.344,26.855,1.953,3.418,0
1580492916.802,13.184,33.203,29.785,10.742,7.324,0
1580492916.799,8.301,35.645,31.250,8.789,19.043,0
1580492916.803,29.785,33.691,27.344,3.906,0.000,0
1580492916.807,45.410,34.180,27.832,0.977,-7.324,0
1580492916.811,26.855,34.668,33.203,1.465,28.809,0
1580492916.815,7.812,37.109,34.180,4.883,5.859,0
1580492916.819,23.926,39.551,33.691,14.648,-3.906,0
1580492916.823,46.875,40.527,28.809,24.902,38.086,0
1580492916.826,31.738,41.016,28.809,16.113,72.754,0
1580492916.830,15.137,39.551,28.809,3.418,66.895,0
1580492916.834,31.250,38.086,22.949,9.277,7.812,0
1580492916.838,46.387,36.133,22.949,15.625,31.250,0
1580492916.842,37.109,34.668,28.809,21.484,69.336,0
1580492916.859,21.484,38.574,31.250,20.996,24.414,0
1580492916.863,27.344,36.133,31.250,25.879,25.879,0
1580492916.867,41.504,31.250,33.203,33.203,73.242,0
1580492916.871,36.133,33.203,34.668,27.344,29.785,0
1580492916.875,24.414,36.621,33.691,29.785,27.344,0
1580492916.879,24.414,37.598,31.250,31.250,-9.277,0
1580492916.883,30.273,34.180,30.762,26.367,-16.113,0
1580492916.886,36.621,32.715,31.250,20.996,-13.184,0
1580492916.890,27.344,34.668,32.227,21.484,-10.254,0
1580492916.894,14.648,37.109,31.738,28.320,33.691,0
1580492916.898,25.391,38.086,29.785,25.391,42.969,0
1580492916.902,41.992,38.086,26.855,20.996,57.617,0
1580492916.899,33.203,38.086,33.203,22.461,36.621,0
1580492916.903,12.207,35.645,37.598,23.926,4.883,0
1580492916.907,12.695,34.180,34.180,18.555,10.254,0
1580492916.911,34.180,36.133,31.250,15.625,49.805,0
1580492916.915,28.320,35.645,28.320,16.602,74.707,0
1580492916.919,6.836,36.621,33.203,13.184,84.961,0
1580492916.923,12.695,38.574,33.203,18.066,60.059,0
1580492916.926,29.297,37.109,29.785,20.020,13.184,0
1580492916.930,37.109,37.598,29.297,15.625,11.719,0
1580492916.934,23.926,41.992,30.273,21.484,50.293,0
1580492916.938,15.625,41.016,30.762,27.344,8.301,0
1580492916.942,39.551,40.527,28.320,29.297,0.977,0
1580492916.939,57.617,40.527,28.320,25.879,27.344,0
1580492916.943,42.480,39.551,28.320,29.297,-19.043,0
1580492916.947,25.391,43.457,27.344,26.367,20.996,0
1580492916.951,28.809,41.992,25.391,22.461,65.918,0
1580492916.955,35.645,39.551,26.855,27.344,34.180,0
1580492916.959,27.344,41.992,32.715,22.461,24.902,0
1580492916.963,12.207,41.992,34.668,18.066,38.574,0
1580492916.966,9.766,39.062,36.133,12.207,-2.441,0
1580492916.970,24.414,36.133,34.180,10.742,-9.277,0
1580492916.974,25.879,34.668,32.227,15.137,53.223,0
1580492916.978,6.836,33.203,33.691,12.207,30.273,0
1580492916.982,4.883,37.598,29.297,15.137,12.695,0
1580492916.999,23.438,41.504,28.320,22.461,57.129,0
1580492917.003,37.598,37.598,31.250,20.020,22.461,0
1580492917.007,28.809,40.039,32.715,21.484,-28.809,0
1580492917.011,20.996,41.016,36.133,29.785,2.930,0
1580492917.015,40.039,35.645,34.180,31.250,51.758,0
1580492917.019,49.805,34.668,31.738,31.250,70.312,0
1580492917.023,34.668,38.086,34.668,30.273,13.184,0
1580492917.026,25.879,37.598,37.598,30.762,0.488,0
1580492917.030,32.227,32.715,33.203,27.832,42.480,0
1580492917.034,37.598,29.297,28.320,25.391,51.758,0
1580492917.038,30.273,31.738,26.367,22.461,59.570,0
1580492917.042,10.742,33.203,25.391,17.578,24.902,0
1580492917.039,9.766,33.691,25.879,12.207,1.953,0
1580492917.043,31.738,32.715,24.902,4.395,15.625,0
1580492917.047,31.250,30.273,27.832,2.441,56.641,0
1580492917.051,14.160,33.691,33.691,0.000,102.539,0
1580492917.055,10.742,36.621,31.250,0.488,52.246,0
1580492917.059,25.879,37.598,27.832,2.930,60.059,0
1580492917.063,31.738,38.574,30.762,5.859,57.617,0
1580492917.066,20.996,42.480,30.273,8.789,4.883,0
1580492917.070,22.461,46.387,31.738,11.719,20.508,0
1580492917.074,36.133,42.480,34.180,15.625,89.355,0
1580492917.078,41.992,37.109,31.738,17.578,99.121,0
1580492917.082,30.273,39.551,32.715,26.367,65.918,0
1580492917.100,9.277,37.598,35.645,32.227,18.555,0
1580492917.104,9.277,33.203,35.156,21.973,27.344,0
1580492917.108,29.785,34.668,36.133,23.926,23.926,0
1580492917.112,26.855,32.227,41.504,30.762,3.906,0
1580492917.116,9.277,30.273,39.551,30.762,47.852,0
1580492917.120,13.672,31.250,35.645,33.203,90.820,0
1580492917.124,29.785,30.762,39.551,32.715,90.332,0
1580492917.127,24.414,33.203,39.062,20.020,28.809,0
1580492917.131,4.883,36.621,33.691,17.090,28.320,0
1580492917.135,6.836,38.574,36.621,20.020,37.109,0
1580492917.139,34.180,38.086,36.133,16.113,11.230,0
1580492917.143,46.387,41.016,34.668,19.043,49.805,0
1580492917.139,33.691,43.945,37.598,23.926,39.551,0
1580492917.143,22.949,43.457,35.645,21.484,28.809,0
1580492917.147,30.273,42.480,34.180,17.578,84.473,0
1580492917.151,43.457,42.969,34.180,20.508,50.781,0
1580492917.155,37.598,43.457,33.691,21.484,20.996,0
1580492917.159,22.949,41.016,39.551,23.438,58.105,0
1580492917.163,28.320,40.039,37.598,24.414,77.148,0
1580492917.166,44.434,40.039,34.180,21.484,27.832,0
1580492917.170,38.086,41.992,37.109,26.855,15.625,0
1580492917.174,8.789,39.551,37.109,25.391,13.184,0
1580492917.178,6.348,36.133,38.086,26.367,24.414,0
1580492917.182,28.320,34.180,38.086,22.949,9.277,0
1580492917.179,36.621,33.203,34.180,20.508,-13.184,0
1580492917.183,22.949,35.156,35.156,34.668,53.711,0
1580492917.187,16.602,36.621,34.180,41.992,78.125,0
1580492917.191,29.785,35.156,32.715,33.691,42.480,0
1580492917.195,38.574,34.180,33.691,24.902,23.438,0
1580492917.199,28.809,34.180,35.645,26.367,30.273,0
1580492917.203,20.508,36.621,34.668,24.414,10.742,0
1580492917.206,29.297,34.180,30.762,17.090,-10.254,0
1580492917.210,40.039,32.715,29.297,9.277,-8.789,0
1580492917.214,29.297,35.156,28.809,3.906,-1.953,0
1580492917.218,10.254,34.180,31.738,5.859,20.508,0
1580492917.222,15.137,31.738,32.715,12.207,57.617,0
1580492917.238,38.574,31.738,31.738,14.160,25.391,0
1580492917.242,37.109,33.203,34.668,14.648,-1.465,0
1580492917.246,19.531,35.645,36.133,22.949,18.555,0
1580492917.250,21.973,36.133,35.645,24.414,29.297,0
1580492917.254,42.480,38.574,34.180,20.508,41.504,0
1580492917.258,50.781,40.039,33.691,20.508,37.109,0
1580492917.262,31.738,38.574,37.598,19.531,31.738,0
1580492917.265,23.926,39.062,39.551,12.695,19.043,0
1580492917.269,40.527,37.598,32.227,11.230,6.348,0
1580492917.273,49.316,36.621,29.785,12.695,7.812,0
1580492917.277,33.691,39.062,31.738,13.184,5.371,0
1580492917.281,21.484,40.527,32.715,15.625,17.578,0
1580492917.279,27.832,39.551,29.785,11.719,73.730,0
1580492917.283,37.109,36.621,28.809,8.301,58.594,0
1580492917.287,32.227,37.109,27.832,11.719,7.324,0
1580492917.291,12.695,38.574,30.762,13.672,38.574,0
1580492917.295,9.277,35.156,33.691,10.254,24.414,0
1580492917.299,29.785,34.180,32.227,9.766,41.504,0
1580492917.303,33.203,37.109,32.227,13.672,46.875,0
1580492917.306,11.230,35.156,31.250,12.695,32.227,0
1580492917.310,7.812,33.691,33.203,9.277,67.383,0
1580492917.314,31.738,36.621,30.762,15.625,89.355,0
1580492917.318,38.086,36.621,31.250,15.625,55.664,0
1580492917.322,21.973,37.598,35.156,14.160,29.297,0
1580492917.318,17.578,37.109,37.109,18.555,21.484,0
1580492917.322,31.738,34.668,36.133,15.625,-5.371,0
1580492917.326,46.875,33.691,35.156,18.555,20.508,0
1580492917.330,38.574,36.133,35.645,19.531,-23.438,0
1580492917.334,18.555,38.574,36.621,21.973,-0.977,0
1580492917.338,24.414,41.504,37.598,28.809,84.961,0
1580492917.342,43.945,41.504,33.203,20.508,40.039,0
1580492917.345,39.062,38.574,32.227,11.230,35.645,0
1580492917.349,18.066,39.551,34.180,14.160,47.363,0
1580492917.353,16.113,41.016,33.203,17.578,2.441,0
1580492917.357,32.715,40.039,32.227,16.113,19.043,0
1580492917.361,36.621,39.062,34.668,16.602,45.410,0
1580492917.379,20.508,40.039,33.203,15.137,40.039,0
1580492917.383,10.254,39.551,32.227,20.508,40.527,0
1580492917.387,21.973,34.668,35.156,29.785,43.945,0
1580492917.391,26.367,36.621,34.668,22.949,49.805,0
1580492917.395,15.625,44.922,35.645,19.043,79.590,0
1580492917.399,7.812,45.410,37.109,25.879,68.359,0
1580492917.403,16.602,41.992,34.180,15.137,9.277,0
1580492917.406,30.762,42.480,30.273,-1.465,11.230,0
1580492917.410,25.879,44.922,30.273,6.836,77.148,0
1580492917.414,19.531,51.758,34.180,16.602,38.086,0
1580492917.418,30.762,51.758,34.668,16.602,20.996,0
1580492917.422,45.410,47.363,33.691,13.184,34.180,0
1580492917.418,34.668,46.875,35.156,13.184,45.410,0
1580492917.422,17.578,47.852,35.645,19.043,41.992,0
1580492917.426,20.996,40.527,33.691,20.020,28.809,0
1580492917.430,33.691,35.156,31.250,16.113,31.250,0
1580492917.434,34.180,36.621,32.715,17.578,33.203,0
1580492917.438,15.137,35.156,35.156,20.996,20.996,0
1580492917.442,12.207,35.645,33.203,23.438,30.273,0
1580492917.445,37.109,34.180,27.344,22.949,45.410,0
1580492917.449,48.828,37.109,26.855,24.902,7.812,0
1580492917.453,33.203,40.039,28.809,27.832,-40.527,0
1580492917.457,18.555,38.574,29.785,26.367,29.785,0
1580492917.461,25.391,37.598,33.203,16.113,86.426,0
1580492917.458,42.480,40.527,35.156,16.113,33.691,0
1580492917.462,29.785,41.992,32.715,15.625,21.973,0
1580492917.466,4.883,41.016,34.180,15.625,12.207,0
1580492917.470,9.766,45.410,34.180,15.137,4.395,0
1580492917.474,26.367,47.852,34.180,4.883,14.648,0
1580492917.478,21.484,49.805,40.039,-3.418,11.230,0
1580492917.482,-7.324,51.270,43.945,-15.137,-31.738,0
1580492917.485,-7.324,58.105,43.457,-8.301,-9.766,0
1580492917.489,9.766,61.523,45.898,-15.137,30.273,0
1580492917.493,-8.789,57.617,46.875,-43.457,57.617,0
1580492917.497,-34.668,57.617,47.852,-48.340,44.922,0
1580492917.501,-49.805,64.453,48.828,-51.270,-12.695,0
1580492917.519,-45.898,66.406,51.758,-60.059,11.230,0
1580492917.523,-45.898,64.941,53.223,-66.406,26.855,0
1580492917.527,-60.059,67.383,54.688,-69.824,48.828,0
1580492917.531,-72.266,68.848,62.012,-73.730,74.219,0
1580492917.535,-62.988,64.941,65.430,-72.266,44.434,0
1580492917.539,-54.199,62.012,60.547,-75.684,37.109,0
1580492917.543,-63.965,62.500,62.500,-78.125,53.223,0
1580492917.546,-74.219,62.988,67.383,-72.754,57.617,0
1580492917.550,-72.754,60.547,64.453,-66.406,24.414,0
1580492917.554,-57.129,57.129,59.570,-67.383,-14.160,0
1580492917.558,-54.199,58.105,58.594,-65.918,7.324,0
1580492917.562,-63.965,57.617,57.129,-55.176,-25.391,0
1580492917.558,-53.223,55.664,56.641,-48.828,-16.113,0
1580492917.562,-26.855,53.711,50.781,-51.758,30.273,0
1580492917.566,-15.137,53.711,46.387,-48.340,12.207,0
1580492917.570,-23.438,52.246,47.852,-34.180,57.129,0
1580492917.574,-21.973,48.340,44.922,-25.879,88.379,0
1580492917.578,-5.371,44.434,39.551,-25.879,55.664,0
1580492917.582,12.207,43.457,38.086,-20.020,64.453,0
1580492917.585,22.461,45.410,35.645,-9.766,22.949,0
1580492917.589,23.438,42.969,31.250,0.000,12.695,0
1580492917.593,39.551,35.645,28.320,11.230,78.613,0
1580492917.597,61.523,32.715,26.367,12.207,62.988,0
1580492917.601,57.617,29.785,24.414,14.648,35.645,0
1580492917.598,45.410,27.832,22.461,25.879,61.523,0
1580492917.602,58.594,29.785,19.043,32.715,51.758,0
1580492917.606,75.195,28.320,17.578,32.227,38.574,0
1580492917.610,73.242,24.902,20.508,40.039,53.711,0
1580492917.614,62.500,25.879,20.996,54.688,5.859,0
1580492917.618,61.523,25.879,21.484,58.594,-1.953,0
1580492917.622,84.473,22.461,16.602,55.664,27.832,0
1580492917.625,90.820,21.973,16.602,59.570,2.930,0
1580492917.629,71.289,24.902,23.926,64.941,0.000,0
1580492917.633,62.500,25.879,25.879,62.500,58.594,0
1580492917.637,67.871,20.996,23.926,64.941,27.832,0
1580492917.641,76.660,19.043,18.555,61.523,-56.152,0
1580492917.658,66.895,20.508,20.020,60.547,-14.160,0
1580492917.662,43.457,18.555,20.996,54.199,62.500,0
1580492917.666,41.992,16.602,16.113,44.434,79.102,0
1580492917.670,59.082,18.066,15.137,51.270,55.176,0
1580492917.674,60.547,18.555,19.531,55.176,23.926,0
1580492917.678,43.457,18.555,22.949,57.617,52.734,0
1580492917.682,43.945,18.066,24.414,54.199,70.312,0
1580492917.685,62.500,18.066,22.949,44.434,57.129,0
1580492917.689,69.824,18.555,21.973,46.387,26.367,0
1580492917.693,55.176,19.531,24.902,49.805,16.113,0
1580492917.697,51.270,24.414,24.902,53.223,45.410,0
1580492917.701,60.547,21.973,25.879,51.758,57.617,0
1580492917.698,67.871,18.555,26.367,48.340,78.613,0
1580492917.702,62.500,23.438,26.855,53.223,50.781,0
1580492917.706,53.711,26.367,29.785,57.129,15.137,0
1580492917.710,63.477,25.391,28.320,61.035,19.043,0
1580492917.714,70.801,23.438,26.855,57.617,20.996,0
1580492917.718,58.594,22.949,26.367,56.641,41.504,0
1580492917.722,41.016,22.949,26.855,61.035,44.922,0
1580492917.725,44.434,21.484,28.809,55.664,35.645,0
1580492917.729,56.641,20.020,27.344,55.176,-30.762,0
1580492917.733,53.711,20.996,30.273,62.012,-60.059,0
1580492917.737,32.227,23.438,33.203,57.129,22.949,0
1580492917.741,24.414,22.461,32.227,48.340,53.711,0
1580492917.738,47.852,19.531,28.809,47.852,-20.996,0
1580492917.742,58.105,23.438,24.902,53.711,-6.836,0
1580492917.746,44.434,31.250,29.297,57.129,23.438,0
1580492917.750,33.203,29.785,31.250,55.176,-3.418,0
1580492917.754,46.875,24.414,26.855,49.805,55.664,0
1580492917.758,62.988,25.879,27.832,47.852,55.176,0
1580492917.762,51.270,28.809,32.227,49.805,39.062,0
1580492917.765,41.992,30.273,33.203,53.223,51.270,0
1580492917.769,52.246,28.320,31.250,51.758,5.371,0
1580492917.773,61.523,24.414,28.320,46.875,-30.762,0
1580492917.777,55.664,26.855,28.320,37.109,0.488,0
1580492917.781,42.480,25.391,32.715,34.668,71.777,0
1580492917.798,41.992,24.902,32.227,31.738,85.938,0
1580492917.802,56.641,28.809,27.344,26.367,60.059,0
1580492917.806,58.105,30.762,26.855,28.320,37.598,0
1580492917.810,41.504,30.273,32.227,34.180,38.574,0
1580492917.814,38.086,29.785,31.738,29.297,34.668,0
1580492917.818,55.664,28.320,27.832,27.344,24.902,0
1580492917.822,61.035,29.297,29.785,33.691,5.859,0
1580492917.825,42.480,31.738,31.738,31.738,42.480,0
1580492917.829,22.949,28.320,34.668,30.762,46.875,0
1580492917.833,29.297,27.344,35.645,22.461,39.062,0
1580492917.837,44.922,31.250,32.227,22.461,57.617,0
1580492917.841,36.133,33.203,32.715,31.250,68.848,0
1580492917.839,21.484,32.715,29.785,28.809,87.402,0
1580492917.843,25.879,32.715,29.297,29.297,62.012,0
1580492917.847,39.551,27.832,29.785,28.809,18.066,0
1580492917.851,40.039,29.297,29.297,31.250,0.488,0
1580492917.855,29.297,33.203,31.250,34.180,6.348,0
1580492917.859,32.227,32.227,32.227,32.227,2.930,0
1580492917.863,54.688,32.715,32.227,36.133,28.320,0
1580492917.866,55.664,33.203,31.738,36.133,5.371,0
1580492917.870,31.250,33.203,33.691,35.645,27.344,0
1580492917.874,27.344,32.227,36.133,35.645,63.477,0
1580492917.878,42.969,31.738,32.715,30.273,30.273,0
1580492917.882,48.340,32.715,28.809,27.832,-20.020,0
1580492917.878,32.715,32.227,32.715,25.879,-0.977,0
1580492917.882,22.949,34.180,34.180,30.273,64.941,0
1580492917.886,34.180,33.691,32.227,32.715,58.105,0
1580492917.890,47.363,31.738,31.250,26.367,71.289,0
1580492917.894,35.156,34.668,31.250,18.066,17.090,0
1580492917.898,18.555,35.645,32.227,19.043,-13.672,0
1580492917.902,23.926,33.691,32.227,17.578,10.742,0
1580492917.905,35.156,35.156,32.715,10.742,-12.207,0
1580492917.909,37.109,37.109,29.785,13.184,5.371,0
1580492917.913,21.973,35.156,31.250,18.555,34.180,0
1580492917.917,17.578,31.250,34.180,21.973,70.801,0
1580492917.921,39.062,30.762,30.762,18.066,78.613,0
1580492917.938,44.434,33.691,33.203,21.484,30.762,0
1580492917.942,23.926,36.621,37.109,28.809,5.859,0
1580492917.946,17.090,35.645,35.645,30.762,7.812,0
1580492917.950,35.156,33.691,36.621,29.785,-17.090,0
1580492917.954,48.828,35.645,33.691,30.762,47.363,0
1580492917.958,43.945,40.039,33.203,36.621,84.473,0
1580492917.962,31.250,41.016,35.156,36.133,40.527,0
1580492917.965,38.574,37.109,33.203,29.297,61.035,0
1580492917.969,51.270,36.621,29.785,25.879,54.199,0
1580492917.973,40.527,39.551,29.785,24.902,64.453,0
1580492917.977,22.461,37.109,29.785,23.438,26.855,0
1580492917.981,28.320,34.668,26.855,19.043,1.465,0
1580492917.978,42.969,35.645,27.344,19.043,53.711,0
1580492917.982,40.039,38.574,27.344,21.484,34.668,0
1580492917.986,18.066,39.062,30.273,22.949,51.270,0
1580492917.990,12.207,39.062,32.715,20.996,39.062,0
1580492917.994,29.785,38.086,30.273,11.230,-11.719,0
1580492917.998,32.715,36.133,27.832,6.348,34.180,0
1580492918.002,15.625,34.180,30.762,10.254,128.906,0
1580492918.005,8.789,33.691,34.180,15.137,43.945,0
1580492918.009,20.020,29.785,34.180,11.230,11.230,0
1580492918.013,32.715,26.855,33.691,3.418,73.730,0
1580492918.017,21.973,27.344,32.227,9.766,38.086,0
1580492918.021,10.254,31.250,33.203,19.043,30.273,0
1580492918.018,25.879,33.203,34.180,18.066,53.223,0
1580492918.022,42.969,32.227,32.227,20.996,35.645,0
1580492918.026,36.621,36.133,31.738,22.949,42.480,0
1580492918.030,16.602,34.668,33.691,20.508,78.613,0
1580492918.034,15.137,33.203,34.180,16.113,40.527,0
1580492918.038,36.133,34.180,31.738,13.672,15.137,0
1580492918.042,43.457,35.156,33.691,21.973,-11.230,0
1580492918.045,28.320,39.062,35.156,20.020,-7.324,0
1580492918.049,27.344,39.062,33.691,16.602,55.176,0
1580492918.053,41.992,35.156,35.645,22.461,68.848,0
1580492918.057,48.340,38.086,34.668,26.855,54.688,0
1580492918.061,30.273,41.992,31.738,29.297,16.113,0
1580492918.078,16.602,40.527,32.227,25.391,-5.371,0
1580492918.082,32.715,39.551,30.273,24.902,23.438,0
1580492918.086,44.434,40.039,30.762,26.855,59.570,0
1580492918.090,30.273,38.086,36.621,23.926,60.547,0
1580492918.094,17.090,37.598,36.621,30.273,14.648,0
1580492918.098,25.879,38.086,36.133,31.250,34.668,0
1580492918.102,36.621,36.133,35.156,20.508,55.664,0
1580492918.105,34.180,38.086,31.738,16.113,39.062,0
1580492918.109,19.043,41.504,34.668,20.996,19.531,0
1580492918.113,19.043,38.574,33.691,17.090,-2.930,0
1580492918.117,36.621,37.598,28.809,11.719,20.020,0
1580492918.121,40.527,40.039,28.809,10.254,20.020,0
1580492918.118,23.926,41.016,31.738,7.812,28.809,0
1580492918.122,20.020,41.016,31.250,6.836,54.199,0
1580492918.126,40.039,39.062,28.809,1.465,43.945,0
1580492918.130,50.781,36.133,27.832,6.348,55.176,0
1580492918.134,41.016,38.574,26.855,17.090,78.125,0
1580492918.138,32.715,42.969,28.809,24.414,23.926,0
1580492918.142,43.945,39.551,31.738,25.879,23.926,0
1580492918.145,55.176,36.133,30.762,29.785,59.570,0
1580492918.149,36.621,36.621,31.738,37.109,31.250,0
1580492918.153,16.113,39.062,34.668,34.180,33.203,0
1580492918.157,21.484,39.551,33.203,23.926,45.410,0
1580492918.161,38.574,36.133,33.691,20.020,4.883,0
1580492918.158,30.762,36.621,34.668,19.043,16.113,0
1580492918.162,12.695,41.504,32.227,21.973,19.531,0
1580492918.166,20.996,41.504,28.320,27.832,-22.949,0
1580492918.170,41.992,39.551,29.297,28.320,28.809,0
1580492918.174,45.410,41.504,31.738,31.250,70.801,0
1580492918.178,32.715,41.016,35.156,38.574,52.246,0
1580492918.182,28.809,40.039,32.227,37.109,49.805,0
1580492918.185,46.875,37.598,27.344,36.621,74.219,0
1580492918.189,47.852,33.691,35.156,39.062,75.195,0
1580492918.193,25.879,33.691,37.109,35.156,15.625,0
1580492918.197,14.648,33.203,36.133,37.109,3.906,0
1580492918.201,22.949,31.738,38.086,34.668,15.137,0
1580492918.218,34.668,29.297,38.086,28.320,4.395,0
1580492918.222,19.043,26.367,39.551,24.902,11.230,0
1580492918.226,0.000,30.273,40.527,25.391,16.113,0
1580492918.230,18.066,32.715,35.645,25.391,15.625,0
1580492918.234,38.086,29.785,31.250,22.949,53.711,0
1580492918.238,31.738,32.227,31.250,28.320,55.176,0
1580492918.242,13.184,32.715,33.691,25.879,15.137,0
1580492918.245,12.207,30.762,32.715,24.414,38.574,0
1580492918.249,31.738,29.785,28.809,23.926,10.254,0
1580492918.253,36.621,28.809,32.715,25.879,13.184,0
1580492918.257,24.902,33.203,37.109,25.391,14.648,0
1580492918.261,23.926,35.645,36.621,19.531,10.254,0
1580492918.258,35.156,30.762,32.227,19.531,75.195,0
1580492918.262,39.062,27.344,30.273,19.043,83.984,0
1580492918.266,28.320,29.785,33.203,21.484,42.480,0
1580492918.270,20.996,31.738,33.691,20.508,18.555,0
1580492918.274,26.855,30.273,32.715,17.578,27.832,0
1580492918.278,40.527,29.785,29.785,25.391,77.637,0
1580492918.282,38.574,33.691,32.227,31.738,75.195,0
1580492918.285,29.785,36.133,33.203,32.715,20.508,0
1580492918.289,32.715,33.203,31.738,31.738,-33.691,0
1580492918.293,46.875,32.227,33.203,25.391,11.719,0
1580492918.297,43.945,33.203,35.156,30.273,19.043,0
1580492918.301,26.855,32.715,35.156,37.109,16.602,0
1580492918.298,30.762,34.180,35.645,38.574,60.059,0
1580492918.302,47.852,36.133,33.203,39.062,38.574,0
1580492918.306,43.945,39.062,30.273,33.691,17.090,0
1580492918.310,24.902,39.551,31.738,34.180,57.617,0
1580492918.314,20.508,37.598,35.645,38.574,58.594,0
1580492918.318,34.180,35.156,33.691,32.715,27.344,0
1580492918.322,45.898,31.250,29.297,21.484,39.551,0
1580492918.325,31.738,31.250,33.691,17.578,-0.488,0
1580492918.329,11.719,32.715,33.691,20.508,-5.371,0
1580492918.333,19.043,32.227,29.785,21.484,21.484,0
1580492918.337,40.039,33.203,30.762,22.949,58.105,0
1580492918.341,38.086,32.715,30.762,27.344,106.934,0
1580492918.358,20.996,34.668,31.250,22.949,51.758,0
1580492918.362,24.414,35.645,30.762,24.414,3.418,0
1580492918.366,43.457,34.668,28.320,25.879,-12.207,0
1580492918.370,46.875,38.574,27.344,20.508,9.766,0
1580492918.374,30.762,41.992,25.879,19.043,56.641,0
1580492918.378,26.855,40.039,26.855,18.066,34.180,0
1580492918.382,44.922,37.109,27.832,20.508,60.059,0
1580492918.385,49.805,38.086,27.344,23.926,68.848,0
1580492918.389,32.227,42.969,29.297,22.461,19.043,0
1580492918.393,21.484,42.969,30.273,24.414,-7.324,0
1580492918.397,33.203,38.574,29.785,19.531,-32.227,0
1580492918.401,40.527,39.062,26.855,20.508,15.137,0
1580492918.398,24.414,38.086,27.344,26.855,50.293,0
1580492918.402,10.742,36.621,31.250,23.926,32.227,0
1580492918.406,20.508,36.621,30.273,22.949,54.199,0
1580492918.410,32.715,34.180,28.320,30.762,37.109,0
1580492918.414,31.250,36.621,29.297,28.809,19.043,0
1580492918.418,19.531,43.457,31.738,19.531,11.230,0
1580492918.422,23.926,42.969,33.203,20.996,9.766,0
1580492918.425,43.457,38.574,29.785,20.996,14.648,0
1580492918.429,35.645,36.133,27.344,12.695,3.418,0
1580492918.433,15.137,38.574,30.762,6.348,31.738,0
1580492918.437,15.137,39.062,29.297,10.254,25.879,0
1580492918.441,31.738,34.180,26.367,20.996,-8.301,0
1580492918.439,39.062,32.227,25.879,19.531,40.039,0
1580492918.443,23.926,34.180,26.855,19.531,82.520,0
1580492918.447,8.301,35.645,27.344,19.531,23.926,0
1580492918.451,21.484,32.715,23.926,15.137,38.086,0
1580492918.455,38.574,33.691,22.949,17.578,36.621,0
1580492918.459,32.227,37.109,26.367,23.926,49.805,0
1580492918.463,18.555,39.551,32.715,29.297,74.219,0
1580492918.466,22.949,38.086,33.203,24.902,43.457,0
1580492918.470,36.621,33.203,31.250,22.461,49.316,0
1580492918.474,34.180,34.180,30.273,27.344,35.156,0
1580492918.478,18.066,38.086,32.715,24.414,0.488,0
1580492918.482,15.625,36.621,33.203,24.414,22.461,0
1580492918.498,32.715,35.156,32.227,22.461,46.387,0
1580492918.502,35.156,38.574,34.180,18.066,40.527,0
1580492918.506,18.066,42.969,36.621,23.438,71.289,0
1580492918.510,9.277,41.016,38.086,27.832,49.805,1
1580492918.514,24.902,39.062,38.574,31.738,21.973,0
1580492918.518,41.016,40.527,37.109,23.438,25.391,0
1580492918.522,32.227,42.480,37.598,15.625,-14.648,0
1580492918.525,19.531,41.992,41.016,17.578,-4.883,0
1580492918.529,30.273,40.527,39.062,13.184,23.438,0
1580492918.533,41.016,44.434,38.086,11.230,59.570,0
1580492918.537,30.273,48.340,37.598,14.160,76.172,0
1580492918.541,17.578,44.434,32.715,16.113,93.262,0
1580492918.538,21.484,41.016,29.297,13.184,12.695,0
1580492918.542,39.551,38.574,29.785,16.602,-8.789,0
1580492918.546,38.574,37.109,33.203,24.902,44.922,0
1580492918.550,20.996,40.039,32.715,27.832,38.086,0
1580492918.554,19.531,39.551,31.250,30.273,42.969,0
1580492918.558,35.645,36.133,30.762,33.691,57.129,0
1580492918.562,37.109,35.156,28.320,29.297,18.066,0
1580492918.565,19.043,36.621,31.738,22.949,-7.324,0
1580492918.569,15.625,38.086,29.785,21.973,-5.371,0
1580492918.573,26.855,36.621,27.344,12.207,8.301,0
1580492918.577,36.133,34.668,30.273,14.648,57.129,0
1580492918.581,27.344,37.109,30.762,23.926,71.289,0
1580492918.578,18.066,41.504,30.273,31.250,47.363,0
1580492918.582,29.785,38.574,30.273,33.691,3.418,0
1580492918.586,40.039,33.691,31.738,26.855,21.973,0
1580492918.590,29.297,37.109,33.203,25.391,77.637,0
1580492918.594,19.531,41.992,35.645,32.715,84.473,0
1580492918.598,28.320,42.969,37.109,39.551,65.430,0
1580492918.602,43.457,41.016,37.109,41.504,20.996,0
1580492918.605,47.852,41.016,36.133,42.480,28.809,0
1580492918.609,31.738,45.410,37.109,42.480,55.176,0
1580492918.613,27.832,46.387,36.133,41.992,89.844,0
1580492918.617,41.016,40.527,34.668,44.434,32.715,0
1580492918.621,41.016,38.086,35.645,42.969,-19.531,0
1580492918.638,21.484,39.551,34.180,35.156,30.273,0
1580492918.642,6.836,37.109,35.156,29.785,24.902,0
1580492918.646,19.043,36.133,36.133,23.438,4.395,0
1580492918.650,32.715,37.109,31.250,23.926,60.059,0
1580492918.654,20.020,36.621,28.809,23.438,98.145,0
1580492918.658,6.836,37.109,30.762,20.996,36.621,0
1580492918.662,15.137,38.086,28.809,24.414,-1.465,0
1580492918.665,30.273,38.086,29.785,27.344,24.902,0
1580492918.669,24.414,38.086,33.203,25.879,13.184,0
1580492918.673,10.742,41.992,33.203,33.203,10.742,0
1580492918.677,20.996,43.457,32.715,36.621,34.668,0
1580492918.681,46.387,37.598,30.762,32.715,47.852,0
1580492918.681,45.898,36.621,31.250,32.715,47.852,0
1580492918.685,24.414,38.574,36.621,38.574,18.066,0
1580492918.689,21.973,40.039,36.133,36.133,-11.719,0
1580492918.693,39.551,38.574,32.227,28.809,5.371,0
1580492918.697,45.410,36.133,35.645,31.250,15.625,0
1580492918.701,29.785,39.062,35.156,30.762,64.453,0
1580492918.705,16.602,40.039,34.668,30.762,88.867,0
1580492918.708,22.461,35.645,34.668,25.879,69.336,0
1580492918.712,33.203,34.180,34.180,17.090,31.738,0
1580492918.716,24.414,36.133,38.086,17.090,-11.230,0
1580492918.720,5.371,38.086,36.621,18.066,14.648,0
1580492918.724,6.348,38.574,35.645,16.113,-8.789,0
1580492918.739,23.926,36.133,36.133,15.137,-31.738,0
1580492918.743,23.438,37.109,33.691,9.766,-0.977,0
1580492918.747,7.812,41.504,33.203,7.812,-4.395,0
1580492918.751,4.883,37.598,33.203,6.836,78.613,0
1580492918.755,24.414,37.109,33.203,4.395,108.887,0
1580492918.759,28.809,38.574,34.180,3.906,31.738,0
1580492918.763,15.137,36.621,34.180,11.230,31.250,0
1580492918.766,12.695,36.621,34.180,11.230,21.484,0
1580492918.770,30.762,37.598,33.203,8.789,57.129,0
1580492918.774,41.992,36.621,31.250,17.090,80.566,0
1580492918.778,26.367,33.691,32.715,16.113,4.883,0
1580492918.782,19.531,34.180,33.203,20.020,22.461,0
1580492918.780,31.738,34.180,34.668,27.344,65.918,0
1580492918.784,41.992,32.715,32.715,19.043,79.590,0
1580492918.788,36.133,34.180,31.738,21.484,18.555,0
1580492918.792,24.902,37.109,35.156,31.250,36.621,0
1580492918.796,31.738,36.133,34.668,35.156,64.453,0
1580492918.800,42.480,33.691,35.156,27.832,16.602,0
1580492918.804,40.527,36.133,35.156,22.949,53.223,0
1580492918.807,29.785,37.598,34.180,28.320,22.949,0
1580492918.811,24.414,36.133,31.250,27.344,1.465,0
1580492918.815,34.668,34.668,29.297,28.320,24.414,0
1580492918.819,38.086,36.133,32.715,28.809,-27.344,0
1580492918.823,24.414,37.598,34.668,25.879,8.789,0
1580492918.819,17.578,37.109,29.785,23.926,64.453,0
1580492918.823,34.668,35.156,30.273,22.949,13.672,0
1580492918.827,44.922,31.738,35.645,22.461,6.348,0
1580492918.831,23.926,31.250,42.480,20.508,24.902,0
1580492918.835,5.371,33.203,46.875,22.949,10.254,0
1580492918.839,21.484,30.762,41.504,26.367,40.039,0
1580492918.843,41.504,28.809,36.133,26.367,98.633,0
1580492918.846,39.062,32.227,36.133,30.273,71.289,0
1580492918.850,25.391,35.645,41.016,31.250,49.316,0
1580492918.854,26.367,34.180,39.551,22.949,94.238,0
1580492918.858,41.504,33.203,34.668,25.879,88.867,0
1580492918.862,41.992,33.691,37.598,27.832,58.594,0
1580492918.880,20.508,35.645,40.039,27.344,6.348,0
1580492918.884,15.625,36.133,37.598,26.855,-24.902,0
1580492918.888,37.109,34.668,35.645,26.367,38.574,0
1580492918.892,35.156,33.691,37.109,29.785,50.781,0
1580492918.896,17.090,34.180,37.109,32.227,-4.395,0
1580492918.900,13.184,34.180,37.109,31.250,14.160,0
1580492918.904,25.391,31.738,38.086,30.762,35.156,0
1580492918.907,35.156,31.738,35.645,20.508,33.203,0
1580492918.911,23.926,32.227,38.574,26.855,76.660,0
1580492918.915,13.672,33.691,40.527,36.621,17.090,0
1580492918.919,27.344,33.203,37.109,27.832,-16.113,0
1580492918.923,47.852,33.691,35.156,19.531,43.945,0
1580492918.919,48.340,38.086,37.598,24.902,55.176,0
1580492918.923,33.691,39.551,38.574,33.203,47.363,0
1580492918.927,30.273,37.598,37.109,27.832,20.996,0
1580492918.931,41.992,37.109,35.645,26.855,41.016,0
1580492918.935,40.039,37.109,38.086,29.297,46.875,0
1580492918.939,17.090,35.156,41.504,27.344,24.414,0
1580492918.943,10.254,34.668,41.016,30.273,27.832,0
1580492918.946,24.414,31.738,37.598,26.855,26.855,0
1580492918.950,29.297,28.809,36.133,24.902,1.953,0
1580492918.954,16.602,29.785,34.668,27.344,-5.859,0
1580492918.958,6.836,33.203,34.668,23.438,61.035,0
1580492918.962,15.137,32.715,33.691,17.090,69.824,0
1580492918.959,27.832,31.250,32.715,17.578,-19.531,0
1580492918.963,24.902,32.227,32.715,23.438,-22.461,0
1580492918.967,13.184,33.203,32.227,22.461,48.340,0
1580492918.971,16.602,31.738,32.227,17.090,54.688,0
1580492918.975,32.715,29.785,31.250,16.113,46.387,0
1580492918.979,33.203,32.715,29.297,23.438,76.172,0
1580492918.983,16.602,36.621,32.715,23.438,50.781,0
1580492918.986,20.020,34.668,35.645,22.461,32.227,0
1580492918.990,41.992,30.273,30.273,25.879,24.414,0
1580492918.994,48.828,30.273,30.273,27.832,26.367,0
1580492918.998,33.203,32.715,33.691,34.180,46.875,0
1580492919.002,25.879,30.762,34.668,37.598,88.867,0
1580492919.019,41.016,27.832,33.203,37.598,71.289,0
1580492919.023,49.805,30.273,33.203,40.039,64.941,0
1580492919.027,34.180,31.738,37.109,38.574,72.754,0
1580492919.031,26.855,32.715,37.598,33.203,36.621,0
1580492919.035,38.574,34.180,34.668,31.250,68.848,0
1580492919.039,44.434,33.691,35.156,27.344,9.277,0
1580492919.043,33.203,35.645,37.598,25.391,20.020,0
1580492919.046,15.625,36.621,37.598,22.461,28.809,0
1580492919.050,21.484,35.645,33.691,18.066,-33.691,0
1580492919.054,36.133,34.180,35.156,18.066,-21.484,0
1580492919.058,28.320,32.715,37.598,19.531,25.391,0
1580492919.062,12.207,33.203,35.645,19.531,31.738,0
1580492919.059,6.836,34.180,30.273,17.090,6.836,0
1580492919.063,20.020,32.227,26.855,16.602,29.785,0
1580492919.067,26.855,30.762,27.344,12.207,20.020,0
1580492919.071,18.066,34.180,27.832,14.160,57.129,0
1580492919.075,14.160,36.133,30.273,16.113,60.059,0
1580492919.079,25.391,36.621,32.227,18.555,6.836,0
1580492919.083,35.645,36.621,32.715,22.461,-67.871,0
1580492919.086,20.020,35.645,32.715,24.902,-44.434,0
1580492919.090,14.648,36.621,31.250,31.250,11.719,0
1580492919.094,35.645,39.062,31.250,32.227,65.430,0
1580492919.098,51.758,38.574,30.762,30.762,66.406,0
1580492919.102,44.434,39.062,30.273,34.668,-6.836,0
1580492919.099,26.367,39.062,32.227,33.691,-26.367,0
1580492919.103,33.203,39.551,31.738,34.180,11.230,0
1580492919.107,51.270,38.574,32.227,31.738,22.949,0
1580492919.111,43.457,38.086,35.645,23.926,-18.555,0
1580492919.115,24.902,41.992,37.109,28.320,12.695,0
1580492919.119,20.020,43.945,39.551,27.344,25.879,0
1580492919.123,35.156,40.039,36.621,19.043,42.480,0
1580492919.126,42.480,38.086,34.180,16.113,60.059,0
1580492919.130,23.926,40.527,36.133,14.648,31.250,0
1580492919.134,12.207,41.016,36.621,18.066,-20.996,0
1580492919.138,25.879,40.039,34.668,27.344,30.762,0
1580492919.142,37.598,39.062,34.668,29.297,100.586,0
1580492919.159,27.344,38.574,34.180,28.320,71.777,0
1580492919.163,13.672,41.016,33.203,27.832,24.902,0
1580492919.167,22.461,41.504,33.203,23.926,40.527,0
1580492919.171,40.039,39.062,33.203,24.414,-1.465,0
1580492919.175,38.574,38.086,34.668,24.414,10.742,0
1580492919.179,23.438,37.598,37.598,22.461,31.738,0
1580492919.183,21.484,34.180,39.062,21.484,4.395,0
1580492919.186,45.410,33.203,37.598,23.438,22.461,0
1580492919.190,53.711,35.156,38.086,32.227,42.969,0
1580492919.194,38.574,35.156,43.457,36.133,47.852,0
1580492919.198,32.715,36.621,46.387,33.691,49.805,0
1580492919.202,48.340,35.645,45.898,34.180,20.996,0
1580492919.199,54.199,32.715,44.922,32.227,16.602,0
1580492919.203,30.273,32.715,44.922,28.809,40.527,0
1580492919.207,17.578,34.668,44.922,26.855,72.754,0
1580492919.211,29.297,34.180,41.016,24.414,58.105,0
1580492919.215,36.621,32.715,39.551,22.461,71.289,0
1580492919.219,23.438,33.203,42.480,22.949,112.793,0
1580492919.223,10.254,34.668,42.480,24.902,23.926,0
1580492919.226,20.508,35.156,39.062,26.367,-8.301,0
1580492919.230,36.133,34.668,40.039,26.855,49.316,0
1580492919.234,27.344,34.180,42.969,23.438,98.633,0
1580492919.238,5.859,34.668,42.969,17.578,29.785,0
1580492919.242,5.371,32.227,40.527,15.625,11.230,0
1580492919.239,23.926,32.715,37.598,11.230,47.852,0
1580492919.243,33.203,37.109,35.156,12.695,0.488,0
1580492919.247,20.508,37.598,32.227,15.137,37.109,0
1580492919.251,21.973,36.133,31.738,15.137,86.914,0
1580492919.255,36.133,38.086,37.598,17.578,40.527,0
1580492919.259,35.645,37.109,39.062,19.531,53.711,0
1580492919.263,20.508,37.109,39.551,21.973,56.641,0
1580492919.266,7.324,40.039,42.969,22.461,-45.898,0
1580492919.270,16.602,39.062,40.039,19.043,-26.367,0
1580492919.274,25.391,34.668,35.645,16.602,29.785,0
1580492919.278,21.973,35.156,36.621,20.020,78.125,0
1580492919.282,13.184,37.598,37.109,22.949,118.164,0
1580492919.299,17.090,38.086,37.109,22.949,52.246,0
1580492919.303,32.715,38.086,34.180,19.043,-1.953,0
1580492919.307,31.250,40.039,31.738,21.484,4.883,0
1580492919.311,19.043,44.434,35.156,28.320,45.410,0
1580492919.315,16.602,43.457,32.715,16.602,47.852,0
1580492919.319,32.227,41.992,28.320,11.719,60.547,0
1580492919.323,34.668,39.551,28.809,9.766,48.828,0
1580492919.326,18.066,39.062,30.273,7.324,4.883,0
1580492919.330,8.789,41.016,33.203,16.113,-16.602,0
1580492919.334,19.531,38.086,33.203,15.625,32.227,0
1580492919.338,36.621,38.574,30.762,24.414,56.152,0
1580492919.342,28.320,43.457,34.180,28.809,9.766,0
1580492919.339,19.531,42.969,38.086,28.320,19.043,0
1580492919.343,35.645,40.527,35.645,29.297,-32.715,0
1580492919.347,50.293,39.551,34.180,27.344,-30.273,0
1580492919.351,43.945,41.016,34.180,25.879,34.668,0
1580492919.355,27.832,44.434,33.691,23.926,67.871,0
1580492919.359,29.297,42.969,32.715,24.414,89.355,0
1580492919.363,46.387,43.457,33.691,24.902,-5.859,0
1580492919.366,41.504,45.898,30.762,23.926,-10.254,0
1580492919.370,22.949,47.852,28.809,30.273,14.648,0
1580492919.374,22.949,48.340,33.203,32.715,-2.930,0
1580492919.378,37.598,45.410,29.297,24.414,22.949,0
1580492919.382,45.898,44.434,25.391,25.879,14.648,0
1580492919.379,31.250,42.480,32.227,30.762,-27.832,0
1580492919.383,20.020,40.039,34.180,30.273,-19.043,0
1580492919.387,34.180,38.086,32.227,28.320,23.438,0
1580492919.391,45.410,37.598,28.809,30.762,7.812,0
1580492919.395,29.785,36.133,30.273,31.250,1.953,0
1580492919.399,16.602,36.133,34.668,35.645,46.875,0
1580492919.403,26.855,38.086,34.668,38.574,50.781,0
1580492919.406,34.668,37.109,32.227,29.785,46.875,0
1580492919.410,31.738,36.621,28.809,27.832,57.617,0
1580492919.414,19.531,35.645,28.320,32.715,50.293,0
1580492919.418,20.020,33.203,30.273,31.738,65.918,0
1580492919.422,37.598,30.762,29.785,35.645,40.039,0
1580492919.438,40.527,31.250,33.203,39.062,-22.461,0
1580492919.442,25.879,33.691,35.645,34.668,-30.762,0
1580492919.446,24.414,34.668,31.250,31.250,-20.996,0
1580492919.450,40.039,32.227,30.762,25.879,33.203,0
1580492919.454,39.062,32.227,33.691,23.926,48.828,0
1580492919.458,18.066,31.250,34.180,30.273,17.578,0
1580492919.462,10.254,29.297,34.668,22.461,20.996,0
1580492919.465,25.879,30.762,37.109,12.695,24.414,0
1580492919.469,38.574,31.250,38.574,20.996,38.086,0
1580492919.473,31.738,32.227,36.621,24.902,35.156,0
1580492919.477,15.137,34.180,36.621,20.508,34.668,0
1580492919.481,20.020,36.133,35.156,20.508,20.020,0
1580492919.478,36.621,34.180,31.738,18.555,-0.488,0
1580492919.482,24.902,34.180,32.715,15.625,46.387,0
1580492919.486,4.883,36.621,32.715,13.184,108.398,0
1580492919.490,7.324,38.086,30.762,9.766,46.387,0
1580492919.494,23.438,37.109,29.297,8.301,13.672,0
1580492919.498,24.902,39.062,28.809,8.789,38.086,0
1580492919.502,12.695,41.016,28.809,8.789,-5.371,0
1580492919.505,19.043,43.457,29.785,9.766,-29.785,0
1580492919.509,38.574,42.480,28.809,10.742,0.977,0
1580492919.513,48.828,41.016,28.809,11.719,47.852,0
1580492919.517,37.109,44.922,31.738,12.695,18.555,0
1580492919.521,23.438,45.410,29.785,19.043,-6.348,0
1580492919.518,39.062,43.945,27.344,20.020,20.508,0
1580492919.522,51.270,43.945,27.832,18.066,58.594,0
1580492919.526,39.551,44.434,29.785,22.461,54.688,0
1580492919.530,23.438,45.898,28.809,22.949,65.918,0
1580492919.534,28.809,44.434,27.832,16.113,83.496,0
1580492919.538,43.945,40.527,28.320,10.742,84.473,0
1580492919.542,41.504,40.039,27.344,9.766,46.875,0
1580492919.545,20.020,40.527,31.250,7.812,-2.441,0
1580492919.549,16.602,40.039,34.180,1.953,23.926,0
1580492919.553,36.133,38.574,32.715,1.953,96.191,0
1580492919.557,33.691,39.551,33.691,3.906,16.602,0
1580492919.561,14.648,41.016,34.668,4.883,20.508,0
1580492919.578,8.789,39.062,35.645,3.906,76.172,0
1580492919.582,21.484,37.598,32.227,-3.906,-18.555,1
1580492919.586,27.832,39.551,26.855,-3.906,-19.531,0
1580492919.590,14.160,41.504,29.297,4.883,23.438,0
1580492919.594,1.953,41.504,31.250,6.836,51.270,0
1580492919.598,13.672,41.504,30.762,6.348,37.109,0
1580492919.602,29.297,39.062,30.762,-1.465,6.836,0
1580492919.605,20.020,36.133,32.715,-6.836,58.105,0
1580492919.609,7.324,37.598,34.180,4.395,72.266,0
1580492919.613,18.066,39.551,32.227,17.578,32.227,0
1580492919.617,37.598,40.039,32.227,16.602,4.395,0
1580492919.621,39.551,40.527,33.203,12.695,42.480,0
1580492919.618,22.949,40.039,35.156,16.113,143.066,0
1580492919.622,19.531,40.527,35.645,18.066,90.332,0
1580492919.626,36.621,39.551,31.738,18.555,34.668,0
1580492919.630,40.527,39.551,28.320,18.555,68.359,0
1580492919.634,23.438,40.039,26.367,14.648,74.219,0
1580492919.638,15.625,38.574,26.367,11.230,33.691,0
1580492919.642,26.367,36.621,29.297,9.766,17.578,0
1580492919.645,35.156,35.645,29.785,13.672,77.637,0
1580492919.649,24.902,38.086,32.227,18.555,145.508,0
1580492919.653,10.254,40.527,33.203,10.742,65.430,0
1580492919.657,23.438,37.109,31.250,14.160,30.273,0
1580492919.661,41.016,34.668,31.250,24.414,15.137,0
1580492919.658,31.250,34.668,33.203,24.902,7.324,0
1580492919.662,13.672,32.227,36.133,23.438,53.711,0
1580492919.666,18.066,32.715,35.645,21.973,32.227,0
1580492919.670,35.156,32.715,33.691,22.461,-3.906,0
1580492919.674,35.645,35.156,35.156,19.043,-14.648,0
1580492919.678,20.020,36.133,34.668,14.648,33.203,0
1580492919.682,17.090,36.133,34.668,14.648,67.383,0
1580492919.685,35.156,38.574,32.227,12.695,42.480,0
1580492919.689,40.039,39.551,28.809,2.441,67.383,0
1580492919.693,23.438,39.062,29.297,-0.977,20.020,0
1580492919.697,8.789,39.062,29.297,4.395,-14.160,0
1580492919.701,20.020,39.062,26.367,9.766,40.527,0
1580492919.718,32.715,36.621,26.367,16.113,-10.254,0
1580492919.722,13.672,37.598,32.227,24.902,-21.484,0
1580492919.726,-4.883,38.574,35.645,31.738,55.176,0
1580492919.730,7.324,37.598,34.668,30.273,72.266,0
1580492919.734,24.414,34.668,33.691,27.832,90.332,0
1580492919.738,14.648,33.203,35.156,25.879,87.402,0
1580492919.742,2.441,35.156,36.133,23.438,52.734,0
1580492919.745,12.695,32.715,32.715,19.043,15.625,0
1580492919.749,32.227,29.297,31.250,17.090,-46.387,0
1580492919.753,32.227,30.273,33.203,14.160,14.160,0
1580492919.757,12.207,31.250,32.715,8.301,76.172,0
1580492919.761,12.695,31.738,31.738,12.207,28.809,0
1580492919.758,32.227,31.250,32.715,17.090,62.988,0
1580492919.762,40.527,32.227,31.250,21.973,32.715,0
1580492919.766,28.809,36.133,34.180,23.926,-18.555,0
1580492919.770,16.602,38.574,38.574,23.926,-17.090,0
1580492919.774,30.273,38.086,39.062,24.902,4.883,0
1580492919.778,41.992,37.598,40.039,20.508,33.203,0
1580492919.782,27.832,36.133,39.551,20.020,53.711,0
1580492919.785,14.648,35.645,37.109,19.043,-5.371,0
1580492919.789,26.367,39.062,36.133,20.020,-15.137,0
1580492919.793,43.457,37.598,35.645,19.043,10.742,0
1580492919.797,36.133,36.621,32.227,15.137,5.371,0
1580492919.801,21.973,39.062,33.691,23.438,23.438,0
1580492919.799,25.391,41.016,35.645,24.414,84.961,0
1580492919.803,43.945,37.598,34.180,21.973,40.039,0
1580492919.807,50.293,37.598,32.227,29.297,-2.930,0
1580492919.811,33.203,43.945,32.715,31.738,-12.207,0
1580492919.815,25.391,44.922,33.691,28.320,-5.859,0
1580492919.819,42.480,41.504,34.180,26.855,70.801,0
1580492919.823,48.340,39.062,30.273,19.531,67.871,0
1580492919.826,30.273,39.062,31.738,22.949,53.711,0
1580492919.830,17.090,39.551,33.691,19.043,-7.324,0
1580492919.834,26.855,37.109,28.320,9.766,-29.785,0
1580492919.838,38.086,35.156,24.414,17.578,43.457,0
1580492919.842,28.320,34.668,27.344,27.344,3.906,0
1580492919.859,18.066,33.691,31.738,27.344,-31.250,0
1580492919.863,23.438,30.762,29.297,23.926,30.273,0
1580492919.867,39.551,28.320,28.809,24.414,10.254,0
1580492919.871,41.016,30.762,30.762,22.461,20.020,0
1580492919.875,26.855,33.203,30.762,26.855,100.098,0
1580492919.879,29.785,34.668,30.273,30.762,63.477,0
1580492919.883,45.898,32.227,29.785,23.438,53.711,0
1580492919.886,49.316,31.738,31.250,27.832,92.773,0
1580492919.890,36.133,36.133,31.250,33.203,60.547,0
1580492919.894,32.715,36.133,27.832,29.297,66.406,0
1580492919.898,50.781,33.203,28.809,31.250,28.809,0
1580492919.902,57.129,32.715,30.273,31.250,20.020,0
1580492919.899,43.457,35.645,34.668,31.738,50.781,0
1580492919.903,24.902,37.109,37.109,28.320,6.348,0
1580492919.907,27.344,35.156,37.109,27.832,-17.578,0
1580492919.911,46.387,34.180,33.691,23.926,53.711,0
1580492919.915,42.969,34.668,30.273,17.090,72.266,0
1580492919.919,26.367,35.645,31.738,19.043,45.898,0
1580492919.923,32.227,35.645,32.227,21.484,24.902,0
1580492919.926,47.852,33.203,28.809,21.484,53.711,0
1580492919.930,46.387,32.227,28.320,21.484,76.172,0
1580492919.934,26.855,34.668,32.715,17.090,67.383,0
1580492919.938,24.414,36.621,29.785,15.625,55.664,0
1580492919.942,39.062,35.156,27.344,19.043,-4.883,0
1580492919.939,39.551,33.691,30.273,21.484,7.812,0
1580492919.943,27.832,40.527,31.250,29.297,53.711,0
1580492919.947,22.461,41.992,31.738,25.879,23.926,0
1580492919.951,34.180,38.086,31.250,17.578,2.930,0
1580492919.955,46.875,39.551,30.762,14.648,10.254,0
1580492919.959,38.086,41.992,31.738,15.625,82.031,0
1580492919.963,24.902,42.480,32.227,20.996,56.152,0
1580492919.966,29.785,39.551,34.180,15.625,10.254,0
1580492919.970,41.504,36.621,34.180,8.789,2.441,0
1580492919.974,40.039,39.551,33.691,13.672,2.441,0
1580492919.978,27.344,40.039,35.156,19.531,30.273,0
1580492919.982,22.949,35.156,32.715,20.996,51.758,0
1580492919.999,39.062,31.738,30.762,19.531,69.824,0
1580492920.003,45.410,32.227,33.203,24.902,21.973,0
1580492920.007,25.879,35.645,35.156,27.344,26.367,0
1580492920.011,18.555,36.133,36.621,26.367,41.992,0
1580492920.015,33.691,32.715,32.715,24.902,16.113,0
1580492920.019,37.598,32.715,30.273,18.066,48.828,0
1580492920.023,26.855,33.203,33.203,15.625,85.938,0
1580492920.026,13.184,32.227,35.156,15.137,18.555,0
1580492920.030,21.484,30.762,34.180,15.625,-0.488,0
1580492920.034,39.062,30.273,31.250,23.438,50.293,0
1580492920.038,25.391,30.762,29.297,23.926,46.875,0
1580492920.042,4.883,28.320,27.344,16.602,-14.160,0
1580492920.039,15.137,26.855,28.320,14.648,-11.719,0
1580492920.043,31.250,27.832,29.297,16.113,68.359,0
1580492920.047,25.391,29.785,30.273,20.020,63.965,0
1580492920.051,9.766,30.762,33.691,20.996,45.410,0
1580492920.055,10.742,31.738,34.668,18.555,42.969,0
1580492920.059,27.832,33.203,34.668,15.137,50.293,0
1580492920.063,32.227,34.668,30.762,16.113,61.523,0
1580492920.066,18.066,36.133,29.785,20.508,60.059,0
1580492920.070,14.160,36.621,33.691,21.973,22.461,0
1580492920.074,32.715,35.156,29.297,15.625,-6.348,0
1580492920.078,40.039,32.715,25.879,11.230,25.391,0
1580492920.082,23.438,33.691,28.809,18.066,63.965,0
1580492920.079,10.254,31.738,30.273,18.555,60.059,0
1580492920.083,23.438,28.809,33.203,17.090,23.926,0
1580492920.087,38.086,29.297,33.691,17.578,21.484,0
1580492920.091,25.879,33.691,35.156,22.461,33.691,0
1580492920.095,15.137,36.133,38.086,25.879,-16.602,0
1580492920.099,17.578,31.738,33.691,20.020,-51.758,0
1580492920.103,23.926,28.809,28.809,11.719,-8.789,0
1580492920.106,22.461,32.227,26.367,4.395,37.598,0
1580492920.110,7.812,35.156,25.879,3.906,27.832,0
1580492920.114,7.324,33.203,27.344,10.254,-15.625,0
1580492920.118,31.250,33.691,28.320,13.184,-43.945,0
1580492920.122,42.969,35.156,26.855,11.230,4.395,0
1580492920.139,26.367,37.109,27.832,10.742,62.988,0
1580492920.143,19.043,37.598,28.809,8.301,51.270,0
1580492920.147,38.574,38.574,27.344,9.766,37.598,0
1580492920.151,44.922,38.574,28.320,7.812,26.367,0
1580492920.155,27.832,39.062,31.250,1.465,50.781,0
1580492920.159,13.672,39.551,34.180,-2.441,46.875,0
1580492920.163,19.043,35.156,30.762,-2.930,12.207,0
1580492920.166,34.668,33.203,27.832,3.906,-4.395,0
1580492920.170,29.297,34.668,30.762,7.812,13.672,0
1580492920.174,10.254,33.691,36.133,9.766,11.719,0
1580492920.178,12.695,32.227,32.715,7.324,54.199,0
1580492920.182,31.250,32.227,25.391,3.906,63.477,0
1580492920.179,35.156,31.738,25.879,10.742,57.129,0
1580492920.183,21.484,32.715,25.879,15.137,41.016,0
1580492920.187,16.113,32.227,25.879,15.625,5.371,0
1580492920.191,31.250,30.273,24.902,14.160,36.133,0
1580492920.195,38.086,30.273,21.973,9.766,65.918,0
1580492920.199,23.926,31.250,23.926,14.648,50.781,0
1580492920.203,16.113,30.762,31.738,26.367,19.531,0
1580492920.206,22.461,29.297,36.133,30.273,18.555,0
