timestamps,TP9,AF7,AF8,TP10,Right AUX,Marker0
1580493202.338,72.266,31.738,23.438,46.387,38.086,0
1580493202.342,83.008,36.621,20.508,50.781,8.301,0
1580493202.346,53.711,40.039,20.508,41.016,8.301,0
1580493202.350,50.293,38.574,20.996,60.547,35.156,0
1580493202.354,68.848,37.598,16.113,68.359,57.129,0
1580493202.358,56.641,34.668,21.973,45.410,49.805,0
1580493202.362,36.621,34.180,25.879,42.480,32.227,0
1580493202.365,31.738,40.039,15.625,51.270,40.527,0
1580493202.369,39.062,41.992,13.184,41.992,38.574,0
1580493202.373,39.062,42.480,15.137,39.062,20.020,0
1580493202.377,26.367,41.992,23.438,37.598,47.852,0
1580493202.381,4.883,36.621,25.391,19.043,21.973,0
1580493202.379,5.859,35.156,17.578,8.301,-21.973,0
1580493202.383,22.949,33.691,20.996,26.367,-12.207,0
1580493202.387,15.625,29.785,30.273,42.969,3.906,0
1580493202.391,-7.812,31.738,32.227,30.273,25.391,0
1580493202.395,2.441,33.691,25.391,13.672,74.707,0
1580493202.399,18.066,34.180,23.926,25.391,70.801,0
1580493202.403,12.207,34.180,32.227,26.855,35.645,0
1580493202.406,1.953,36.621,32.227,18.555,33.691,0
1580493202.410,-13.184,31.738,34.668,9.277,43.457,0
1580493202.414,18.555,32.715,28.320,-1.465,-14.160,0
1580493202.418,41.016,40.039,18.066,11.719,7.812,0
1580493202.422,21.973,40.527,19.531,50.293,21.484,0
1580493202.419,2.930,35.645,20.996,53.711,7.812,0
1580493202.423,1.953,32.715,23.438,25.391,43.945,0
1580493202.427,17.090,30.273,17.578,13.184,84.961,0
1580493202.431,16.602,29.297,14.160,27.832,68.359,0
1580493202.435,0.977,27.832,26.367,27.832,9.277,0
1580493202.439,14.160,25.879,26.855,16.113,18.555,0
1580493202.443,35.156,23.438,27.832,34.180,13.672,0
1580493202.446,20.508,26.367,29.785,30.762,8.789,0
1580493202.450,0.977,29.297,31.250,10.742,57.617,0
1580493202.454,4.395,31.738,30.273,23.438,43.945,0
1580493202.458,23.438,33.691,21.484,25.879,46.387,0
1580493202.462,27.832,34.180,20.996,11.719,102.539,0
1580493202.478,19.043,39.551,22.949,-2.930,86.426,0
1580493202.482,20.020,44.434,14.648,-4.883,71.777,0
1580493202.486,18.066,44.922,16.602,13.184,16.602,0
1580493202.490,31.738,43.457,22.949,17.578,-54.199,0
1580493202.494,33.691,45.898,28.320,16.113,-13.184,0
1580493202.498,18.066,44.922,28.809,21.973,56.152,0
1580493202.502,43.945,47.363,17.090,23.438,86.426,0
1580493202.505,64.453,48.828,16.602,17.090,16.602,0
1580493202.509,31.738,44.434,25.391,2.441,-14.648,0
1580493202.513,17.578,47.363,13.184,19.531,0.977,0
1580493202.517,27.344,48.340,8.301,9.766,4.395,0
1580493202.521,44.434,43.945,16.602,-8.301,24.414,0
1580493202.518,41.504,41.016,18.555,9.277,27.832,0
1580493202.522,27.832,39.551,22.461,13.184,12.207,0
1580493202.526,30.273,39.062,13.672,22.949,4.883,0
1580493202.530,31.738,32.715,16.602,8.301,-24.414,0
1580493202.534,10.742,31.738,20.996,25.879,40.039,0
1580493202.538,12.207,36.133,23.926,42.480,52.734,0
1580493202.542,26.367,40.039,19.531,23.926,-11.719,0
1580493202.545,13.672,35.156,12.207,23.438,26.367,0
1580493202.549,9.277,32.227,23.926,25.879,63.477,0
1580493202.553,20.020,35.156,29.297,27.832,28.320,0
1580493202.557,-0.488,29.785,35.645,29.297,-15.625,0
1580493202.561,19.043,32.227,25.391,20.508,4.395,0
1580493202.578,50.781,36.133,23.926,26.367,19.043,0
1580493202.582,23.926,36.133,34.668,16.602,81.055,0
1580493202.586,17.578,37.109,29.297,17.090,43.945,0
1580493202.590,28.320,36.621,24.414,20.508,-29.785,0
1580493202.594,42.969,41.504,21.484,5.371,11.719,0
1580493202.598,50.781,43.945,26.367,12.207,19.043,0
1580493202.602,26.855,42.480,25.391,27.832,36.133,0
1580493202.605,32.715,41.504,24.902,30.762,59.082,0
1580493202.609,50.293,38.574,20.996,22.949,46.875,0
1580493202.613,35.645,38.086,15.137,18.066,71.777,0
1580493202.617,18.555,40.527,21.484,32.227,61.523,0
1580493202.621,42.480,41.016,21.484,37.598,74.219,0
1580493202.618,48.340,40.039,13.184,30.273,37.598,0
1580493202.622,41.016,37.109,19.531,23.438,-0.977,0
1580493202.626,37.109,35.645,29.297,32.715,38.574,0
1580493202.630,32.227,37.598,27.344,38.086,80.078,0
1580493202.634,58.105,40.527,19.043,30.273,117.188,0
1580493202.638,66.406,38.086,15.137,41.992,118.164,0
1580493202.642,42.480,34.668,19.531,50.781,68.359,0
1580493202.645,1.465,26.855,37.109,39.551,57.617,0
1580493202.649,9.277,25.391,27.344,36.133,74.219,0
1580493202.653,27.344,26.855,17.578,38.086,70.801,0
1580493202.657,21.484,26.855,35.156,29.297,45.410,0
1580493202.661,25.879,31.250,30.762,4.883,37.109,0
1580493202.658,15.625,33.691,23.438,11.230,48.828,0
1580493202.662,4.883,32.227,25.391,24.902,25.391,0
1580493202.666,7.812,30.762,36.133,28.809,21.484,0
1580493202.670,13.184,29.785,37.109,38.086,25.879,0
1580493202.674,24.414,35.156,21.973,36.133,-7.324,0
1580493202.678,45.898,42.969,10.254,33.203,33.203,0
1580493202.682,50.293,40.039,20.508,27.832,-17.090,0
1580493202.685,33.203,36.133,35.156,34.180,-42.480,0
1580493202.689,37.598,40.039,27.832,37.109,33.203,0
1580493202.693,59.082,42.969,25.879,33.203,51.758,0
1580493202.697,58.594,41.992,26.367,48.828,3.418,0
1580493202.701,52.246,42.480,21.484,31.250,-3.418,0
1580493202.718,59.570,44.434,20.020,30.273,30.273,0
1580493202.722,65.430,39.551,20.020,55.176,64.941,0
1580493202.726,72.754,41.016,10.254,52.734,42.969,0
1580493202.730,54.688,41.504,17.578,25.879,-0.977,0
1580493202.734,19.043,32.227,42.480,13.672,35.645,0
1580493202.738,36.621,34.668,35.645,54.688,26.367,0
1580493202.742,60.059,35.645,29.297,56.152,47.852,0
1580493202.745,51.758,35.645,23.438,15.137,26.367,0
1580493202.749,31.738,38.574,17.090,26.367,-8.789,0
1580493202.753,18.555,35.156,26.367,40.527,45.410,0
1580493202.757,26.855,36.133,21.973,12.695,26.855,0
1580493202.761,25.391,31.738,42.969,0.977,4.395,0
1580493202.758,19.531,34.180,37.109,23.438,35.645,0
1580493202.762,5.859,36.133,21.973,41.016,40.527,0
1580493202.766,30.273,31.738,28.809,42.969,42.969,0
1580493202.770,70.801,37.109,16.113,40.527,44.434,0
1580493202.774,49.316,37.598,17.578,18.555,68.359,0
1580493202.778,20.020,38.086,20.996,7.812,70.312,0
1580493202.782,21.973,41.504,18.555,39.551,0.977,0
1580493202.785,36.133,39.062,17.578,47.852,20.020,0
1580493202.789,37.598,37.109,17.578,42.969,60.059,0
1580493202.793,42.480,39.062,20.996,50.781,8.789,0
1580493202.797,39.551,34.180,27.344,39.551,10.254,0
1580493202.801,35.156,30.273,28.809,32.715,30.273,0
1580493202.798,41.504,32.227,23.926,29.785,60.059,0
1580493202.802,31.738,34.180,23.926,39.062,76.172,0
1580493202.806,23.438,35.156,27.344,46.875,63.477,0
1580493202.810,30.762,32.715,29.297,32.715,47.852,0
1580493202.814,38.574,32.227,22.461,40.039,-0.488,0
1580493202.818,39.551,39.062,19.531,41.504,-2.441,0
1580493202.822,17.090,36.133,21.484,17.090,19.043,0
1580493202.825,7.324,30.762,23.926,8.789,-19.531,0
1580493202.829,36.133,32.715,25.391,15.625,18.066,0
1580493202.833,55.664,32.715,21.484,25.391,30.273,0
1580493202.837,41.016,29.297,26.855,37.598,19.531,0
1580493202.841,31.250,30.273,25.879,36.621,35.645,0
1580493202.858,26.367,27.344,24.902,19.043,68.359,0
1580493202.862,20.020,25.391,31.738,26.367,53.223,0
1580493202.866,45.410,34.180,27.344,37.109,67.871,0
1580493202.870,50.781,36.621,22.949,33.203,84.961,0
1580493202.874,40.039,35.645,21.973,34.668,56.641,0
1580493202.878,38.574,35.645,24.902,37.109,49.316,0
1580493202.882,27.832,36.133,29.297,27.344,19.531,0
1580493202.885,30.762,39.551,23.438,28.809,20.020,0
1580493202.889,33.203,40.039,22.461,31.738,77.148,0
1580493202.893,32.715,42.480,22.461,18.066,69.824,0
1580493202.897,32.227,42.480,20.996,26.855,30.273,0
1580493202.901,23.926,42.969,24.902,27.344,53.223,0
1580493202.898,20.996,38.574,27.344,22.949,53.711,0
1580493202.902,26.367,34.668,25.391,24.414,-7.324,0
1580493202.906,31.738,37.598,25.391,23.438,5.371,0
1580493202.910,20.508,35.645,28.809,30.762,-1.465,0
1580493202.914,24.902,34.180,31.250,28.809,-65.430,0
1580493202.918,43.457,29.297,31.250,29.785,-9.277,0
1580493202.922,49.805,30.273,26.855,39.062,27.344,0
1580493202.925,39.551,35.645,29.297,40.527,27.344,0
1580493202.929,34.668,35.156,33.691,39.551,47.363,0
1580493202.933,51.758,36.133,32.227,31.250,49.316,0
1580493202.937,63.477,39.062,29.297,23.926,20.996,0
1580493202.941,51.758,40.039,27.344,34.668,38.574,0
1580493202.938,38.086,39.062,28.320,41.504,63.965,0
1580493202.942,46.387,38.086,27.832,42.480,73.730,0
1580493202.946,62.012,38.574,28.320,42.480,12.207,0
1580493202.950,52.246,38.086,28.320,37.109,4.883,0
1580493202.954,34.180,38.574,30.762,34.668,55.176,0
1580493202.958,41.016,40.527,33.691,32.227,46.387,0
1580493202.962,55.176,40.039,30.762,39.062,39.062,0
1580493202.965,49.805,41.504,31.738,47.363,28.320,0
1580493202.969,37.109,41.504,34.668,41.016,-16.602,0
1580493202.973,34.668,36.621,37.598,36.133,11.230,0
1580493202.977,37.598,31.738,40.039,32.715,72.754,0
1580493202.981,37.598,29.297,37.598,30.273,85.449,0
1580493202.998,19.531,29.297,39.062,35.156,82.031,0
1580493203.002,6.348,28.809,39.062,37.109,14.160,0
1580493203.006,17.578,26.855,37.109,26.367,1.465,0
1580493203.010,22.461,27.344,37.598,20.020,51.270,0
1580493203.014,16.602,34.180,33.691,25.391,-4.883,0
1580493203.018,7.812,34.668,34.180,17.578,-63.965,0
1580493203.022,14.648,34.180,29.297,7.324,41.504,0
1580493203.025,29.785,38.086,20.508,11.719,92.773,0
1580493203.029,29.297,40.039,26.367,22.461,20.020,0
1580493203.033,22.461,39.551,23.926,29.785,31.250,0
1580493203.037,30.273,39.551,20.508,32.227,21.973,0
1580493203.041,49.316,38.086,24.902,34.180,8.789,0
1580493203.038,43.945,37.109,30.762,38.086,26.855,0
1580493203.042,26.855,38.086,32.227,35.645,46.875,0
1580493203.046,34.180,36.621,32.715,33.691,5.371,0
1580493203.050,45.410,36.133,32.227,36.621,-33.691,0
1580493203.054,37.109,36.133,33.691,37.598,-18.555,0
1580493203.058,15.625,32.227,37.109,32.227,37.109,0
1580493203.062,4.395,27.832,35.645,26.367,25.391,0
1580493203.065,9.277,26.367,34.668,23.926,-34.180,0
1580493203.069,14.160,28.320,33.691,19.043,20.996,0
1580493203.073,3.906,31.250,33.691,15.625,15.137,0
1580493203.077,-1.465,32.715,28.809,17.090,49.316,0
1580493203.081,11.230,35.645,25.879,20.020,91.309,0
1580493203.078,20.020,37.598,26.855,13.672,22.461,0
1580493203.082,14.648,37.109,27.832,14.160,-9.766,0
1580493203.086,-0.977,35.645,28.809,22.461,10.742,0
1580493203.090,1.953,34.668,24.414,20.996,60.547,0
1580493203.094,16.113,33.203,23.926,20.508,54.199,0
1580493203.098,19.043,33.203,29.297,29.297,23.926,0
1580493203.102,11.230,29.297,31.250,36.133,36.133,0
1580493203.105,12.207,26.367,30.762,39.551,56.641,0
1580493203.109,24.414,26.855,30.273,33.691,45.410,0
1580493203.113,32.227,26.367,32.227,40.527,12.207,0
1580493203.117,26.367,29.297,32.227,48.340,40.039,0
1580493203.121,21.973,29.297,32.227,47.852,64.453,0
1580493203.138,40.039,27.832,34.668,51.758,64.453,0
1580493203.142,50.293,29.785,37.598,53.223,66.895,0
1580493203.146,34.180,33.203,40.039,46.875,60.547,0
1580493203.150,18.555,35.645,39.551,40.527,-1.465,0
1580493203.154,21.973,34.180,39.551,30.762,-2.930,0
1580493203.158,17.090,34.668,36.133,8.301,-13.184,0
1580493203.162,0.000,43.457,32.715,3.418,-3.418,0
1580493203.165,-9.277,46.387,37.598,2.441,58.594,0
1580493203.169,-9.277,47.363,38.086,-12.695,34.668,0
1580493203.173,-7.812,54.688,34.668,-27.832,35.645,0
1580493203.177,-20.020,54.199,39.062,-37.598,60.059,0
1580493203.181,-41.016,56.152,45.410,-40.527,63.477,0
1580493203.178,-51.270,58.594,54.688,-46.875,18.555,0
1580493203.182,-50.781,56.152,61.035,-66.406,20.996,0
1580493203.186,-57.129,56.152,61.523,-87.891,8.789,0
1580493203.190,-79.102,59.570,61.523,-96.680,14.160,0
1580493203.194,-99.609,57.617,62.012,-104.980,33.691,0
1580493203.198,-106.445,51.270,68.848,-114.746,20.996,0
1580493203.202,-109.375,50.781,71.289,-120.605,34.180,0
1580493203.205,-120.605,55.176,70.801,-126.953,28.809,0
1580493203.209,-134.766,60.547,63.477,-131.348,43.945,0
1580493203.213,-122.070,64.941,58.594,-127.441,85.938,0
1580493203.217,-101.562,64.941,60.059,-129.883,80.078,0
1580493203.221,-98.145,63.477,55.664,-123.047,57.617,0
1580493203.218,-109.863,62.988,51.758,-109.863,51.270,0
1580493203.222,-107.422,58.105,51.758,-104.492,78.613,0
1580493203.226,-87.402,56.152,53.223,-98.633,94.238,0
1580493203.230,-80.566,55.176,50.781,-88.867,40.039,0
1580493203.234,-76.660,56.641,50.781,-72.266,61.035,0
1580493203.238,-62.988,55.664,46.875,-55.664,64.453,0
1580493203.242,-42.480,50.293,37.598,-48.340,35.645,0
1580493203.245,-22.949,49.316,39.062,-37.109,12.207,0
1580493203.249,-16.602,49.316,39.551,-20.996,-8.789,0
1580493203.253,-4.395,45.410,35.156,-7.324,30.762,0
1580493203.257,12.695,38.086,31.250,-2.441,23.926,0
1580493203.261,21.484,34.180,25.879,6.348,46.875,0
1580493203.278,32.227,33.203,24.414,19.531,53.711,0
1580493203.282,35.156,29.785,25.391,35.645,15.137,0
1580493203.286,46.387,30.762,18.555,45.410,46.387,0
1580493203.290,65.430,31.738,15.625,47.363,82.031,0
1580493203.294,63.965,31.250,16.113,50.293,-3.906,0
1580493203.298,53.223,30.762,15.137,48.828,-9.766,0
1580493203.302,55.664,31.250,11.719,45.410,75.195,0
1580493203.305,68.848,28.320,6.348,49.316,56.641,0
1580493203.309,75.195,26.367,5.371,57.617,-13.184,0
1580493203.313,71.289,28.809,8.789,67.383,14.160,0
1580493203.317,66.406,28.809,10.742,74.707,19.043,0
1580493203.321,79.102,26.855,8.789,76.660,24.902,0
1580493203.318,90.332,27.832,7.812,81.543,38.574,0
1580493203.322,83.008,29.297,8.789,84.473,19.043,0
1580493203.326,71.777,28.320,12.695,83.984,56.152,0
1580493203.330,77.148,24.414,14.648,85.449,50.293,0
1580493203.334,89.355,21.484,14.648,83.496,33.691,0
1580493203.338,88.379,23.926,13.672,83.496,39.551,0
1580493203.342,82.031,25.879,12.695,91.797,1.465,0
1580493203.345,87.402,24.902,11.719,94.238,6.836,0
1580493203.349,101.562,20.508,7.812,88.379,45.410,0
1580493203.353,97.656,21.484,10.254,80.078,43.457,0
1580493203.357,77.637,22.949,12.695,76.660,22.461,0
1580493203.361,73.730,21.484,15.137,75.684,18.555,0
1580493203.358,85.938,22.461,17.090,72.266,10.742,0
1580493203.362,82.520,21.484,16.602,70.312,-3.418,0
1580493203.366,72.266,21.973,15.625,68.848,29.297,0
1580493203.370,68.359,22.949,13.184,65.918,-5.371,0
1580493203.374,79.590,24.414,10.742,61.035,-18.555,0
1580493203.378,91.309,25.391,8.789,56.641,40.039,0
1580493203.382,78.125,25.391,11.719,60.059,35.156,0
1580493203.385,64.941,25.879,11.719,53.711,-0.977,0
1580493203.389,72.754,27.832,8.301,50.781,52.246,0
1580493203.393,86.426,29.297,9.277,58.594,43.457,0
1580493203.397,87.891,29.785,13.184,59.082,27.832,0
1580493203.401,76.172,30.273,18.066,58.105,27.832,0
1580493203.418,78.613,28.809,18.066,59.082,24.414,0
1580493203.422,87.402,26.367,16.113,59.082,30.762,0
1580493203.426,80.078,27.344,16.602,62.500,12.695,0
1580493203.430,63.477,28.320,18.066,66.406,7.812,0
1580493203.434,58.594,24.902,18.555,62.500,35.156,0
1580493203.438,65.918,24.414,18.555,58.594,62.012,0
1580493203.442,63.477,23.438,20.996,59.082,83.496,0
1580493203.445,49.316,20.508,23.438,62.012,40.039,0
1580493203.449,43.457,20.996,22.949,65.918,55.176,0
1580493203.453,54.688,20.508,20.508,62.012,95.215,0
1580493203.457,59.570,20.996,21.973,57.129,45.410,0
1580493203.461,56.152,25.879,22.949,60.059,27.832,0
1580493203.459,52.734,27.832,21.973,61.035,10.742,0
1580493203.463,61.523,26.855,22.461,59.082,-11.230,0
1580493203.467,75.195,26.367,23.438,57.129,-23.926,0
1580493203.471,70.801,29.297,23.438,55.664,10.254,0
1580493203.475,55.176,30.273,24.902,54.199,49.316,0
1580493203.479,52.734,27.832,24.414,54.688,15.137,0
1580493203.483,62.012,26.855,23.926,48.828,-36.133,0
1580493203.486,65.918,28.320,24.902,47.852,1.953,0
1580493203.490,61.523,29.297,23.438,52.734,27.832,0
1580493203.494,62.988,30.273,24.414,47.852,38.086,0
1580493203.498,70.312,31.738,23.438,45.898,34.668,0
1580493203.502,68.848,30.762,20.996,46.875,22.461,0
1580493203.498,50.293,29.297,23.438,46.387,46.387,0
1580493203.502,38.086,28.809,23.438,43.457,61.523,0
1580493203.506,48.340,30.762,21.484,37.598,19.043,0
1580493203.510,61.035,34.180,18.555,33.691,20.996,0
1580493203.514,48.828,35.156,18.555,31.250,25.879,0
1580493203.518,32.715,35.156,20.996,33.691,39.551,0
1580493203.522,45.410,35.645,17.578,41.504,71.777,0
1580493203.525,56.641,32.227,16.602,34.180,62.988,0
1580493203.529,47.363,28.809,21.484,24.902,24.902,0
1580493203.533,33.203,28.809,24.902,34.668,56.641,0
1580493203.537,26.855,27.344,23.926,43.457,18.555,0
1580493203.541,36.133,24.902,22.461,41.992,-11.230,0
1580493203.558,46.875,29.785,22.949,41.992,0.488,0
1580493203.562,41.504,33.691,22.461,48.340,72.754,0
1580493203.566,33.691,30.762,22.949,49.316,110.840,0
1580493203.570,44.922,27.832,26.855,48.828,32.715,0
1580493203.574,58.594,27.832,25.391,50.781,27.832,0
1580493203.578,53.223,27.344,24.902,53.711,20.996,0
1580493203.582,47.363,26.855,26.855,57.129,59.570,0
1580493203.585,53.711,24.414,25.391,52.246,83.496,0
1580493203.589,59.570,23.438,24.902,46.875,21.484,0
1580493203.593,50.781,25.879,24.902,50.293,18.066,0
1580493203.597,32.715,29.785,25.879,45.410,44.922,0
1580493203.601,32.715,28.320,23.438,32.227,19.531,0
1580493203.598,48.340,28.809,20.508,30.762,57.129,0
1580493203.602,47.363,31.250,22.461,30.273,73.242,0
1580493203.606,33.203,32.227,23.438,26.855,51.270,0
1580493203.610,30.762,33.691,20.508,30.273,63.965,0
1580493203.614,40.527,29.297,14.648,29.785,45.410,0
1580493203.618,47.363,25.391,14.648,28.809,-2.930,0
1580493203.622,37.109,27.344,20.996,34.180,13.672,0
1580493203.625,34.180,30.762,22.461,36.621,29.785,0
1580493203.629,45.898,30.762,22.949,32.227,30.762,0
1580493203.633,50.293,29.785,19.043,23.926,35.156,0
1580493203.637,41.016,33.203,15.625,24.902,42.969,0
1580493203.641,34.668,36.621,20.508,30.273,8.301,0
1580493203.638,41.016,37.109,20.996,24.902,27.832,0
1580493203.642,46.387,34.180,21.973,22.949,42.480,0
1580493203.646,41.504,34.668,22.949,25.879,39.551,0
1580493203.650,30.273,36.621,21.484,26.855,111.328,0
1580493203.654,34.668,35.645,21.973,28.809,92.285,0
1580493203.658,49.316,32.715,23.438,26.855,8.301,0
1580493203.662,48.828,34.180,22.461,26.855,5.859,0
1580493203.665,37.598,38.574,21.484,26.855,58.105,0
1580493203.669,32.715,38.086,19.043,24.414,62.012,0
1580493203.673,40.039,34.180,16.602,27.832,7.324,0
1580493203.677,42.480,33.203,17.578,30.273,-31.738,0
1580493203.681,28.320,33.691,18.555,31.738,-5.859,0
1580493203.698,19.531,31.250,22.461,29.785,68.359,0
1580493203.702,30.273,28.320,20.996,24.902,86.914,0
1580493203.706,39.551,27.832,18.066,29.785,35.645,0
1580493203.710,28.320,27.832,22.949,31.738,51.758,0
1580493203.714,19.043,30.762,26.855,30.273,31.738,0
1580493203.718,24.414,29.785,23.926,26.367,18.066,0
1580493203.722,33.691,31.250,20.020,18.555,47.852,0
1580493203.725,35.156,34.668,21.484,22.949,40.527,0
1580493203.729,25.879,34.668,21.973,28.320,25.391,0
1580493203.733,25.879,35.645,20.020,25.391,-6.348,0
1580493203.737,43.457,33.691,20.508,31.250,29.785,0
1580493203.741,50.293,32.227,20.508,32.715,31.250,0
1580493203.738,41.504,36.133,20.508,32.227,49.316,0
1580493203.742,38.086,37.109,23.438,36.621,78.125,0
1580493203.746,47.852,34.180,22.949,36.621,10.254,0
1580493203.750,54.688,34.180,19.531,30.273,61.035,0
1580493203.754,38.086,33.691,19.531,27.832,16.602,0
1580493203.758,23.926,32.715,21.484,28.320,-15.625,0
1580493203.762,37.109,35.156,20.508,21.484,44.922,0
1580493203.765,48.828,38.574,18.066,20.508,66.895,0
1580493203.769,40.527,38.086,19.531,26.367,100.098,0
1580493203.773,27.344,37.598,19.043,21.973,68.848,0
1580493203.777,27.344,36.621,14.160,17.578,72.754,0
1580493203.781,33.203,36.133,18.066,19.043,13.672,0
1580493203.778,31.250,36.621,22.949,25.879,-19.531,0
1580493203.782,19.043,39.551,23.926,33.203,54.199,0
1580493203.786,18.066,38.574,20.996,32.227,47.852,0
1580493203.790,26.855,32.715,18.555,31.250,22.461,0
1580493203.794,30.762,35.645,19.531,32.715,25.391,0
1580493203.798,20.020,40.039,22.461,33.691,-4.883,0
1580493203.802,10.742,40.039,24.902,34.180,-8.301,0
1580493203.805,20.508,35.156,23.438,27.344,59.570,0
1580493203.809,31.738,30.762,24.414,24.902,78.613,0
1580493203.813,28.320,34.180,27.344,35.156,67.871,0
1580493203.817,24.902,34.668,26.855,39.551,12.695,0
1580493203.821,39.062,35.645,28.320,41.992,29.297,0
1580493203.838,48.828,37.598,26.855,46.875,49.316,0
1580493203.842,38.574,36.621,23.438,51.270,22.461,0
1580493203.846,24.414,35.645,25.391,47.852,43.457,0
1580493203.850,29.785,36.621,24.414,37.598,37.109,0
1580493203.854,46.387,36.133,20.508,34.668,68.848,0
1580493203.858,43.945,36.133,21.973,31.738,11.230,0
1580493203.862,29.785,38.574,23.438,30.762,-65.918,0
1580493203.865,28.320,36.621,22.461,30.273,-32.227,0
1580493203.869,41.504,32.227,21.484,26.855,29.785,0
1580493203.873,42.480,32.227,22.461,26.855,37.109,0
1580493203.877,28.320,35.156,21.484,27.832,55.664,0
1580493203.881,28.320,35.645,17.578,30.273,47.852,0
1580493203.878,40.527,33.691,18.555,33.691,46.875,0
1580493203.882,47.852,32.227,20.020,32.715,92.285,0
1580493203.886,44.922,35.645,19.043,37.109,76.172,0
1580493203.890,36.133,36.621,21.973,40.527,59.570,0
1580493203.894,37.109,34.668,21.973,38.574,46.387,0
1580493203.898,44.922,35.156,20.996,37.598,-16.602,0
1580493203.902,45.410,36.621,22.949,39.551,-32.715,0
1580493203.905,32.227,35.156,23.438,39.062,-4.395,0
1580493203.909,36.133,34.668,21.973,37.109,-10.742,0
1580493203.913,52.246,35.156,20.508,33.203,69.824,0
1580493203.917,46.387,35.645,20.020,30.762,67.871,0
1580493203.921,33.691,35.156,20.996,31.738,18.066,0
1580493203.938,33.691,35.645,21.973,34.668,12.207,0
1580493203.942,42.969,35.156,20.508,37.109,-9.766,0
1580493203.946,42.480,34.180,20.020,32.227,-1.953,0
1580493203.950,28.809,35.645,21.484,30.273,-31.738,0
1580493203.954,23.438,36.133,23.926,31.250,-6.836,0
1580493203.958,32.227,35.156,24.414,28.320,38.574,0
1580493203.962,36.621,33.691,23.438,25.879,23.438,0
1580493203.965,28.809,33.203,25.391,19.531,59.082,0
1580493203.969,17.090,33.691,28.320,23.926,63.477,0
1580493203.973,22.949,31.738,26.855,27.344,57.617,0
1580493203.977,38.574,30.762,25.391,26.855,58.594,0
1580493203.981,32.715,31.738,25.879,26.855,33.691,0
1580493203.978,19.531,36.133,24.414,27.832,10.742,0
1580493203.982,21.484,37.598,22.949,29.785,7.324,0
1580493203.986,35.645,36.133,26.367,26.855,35.156,0
1580493203.990,41.016,35.156,27.832,29.297,15.625,0
1580493203.994,30.762,36.133,26.855,38.086,53.711,0
1580493203.998,25.879,34.668,28.809,40.039,78.613,0
1580493204.002,36.621,33.691,29.297,31.738,4.883,0
1580493204.005,40.527,33.691,28.809,25.391,-46.387,0
1580493204.009,24.414,33.691,27.832,28.809,-1.465,0
1580493204.013,17.090,34.180,27.832,28.809,20.508,0
1580493204.017,32.715,36.621,24.902,20.508,34.668,0
1580493204.021,37.598,35.645,21.973,12.207,82.031,0
1580493204.018,26.367,34.180,22.461,16.113,27.344,0
1580493204.022,18.066,34.180,23.926,18.066,-57.617,0
1580493204.026,28.809,32.715,23.926,17.090,9.277,0
1580493204.030,43.457,31.738,25.391,23.926,-14.160,0
1580493204.034,37.109,32.227,28.320,28.809,-41.504,0
1580493204.038,21.484,33.691,26.855,26.855,9.277,0
1580493204.042,20.508,33.691,25.391,21.973,36.133,0
1580493204.045,34.668,35.156,23.438,25.879,22.461,0
1580493204.049,36.133,36.133,22.461,20.020,9.766,0
1580493204.053,22.949,38.086,22.461,16.113,48.828,0
1580493204.057,17.578,36.621,23.926,22.949,39.551,0
1580493204.061,22.461,32.227,20.996,21.484,27.832,0
1580493204.078,27.832,31.738,17.578,20.996,-14.648,0
1580493204.082,22.949,32.227,21.973,25.879,6.836,0
1580493204.086,16.113,33.691,25.391,24.414,50.781,0
1580493204.090,23.438,32.715,23.926,19.043,61.035,0
1580493204.094,26.367,29.297,24.902,16.113,44.922,0
1580493204.098,21.484,32.715,24.902,18.066,30.273,0
1580493204.102,13.672,36.621,24.414,17.090,22.461,0
1580493204.105,13.184,33.691,24.414,13.672,23.926,0
1580493204.109,23.438,33.203,21.484,12.207,69.336,0
1580493204.113,27.832,38.086,19.043,13.184,54.199,0
1580493204.117,23.438,41.992,20.020,19.043,27.832,0
1580493204.121,22.461,41.992,21.973,20.996,-17.578,0
1580493204.118,41.504,39.062,19.531,17.578,-17.578,0
1580493204.122,44.434,35.156,20.020,21.484,72.754,0
1580493204.126,21.973,35.156,25.879,23.926,25.391,0
1580493204.130,14.648,35.645,29.785,20.508,12.695,0
1580493204.134,28.320,32.227,30.273,20.508,74.707,0
1580493204.138,29.785,29.785,29.785,21.484,6.348,0
1580493204.142,20.020,28.809,33.691,24.414,-11.719,0
1580493204.145,15.137,31.250,35.645,28.320,43.945,0
1580493204.149,19.043,30.762,30.273,28.809,76.172,0
1580493204.153,29.297,25.879,24.902,24.414,43.457,0
1580493204.157,29.297,26.367,24.902,19.043,35.156,0
1580493204.161,26.367,30.273,25.879,26.367,52.246,0
1580493204.158,31.250,31.250,25.879,30.273,41.992,0
1580493204.162,37.598,27.832,25.879,27.344,0.977,0
1580493204.166,38.574,27.832,26.367,30.273,44.434,0
1580493204.170,28.320,29.785,28.809,39.062,87.891,0
1580493204.174,24.414,27.344,30.762,41.504,41.992,0
1580493204.178,37.109,26.367,30.273,34.180,27.344,0
1580493204.182,40.039,27.344,26.855,31.250,37.598,0
1580493204.185,25.391,29.297,29.785,32.227,81.543,0
1580493204.189,18.066,30.762,31.738,24.414,82.520,0
1580493204.193,27.832,31.738,25.391,22.949,91.797,0
1580493204.197,43.945,35.156,21.484,27.832,70.801,0
1580493204.201,40.527,36.621,24.902,25.391,26.367,0
1580493204.218,34.668,39.551,26.855,30.273,46.875,0
1580493204.222,37.109,41.504,25.879,28.320,34.180,0
1580493204.226,41.504,39.062,24.902,23.438,25.391,0
1580493204.230,39.062,38.086,24.414,26.855,50.293,0
1580493204.234,30.762,40.039,23.926,29.785,15.137,0
1580493204.238,30.762,38.574,23.438,26.855,-4.395,0
1580493204.242,34.668,33.203,22.949,15.625,-21.973,0
1580493204.245,38.574,31.250,23.926,13.184,-22.461,0
1580493204.249,26.855,31.738,25.879,20.020,36.133,0
1580493204.253,20.508,35.156,25.879,23.926,14.160,0
1580493204.257,37.598,32.227,27.832,25.879,-17.090,0
1580493204.261,46.387,28.809,30.273,26.367,40.527,0
1580493204.258,37.598,30.273,30.762,34.180,73.242,0
1580493204.262,30.762,27.344,30.273,36.133,56.641,0
1580493204.266,30.273,25.879,27.832,34.180,111.816,0
1580493204.270,26.855,24.414,27.344,33.691,100.098,0
1580493204.274,14.648,26.855,30.273,32.715,41.504,0
1580493204.278,8.301,29.785,29.785,33.691,39.062,0
1580493204.282,19.043,30.273,25.391,28.320,63.965,0
1580493204.285,32.715,33.691,22.461,25.879,44.922,0
1580493204.289,32.715,36.133,22.461,27.832,8.301,0
1580493204.293,29.297,39.551,26.855,31.250,54.199,0
1580493204.297,32.715,39.551,30.273,36.133,57.129,0
1580493204.301,42.969,34.668,27.344,31.250,38.086,0
1580493204.298,43.457,32.715,25.879,31.738,58.594,0
1580493204.302,29.785,33.691,26.855,33.203,32.227,0
1580493204.306,17.090,32.227,26.855,27.832,22.461,0
1580493204.310,25.879,32.715,23.926,28.809,22.949,0
1580493204.314,32.715,34.180,22.461,26.855,83.008,0
1580493204.318,22.949,34.180,26.367,27.832,43.945,0
1580493204.322,17.578,35.156,27.832,26.367,-6.836,0
1580493204.325,29.785,37.598,26.855,22.461,22.461,0
1580493204.329,40.039,38.574,26.367,20.508,41.504,0
1580493204.333,31.738,38.574,27.832,18.066,37.598,0
1580493204.337,24.414,39.551,26.855,20.996,73.242,0
1580493204.341,28.320,35.156,25.391,21.484,91.309,0
1580493204.358,33.691,32.227,25.879,18.066,13.184,0
1580493204.362,31.250,32.227,25.879,14.648,50.781,0
1580493204.366,17.090,29.297,26.855,10.254,91.797,0
1580493204.370,16.602,30.273,25.391,18.555,29.785,0
1580493204.374,34.668,29.785,21.973,20.996,-0.977,0
1580493204.378,40.039,29.785,23.438,24.902,30.762,0
1580493204.382,26.367,33.691,22.949,25.391,49.805,0
1580493204.385,15.137,35.645,20.508,19.531,91.797,0
1580493204.389,21.484,32.715,21.484,21.484,69.824,0
1580493204.393,33.203,34.668,20.508,25.391,34.668,0
1580493204.397,30.273,38.574,22.461,32.715,21.484,0
1580493204.401,19.043,35.645,27.344,33.691,6.836,0
1580493204.398,24.902,34.668,23.438,31.738,48.340,0
1580493204.402,41.016,38.574,20.996,35.156,36.133,0
1580493204.406,37.598,37.598,23.438,33.691,7.812,0
1580493204.410,25.391,36.133,23.926,30.762,56.641,0
1580493204.414,29.785,38.086,22.461,30.273,94.238,0
1580493204.418,51.270,38.574,20.020,24.414,74.219,0
1580493204.422,54.688,38.574,20.020,22.949,62.988,0
1580493204.425,36.621,39.551,23.926,31.738,24.902,0
1580493204.429,29.785,37.598,22.949,29.785,10.254,0
1580493204.433,40.527,34.668,20.020,22.461,44.434,0
1580493204.437,43.457,35.156,21.484,16.602,26.855,0
1580493204.441,30.273,37.109,24.414,20.020,56.152,0
1580493204.438,23.438,36.621,24.902,27.832,48.828,0
1580493204.442,31.738,33.691,25.391,28.809,7.324,0
1580493204.446,37.109,33.691,26.367,27.344,4.883,0
1580493204.450,29.785,31.738,26.367,27.832,75.195,0
1580493204.454,25.391,30.762,25.879,30.273,68.359,0
1580493204.458,38.574,34.180,25.879,27.344,61.523,0
1580493204.462,54.199,36.133,22.461,33.203,36.621,0
1580493204.465,49.805,37.109,21.484,37.598,-8.789,0
1580493204.469,38.574,41.016,22.461,34.668,36.621,0
1580493204.473,39.551,42.969,18.066,33.203,15.137,0
1580493204.477,44.434,42.480,16.113,30.762,14.648,0
1580493204.481,39.062,42.480,18.066,26.855,12.695,0
1580493204.498,27.344,41.992,19.531,28.320,-42.480,0
1580493204.502,25.391,41.992,21.484,30.762,-33.203,0
1580493204.506,36.621,41.504,19.531,31.250,19.531,0
1580493204.510,43.457,41.016,16.113,26.367,17.578,0
1580493204.514,38.086,42.480,18.555,27.832,24.414,0
1580493204.518,31.738,42.480,21.973,31.738,9.766,0
1580493204.522,38.574,38.086,20.996,26.855,-59.570,0
1580493204.525,50.781,34.180,19.043,26.367,-4.395,0
1580493204.529,44.922,34.180,23.926,27.832,78.125,0
1580493204.533,33.203,36.621,24.902,34.180,57.129,0
1580493204.537,38.574,37.598,23.926,36.133,84.961,0
1580493204.541,48.828,38.086,23.926,28.320,44.922,0
1580493204.539,43.457,38.086,22.949,31.250,37.598,0
1580493204.543,26.855,37.109,25.391,36.133,74.219,0
1580493204.547,26.367,39.062,24.902,32.227,82.520,0
1580493204.551,36.133,41.016,20.996,29.785,45.898,0
1580493204.555,34.668,39.062,20.020,26.855,59.082,0
1580493204.559,23.926,40.527,22.949,26.367,75.195,0
1580493204.563,19.531,40.039,23.438,23.926,29.785,0
1580493204.566,33.691,36.621,21.973,26.367,0.977,0
1580493204.570,41.992,34.668,20.996,30.273,22.461,0
1580493204.574,37.109,37.109,21.973,30.762,56.152,0
1580493204.578,29.785,40.039,25.391,33.691,4.395,0
1580493204.582,30.273,39.062,27.344,33.203,-6.836,0
1580493204.578,41.992,39.551,23.438,29.297,22.949,0
1580493204.582,39.062,37.598,22.461,30.762,85.449,0
1580493204.586,29.785,37.109,25.879,32.227,56.641,0
1580493204.590,29.297,34.668,24.902,30.762,53.711,0
1580493204.594,40.527,28.809,22.949,32.715,60.547,0
1580493204.598,40.527,30.762,24.414,34.180,42.480,0
1580493204.602,26.367,34.668,26.855,34.180,60.547,0
1580493204.605,27.832,37.598,26.367,29.785,78.125,0
1580493204.609,39.551,38.086,21.973,20.996,55.176,0
1580493204.613,42.480,39.062,19.531,22.461,13.184,0
1580493204.617,27.832,41.504,21.973,26.855,41.992,0
1580493204.621,21.484,38.086,21.484,24.902,44.434,0
1580493204.638,33.691,35.645,21.973,26.855,23.926,0
1580493204.642,38.574,36.621,24.902,25.879,5.371,0
1580493204.646,24.902,34.668,27.344,23.438,15.625,0
1580493204.650,13.672,33.203,27.344,24.414,50.293,0
1580493204.654,20.508,34.668,24.414,26.855,89.844,0
1580493204.658,30.762,33.691,25.391,24.902,52.246,0
1580493204.662,30.762,36.133,25.879,22.949,25.391,0
1580493204.665,20.020,39.551,25.879,26.367,65.918,0
1580493204.669,17.578,40.527,23.926,29.297,52.246,0
1580493204.673,33.203,38.574,21.484,28.809,-1.465,0
1580493204.677,37.598,38.086,23.926,29.785,-19.043,0
1580493204.681,24.414,39.551,27.344,29.297,-8.789,0
1580493204.678,21.484,39.062,24.902,24.414,-35.156,0
1580493204.682,32.715,37.109,19.531,26.367,-5.859,0
1580493204.686,34.668,35.645,22.461,25.879,40.039,0
1580493204.690,29.785,36.621,25.879,24.902,13.672,0
1580493204.694,27.832,38.574,25.391,32.715,-10.742,0
1580493204.698,31.250,39.551,24.414,30.273,-17.090,0
1580493204.702,37.109,41.016,22.461,22.949,-46.875,0
1580493204.705,28.320,38.574,24.902,23.438,24.902,0
1580493204.709,16.602,35.645,25.879,20.508,106.934,0
1580493204.713,21.484,34.180,23.926,18.555,62.012,0
1580493204.717,34.180,33.691,24.902,18.066,17.090,0
1580493204.721,32.715,36.621,26.855,21.973,15.137,0
1580493204.718,20.020,37.598,25.391,30.273,19.043,0
1580493204.722,21.973,38.086,23.438,29.785,-5.859,0
1580493204.726,36.621,37.598,24.414,24.902,-44.434,0
1580493204.730,35.645,34.180,26.855,19.043,0.977,0
1580493204.734,23.926,34.668,26.855,23.926,42.969,0
1580493204.738,22.461,38.086,23.926,26.855,91.309,0
1580493204.742,40.039,37.598,22.949,21.973,72.754,0
1580493204.745,46.387,38.574,23.926,18.555,9.766,0
1580493204.749,29.785,40.527,23.438,14.160,-1.953,0
1580493204.753,20.508,39.062,24.414,19.531,30.273,0
1580493204.757,30.762,37.598,24.414,24.414,71.289,0
1580493204.761,39.551,36.133,23.438,23.438,59.082,0
1580493204.778,33.203,35.156,24.902,25.391,23.438,0
1580493204.782,19.531,39.062,25.879,26.367,-28.809,0
1580493204.786,21.484,39.062,21.973,20.020,-14.160,0
1580493204.790,34.180,35.645,18.555,16.113,-6.348,0
1580493204.794,31.250,38.574,19.043,19.043,8.789,0
1580493204.798,22.949,42.480,20.996,21.973,59.570,0
1580493204.802,23.926,41.504,23.926,16.113,59.082,0
1580493204.805,29.785,37.109,21.973,10.254,53.223,0
1580493204.809,36.621,37.598,21.484,20.020,49.316,0
1580493204.813,24.414,39.551,26.367,28.809,12.695,0
1580493204.817,11.719,38.574,29.297,24.414,15.137,0
1580493204.821,20.020,34.180,26.855,16.113,18.555,0
1580493204.818,28.809,33.203,28.809,17.090,30.273,0
1580493204.822,20.996,38.086,29.297,21.973,6.348,0
1580493204.826,9.277,35.645,25.879,21.973,17.578,0
1580493204.830,17.578,31.250,23.926,18.066,77.637,0
1580493204.834,33.691,36.133,21.484,21.484,48.828,0
1580493204.838,31.250,37.109,21.973,27.344,-5.371,0
1580493204.842,23.926,38.086,24.902,29.297,-21.973,0
1580493204.845,30.273,39.551,25.879,30.762,5.859,0
1580493204.849,45.410,36.621,23.926,28.809,36.621,0
1580493204.853,41.016,38.086,22.949,19.043,35.156,0
1580493204.857,24.902,36.133,22.461,16.602,30.762,0
1580493204.861,24.414,35.156,22.949,21.484,41.016,0
1580493204.858,31.250,36.133,22.949,16.113,-4.883,0
1580493204.862,27.344,31.250,21.484,9.766,34.668,0
1580493204.866,19.043,30.762,24.414,12.695,86.426,0
1580493204.870,14.648,31.738,27.344,20.508,80.078,0
1580493204.874,22.461,30.762,26.855,20.996,76.660,0
1580493204.878,31.250,33.691,25.391,20.020,43.457,0
1580493204.882,21.973,36.621,25.879,21.973,44.434,0
1580493204.885,16.113,38.574,28.809,24.414,42.480,0
1580493204.889,19.531,37.598,25.879,20.508,26.855,0
1580493204.893,23.926,34.180,21.973,20.020,18.066,0
1580493204.897,20.508,36.133,24.414,20.020,8.301,0
1580493204.901,14.160,36.621,26.855,24.414,-11.230,0
1580493204.918,16.602,35.645,23.926,28.320,24.902,0
1580493204.922,28.320,33.691,20.020,21.973,55.664,0
1580493204.926,28.809,31.250,20.996,19.531,16.113,0
1580493204.930,17.090,32.227,22.949,23.438,38.086,0
1580493204.934,14.160,32.227,21.973,22.949,61.523,0
1580493204.938,21.973,31.250,24.414,20.020,44.434,0
1580493204.942,25.879,31.738,25.391,16.602,8.789,0
1580493204.945,20.996,33.203,26.855,23.926,6.836,0
1580493204.949,20.020,35.645,25.391,36.133,13.184,0
1580493204.953,35.156,34.668,20.508,36.621,24.414,0
1580493204.957,50.781,34.180,22.461,38.574,12.695,0
1580493204.961,42.969,35.156,21.973,37.598,44.434,0
1580493204.958,36.133,36.621,20.996,41.504,77.148,0
1580493204.962,40.039,36.133,20.996,38.574,78.125,0
1580493204.966,45.898,34.180,20.996,24.902,71.289,0
1580493204.970,45.410,35.645,21.973,25.879,55.664,0
1580493204.974,34.668,40.039,23.926,29.297,51.758,0
1580493204.978,32.715,37.598,23.926,19.043,10.742,0
1580493204.982,42.480,37.598,20.020,21.484,-30.273,0
1580493204.985,45.410,38.574,21.484,31.250,0.000,0
1580493204.989,35.156,37.109,24.414,28.809,37.598,0
1580493204.993,27.832,35.645,21.973,25.879,13.672,0
1580493204.997,37.109,34.180,21.484,30.762,21.484,0
1580493205.001,41.992,33.691,22.461,33.691,-16.113,0
1580493204.999,32.227,32.715,23.926,35.156,11.719,0
1580493205.003,23.438,33.203,25.879,38.574,84.961,0
1580493205.007,27.344,31.738,24.902,34.668,59.570,0
1580493205.011,34.180,30.273,22.461,27.832,26.367,0
1580493205.015,23.926,31.738,24.902,22.949,18.066,0
1580493205.019,6.836,34.180,26.367,26.367,-10.254,0
1580493205.023,14.160,36.621,21.973,32.227,18.066,0
1580493205.026,30.273,36.621,21.484,28.320,70.312,0
1580493205.030,28.320,33.691,24.414,25.879,82.031,0
1580493205.034,19.043,35.156,24.902,31.250,57.129,0
1580493205.038,19.531,36.621,25.391,33.203,58.105,0
1580493205.042,31.738,34.668,25.879,25.391,35.156,0
1580493205.059,34.668,34.668,26.855,21.484,18.066,0
1580493205.063,18.555,35.156,27.832,24.414,32.715,0
1580493205.067,12.695,30.762,25.879,25.391,38.086,0
1580493205.071,24.902,31.250,24.902,20.508,15.137,0
1580493205.075,31.250,35.156,25.391,17.578,-2.441,0
1580493205.079,24.902,34.668,27.344,14.160,-11.719,0
1580493205.083,21.973,37.109,25.879,10.254,29.297,0
1580493205.086,36.621,39.062,21.973,15.625,68.848,0
1580493205.090,53.711,39.551,22.461,21.484,35.156,0
1580493205.094,46.875,39.062,24.902,25.879,28.809,0
1580493205.098,34.180,38.574,22.949,29.785,77.637,0
1580493205.102,41.504,41.992,21.484,32.227,28.809,0
1580493205.099,54.688,41.504,20.508,33.691,24.902,0
1580493205.103,46.387,39.551,20.996,34.180,54.199,0
1580493205.107,27.344,38.574,23.438,33.203,35.645,0
1580493205.111,22.949,37.598,23.438,29.785,36.621,0
1580493205.115,29.297,37.109,19.531,25.879,-2.930,0
1580493205.119,30.273,35.645,20.020,24.902,45.898,0
1580493205.123,21.973,36.621,25.391,24.414,46.875,0
1580493205.126,15.625,38.086,27.344,24.414,-23.926,0
1580493205.130,24.902,37.598,26.855,27.344,41.992,0
1580493205.134,32.227,37.598,23.926,21.973,87.891,0
1580493205.138,26.367,40.527,20.020,20.996,53.711,0
1580493205.142,23.926,41.992,20.508,30.762,6.348,0
1580493205.138,28.320,38.086,24.902,29.297,-7.812,0
1580493205.142,37.109,37.109,26.855,27.344,41.504,0
1580493205.146,30.273,39.062,31.250,29.785,83.984,0
1580493205.150,20.020,36.621,31.738,33.203,27.344,0
1580493205.154,22.949,30.762,29.785,36.133,-16.602,0
1580493205.158,29.785,27.832,33.203,33.691,9.766,0
1580493205.162,24.902,26.855,39.062,28.320,50.781,0
1580493205.165,8.789,26.855,40.527,20.508,69.336,0
1580493205.169,3.906,23.926,39.551,15.137,42.480,0
1580493205.173,15.625,20.996,39.551,20.996,18.066,0
1580493205.177,21.973,20.508,39.062,24.902,67.383,0
1580493205.181,16.602,23.438,41.504,28.809,56.152,0
1580493205.199,12.695,26.367,42.969,30.273,15.625,0
1580493205.203,22.949,26.367,39.062,30.762,78.613,0
1580493205.207,37.598,27.344,37.109,34.180,102.051,0
1580493205.211,27.832,30.762,36.621,35.156,64.453,0
1580493205.215,20.996,33.203,34.180,40.527,42.480,0
1580493205.219,30.762,34.180,32.715,38.574,43.945,0
1580493205.223,42.480,32.715,28.809,31.250,57.129,0
1580493205.226,37.598,33.203,26.855,27.344,9.277,0
1580493205.230,20.508,34.668,27.832,22.949,-12.695,0
1580493205.234,18.555,32.715,24.414,21.484,10.742,0
1580493205.238,34.180,31.738,23.438,19.043,8.789,0
1580493205.242,40.527,33.203,23.438,19.043,6.348,0
1580493205.239,30.762,31.738,22.461,28.320,37.598,0
1580493205.243,22.949,29.297,26.367,35.156,41.992,0
1580493205.247,33.691,27.344,27.344,32.715,48.828,0
1580493205.251,42.969,28.809,29.297,32.715,10.742,0
1580493205.255,34.668,31.738,30.762,38.086,-18.066,0
1580493205.259,28.809,32.227,31.738,41.016,-29.785,0
1580493205.263,37.109,28.809,31.738,36.621,-9.766,0
1580493205.266,41.504,28.320,29.297,30.762,48.828,0
1580493205.270,32.715,32.715,28.320,31.738,71.777,0
1580493205.274,22.461,34.668,25.879,29.297,77.148,0
1580493205.278,28.320,33.203,25.879,30.273,65.918,0
1580493205.282,47.363,31.250,26.367,31.738,35.156,0
1580493205.278,46.875,31.738,27.344,33.203,25.391,0
1580493205.282,35.156,32.715,29.297,38.574,79.102,0
1580493205.286,34.668,32.715,28.809,39.062,60.059,0
1580493205.290,39.062,32.227,29.785,36.621,38.086,0
1580493205.294,38.574,31.250,29.297,33.203,76.660,0
1580493205.298,33.691,33.203,27.832,33.691,40.527,0
1580493205.302,31.738,36.133,27.344,33.691,31.250,0
1580493205.305,41.992,34.668,24.414,23.438,-10.254,0
1580493205.309,46.387,31.738,21.484,15.625,-23.926,0
1580493205.313,39.551,33.691,20.508,23.926,20.020,0
1580493205.317,37.598,35.156,21.973,29.297,36.133,0
1580493205.321,47.852,34.180,24.902,29.785,32.715,0
1580493205.338,59.570,32.227,26.855,30.762,48.340,0
1580493205.342,60.547,33.203,28.320,38.086,13.672,0
1580493205.346,49.316,35.156,28.320,46.387,9.277,0
1580493205.350,45.410,34.180,26.367,41.016,48.340,0
1580493205.354,57.617,30.762,24.902,37.109,70.312,0
1580493205.358,50.781,29.297,24.902,30.762,60.547,0
1580493205.362,27.344,30.273,24.902,15.625,-20.020,0
1580493205.365,19.531,30.762,25.391,10.742,9.277,0
1580493205.369,25.879,30.273,24.414,9.277,28.320,0
1580493205.373,29.785,31.250,24.902,10.254,42.480,0
1580493205.377,20.996,33.203,25.879,13.672,56.641,0
1580493205.381,16.602,34.180,26.367,17.090,52.246,0
1580493205.378,26.855,34.668,26.855,18.066,117.676,0
1580493205.382,35.156,33.691,26.855,24.902,99.609,0
1580493205.386,28.809,32.227,28.809,37.109,30.762,0
1580493205.390,19.531,33.691,30.762,38.574,24.414,0
1580493205.394,25.391,35.645,28.320,33.691,9.277,0
1580493205.398,33.203,36.133,24.414,31.250,-3.418,0
1580493205.402,24.414,38.574,22.949,32.227,22.949,0
1580493205.405,12.207,40.039,20.996,31.250,-3.418,0
1580493205.409,11.719,40.039,19.043,20.508,-25.879,0
1580493205.413,14.160,40.527,15.625,9.277,26.367,0
1580493205.417,17.090,40.039,9.766,10.254,16.602,0
1580493205.421,17.090,44.434,8.301,15.625,-19.043,0
1580493205.418,24.414,48.340,7.812,15.625,9.277,0
1580493205.422,43.457,48.340,7.812,14.648,29.785,0
1580493205.426,51.270,46.387,8.301,16.113,-7.812,0
1580493205.430,46.387,48.340,10.254,21.973,-9.766,0
1580493205.434,39.062,51.270,14.648,26.855,-0.488,0
1580493205.438,49.316,49.316,15.137,25.391,6.836,0
1580493205.442,60.059,47.852,13.672,26.855,87.891,0
1580493205.445,47.852,50.293,13.672,25.391,93.262,0
1580493205.449,35.645,52.246,15.137,28.809,69.336,0
1580493205.453,39.062,48.828,17.090,32.715,34.668,0
1580493205.457,49.805,43.945,15.625,33.203,21.973,0
1580493205.461,48.340,39.551,18.066,34.180,23.926,0
1580493205.478,40.527,38.086,20.020,37.109,0.488,0
1580493205.482,43.457,40.527,18.066,43.945,1.953,0
1580493205.486,52.734,41.016,20.020,41.992,38.574,0
1580493205.490,51.758,41.992,20.020,42.969,28.320,0
1580493205.494,40.527,41.992,20.020,43.945,47.852,0
1580493205.498,31.738,40.039,20.996,38.086,60.059,0
1580493205.502,39.551,41.016,20.508,34.668,27.832,0
1580493205.505,44.434,41.992,22.461,33.203,4.883,0
1580493205.509,28.320,43.457,22.461,30.762,-8.301,0
1580493205.513,15.137,44.434,20.508,23.438,49.805,0
1580493205.517,24.414,45.410,20.508,19.043,63.965,0
1580493205.521,36.133,44.922,19.531,20.508,64.453,0
1580493205.519,30.273,44.922,19.043,26.367,46.387,0
1580493205.523,23.926,47.363,20.020,29.785,44.434,0
1580493205.527,28.809,45.410,19.531,20.996,64.941,0
1580493205.531,37.109,42.969,20.020,14.648,46.387,0
1580493205.535,40.039,46.387,19.531,22.949,24.902,0
1580493205.539,31.250,45.898,20.508,31.250,-6.348,0
1580493205.543,31.738,41.504,22.949,30.762,15.625,0
1580493205.546,48.828,38.574,23.926,38.086,10.254,0
1580493205.550,51.270,35.156,24.414,41.016,-39.551,0
1580493205.554,40.527,34.668,27.832,38.086,27.344,0
1580493205.558,36.133,36.621,27.344,40.039,36.621,0
1580493205.562,46.387,38.086,25.391,40.527,-12.207,0
1580493205.578,53.223,40.039,24.414,40.039,-12.207,0
1580493205.582,41.504,40.527,21.484,36.621,26.855,0
1580493205.586,28.809,42.969,19.043,32.227,41.992,0
1580493205.590,30.762,41.992,15.137,28.320,14.648,0
1580493205.594,36.133,39.551,14.648,21.973,16.113,0
1580493205.598,31.250,43.457,13.672,20.508,37.598,0
1580493205.602,24.902,47.852,12.207,23.926,34.668,0
1580493205.605,29.785,47.363,16.113,14.160,41.504,0
1580493205.609,40.039,47.363,15.625,15.625,96.680,0
1580493205.613,36.621,46.387,14.648,24.902,64.941,0
1580493205.617,25.879,42.969,17.090,26.367,43.945,0
1580493205.621,25.879,41.016,20.020,27.344,68.848,0
1580493205.618,36.133,39.062,19.043,23.926,22.949,0
1580493205.622,40.527,36.621,19.531,22.461,1.953,0
1580493205.626,30.273,36.133,24.902,26.367,18.066,0
1580493205.630,22.949,35.645,27.832,29.297,59.082,0
1580493205.634,28.320,33.691,27.832,21.973,52.734,0
1580493205.638,34.180,32.715,27.344,19.043,66.895,0
1580493205.642,26.855,32.715,27.832,21.973,84.961,0
1580493205.645,15.625,32.715,28.320,20.020,22.949,0
1580493205.649,22.949,35.156,25.879,21.973,-13.672,0
1580493205.653,34.180,34.668,22.461,22.949,4.883,0
1580493205.657,29.785,36.133,20.020,18.555,61.523,0
1580493205.661,15.137,38.086,22.461,19.043,79.102,0
1580493205.678,11.719,39.062,27.344,19.531,21.973,0
1580493205.682,23.926,39.551,22.461,14.160,7.324,0
1580493205.686,24.414,40.527,20.508,15.625,38.086,0
1580493205.690,14.648,43.945,20.508,18.555,38.574,0
1580493205.694,14.648,45.410,19.531,14.648,17.578,0
1580493205.698,28.320,43.457,19.531,16.113,55.176,0
1580493205.702,35.645,40.527,20.020,26.855,18.555,0
1580493205.705,28.320,41.504,20.996,33.691,10.254,0
1580493205.709,26.367,42.480,21.484,22.949,65.430,0
1580493205.713,36.621,38.574,21.973,18.066,27.832,0
1580493205.717,44.922,34.180,23.926,25.391,28.809,0
1580493205.721,38.086,32.715,24.902,24.902,9.766,0
1580493205.720,26.855,37.109,23.926,28.809,-55.664,0
1580493205.724,30.762,39.551,24.902,23.926,-9.277,0
1580493205.728,38.574,37.598,22.949,19.531,19.531,0
1580493205.732,31.738,37.598,22.461,25.391,-44.922,0
1580493205.736,16.602,39.062,20.020,23.438,-15.137,0
1580493205.740,20.508,39.551,15.137,21.973,60.059,0
1580493205.744,34.180,38.086,12.207,20.996,35.645,0
1580493205.747,35.156,38.574,13.672,20.508,-3.418,0
1580493205.751,25.391,39.062,15.625,25.391,27.344,0
1580493205.755,18.066,39.551,14.160,22.949,-4.883,0
1580493205.759,27.344,36.133,16.602,24.414,-13.184,0
1580493205.763,33.203,35.156,18.066,27.344,68.359,0
1580493205.759,22.949,37.598,23.438,25.879,77.637,0
1580493205.763,14.160,36.621,23.926,24.414,38.086,0
1580493205.767,20.996,37.598,24.414,22.949,44.434,0
1580493205.771,32.227,34.668,25.879,22.461,59.570,0
1580493205.775,19.043,38.086,24.902,14.648,42.480,0
1580493205.779,-1.953,41.016,28.809,5.859,25.879,0
1580493205.783,6.348,42.969,29.785,10.254,31.250,0
1580493205.786,17.578,51.758,32.715,6.348,68.359,0
1580493205.790,-1.953,51.758,39.551,-14.648,36.621,0
1580493205.794,-28.320,53.223,36.621,-33.691,57.129,0
1580493205.798,-38.086,57.617,36.133,-49.805,49.805,0
1580493205.802,-38.086,57.129,39.551,-63.477,18.555,0
1580493205.799,-48.828,59.082,43.945,-66.895,20.996,0
1580493205.803,-65.918,61.523,45.898,-72.754,34.180,0
1580493205.807,-75.684,63.965,43.457,-85.938,21.484,0
1580493205.811,-72.266,62.500,48.828,-92.773,4.883,0
1580493205.815,-74.707,59.082,52.246,-101.562,75.195,0
1580493205.819,-89.844,57.617,53.711,-101.562,19.043,0
1580493205.823,-95.703,60.059,54.688,-100.098,7.812,0
1580493205.826,-91.797,56.641,52.734,-103.516,67.383,0
1580493205.830,-87.891,53.711,52.246,-102.051,3.418,0
1580493205.834,-84.961,55.664,53.223,-92.285,-3.906,0
1580493205.838,-88.379,54.199,56.152,-83.008,28.320,0
1580493205.842,-81.055,51.270,55.176,-73.242,24.414,0
1580493205.858,-58.594,47.363,52.246,-63.965,70.801,0
1580493205.862,-48.828,47.363,51.758,-51.758,106.445,0
1580493205.866,-51.758,46.875,50.781,-35.156,52.246,0
1580493205.870,-41.016,42.969,46.387,-27.832,43.945,0
1580493205.874,-17.578,40.527,40.527,-18.555,59.570,0
1580493205.878,-0.977,38.086,32.227,-5.371,2.930,0
1580493205.882,-0.977,39.062,30.273,0.977,14.648,0
1580493205.885,2.441,38.086,27.832,3.906,52.734,0
1580493205.889,19.043,36.133,21.484,8.789,54.688,0
1580493205.893,34.180,32.227,21.484,17.090,69.824,0
1580493205.897,34.180,29.785,20.996,23.926,84.961,0
1580493205.901,31.738,27.832,17.090,27.832,73.242,0
1580493205.899,40.527,23.926,15.137,37.598,53.223,0
1580493205.903,52.734,22.461,14.160,47.363,74.707,0
1580493205.907,54.199,22.461,14.648,56.641,58.105,0
1580493205.911,47.852,22.461,15.625,60.547,62.500,0
1580493205.915,50.781,20.996,15.625,58.105,45.410,0
1580493205.919,67.871,18.066,10.742,59.082,47.852,0
1580493205.923,70.312,20.020,7.812,60.059,45.898,0
1580493205.926,55.176,22.949,6.836,63.965,-2.441,0
1580493205.930,53.223,23.438,7.324,68.359,-16.602,0
1580493205.934,66.895,24.414,7.812,66.895,-13.672,0
1580493205.938,75.195,24.902,7.324,62.500,33.691,0
1580493205.942,72.266,24.902,6.348,62.500,2.930,0
1580493205.938,68.359,24.414,7.324,66.895,5.371,0
1580493205.942,76.660,24.414,9.277,62.500,78.613,0
1580493205.946,86.426,24.902,9.766,63.965,58.594,0
1580493205.950,75.195,26.367,10.742,68.359,82.031,0
1580493205.954,62.988,23.926,11.230,70.801,65.430,0
1580493205.958,69.336,21.484,10.254,70.312,54.199,0
1580493205.962,79.590,22.461,5.371,69.336,31.738,0
1580493205.965,74.707,24.902,5.371,72.754,-1.465,0
1580493205.969,62.012,25.879,8.789,68.359,62.012,0
1580493205.973,62.012,25.391,7.324,67.871,58.594,0
1580493205.977,72.754,23.926,6.348,68.359,19.043,0
1580493205.981,74.707,23.438,10.254,69.336,4.395,0
1580493205.998,64.941,23.926,14.160,74.707,35.645,0
1580493206.002,58.105,21.973,14.648,69.824,28.320,0
1580493206.006,67.871,21.973,12.207,63.965,14.160,0
1580493206.010,72.754,25.391,11.230,60.059,76.660,0
1580493206.014,60.547,27.832,11.230,57.617,54.688,0
1580493206.018,49.316,27.344,10.742,56.152,62.988,0
1580493206.022,60.059,29.297,10.742,49.805,53.711,0
1580493206.025,71.777,30.273,10.742,41.016,-13.184,0
1580493206.029,65.430,31.250,11.230,52.734,47.363,0
1580493206.033,54.688,34.668,14.160,61.523,41.016,0
1580493206.037,55.176,30.273,14.648,51.758,3.906,0
1580493206.041,62.988,26.855,13.672,49.316,-4.395,0
1580493206.038,64.453,30.762,12.695,52.246,34.180,0
1580493206.042,53.223,32.715,12.695,52.246,68.359,0
1580493206.046,53.223,32.715,13.672,50.293,25.879,0
1580493206.050,65.430,30.762,14.160,44.434,5.371,0
1580493206.054,63.965,30.273,16.113,44.922,15.625,0
1580493206.058,50.781,31.738,17.090,45.898,10.742,0
1580493206.062,45.410,32.715,15.625,43.457,45.898,0
1580493206.065,57.617,33.203,13.672,43.457,24.902,0
1580493206.069,62.988,30.762,15.137,44.434,20.020,0
1580493206.073,50.293,30.273,17.578,45.410,83.008,0
1580493206.077,36.621,36.133,18.066,42.480,52.246,0
1580493206.081,41.992,35.156,16.602,42.969,0.000,0
1580493206.079,55.664,30.273,14.648,42.480,62.012,0
1580493206.083,51.270,31.250,15.137,46.875,40.527,0
1580493206.087,34.180,30.762,16.113,46.387,41.016,0
1580493206.091,34.180,28.809,15.137,41.016,55.176,0
1580493206.095,48.340,28.320,16.113,41.504,11.230,0
1580493206.099,51.270,28.809,17.578,46.387,60.059,0
1580493206.103,37.109,30.762,20.996,48.340,27.344,0
1580493206.106,32.715,31.738,22.461,41.992,-14.648,0
1580493206.110,43.945,27.832,21.973,34.668,39.551,0
1580493206.114,44.922,25.879,24.414,33.691,65.430,0
1580493206.118,36.621,28.809,25.391,38.574,51.270,0
1580493206.122,32.227,28.809,26.855,37.109,26.367,0
1580493206.138,38.086,26.367,28.809,37.109,45.898,0
1580493206.142,44.434,25.391,26.367,34.668,93.262,0
1580493206.146,36.133,27.832,25.391,35.156,58.594,0
1580493206.150,22.949,27.832,29.297,40.527,29.785,0
1580493206.154,33.691,27.344,26.367,41.992,12.207,0
1580493206.158,47.852,29.297,21.973,36.621,10.742,0
1580493206.162,41.504,29.297,21.973,28.809,-4.883,0
1580493206.165,28.320,30.273,20.996,27.344,-12.207,0
1580493206.169,35.645,32.715,19.531,33.203,28.320,0
1580493206.173,52.734,31.250,18.555,26.855,15.137,0
1580493206.177,49.805,30.273,19.531,21.973,-19.531,0
1580493206.181,33.203,32.715,21.973,25.879,-31.250,0
1580493206.180,33.691,34.668,19.531,23.926,20.020,0
1580493206.184,49.316,36.133,17.090,20.996,4.395,0
1580493206.188,54.199,36.133,21.484,26.855,33.203,0
1580493206.192,42.480,37.598,22.949,30.762,47.363,0
1580493206.196,36.133,37.598,20.996,36.621,0.488,0
1580493206.200,48.340,36.621,21.484,42.480,49.316,0
1580493206.204,54.199,37.598,23.926,35.645,-30.273,0
1580493206.207,44.922,37.109,24.414,33.203,-13.672,0
1580493206.211,35.645,33.691,21.484,30.762,62.500,0
1580493206.215,39.062,30.762,21.484,24.414,51.270,0
1580493206.219,47.363,30.762,21.973,22.461,46.875,0
1580493206.223,40.039,34.180,20.508,24.902,7.324,0
1580493206.221,25.879,39.062,21.973,25.879,10.742,0
1580493206.225,26.367,41.016,21.484,26.855,45.410,0
1580493206.229,37.598,41.016,20.508,22.461,46.387,0
1580493206.233,36.133,38.574,22.949,19.531,68.359,0
1580493206.237,20.996,37.598,25.391,25.391,88.379,0
1580493206.241,10.742,36.133,27.832,25.879,50.293,0
1580493206.245,26.855,34.668,26.367,26.855,29.785,0
1580493206.248,38.574,33.691,24.414,30.762,0.977,0
1580493206.252,25.879,34.180,25.879,28.320,-1.953,0
1580493206.256,21.484,32.715,23.926,26.367,20.020,0
1580493206.260,35.645,31.738,22.461,27.832,27.832,0
1580493206.264,47.852,32.715,21.484,29.785,8.301,0
1580493206.278,42.480,35.645,20.996,32.715,36.621,0
1580493206.282,29.785,38.574,22.461,28.320,81.055,0
1580493206.286,29.297,38.086,21.973,25.391,86.426,0
1580493206.290,38.086,36.133,21.484,24.414,62.012,0
1580493206.294,38.574,37.109,22.461,23.438,38.574,0
1580493206.298,26.367,40.039,23.438,25.879,79.102,0
1580493206.302,20.996,37.598,19.531,13.184,61.035,0
1580493206.305,32.715,35.156,14.648,7.812,-0.977,0
1580493206.309,33.691,35.645,16.113,19.531,-3.906,0
1580493206.313,20.508,36.133,21.484,24.902,28.809,0
1580493206.317,13.672,35.645,23.926,30.273,84.473,0
1580493206.321,26.855,35.156,25.391,29.785,90.332,0
1580493206.319,30.273,33.691,27.832,25.391,19.531,0
1580493206.323,15.137,32.227,26.855,24.414,6.348,0
1580493206.327,7.812,35.645,23.926,21.484,67.383,0
1580493206.331,19.531,37.598,22.461,17.090,57.129,0
1580493206.335,36.133,37.598,20.508,20.020,27.344,0
1580493206.339,33.203,39.551,21.973,25.879,40.039,0
1580493206.343,26.855,40.527,24.414,31.738,60.547,0
1580493206.346,36.133,38.574,22.949,35.645,20.020,0
1580493206.350,48.828,36.133,23.438,39.062,15.625,0
1580493206.354,45.410,34.668,24.902,38.086,49.316,0
1580493206.358,30.273,34.180,24.902,33.203,63.477,0
1580493206.362,27.344,34.668,24.414,37.109,37.109,0
1580493206.359,35.645,32.715,23.438,35.156,26.855,0
1580493206.363,41.992,32.227,21.973,33.203,9.277,0
1580493206.367,35.645,38.086,21.973,38.086,20.508,0
1580493206.371,24.414,38.086,22.949,34.180,15.625,0
1580493206.375,30.273,32.715,23.438,29.785,48.340,0
1580493206.379,41.504,34.180,24.414,34.180,70.312,0
1580493206.383,34.668,36.621,26.367,37.598,9.766,0
1580493206.386,26.855,36.621,27.832,31.738,-20.020,0
1580493206.390,29.297,36.621,24.414,21.973,-5.859,0
1580493206.394,40.039,37.109,22.461,25.391,8.789,0
1580493206.398,37.109,37.598,25.879,31.250,8.301,0
1580493206.402,24.414,36.621,27.344,31.738,33.203,0
1580493206.422,24.414,36.621,28.320,25.879,63.965,0
1580493206.426,40.039,35.156,27.832,24.414,38.574,0
1580493206.430,45.410,35.156,24.414,28.320,-42.480,0
1580493206.434,31.250,35.156,25.879,27.344,3.418,0
1580493206.438,31.250,36.133,25.879,26.367,65.918,0
1580493206.442,43.457,36.133,26.855,24.902,20.508,0
1580493206.446,46.875,37.109,27.344,19.531,18.066,0
1580493206.449,35.645,39.062,27.832,26.855,49.805,0
1580493206.453,27.832,38.086,27.344,38.086,55.664,0
1580493206.457,37.109,38.574,21.973,34.668,24.414,0
1580493206.461,50.781,40.527,20.508,32.715,7.324,0
1580493206.465,46.875,41.016,21.484,35.156,35.156,0
1580493206.458,34.180,40.527,23.926,35.156,52.246,0
1580493206.462,39.551,40.039,22.949,33.203,83.496,0
1580493206.466,48.340,40.039,18.555,29.297,53.223,0
1580493206.470,39.551,37.598,20.996,16.113,-23.926,0
1580493206.474,21.484,38.086,21.973,10.742,3.906,0
1580493206.478,25.391,40.527,20.020,15.625,9.766,0
1580493206.482,38.574,39.062,19.531,16.602,-47.363,0
1580493206.485,35.156,38.574,18.066,17.578,-1.465,0
1580493206.489,25.391,40.039,19.043,21.973,79.102,0
1580493206.493,21.973,40.527,20.020,17.578,103.516,0
1580493206.497,33.691,37.598,20.996,16.113,109.375,0
1580493206.501,39.062,33.203,22.949,21.973,64.941,0
1580493206.498,32.227,33.203,22.949,25.391,22.949,0
1580493206.502,26.367,34.180,23.926,27.832,51.270,0
1580493206.506,33.691,32.227,21.484,24.902,36.133,0
1580493206.510,44.434,33.691,20.508,24.414,7.324,0
1580493206.514,39.551,38.574,24.414,26.855,0.488,0
1580493206.518,32.715,40.039,24.902,25.391,51.270,0
1580493206.522,35.156,39.062,23.926,26.855,58.594,0
1580493206.525,45.898,39.062,24.414,25.879,-6.836,0
1580493206.529,40.039,36.621,22.949,23.438,15.625,0
1580493206.533,27.832,34.668,21.484,28.320,43.457,0
1580493206.537,33.691,35.645,23.438,30.273,51.270,0
1580493206.541,43.945,33.691,22.461,28.809,80.078,0
1580493206.559,42.969,33.691,20.508,29.297,59.082,0
1580493206.563,24.414,34.668,21.973,29.785,62.988,0
1580493206.567,19.043,32.715,21.973,23.926,32.715,0
1580493206.571,33.691,30.762,20.508,13.184,60.547,0
1580493206.575,37.109,29.785,19.043,15.625,89.355,0
1580493206.579,29.785,35.156,20.020,19.531,39.551,0
1580493206.583,28.320,36.133,20.508,17.090,23.438,0
1580493206.586,39.551,34.668,22.949,21.484,20.508,0
1580493206.590,45.898,36.621,20.996,26.855,16.113,0
1580493206.594,39.062,35.645,20.508,27.832,-16.113,0
1580493206.598,27.344,35.645,24.414,25.391,2.441,0
1580493206.602,32.227,36.133,22.461,27.832,66.895,0
1580493206.598,46.387,34.180,20.020,30.762,72.754,0
1580493206.602,38.086,36.621,20.996,34.180,11.230,0
1580493206.606,24.902,39.062,21.484,34.180,41.504,0
1580493206.610,25.879,38.086,20.508,28.809,23.438,0
1580493206.614,34.180,39.062,19.043,26.367,-3.418,0
1580493206.618,37.109,37.598,22.461,20.996,35.645,0
1580493206.622,29.785,36.133,24.902,24.902,33.691,0
1580493206.625,22.949,38.086,27.344,34.668,-17.090,0
1580493206.629,32.227,38.574,26.855,33.203,0.000,0
1580493206.633,43.457,37.109,24.902,22.949,50.293,0
1580493206.637,34.180,36.133,27.344,20.508,28.320,0
1580493206.641,18.555,34.180,29.297,21.484,44.922,0
1580493206.638,23.438,32.715,28.809,19.531,81.055,0
1580493206.642,33.203,33.203,26.855,17.578,43.945,0
1580493206.646,25.879,33.203,25.879,17.090,34.180,0
1580493206.650,13.672,33.203,26.367,19.043,75.684,0
1580493206.654,21.484,35.645,24.902,20.508,69.336,0
1580493206.658,37.109,35.645,22.461,19.531,82.520,0
1580493206.662,34.180,32.227,23.926,19.043,33.203,0
1580493206.665,24.414,34.668,25.391,16.602,22.949,0
1580493206.669,22.461,35.645,22.461,13.672,35.645,0
1580493206.673,27.832,29.297,18.555,9.766,40.039,0
1580493206.677,29.297,29.785,17.090,11.230,29.785,0
1580493206.681,19.531,32.715,19.043,14.648,48.340,0
1580493206.700,13.672,33.203,18.555,16.602,77.148,0
1580493206.704,25.879,33.691,17.578,15.625,0.977,0
1580493206.708,37.598,34.668,19.531,16.602,7.324,0
1580493206.712,32.227,35.645,21.973,24.414,45.898,0
1580493206.716,21.484,34.180,25.879,26.367,50.781,0
1580493206.720,31.250,35.156,26.855,25.391,7.324,0
1580493206.724,41.992,35.645,25.879,22.461,12.207,0
1580493206.727,33.203,34.180,24.902,22.461,9.766,0
1580493206.731,20.508,36.133,20.508,24.902,11.230,0
1580493206.735,25.391,38.086,20.996,24.414,70.801,0
1580493206.739,33.691,38.086,21.973,17.578,48.340,0
1580493206.743,34.180,37.109,19.531,14.160,13.672,0
1580493206.739,23.926,37.598,19.043,16.113,34.668,0
1580493206.743,14.160,39.062,20.508,13.672,26.367,0
1580493206.747,26.855,41.504,22.461,17.578,-66.406,0
1580493206.751,36.621,40.527,22.949,18.555,-52.246,0
1580493206.755,25.391,38.086,23.926,19.531,25.879,0
1580493206.759,14.160,39.062,23.926,22.461,94.238,0
1580493206.763,25.391,38.086,22.461,18.066,53.223,0
1580493206.766,41.992,39.062,21.973,19.531,-21.973,0
1580493206.770,36.621,41.016,22.461,21.973,25.391,0
1580493206.774,25.879,40.527,22.949,16.113,34.668,0
1580493206.778,32.227,38.574,21.973,19.531,46.875,0
1580493206.782,43.457,37.598,22.461,23.438,17.090,0
1580493206.779,40.527,39.062,21.973,24.414,0.488,0
1580493206.783,30.273,41.992,24.902,28.809,62.012,0
1580493206.787,32.715,42.480,26.367,26.855,7.812,0
1580493206.791,45.898,40.527,24.414,20.508,-15.625,0
1580493206.795,44.922,40.039,23.926,23.926,11.719,0
1580493206.799,38.086,40.527,21.973,28.809,-2.441,0
1580493206.803,39.062,43.945,23.926,27.344,24.414,0
1580493206.806,43.945,41.016,23.438,20.996,80.078,0
1580493206.810,49.316,35.645,21.484,20.020,68.359,0
1580493206.814,37.109,35.156,26.367,25.879,28.320,0
1580493206.818,24.414,33.203,29.785,31.738,58.594,0
1580493206.822,30.273,31.250,25.391,34.668,58.105,0
1580493206.839,38.086,31.250,21.973,32.227,25.391,0
1580493206.843,24.414,31.250,22.949,28.320,71.289,0
1580493206.847,8.301,32.227,24.902,28.809,61.523,0
1580493206.851,17.578,33.691,24.902,29.297,26.367,0
1580493206.855,33.691,33.203,20.020,28.320,18.066,0
1580493206.859,33.691,34.668,20.020,32.715,-2.930,0
1580493206.863,20.508,36.133,22.949,30.762,31.738,0
1580493206.866,16.602,35.645,22.461,20.996,30.273,0
1580493206.870,30.762,32.715,18.555,16.602,20.508,0
1580493206.874,36.133,29.785,19.531,18.066,62.500,0
1580493206.878,20.508,30.273,29.785,16.602,23.438,0
1580493206.882,15.137,32.227,31.250,13.184,0.488,0
1580493206.879,27.832,31.250,29.297,21.484,41.504,0
1580493206.883,35.645,29.785,30.762,26.855,27.832,0
1580493206.887,24.902,29.297,32.715,24.414,3.906,0
1580493206.891,18.066,30.762,35.156,29.785,16.113,0
1580493206.895,31.250,30.273,30.762,30.273,18.066,0
1580493206.899,41.992,30.762,26.855,24.414,8.789,0
1580493206.903,32.715,31.250,24.414,23.438,48.828,0
1580493206.906,18.066,31.250,24.902,25.879,82.520,0
1580493206.910,20.996,33.691,29.297,29.785,86.914,0
1580493206.914,33.691,34.180,28.320,22.461,100.586,0
1580493206.918,34.180,32.715,29.785,24.414,51.270,0
1580493206.922,21.973,37.109,31.738,36.621,-2.441,0
1580493206.938,20.508,38.574,29.297,38.574,12.695,0
1580493206.942,36.621,34.180,26.367,31.250,65.918,0
1580493206.946,43.457,32.715,25.391,27.344,85.449,0
1580493206.950,34.668,36.133,24.902,32.715,12.695,0
1580493206.954,29.297,38.086,23.926,37.598,10.254,0
1580493206.958,37.598,36.133,23.926,32.715,35.645,0
1580493206.962,43.945,37.109,22.949,23.438,45.410,0
1580493206.965,35.645,40.039,23.438,20.508,58.105,0
1580493206.969,22.949,36.621,23.926,21.484,45.410,0
1580493206.973,23.926,32.715,21.973,24.414,26.367,0
1580493206.977,37.598,32.227,20.508,23.438,10.742,0
1580493206.981,37.598,31.738,21.484,19.043,-7.324,0
1580493206.978,24.414,33.203,24.902,18.555,-10.742,0
1580493206.982,23.438,35.645,25.391,19.043,-20.020,0
1580493206.986,34.180,35.645,27.344,19.043,20.996,0
1580493206.990,42.969,35.645,27.832,23.438,64.941,0
1580493206.994,35.156,38.086,25.879,30.762,22.949,0
1580493206.998,29.297,38.086,25.879,30.762,34.668,0
1580493207.002,40.039,34.180,26.855,26.855,25.879,0
1580493207.005,45.410,35.156,25.879,29.297,-29.785,0
1580493207.009,37.109,37.109,27.832,25.879,18.066,0
1580493207.013,31.250,36.621,30.273,27.832,80.566,0
1580493207.017,39.062,35.156,27.832,26.367,40.039,0
1580493207.021,42.480,33.691,27.344,23.438,23.438,0
1580493207.019,32.715,33.691,28.809,28.320,38.574,0
1580493207.023,20.020,32.715,27.344,26.855,4.883,0
1580493207.027,25.879,31.738,25.879,25.879,7.324,0
1580493207.031,37.598,30.762,25.879,20.996,8.301,0
1580493207.035,37.109,30.762,23.438,20.508,-30.762,0
1580493207.039,26.367,32.227,23.438,23.926,-7.812,0
1580493207.043,24.414,33.691,25.391,21.484,-7.812,0
1580493207.046,38.086,34.180,23.438,20.020,-14.160,0
1580493207.050,39.551,32.227,25.391,17.578,39.551,0
1580493207.054,25.391,32.227,23.926,18.066,56.641,0
1580493207.058,21.484,36.133,20.020,22.949,38.086,0
1580493207.062,35.645,37.109,20.996,18.555,12.207,0
1580493207.078,47.363,36.621,21.484,20.020,-24.902,0
1580493207.082,40.039,39.551,21.973,26.855,6.348,0
1580493207.086,29.297,40.527,23.438,25.391,46.875,0
1580493207.090,39.062,38.086,23.438,28.320,0.488,0
1580493207.094,50.293,39.062,23.438,28.809,-2.930,0
1580493207.098,40.039,41.504,21.973,25.391,49.805,0
1580493207.102,31.250,43.945,19.043,22.461,34.668,0
1580493207.105,33.691,41.992,21.484,17.578,28.809,0
1580493207.109,32.227,37.109,26.855,12.207,40.527,0
1580493207.113,22.949,35.156,30.762,17.090,28.809,0
1580493207.117,9.766,34.180,31.738,23.926,81.543,0
1580493207.121,8.301,34.180,31.738,21.484,79.590,0
1580493207.118,19.043,31.738,31.738,21.484,2.930,0
1580493207.122,20.020,27.344,31.250,20.020,66.895,0
1580493207.126,8.301,28.809,31.250,20.996,49.316,0
1580493207.130,2.930,31.738,31.738,23.438,-21.973,0
1580493207.134,19.531,32.227,31.250,21.484,8.301,0
1580493207.138,33.203,32.715,29.297,27.832,25.391,0
1580493207.142,28.809,34.180,29.785,33.203,2.441,0
1580493207.145,19.531,33.203,31.250,33.203,23.926,0
1580493207.149,24.414,30.762,29.785,31.250,83.496,0
1580493207.153,34.180,30.762,27.344,28.809,61.523,0
1580493207.157,27.344,32.715,26.855,27.344,15.137,0
1580493207.161,17.578,33.691,26.855,25.391,5.371,0
1580493207.158,22.461,32.227,26.367,27.344,24.414,0
1580493207.162,37.109,31.738,24.414,27.344,3.906,0
1580493207.166,34.668,31.738,25.879,28.320,14.160,0
1580493207.170,20.996,34.180,29.297,30.762,69.824,0
1580493207.174,23.926,34.668,28.809,30.273,64.941,0
1580493207.178,38.086,31.738,28.809,33.203,47.852,0
1580493207.182,40.039,31.738,28.320,29.297,43.457,0
1580493207.185,30.762,36.133,29.297,29.297,15.137,0
1580493207.189,26.855,40.039,30.273,32.227,19.043,0
1580493207.193,36.133,38.086,27.344,27.832,74.219,0
1580493207.197,41.992,35.156,26.855,29.297,80.566,0
1580493207.201,30.762,35.645,27.832,27.344,73.242,0
1580493207.218,18.066,35.645,25.879,28.809,19.043,0
1580493207.222,24.902,33.691,26.367,23.926,-26.367,0
1580493207.226,35.156,31.738,26.855,18.555,27.344,0
1580493207.230,30.273,32.715,26.367,25.879,25.391,0
1580493207.234,21.484,35.645,26.855,31.250,56.641,0
1580493207.238,22.461,34.668,24.902,27.344,73.242,0
1580493207.242,32.715,32.715,25.879,24.902,16.602,0
1580493207.245,34.180,32.715,25.391,19.531,72.266,0
1580493207.249,21.973,33.203,25.391,20.508,26.855,0
1580493207.253,18.066,32.227,27.344,28.320,44.434,0
1580493207.257,28.320,29.785,27.344,26.855,95.215,0
1580493207.261,37.598,28.809,28.809,30.273,23.438,0
1580493207.258,38.086,32.227,30.273,38.574,38.086,0
1580493207.262,34.180,35.645,32.715,41.992,28.809,0
1580493207.266,38.086,33.203,32.715,39.062,15.625,0
1580493207.270,42.480,30.273,30.762,28.809,28.809,0
1580493207.274,33.203,31.738,29.297,24.902,62.012,0
1580493207.278,19.043,31.738,29.785,24.902,75.684,0
1580493207.282,20.996,32.227,28.320,20.996,67.871,0
1580493207.285,31.250,32.715,25.391,16.113,68.359,0
1580493207.289,28.809,33.691,25.391,20.020,38.086,0
1580493207.293,20.996,36.621,25.879,23.926,-12.695,0
1580493207.297,25.391,35.645,26.367,18.555,-31.250,0
1580493207.301,43.945,34.180,24.414,20.996,-17.090,0
1580493207.298,43.945,36.621,21.484,26.855,13.184,0
1580493207.302,24.902,37.109,23.438,25.391,56.641,0
1580493207.306,25.879,37.109,26.367,24.902,65.430,0
1580493207.310,39.551,39.551,23.926,20.996,75.684,0
1580493207.314,36.621,37.598,21.484,16.113,39.062,0
1580493207.318,24.902,36.621,24.414,16.113,20.020,0
1580493207.322,19.043,37.109,23.926,18.066,42.480,0
1580493207.325,24.902,35.645,21.484,16.113,25.391,0
1580493207.329,33.203,34.668,23.438,15.137,-2.441,0
1580493207.333,29.785,34.668,27.344,20.020,20.508,0
1580493207.337,22.949,35.156,28.320,27.832,-5.371,0
1580493207.341,32.227,36.133,26.855,28.320,-12.207,0
1580493207.358,48.828,37.598,23.926,29.297,24.902,0
1580493207.362,46.387,37.598,25.879,30.273,67.383,0
1580493207.366,33.203,39.551,27.344,31.250,55.664,0
1580493207.370,27.344,38.086,23.926,30.762,68.848,0
1580493207.374,35.156,33.691,20.996,26.367,41.016,0
1580493207.378,38.086,31.738,23.438,26.855,29.297,0
1580493207.382,27.344,31.738,26.367,29.297,46.387,0
1580493207.385,27.344,32.715,27.344,30.762,13.672,0
1580493207.389,39.062,31.250,25.391,32.715,18.555,0
1580493207.393,46.387,30.762,24.902,36.133,19.531,0
1580493207.397,41.504,33.203,26.855,38.086,62.012,0
1580493207.401,33.203,35.645,29.297,35.645,57.617,0
1580493207.399,42.480,37.109,31.250,35.156,74.707,0
1580493207.403,57.129,38.086,27.344,36.133,103.516,0
1580493207.407,53.223,40.039,26.855,37.109,58.594,0
1580493207.411,39.062,39.551,27.832,33.691,32.227,0
1580493207.415,39.551,39.062,26.855,28.809,37.109,0
1580493207.419,54.199,40.527,26.855,28.809,6.836,0
1580493207.423,46.387,38.086,26.855,25.879,-3.418,0
1580493207.426,31.250,39.062,26.367,21.484,34.180,0
1580493207.430,26.855,39.062,23.438,15.625,23.438,0
1580493207.434,30.273,36.621,22.461,13.184,28.809,0
1580493207.438,28.809,35.156,25.879,13.672,64.453,0
1580493207.442,13.184,36.133,25.879,14.160,11.719,0
1580493207.439,4.883,34.668,24.414,15.137,-20.996,0
1580493207.443,12.207,30.762,26.855,9.277,58.594,0
1580493207.447,26.855,32.227,27.832,17.578,61.035,0
1580493207.451,24.902,32.227,26.367,22.949,30.273,0
1580493207.455,19.043,31.250,24.414,23.926,41.504,0
1580493207.459,32.227,32.227,24.902,28.809,53.711,0
1580493207.463,45.898,31.250,24.902,27.344,43.457,0
1580493207.466,40.039,32.715,25.879,33.691,45.410,0
1580493207.470,26.367,33.691,25.391,34.668,67.383,0
1580493207.474,29.785,33.203,23.438,28.320,43.457,0
1580493207.478,36.621,32.715,23.926,25.879,62.012,0
1580493207.482,36.133,33.203,21.484,24.414,89.355,0
1580493207.498,21.973,34.180,22.949,23.438,14.160,0
1580493207.502,10.742,33.691,24.902,18.555,-27.832,0
1580493207.506,20.508,33.203,24.414,14.160,15.625,0
1580493207.510,24.414,30.762,23.926,13.672,4.883,0
1580493207.514,15.137,28.809,23.438,17.090,-21.484,0
1580493207.518,8.789,30.762,23.926,17.578,24.902,0
1580493207.522,20.020,31.738,23.926,13.184,19.043,0
1580493207.525,31.250,30.762,21.973,12.695,-1.465,0
1580493207.529,28.320,33.691,21.484,21.484,17.090,0
1580493207.533,18.066,34.668,22.949,23.926,-14.160,0
1580493207.537,20.508,33.691,24.414,18.555,-41.016,0
1580493207.541,31.250,30.762,26.855,12.695,-15.625,0
1580493207.539,27.344,31.250,25.391,16.602,11.230,0
1580493207.543,16.602,34.668,23.438,22.461,5.859,0
1580493207.547,13.184,31.250,24.414,20.020,44.434,0
1580493207.551,20.508,27.832,23.438,19.531,30.762,0
1580493207.555,22.461,29.785,23.438,20.996,17.090,0
1580493207.559,6.348,29.785,27.344,22.461,52.734,0
1580493207.563,3.906,29.297,29.297,26.855,62.500,0
1580493207.566,20.508,30.273,28.320,27.832,76.660,0
1580493207.570,28.320,29.785,26.367,30.762,46.875,0
1580493207.574,20.020,30.762,28.320,36.133,4.395,0
1580493207.578,13.672,34.180,27.344,30.273,4.395,0
1580493207.582,22.949,30.273,23.926,27.344,23.926,0
1580493207.578,36.133,28.809,21.973,29.297,40.527,0
1580493207.582,34.668,33.203,21.973,30.762,77.637,0
1580493207.586,25.879,34.180,22.461,30.273,100.098,0
1580493207.590,31.250,31.738,20.508,23.926,29.785,0
1580493207.594,45.410,30.273,21.973,22.949,27.344,0
1580493207.598,46.387,32.715,23.438,30.273,31.250,0
1580493207.602,31.250,35.156,23.438,33.203,27.344,0
1580493207.605,28.320,34.180,27.832,33.691,31.738,0
1580493207.609,40.527,34.668,29.297,30.762,19.043,0
1580493207.613,40.527,36.621,26.855,25.879,35.156,0
1580493207.617,26.367,37.598,27.832,29.297,10.742,0
1580493207.621,19.043,38.574,28.809,30.762,9.277,0
1580493207.639,30.273,37.598,25.879,26.855,78.613,0
1580493207.643,37.598,35.645,23.438,25.391,50.781,0
1580493207.647,26.855,37.109,22.949,27.344,-8.789,0
1580493207.651,17.578,37.109,23.926,26.367,39.062,0
1580493207.655,23.926,36.133,22.461,26.855,75.684,0
1580493207.659,38.574,35.645,23.926,26.367,55.176,0
1580493207.663,36.621,35.645,26.367,22.461,36.133,0
1580493207.666,27.832,38.086,25.879,22.949,76.172,0
1580493207.670,34.180,38.086,26.367,24.414,73.730,0
1580493207.674,42.480,37.598,24.902,18.555,12.207,0
1580493207.678,39.062,35.645,21.973,11.719,-2.930,0
1580493207.682,22.949,35.645,23.438,12.695,33.203,0
1580493207.679,16.113,39.062,23.438,16.602,60.059,0
1580493207.683,29.785,39.551,21.484,18.066,38.086,0
1580493207.687,38.086,39.062,21.973,16.113,-39.062,0
1580493207.691,28.320,39.062,23.438,20.996,-48.828,0
1580493207.695,20.996,38.574,23.926,22.949,42.969,0
1580493207.699,28.320,35.156,21.484,19.531,29.297,0
1580493207.703,31.738,32.227,20.508,22.461,31.738,0
1580493207.706,23.926,32.227,22.461,27.344,58.594,0
1580493207.710,15.625,32.227,23.438,34.180,62.500,0
1580493207.714,23.926,34.180,22.949,37.109,52.734,0
1580493207.718,34.668,35.156,23.926,33.203,-8.301,0
1580493207.722,28.320,35.156,24.902,33.203,17.578,0
1580493207.721,18.555,37.598,26.855,30.273,8.301,0
1580493207.725,18.555,38.574,22.461,23.926,39.062,0
1580493207.729,32.227,35.156,19.043,20.996,62.500,0
1580493207.733,30.762,33.203,20.996,20.996,12.695,0
1580493207.737,14.648,30.273,22.461,22.461,51.758,0
1580493207.741,19.531,32.227,25.391,21.484,34.668,0
1580493207.745,36.133,35.156,24.414,19.531,-15.137,0
1580493207.748,41.504,36.621,22.949,20.508,-34.180,0
1580493207.752,34.668,38.086,21.973,18.066,-26.855,0
1580493207.756,28.320,38.086,20.020,18.066,24.414,0
1580493207.760,34.180,37.598,20.020,19.043,88.867,0
1580493207.764,41.992,37.109,19.531,16.602,61.523,0
1580493207.778,32.715,37.109,20.996,10.742,33.691,0
1580493207.782,19.043,39.551,20.996,7.324,30.273,0
1580493207.786,20.996,40.039,18.555,12.695,48.828,0
1580493207.790,29.297,38.574,18.555,13.672,80.566,0
1580493207.794,27.344,40.527,20.020,20.020,74.707,0
1580493207.798,15.625,39.551,22.461,21.484,76.172,0
1580493207.802,11.719,34.668,21.973,14.648,85.938,0
1580493207.805,25.879,32.715,18.555,17.578,43.457,0
1580493207.809,32.227,34.668,22.461,25.391,36.133,0
1580493207.813,25.391,37.598,26.367,31.250,69.336,0
1580493207.817,24.902,36.133,26.367,33.203,88.867,0
1580493207.821,38.086,36.621,26.367,33.203,66.895,0
1580493207.818,51.758,38.086,23.438,35.156,-8.789,0
1580493207.822,35.645,38.574,24.902,32.227,-24.414,0
1580493207.826,23.438,39.062,24.902,25.879,-25.391,0
1580493207.830,35.156,37.598,21.484,21.484,7.324,0
1580493207.834,42.480,39.551,19.043,19.531,4.883,0
1580493207.838,35.645,40.527,20.020,18.555,-30.273,0
1580493207.842,25.879,41.016,21.484,18.555,28.809,0
1580493207.845,30.762,41.992,20.020,14.648,30.762,0
1580493207.849,40.527,37.109,19.531,12.695,13.184,0
1580493207.853,39.551,37.598,20.508,16.113,6.836,0
1580493207.857,32.715,41.992,21.484,22.461,39.062,0
1580493207.861,33.691,40.039,21.973,28.809,69.824,0
1580493207.858,39.551,33.691,25.879,26.855,41.992,0
1580493207.862,37.109,31.738,26.855,23.926,49.316,0
1580493207.866,26.367,34.180,27.832,30.762,4.883,0
1580493207.870,18.555,34.180,28.809,33.203,2.930,0
1580493207.874,24.902,34.668,28.320,29.297,6.836,0
1580493207.878,29.785,33.203,28.809,27.832,-5.371,0
1580493207.882,20.020,31.250,29.297,30.762,51.758,0
1580493207.885,9.277,31.250,31.738,32.715,57.617,0
1580493207.889,16.113,27.832,33.203,25.879,21.484,0
1580493207.893,31.738,28.320,30.273,27.832,37.598,0
1580493207.897,28.809,33.691,29.297,32.715,35.156,0
1580493207.901,15.137,34.668,27.344,23.438,17.578,0
1580493207.918,20.020,34.668,25.391,21.484,66.406,0
1580493207.922,29.297,36.133,22.949,20.996,62.012,0
1580493207.926,26.367,37.598,20.996,20.508,0.000,0
1580493207.930,17.090,41.016,22.461,22.949,-31.738,0
1580493207.934,17.090,40.039,24.414,19.531,41.016,0
1580493207.938,31.738,36.621,22.461,15.137,12.207,0
1580493207.942,40.039,38.086,21.484,11.230,35.645,0
1580493207.945,30.273,39.551,25.391,17.578,46.387,0
1580493207.949,23.926,39.062,28.320,26.855,52.246,0
1580493207.953,33.691,39.551,25.391,24.414,62.988,0
1580493207.957,42.480,40.039,23.438,20.020,3.906,0
1580493207.961,35.645,40.527,23.926,20.996,41.016,0
1580493207.959,27.832,41.504,23.926,21.484,27.344,0
1580493207.963,38.086,41.016,20.508,19.043,11.719,0
1580493207.967,49.316,35.645,18.066,19.531,11.719,0
1580493207.971,45.410,34.180,19.043,26.855,25.391,0
1580493207.975,35.156,38.086,21.973,33.691,-13.184,0
1580493207.979,33.203,37.109,23.438,33.203,24.414,0
1580493207.983,40.039,36.133,20.996,28.320,124.512,0
1580493207.986,34.180,37.109,20.996,26.855,85.938,0
1580493207.990,17.578,37.109,23.438,23.926,80.566,0
1580493207.994,16.113,38.086,24.902,21.973,60.059,0
1580493207.998,29.297,38.574,21.973,23.438,6.348,0
1580493208.002,32.227,37.109,21.973,20.996,-8.301,0
1580493207.998,24.902,38.086,21.973,19.531,45.410,0
1580493208.002,17.090,39.062,20.996,23.438,81.055,0
1580493208.006,21.973,38.086,21.484,19.043,20.996,0
1580493208.010,32.715,35.645,22.461,14.160,64.941,0
1580493208.014,25.879,34.180,24.414,15.137,81.543,0
1580493208.018,18.066,36.621,25.391,24.902,15.625,0
1580493208.022,30.273,38.574,22.949,31.250,50.293,0
1580493208.025,43.457,38.086,22.461,25.879,36.621,0
1580493208.029,32.715,35.645,25.879,20.996,7.812,0
1580493208.033,13.184,32.227,27.344,21.973,39.062,0
1580493208.037,16.602,32.715,23.926,20.996,7.324,0
1580493208.041,27.832,33.203,19.531,13.672,-1.465,0
1580493208.059,31.738,36.133,20.020,12.695,33.691,0
1580493208.063,25.879,43.457,20.996,21.484,46.387,0
1580493208.067,23.438,43.945,20.020,23.438,99.121,0
1580493208.071,40.527,43.457,18.555,20.996,69.824,0
1580493208.075,51.270,46.387,17.578,22.461,72.266,0
1580493208.079,46.387,51.270,17.090,21.484,52.734,0
1580493208.083,37.109,53.711,14.648,14.648,0.977,0
1580493208.086,40.527,49.316,13.672,15.137,10.742,0
1580493208.090,51.270,47.363,13.184,20.996,48.828,0
1580493208.094,41.504,45.898,14.648,28.809,30.762,0
1580493208.098,23.926,39.062,17.578,30.273,50.781,0
1580493208.102,21.484,35.156,19.043,23.926,55.664,0
1580493208.099,30.762,33.691,19.043,22.461,-2.441,0
1580493208.103,30.762,34.180,17.578,23.438,41.992,0
1580493208.107,9.766,37.109,18.555,18.555,45.410,0
1580493208.111,3.906,37.109,19.531,11.719,5.371,0
1580493208.115,19.531,37.109,19.043,13.184,20.508,0
1580493208.119,26.367,39.062,17.578,17.090,44.922,0
1580493208.123,12.207,41.016,18.555,18.555,69.336,0
1580493208.126,9.277,39.551,22.461,21.484,4.395,0
1580493208.130,20.996,36.621,22.949,24.414,1.465,0
1580493208.134,26.855,37.109,20.996,19.043,48.340,0
1580493208.138,26.367,39.062,21.973,25.391,60.059,0
1580493208.142,22.949,39.062,24.902,41.016,34.668,0
1580493208.139,32.227,35.645,27.344,36.621,24.902,0
1580493208.143,46.387,34.668,23.438,32.227,28.809,0
1580493208.147,39.551,39.062,22.461,29.785,7.324,0
1580493208.151,30.273,44.922,24.414,26.367,-21.973,0
1580493208.155,37.109,46.875,21.973,27.832,-8.301,0
1580493208.159,46.875,47.363,20.996,19.531,59.570,0
1580493208.163,51.270,46.875,22.461,18.066,52.246,0
1580493208.166,42.480,45.898,24.414,26.367,62.988,0
1580493208.170,34.180,41.992,22.461,24.902,82.031,0
1580493208.174,41.016,39.551,22.461,21.973,-26.855,0
1580493208.178,41.992,37.598,24.414,21.484,7.812,0
1580493208.182,26.855,36.621,23.438,20.996,94.727,0
1580493208.198,24.902,40.039,21.973,18.066,33.691,0
1580493208.202,41.992,41.504,16.602,18.555,-2.441,0
1580493208.206,49.805,38.574,20.020,22.461,14.160,0
1580493208.210,42.969,37.598,24.414,26.855,10.254,0
1580493208.214,34.668,38.086,24.902,27.344,55.176,0
1580493208.218,39.062,39.062,22.461,20.996,73.730,0
1580493208.222,53.223,39.551,18.555,20.508,16.113,0
1580493208.225,49.805,38.574,20.508,23.926,59.570,0
1580493208.229,33.691,39.551,22.461,20.508,83.008,0
1580493208.233,32.227,41.016,22.461,19.043,-10.254,0
1580493208.237,47.852,40.039,22.461,19.531,24.902,0
1580493208.241,44.922,38.574,21.973,19.531,23.926,0
1580493208.238,24.414,37.109,24.414,25.391,-21.484,0
1580493208.242,22.461,35.156,25.391,22.949,9.766,0
1580493208.246,35.156,33.691,23.926,21.484,31.250,0
1580493208.250,42.969,35.645,25.879,28.809,65.918,0
1580493208.254,34.668,35.156,30.273,32.227,60.059,0
1580493208.258,26.855,34.668,28.320,30.762,61.035,0
1580493208.262,34.668,35.156,24.414,29.297,13.672,0
1580493208.265,45.898,34.668,21.973,27.832,-12.695,0
1580493208.269,42.480,36.133,20.996,28.320,19.531,0
1580493208.273,33.203,37.109,25.879,29.297,40.527,0
1580493208.277,32.715,34.668,28.809,23.926,41.992,0
1580493208.281,42.969,32.715,25.391,20.996,69.824,0
1580493208.278,36.621,32.715,24.902,20.508,40.039,0
1580493208.282,20.020,34.668,25.391,17.578,12.207,0
1580493208.286,19.043,36.133,22.949,11.230,19.043,0
1580493208.290,31.738,37.598,20.508,8.301,18.066,0
1580493208.294,37.109,36.621,21.484,14.648,18.066,0
1580493208.298,27.344,37.109,23.926,20.508,-7.324,0
1580493208.302,23.926,37.598,24.414,22.461,49.316,0
1580493208.305,30.762,34.180,23.438,16.113,46.387,0
1580493208.309,35.645,31.250,22.949,14.648,90.332,0
1580493208.313,26.855,31.250,24.414,20.020,92.773,0
1580493208.317,15.137,33.203,25.879,18.066,59.570,0
1580493208.321,22.461,31.738,24.414,10.254,21.484,0
1580493208.339,29.297,29.297,22.949,6.836,-19.531,0
1580493208.343,21.484,32.227,21.973,11.719,28.320,0
1580493208.347,12.207,33.691,21.484,16.602,20.508,0
1580493208.351,17.578,33.203,20.508,17.090,18.555,0
1580493208.355,37.598,35.156,19.531,15.137,8.301,0
1580493208.359,40.039,37.109,21.484,20.996,-7.324,0
1580493208.363,24.414,34.668,23.438,29.297,2.930,0
1580493208.366,22.461,34.180,20.996,29.785,-7.812,0
1580493208.370,35.156,35.156,20.508,32.227,20.508,0
1580493208.374,40.039,34.180,21.484,31.250,11.719,0
1580493208.378,28.809,33.691,24.902,29.785,-4.395,0
1580493208.382,22.461,37.598,26.367,32.715,17.090,0
1580493208.378,32.715,36.621,25.879,29.297,18.066,0
1580493208.382,43.945,32.715,25.879,26.367,47.363,0
1580493208.386,39.551,35.645,24.902,27.832,56.641,0
1580493208.390,27.832,38.086,23.926,22.949,6.348,0
1580493208.394,32.715,37.109,24.902,19.531,1.465,0
1580493208.398,47.852,35.156,22.949,24.902,28.809,0
1580493208.402,39.062,36.621,22.461,24.414,11.230,0
1580493208.405,24.902,38.574,23.438,21.973,8.789,0
1580493208.409,30.762,39.062,25.391,22.949,48.828,0
1580493208.413,44.434,37.598,22.949,17.090,78.125,0
1580493208.417,41.992,38.574,19.043,17.090,63.477,0
1580493208.421,26.367,39.551,19.531,18.555,18.066,0
1580493208.421,21.484,38.086,20.020,16.602,-15.625,0
1580493208.425,30.273,35.156,20.020,12.695,40.527,0
1580493208.429,34.180,31.738,22.949,12.695,90.332,0
1580493208.433,23.438,31.738,23.926,15.625,41.992,0
1580493208.437,14.160,32.715,22.461,16.602,7.812,0
1580493208.441,19.043,33.203,21.484,14.648,20.020,0
1580493208.445,25.391,31.738,21.973,17.578,29.785,0
1580493208.448,20.020,32.715,23.926,17.578,55.664,0
1580493208.452,13.672,33.691,24.902,15.625,58.105,0
1580493208.456,20.996,33.203,25.879,20.020,59.570,0
1580493208.460,35.156,32.715,23.438,23.438,60.059,0
1580493208.464,36.621,33.691,24.414,25.879,-1.465,0
1580493208.478,26.855,38.574,27.832,27.832,18.066,0
1580493208.482,25.391,37.109,28.320,33.203,107.422,0
1580493208.486,33.691,30.273,26.367,31.738,79.102,0
1580493208.490,36.621,29.785,25.391,31.738,9.277,0
1580493208.494,28.320,33.203,27.832,37.109,-4.883,0
1580493208.498,24.414,33.203,30.273,32.715,22.461,0
1580493208.502,39.062,28.809,29.785,34.668,53.223,0
1580493208.505,43.457,27.344,28.809,38.086,10.742,0
1580493208.509,28.320,28.809,32.227,37.109,13.184,0
1580493208.513,19.043,31.250,32.715,39.551,43.457,0
1580493208.517,24.902,32.715,30.273,30.762,21.973,0
1580493208.521,34.668,32.227,27.344,19.531,61.035,0
1580493208.518,30.273,32.227,24.414,17.578,84.961,0
1580493208.522,24.902,36.133,25.879,23.926,53.223,0
1580493208.526,34.180,39.062,21.973,29.297,39.062,0
1580493208.530,48.340,40.527,18.555,27.832,28.809,0
1580493208.534,43.945,37.598,21.973,31.250,37.598,0
1580493208.538,20.020,34.668,29.297,30.273,20.508,0
1580493208.542,11.719,34.668,30.273,20.020,7.324,0
1580493208.545,25.391,30.762,27.832,17.090,14.648,0
1580493208.549,29.785,30.273,30.762,18.066,62.500,0
1580493208.553,19.531,30.273,31.738,17.578,43.457,0
1580493208.557,14.160,29.785,29.785,22.461,-16.113,0
1580493208.561,19.531,28.809,28.809,19.043,5.859,0
1580493208.578,27.344,28.320,28.320,17.090,41.016,0
1580493208.582,22.461,30.762,28.809,23.926,52.734,0
1580493208.586,17.578,29.785,29.785,28.320,27.832,0
1580493208.590,32.715,28.320,28.320,28.809,12.695,0
1580493208.594,44.922,28.809,26.367,23.438,17.090,0
1580493208.598,37.109,31.250,28.320,19.531,19.043,0
1580493208.602,28.809,32.715,30.762,24.902,-7.324,0
1580493208.605,34.668,33.203,28.320,28.320,2.441,0
1580493208.609,43.457,32.227,23.926,28.320,48.340,0
1580493208.613,40.039,33.691,26.367,32.227,66.406,0
1580493208.617,22.461,34.180,27.832,40.527,76.172,0
1580493208.621,15.137,29.297,28.809,40.039,43.945,0
1580493208.618,30.273,29.785,28.320,34.180,-6.836,0
1580493208.622,37.109,32.227,29.297,38.086,-1.465,0
1580493208.626,26.367,31.738,31.250,41.504,28.320,0
1580493208.630,16.602,32.227,30.273,38.086,44.434,0
1580493208.634,25.879,33.203,28.320,35.645,19.043,0
1580493208.638,35.156,35.645,27.832,36.133,42.969,0
1580493208.642,26.855,39.551,26.855,38.086,51.270,0
1580493208.645,18.066,38.574,24.902,36.133,59.082,0
1580493208.649,23.438,37.598,23.926,27.832,65.430,0
1580493208.653,32.227,36.133,25.879,25.391,83.984,0
1580493208.657,29.785,38.086,25.879,24.902,75.684,0
1580493208.661,19.531,38.574,25.879,25.879,62.012,0
1580493208.659,23.926,33.203,29.785,34.180,70.801,0
1580493208.663,41.504,31.738,29.297,35.156,27.832,0
1580493208.667,43.457,33.203,30.273,39.551,30.762,0
1580493208.671,33.691,37.109,33.691,43.945,31.250,0
1580493208.675,33.691,36.133,30.273,42.969,-23.926,0
1580493208.679,46.875,33.691,28.320,40.039,-31.250,0
1580493208.683,53.223,35.645,26.855,38.574,36.133,0
1580493208.686,39.551,35.645,28.320,35.645,44.922,0
1580493208.690,26.855,35.156,30.762,33.203,15.137,0
1580493208.694,33.203,35.645,24.414,28.809,17.578,0
1580493208.698,36.133,35.156,19.043,24.414,85.449,0
1580493208.702,26.367,34.180,20.996,21.973,69.336,0
1580493208.718,16.602,33.691,26.367,22.949,8.789,0
1580493208.722,20.996,32.715,29.785,22.949,54.688,0
1580493208.726,34.668,33.203,27.832,21.973,52.734,0
1580493208.730,30.273,34.668,27.344,26.367,-2.441,0
1580493208.734,18.555,36.621,29.297,29.785,27.832,0
1580493208.738,20.020,35.156,27.832,29.785,0.488,0
1580493208.742,32.227,34.180,26.367,25.879,25.879,0
1580493208.745,34.180,38.086,27.344,24.902,25.879,0
1580493208.749,20.508,35.156,28.320,31.250,-2.930,0
1580493208.753,19.043,30.762,27.832,27.344,23.926,0
1580493208.757,34.180,30.762,28.320,27.344,44.922,0
1580493208.761,39.062,31.738,32.227,31.738,73.730,0
1580493208.758,29.785,33.691,30.273,34.668,65.918,0
1580493208.762,20.508,33.203,27.344,31.250,46.387,0
1580493208.766,27.832,32.715,23.438,26.367,12.207,0
1580493208.770,36.621,33.691,22.461,22.461,6.348,0
1580493208.774,24.902,34.180,24.414,24.414,20.508,0
1580493208.778,13.672,33.691,23.926,25.391,37.598,0
1580493208.782,20.996,35.156,22.949,18.555,10.742,0
1580493208.785,35.156,38.574,19.043,15.137,24.902,0
1580493208.789,33.691,40.039,18.555,20.996,62.500,0
1580493208.793,22.949,41.992,19.531,31.738,22.949,0
1580493208.797,27.832,44.922,20.508,30.762,34.180,0
1580493208.801,46.387,44.434,20.020,26.367,27.832,0
1580493208.799,52.246,43.457,19.531,26.367,-38.574,0
1580493208.803,44.434,46.875,18.066,25.879,30.273,0
1580493208.807,41.992,50.781,17.090,28.320,107.910,0
1580493208.811,51.758,52.246,17.090,26.855,75.195,0
1580493208.815,55.176,48.340,16.113,21.484,35.645,0
1580493208.819,41.504,45.410,15.137,20.996,39.062,0
1580493208.823,28.320,43.945,15.625,19.531,31.250,0
1580493208.826,29.297,41.016,15.625,13.184,46.387,0
1580493208.830,36.133,39.062,10.742,11.719,103.027,0
1580493208.834,32.227,37.598,12.695,19.531,45.898,0
1580493208.838,26.367,40.039,15.625,24.902,52.246,0
1580493208.842,34.180,41.504,15.625,26.367,86.426,0
1580493208.858,50.781,42.480,14.160,23.926,70.312,0
1580493208.862,51.270,44.434,14.160,23.926,42.480,0
1580493208.866,33.691,42.969,18.066,20.996,11.230,0
1580493208.870,28.320,40.039,16.602,22.461,47.363,0
1580493208.874,41.504,38.574,16.113,26.367,67.871,0
1580493208.878,49.805,37.109,21.484,31.250,-6.836,0
1580493208.882,40.527,38.574,25.391,31.250,64.453,0
1580493208.885,33.203,39.551,25.391,25.879,45.898,0
1580493208.889,44.434,40.039,25.391,30.273,-34.180,0
1580493208.893,44.434,38.086,22.949,27.832,-19.043,0
1580493208.897,30.273,40.527,22.461,26.855,-32.227,0
1580493208.901,25.879,44.922,24.902,31.250,-4.883,0
1580493208.899,28.320,43.457,23.926,23.926,-8.789,0
1580493208.903,29.785,41.504,18.555,18.066,11.230,0
1580493208.907,17.578,38.574,20.020,15.625,56.152,0
1580493208.911,3.906,38.574,24.902,18.066,20.996,0
1580493208.915,10.742,39.062,21.973,23.438,7.324,0
1580493208.919,26.855,35.156,20.508,24.414,42.480,0
1580493208.923,30.762,33.691,24.414,26.367,58.594,0
1580493208.926,21.484,34.180,25.391,30.273,15.625,0
1580493208.930,21.484,33.691,26.855,34.180,30.273,0
1580493208.934,41.504,38.574,23.926,37.109,80.566,0
1580493208.938,47.363,40.527,19.531,36.133,54.688,0
1580493208.942,31.738,38.574,21.484,36.621,65.918,0
1580493208.938,27.344,40.039,20.996,35.156,63.477,0
1580493208.942,38.574,38.574,21.973,31.250,-19.043,0
1580493208.946,44.434,36.133,22.949,31.738,33.203,0
1580493208.950,38.574,39.062,22.949,33.691,127.441,0
1580493208.954,31.738,40.527,23.926,31.738,63.965,0
1580493208.958,36.133,41.016,24.414,30.762,-7.324,0
1580493208.962,44.922,38.086,24.414,23.926,4.883,0
1580493208.965,36.621,35.156,26.367,20.996,62.012,0
1580493208.969,19.531,37.598,28.809,15.137,32.715,0
1580493208.973,15.137,36.133,27.832,10.742,56.641,0
1580493208.977,30.273,33.691,24.902,20.020,77.637,0
1580493208.981,35.645,35.156,24.414,29.785,41.504,0
1580493208.998,19.531,36.133,26.855,33.691,29.297,0
1580493209.002,17.578,35.645,27.344,33.691,15.137,0
1580493209.006,31.738,35.645,25.879,37.598,22.461,0
1580493209.010,36.621,36.133,25.879,35.156,50.293,0
1580493209.014,23.438,35.645,25.391,28.320,73.242,0
1580493209.018,17.578,37.598,23.438,31.738,42.969,0
1580493209.022,29.297,38.086,22.461,29.297,16.113,0
1580493209.025,37.598,38.574,20.996,22.461,27.344,0
1580493209.029,30.762,40.039,24.414,23.926,35.645,0
1580493209.033,20.508,39.062,24.414,25.391,27.344,0
1580493209.037,25.879,35.645,20.508,20.508,12.695,0
1580493209.041,38.574,36.133,19.043,16.113,13.184,0
1580493209.038,38.086,38.574,19.043,17.090,12.207,0
1580493209.042,25.879,39.551,20.996,20.508,47.852,0
1580493209.046,26.855,39.551,21.973,20.020,23.926,0
1580493209.050,39.551,39.551,20.508,18.066,-11.719,0
1580493209.054,43.945,39.551,20.020,22.461,0.000,0
1580493209.058,33.203,39.062,21.973,29.297,8.301,0
1580493209.062,23.438,38.086,24.414,30.273,26.367,0
1580493209.065,33.203,39.062,20.996,24.414,67.871,0
1580493209.069,42.480,40.527,20.996,24.902,62.988,0
1580493209.073,30.273,41.016,27.832,29.297,46.387,0
1580493209.077,16.602,44.922,26.855,25.879,33.691,0
1580493209.081,19.043,43.945,23.438,20.996,32.227,0
1580493209.078,28.320,38.086,23.926,20.508,30.273,0
1580493209.082,19.043,34.668,26.367,18.555,52.246,0
1580493209.086,4.883,33.203,31.250,22.461,24.902,0
1580493209.090,12.695,33.203,29.297,29.297,32.715,0
1580493209.094,25.879,32.715,26.855,27.832,53.223,0
1580493209.098,20.996,32.715,28.809,30.273,24.414,0
1580493209.102,6.348,32.715,31.738,28.320,22.949,0
1580493209.105,9.766,34.668,33.203,24.902,7.324,0
1580493209.109,33.691,36.133,27.832,20.996,-2.441,0
1580493209.113,44.434,37.109,23.926,19.043,-12.207,0
1580493209.117,27.344,36.133,27.832,25.879,4.395,0
1580493209.121,25.879,37.109,28.809,28.320,50.781,0
1580493209.138,47.852,38.086,24.902,28.809,64.453,0
1580493209.142,51.270,35.645,25.879,24.414,27.344,0
1580493209.146,39.551,36.621,28.320,23.926,-9.277,0
1580493209.150,31.738,38.574,26.367,28.809,-18.066,0
1580493209.154,36.133,40.527,21.973,26.855,39.551,0
1580493209.158,46.387,38.574,21.484,25.391,42.480,0
1580493209.162,32.227,34.668,25.879,22.461,-1.465,0
1580493209.165,10.742,34.180,30.762,23.438,43.945,0
1580493209.169,14.648,32.227,30.273,27.344,63.965,0
1580493209.173,26.855,30.762,28.809,26.367,31.250,0
1580493209.177,25.391,29.297,31.738,31.250,66.406,0
1580493209.181,14.160,29.785,35.156,37.109,62.988,0
1580493209.178,9.766,30.762,37.598,31.738,-0.977,0
1580493209.182,22.949,29.297,35.645,33.691,85.449,0
1580493209.186,31.250,29.785,34.180,33.691,59.082,0
1580493209.190,24.414,32.715,37.109,32.227,-8.301,0
1580493209.194,19.043,31.738,36.621,35.645,-10.254,0
1580493209.198,20.508,28.809,35.156,30.273,-28.809,0
1580493209.202,25.391,29.297,33.203,25.879,10.742,0
1580493209.205,15.625,31.250,33.691,24.414,28.809,0
1580493209.209,2.930,33.691,36.133,29.785,-20.508,0
1580493209.213,10.254,32.227,34.180,28.320,-24.902,0
1580493209.217,25.879,32.227,30.762,24.902,49.805,0
1580493209.221,26.855,34.180,30.762,31.250,49.805,0
1580493209.218,15.137,33.203,32.227,34.180,15.137,0
1580493209.222,14.648,29.785,30.762,29.785,62.012,0
1580493209.226,28.320,29.297,27.344,25.391,61.035,0
1580493209.230,31.250,32.227,28.320,22.949,20.020,0
1580493209.234,19.043,32.715,30.273,20.996,-25.391,0
1580493209.238,15.137,29.785,29.297,19.531,11.719,0
1580493209.242,29.785,31.250,27.832,28.320,46.875,0
1580493209.245,38.086,33.203,28.809,32.227,32.715,0
1580493209.249,29.297,32.715,28.809,29.785,12.207,0
1580493209.253,27.344,35.156,29.297,34.180,-15.625,0
1580493209.257,35.645,32.227,31.250,35.645,-3.906,0
1580493209.261,40.039,33.691,27.832,36.621,-37.598,0
1580493209.278,33.203,40.039,29.297,37.598,17.090,0
1580493209.282,23.438,39.551,32.227,36.621,51.270,0
1580493209.286,30.273,37.109,26.855,35.156,33.203,0
1580493209.290,41.016,36.621,24.414,32.227,60.547,0
1580493209.294,40.527,37.598,27.344,33.691,18.555,0
1580493209.298,33.203,38.574,27.344,37.598,-18.066,0
1580493209.302,29.785,37.109,27.344,31.738,7.812,0
1580493209.305,40.527,34.668,25.879,28.809,88.379,0
1580493209.309,47.363,39.062,26.367,36.133,49.316,0
1580493209.313,28.809,39.551,27.832,33.691,19.531,0
1580493209.317,19.531,34.668,25.391,27.832,78.125,0
1580493209.321,32.715,36.133,23.926,25.879,80.078,0
1580493209.319,37.598,38.574,22.461,29.785,69.336,0
1580493209.323,27.344,37.598,26.855,32.227,39.551,0
1580493209.327,21.973,37.598,28.320,34.668,18.555,0
1580493209.331,27.344,35.645,22.949,32.715,-19.531,0
1580493209.335,33.203,35.156,22.949,25.391,41.504,0
1580493209.339,23.926,34.668,27.344,25.391,38.086,0
1580493209.343,14.648,35.156,27.832,25.391,2.930,0
1580493209.346,22.461,36.133,24.414,21.973,55.664,0
1580493209.350,35.645,34.180,24.414,21.484,29.297,0
1580493209.354,33.203,33.691,27.344,17.578,51.270,0
1580493209.358,22.949,36.133,27.832,18.555,88.867,0
1580493209.362,27.832,34.180,23.438,25.879,22.461,0
1580493209.358,42.480,31.738,20.508,26.855,12.207,0
1580493209.362,46.387,33.203,21.484,34.668,75.684,0
1580493209.366,35.645,33.691,24.414,38.086,21.973,0
1580493209.370,31.250,34.668,25.879,36.621,-9.766,0
1580493209.374,40.039,33.691,26.855,36.133,-1.465,0
1580493209.378,49.316,33.203,26.855,39.062,-0.977,0
1580493209.382,39.551,37.598,25.879,42.480,13.672,0
1580493209.385,24.902,40.527,25.391,38.086,55.664,0
1580493209.389,31.250,38.574,23.438,28.320,76.172,0
1580493209.393,47.363,36.133,23.438,28.320,36.621,0
1580493209.397,45.410,35.645,27.344,32.715,77.148,0
1580493209.401,31.250,35.645,30.273,36.133,75.684,0
1580493209.418,31.738,37.109,29.297,36.621,45.410,0
1580493209.422,41.504,36.133,27.832,32.227,79.102,0
1580493209.426,36.621,37.109,29.785,33.691,8.301,0
1580493209.430,22.461,39.062,32.227,37.109,0.488,0
1580493209.434,19.531,39.551,31.250,32.227,87.402,0
1580493209.438,30.273,38.086,29.297,26.855,39.062,0
1580493209.442,30.273,37.598,28.809,19.043,22.949,0
1580493209.445,18.066,39.551,26.367,20.508,27.344,0
1580493209.449,16.602,38.574,21.484,21.484,23.926,0
1580493209.453,28.320,38.574,20.996,17.578,18.555,0
1580493209.457,35.156,38.086,23.438,17.090,-0.488,0
1580493209.461,27.344,37.109,23.926,17.090,74.707,0
1580493209.459,20.020,38.574,24.414,19.043,39.062,0
1580493209.463,27.832,38.574,24.902,18.066,-8.301,0
1580493209.467,41.992,39.551,24.902,17.090,44.922,0
1580493209.471,42.969,40.527,24.414,20.996,65.430,0
1580493209.475,36.621,39.551,23.926,22.949,115.234,0
1580493209.479,37.598,39.551,24.902,23.926,72.266,0
1580493209.483,42.969,36.133,23.926,20.996,12.207,0
1580493209.486,39.551,35.156,21.484,16.602,90.332,0
1580493209.490,25.879,38.086,22.949,23.926,109.375,0
1580493209.494,21.484,37.598,25.879,22.949,21.484,0
1580493209.498,25.391,34.668,22.949,19.531,17.578,0
1580493209.502,20.508,33.203,22.461,24.414,30.762,0
1580493209.498,8.301,33.203,24.414,26.367,11.719,0
1580493209.502,5.859,32.227,25.391,25.391,10.254,0
1580493209.506,17.578,33.691,23.926,26.367,35.156,0
1580493209.510,27.344,34.180,21.484,24.902,47.363,0
1580493209.514,24.902,32.715,22.461,21.973,-8.789,0
1580493209.518,14.648,34.180,22.461,24.414,15.625,0
1580493209.522,15.137,34.180,22.461,22.949,35.645,0
1580493209.525,25.879,32.227,20.996,20.508,-0.488,0
1580493209.529,25.879,32.715,22.949,24.902,2.441,0
1580493209.533,14.160,32.227,25.391,28.320,1.465,0
1580493209.537,12.695,33.203,27.344,26.855,-11.719,0
1580493209.541,27.344,32.227,27.832,27.344,38.086,0
1580493209.558,31.738,29.297,27.832,29.297,70.801,1
1580493209.562,22.461,32.227,28.320,36.133,57.129,0
1580493209.566,21.973,32.715,28.809,38.574,35.156,0
1580493209.570,35.156,31.738,27.832,32.715,14.160,0
1580493209.574,41.992,33.203,25.879,30.273,-14.648,0
1580493209.578,28.320,31.738,29.297,27.344,48.340,0
1580493209.582,14.160,32.227,29.297,25.391,62.012,0
1580493209.585,21.484,31.738,27.344,24.414,10.254,0
1580493209.589,32.227,31.250,27.344,19.531,15.625,0
1580493209.593,26.367,34.668,27.832,20.020,19.043,0
1580493209.597,18.555,37.109,28.809,25.391,20.996,0
1580493209.601,26.367,35.645,26.367,24.414,16.602,0
1580493209.598,39.551,34.668,24.414,24.902,31.738,0
1580493209.602,37.109,35.645,24.414,31.250,32.715,0
1580493209.606,26.855,36.133,26.367,33.691,15.625,0
1580493209.610,26.855,38.574,27.344,34.668,58.594,0
1580493209.614,40.527,40.039,24.414,32.227,62.500,0
1580493209.618,43.945,38.086,24.414,33.691,55.176,0
1580493209.622,27.832,34.180,28.809,32.715,72.266,0
1580493209.625,19.043,34.668,28.320,31.250,41.992,0
1580493209.629,30.273,34.180,26.367,33.691,6.348,0
1580493209.633,39.062,32.715,25.879,25.391,7.812,0
1580493209.637,33.691,34.668,26.367,25.879,45.898,0
1580493209.641,32.227,36.133,29.297,35.645,53.223,0
1580493209.638,42.969,36.133,27.832,39.551,47.363,0
1580493209.642,51.758,36.621,25.879,39.551,66.895,0
1580493209.646,46.387,38.086,25.391,40.527,73.242,0
1580493209.650,30.762,38.574,24.414,39.551,31.738,0
1580493209.654,31.738,37.598,23.438,33.203,27.344,0
1580493209.658,42.969,38.574,24.414,28.320,56.152,0
1580493209.662,34.668,37.109,22.949,25.391,53.223,0
1580493209.665,17.090,37.109,26.855,17.578,45.410,0
1580493209.669,15.625,39.551,29.297,15.137,12.207,0
1580493209.673,24.902,33.691,25.391,19.531,62.012,0
1580493209.677,29.785,32.227,21.484,22.461,12.695,0
1580493209.681,18.066,36.621,23.926,30.762,-40.039,0
1580493209.698,7.324,37.598,27.344,30.762,24.414,0
1580493209.702,22.949,34.668,21.973,26.855,51.758,0
1580493209.706,37.598,33.691,20.020,24.902,-8.789,0
1580493209.710,30.273,36.133,24.902,28.320,-8.301,0
1580493209.714,16.113,35.645,25.391,33.203,16.602,0
1580493209.718,26.367,34.180,20.508,29.785,19.043,0
1580493209.722,46.875,35.645,19.531,28.809,43.457,0
1580493209.725,46.387,35.645,21.973,35.156,31.738,0
1580493209.729,36.133,37.109,22.949,36.133,55.664,0
1580493209.733,40.527,40.039,22.461,38.086,92.285,0
1580493209.737,52.246,39.551,21.484,33.203,62.012,0
1580493209.741,51.758,39.551,21.973,30.273,29.297,0
1580493209.739,44.922,38.574,23.438,41.992,48.828,0
1580493209.743,39.551,37.109,26.367,43.945,60.059,0
1580493209.747,43.457,34.668,27.344,39.551,56.152,0
1580493209.751,47.852,35.645,27.344,39.551,52.246,0
1580493209.755,37.598,35.156,27.832,39.062,17.090,0
1580493209.759,24.414,30.762,27.344,33.203,62.500,0
1580493209.763,24.414,29.785,27.344,28.809,79.102,0
1580493209.766,25.391,29.785,22.949,20.020,33.203,0
1580493209.770,13.184,31.250,20.020,17.090,-7.812,0
1580493209.774,1.465,32.715,22.949,18.066,24.902,0
1580493209.778,6.836,31.250,23.438,15.625,50.293,0
1580493209.782,17.578,29.297,21.484,14.648,7.812,0
1580493209.779,10.254,31.250,24.414,15.137,-41.016,0
1580493209.783,2.441,34.668,24.414,19.043,30.273,0
1580493209.787,11.719,34.180,20.508,20.508,9.766,0
1580493209.791,23.926,32.227,20.996,12.207,-60.547,0
1580493209.795,32.227,35.156,20.508,15.137,23.926,0
1580493209.799,32.715,41.504,19.531,25.391,35.156,0
1580493209.803,32.715,41.016,22.461,25.391,-7.812,0
1580493209.806,44.434,39.551,22.461,22.461,28.320,0
1580493209.810,48.828,39.062,21.484,18.555,34.668,0
1580493209.814,39.551,41.992,22.949,23.438,44.434,0
1580493209.818,30.273,42.480,24.414,28.320,-4.395,0
1580493209.822,38.086,41.504,22.949,27.832,-22.949,0
1580493209.838,48.828,42.480,20.996,25.879,53.223,0
1580493209.842,41.016,40.527,20.020,26.855,52.246,0
1580493209.846,25.879,41.016,20.996,29.785,57.617,0
1580493209.850,23.926,37.109,21.973,24.902,47.852,0
1580493209.854,38.574,37.598,20.996,28.809,1.465,0
1580493209.858,34.668,40.527,22.949,28.320,0.977,0
1580493209.862,15.625,36.621,24.902,23.926,93.750,0
1580493209.865,20.996,37.598,22.461,30.762,66.895,0
1580493209.869,32.227,36.133,22.461,30.273,6.348,0
1580493209.873,31.738,33.691,22.461,32.227,62.012,0
1580493209.877,19.531,35.645,22.461,35.156,61.523,0
1580493209.881,9.766,38.574,24.414,34.180,41.504,0
1580493209.879,19.531,38.086,24.414,31.738,50.781,0
1580493209.883,30.273,37.109,24.902,34.180,20.020,0
1580493209.887,25.879,37.598,27.344,39.062,-29.297,0
1580493209.891,19.043,37.598,30.273,33.691,-41.016,0
1580493209.895,29.785,37.109,26.855,30.762,-0.488,0
1580493209.899,39.551,34.668,23.926,31.738,63.477,0
1580493209.903,31.738,35.156,26.367,33.203,97.656,0
1580493209.906,23.926,38.574,26.855,35.156,60.059,0
1580493209.910,30.273,41.992,24.414,34.180,22.461,0
1580493209.914,45.898,40.527,21.973,33.203,11.230,0
1580493209.918,41.016,36.621,22.461,33.691,48.340,0
1580493209.922,24.414,37.109,24.902,35.645,88.867,0
1580493209.920,23.438,37.109,27.344,36.621,62.988,0
1580493209.924,34.180,34.668,28.320,38.086,41.504,0
1580493209.928,40.039,36.133,26.367,37.109,49.316,0
1580493209.932,28.809,38.086,28.320,32.715,74.707,0
1580493209.936,22.461,39.062,28.809,30.273,69.824,0
1580493209.940,33.203,40.527,27.344,30.273,71.289,0
1580493209.944,41.016,39.062,25.879,27.344,21.973,0
1580493209.947,33.203,39.062,24.902,26.367,-0.488,0
1580493209.951,24.902,42.480,26.855,27.344,39.062,0
1580493209.955,33.203,41.016,28.320,33.691,60.547,0
1580493209.959,41.992,37.109,29.297,32.715,47.852,0
1580493209.963,35.645,37.109,29.785,30.273,38.086,0
1580493209.980,24.414,38.574,31.250,33.691,15.137,0
1580493209.984,24.902,37.109,27.344,25.879,38.086,0
1580493209.988,37.598,35.156,23.438,20.508,75.195,0
1580493209.992,41.504,39.062,28.320,31.250,57.129,0
1580493209.996,34.180,41.992,32.227,37.109,67.383,0
1580493210.000,30.762,38.086,32.227,33.691,52.246,0
1580493210.004,39.551,34.668,29.785,27.344,63.477,0
1580493210.007,41.992,32.227,28.809,24.902,64.453,0
1580493210.011,29.785,32.227,29.297,27.344,37.109,0
1580493210.015,22.461,35.645,31.250,28.320,-1.465,0
1580493210.019,31.250,35.645,29.297,29.297,-48.828,0
1580493210.023,35.156,32.227,25.879,25.879,-8.789,0
1580493210.038,25.879,34.180,26.855,25.879,59.570,0
1580493210.042,20.996,39.062,28.320,26.855,3.906,0
1580493210.046,22.949,37.109,27.832,23.438,-14.160,0
1580493210.050,35.645,36.621,25.391,23.926,4.395,0
1580493210.054,37.109,38.574,24.414,26.855,37.109,0
1580493210.058,27.832,38.574,26.367,31.738,44.434,0
1580493210.062,31.250,36.621,26.855,29.297,-20.020,0
1580493210.065,37.598,36.133,25.391,25.879,-33.691,0
1580493210.069,41.992,37.109,27.832,30.762,49.805,0
1580493210.073,34.180,37.598,28.809,27.832,74.219,0
1580493210.077,26.367,37.598,26.855,29.297,-5.859,0
1580493210.081,38.086,36.133,25.391,29.297,8.301,0
1580493210.079,46.387,36.621,26.855,27.344,47.363,0
1580493210.083,40.039,38.574,28.320,29.785,25.391,0
1580493210.087,29.785,37.598,28.809,27.832,-2.441,0
1580493210.091,34.180,34.668,27.832,25.391,22.461,0
1580493210.095,47.363,35.645,26.367,28.320,93.262,0
1580493210.099,39.551,39.062,27.832,30.762,85.449,0
1580493210.103,24.414,38.574,29.785,27.832,56.152,0
1580493210.106,30.273,38.574,24.902,19.531,71.289,0
1580493210.110,35.156,37.598,20.996,13.672,76.172,0
1580493210.114,27.832,35.156,21.484,16.113,85.449,0
1580493210.118,14.160,35.156,21.973,18.066,92.773,0
1580493210.122,11.230,35.156,25.391,20.996,73.242,0
1580493210.119,26.367,33.691,26.855,25.391,76.172,0
1580493210.123,30.762,31.250,25.391,26.855,63.965,0
1580493210.127,20.508,32.715,26.855,32.715,27.344,0
1580493210.131,15.625,33.691,29.785,35.156,25.391,0
1580493210.135,27.832,33.691,29.297,34.668,51.758,0
1580493210.139,35.156,32.715,29.297,29.297,81.055,0
1580493210.143,27.344,33.691,26.367,28.320,84.473,0
1580493210.146,20.508,36.621,26.367,34.180,43.457,0
1580493210.150,28.320,35.645,29.297,31.738,26.367,0
1580493210.154,42.969,35.156,25.391,30.762,73.242,0
1580493210.158,41.992,38.574,25.391,28.809,52.246,0
1580493210.162,29.785,40.527,28.320,23.438,15.137,0
1580493210.158,31.250,38.574,27.344,25.391,34.668,0
1580493210.162,45.898,36.621,24.902,26.367,46.875,0
1580493210.166,42.969,38.086,22.949,19.531,-0.977,0
1580493210.170,28.809,39.551,24.902,13.184,21.484,0
1580493210.174,27.832,41.504,24.902,11.719,34.668,0
1580493210.178,37.109,39.551,22.461,13.184,-37.598,0
1580493210.182,37.598,38.086,23.926,14.160,-33.203,0
1580493210.185,20.508,38.574,29.785,17.578,13.184,0
1580493210.189,11.719,39.551,28.320,17.578,41.992,0
1580493210.193,19.531,38.086,24.414,13.184,33.691,0
1580493210.197,29.297,35.156,24.414,17.090,14.648,0
1580493210.201,26.855,37.598,24.414,24.902,-15.137,0
1580493210.219,16.602,37.598,27.344,27.832,9.766,0
1580493210.223,22.461,36.621,26.855,23.926,23.438,0
1580493210.227,34.180,37.109,26.367,20.508,-19.531,0
1580493210.231,30.762,37.109,23.926,20.020,-16.113,0
1580493210.235,22.461,37.598,21.973,24.902,-15.137,0
1580493210.239,21.484,37.598,23.438,28.320,-16.113,0
1580493210.243,29.785,35.156,21.484,24.414,52.246,0
1580493210.246,31.250,33.203,21.973,26.855,67.871,0
1580493210.250,20.508,32.715,24.414,28.809,3.906,0
1580493210.254,19.043,31.250,23.926,29.297,2.930,0
1580493210.258,32.715,31.250,23.926,28.809,25.879,0
1580493210.262,38.086,30.762,25.879,25.391,23.438,0
1580493210.258,27.832,33.691,27.832,25.391,-4.883,0
1580493210.262,25.391,38.574,27.344,30.273,28.320,0
1580493210.266,38.574,38.086,23.926,32.227,41.992,0
1580493210.270,41.992,36.133,21.973,29.785,39.551,0
1580493210.274,30.273,39.062,24.902,29.785,36.133,0
1580493210.278,18.066,41.016,29.785,28.809,0.977,0
1580493210.282,18.066,34.668,25.879,20.508,38.086,0
1580493210.285,30.273,32.227,20.020,12.695,54.199,0
1580493210.289,30.273,37.109,21.484,15.137,74.219,0
1580493210.293,16.602,38.574,21.973,19.043,80.566,0
1580493210.297,19.531,39.062,23.438,15.137,90.332,0
1580493210.301,31.738,37.598,24.902,15.625,52.246,0
1580493210.298,34.668,37.109,25.879,23.438,55.176,0
1580493210.302,28.320,40.039,27.344,29.785,51.270,0
1580493210.306,26.367,39.551,26.855,31.738,44.922,0
1580493210.310,39.062,37.598,24.902,28.809,24.414,0
1580493210.314,44.922,39.062,24.414,29.297,-43.945,0
1580493210.318,35.156,39.551,26.367,32.227,-5.371,0
1580493210.322,24.414,37.598,27.344,32.227,14.648,0
1580493210.325,32.227,36.133,24.414,32.227,37.109,0
1580493210.329,40.039,36.133,25.879,30.273,-21.973,0
1580493210.333,29.785,35.645,29.297,29.297,-14.160,0
1580493210.337,22.461,36.133,28.320,38.086,20.020,0
1580493210.341,27.344,35.156,28.320,35.156,-19.043,0
1580493210.378,37.598,35.156,28.320,29.785,15.625,0
1580493210.382,34.180,36.133,27.832,31.250,6.836,0
1580493210.386,20.996,33.691,28.320,30.273,31.250,0
1580493210.390,21.973,33.203,28.320,28.809,26.855,0
1580493210.394,35.156,33.691,25.391,26.855,5.371,0
1580493210.398,34.668,33.203,24.414,25.879,67.383,0
1580493210.402,24.902,33.203,25.391,25.879,85.449,0
1580493210.405,25.879,35.645,22.949,20.508,23.438,0
1580493210.409,34.668,36.133,20.996,16.113,30.762,0
1580493210.413,39.062,35.156,21.484,11.230,42.969,0
1580493210.417,37.109,37.109,21.973,14.160,-14.160,0
1580493210.421,28.809,34.668,21.973,17.578,-16.602,0
1580493210.399,31.250,33.691,19.043,18.555,44.434,0
1580493210.403,39.062,37.598,19.043,18.555,29.297,0
1580493210.407,27.832,34.180,20.996,18.066,18.555,0
1580493210.411,14.160,33.203,20.508,21.484,17.578,0
1580493210.415,19.531,35.645,19.531,26.367,33.691,0
1580493210.419,36.133,35.645,20.508,30.273,25.391,0
1580493210.423,38.086,35.645,23.926,32.227,-35.645,0
1580493210.426,22.461,35.645,25.391,30.273,4.883,0
1580493210.430,15.625,35.156,24.414,28.320,64.453,0
1580493210.434,28.320,33.691,23.926,23.926,37.109,0
1580493210.438,34.668,34.180,23.926,24.414,21.973,0
1580493210.442,26.855,35.156,22.461,28.320,51.270,0
1580493210.439,20.996,36.133,21.973,25.391,23.926,0
1580493210.443,30.273,34.180,20.508,20.020,22.461,0
1580493210.447,41.016,30.762,20.996,17.090,64.453,0
1580493210.451,30.762,33.203,23.926,10.742,40.527,0
1580493210.455,20.508,35.156,23.926,14.648,4.395,0
1580493210.459,24.414,31.738,24.414,19.531,34.668,0
1580493210.463,33.203,31.738,25.391,19.531,75.195,0
1580493210.466,26.855,32.715,26.367,20.508,-16.602,0
1580493210.470,9.766,32.227,27.344,18.555,-2.930,0
1580493210.474,15.137,33.203,26.855,21.973,52.734,0
1580493210.478,25.391,34.668,25.879,20.996,49.316,0
1580493210.482,23.926,35.156,23.926,19.043,59.082,0
1580493210.498,13.672,32.227,24.414,20.020,62.988,0
1580493210.502,8.789,32.227,23.926,19.043,61.035,0
1580493210.506,22.949,33.203,22.461,14.160,35.156,0
1580493210.510,36.621,33.203,23.926,17.578,55.176,0
1580493210.514,27.832,36.621,26.367,24.902,67.871,0
1580493210.518,20.020,37.598,30.762,29.785,71.777,0
1580493210.522,32.715,38.574,30.273,29.785,50.781,0
1580493210.525,42.969,41.016,26.367,20.996,-6.348,0
1580493210.529,39.551,40.527,24.414,22.949,-30.762,0
1580493210.533,29.297,40.039,25.879,27.832,-9.277,0
1580493210.537,34.180,35.645,26.367,30.273,37.598,0
1580493210.541,42.969,31.738,26.367,30.273,46.875,0
1580493210.538,40.039,30.762,28.320,30.273,13.672,0
1580493210.542,30.273,31.250,27.832,31.250,51.758,0
1580493210.546,32.227,33.691,24.902,28.809,59.570,0
1580493210.550,44.922,34.668,24.902,25.879,18.555,0
1580493210.554,42.480,35.645,26.367,23.926,10.742,0
1580493210.558,29.297,36.133,27.832,23.926,54.199,0
1580493210.562,27.832,36.133,24.902,24.414,52.734,0
1580493210.565,37.109,35.156,22.949,22.949,25.879,0
1580493210.569,41.992,34.180,27.344,22.949,60.547,0
1580493210.573,30.273,35.156,30.762,21.973,60.059,0
1580493210.577,17.578,34.180,31.738,22.949,0.977,0
1580493210.581,21.973,31.250,30.273,23.926,-36.133,0
1580493210.578,27.832,26.367,27.344,19.043,29.297,0
1580493210.582,20.020,26.367,25.391,21.484,62.012,0
1580493210.586,11.230,31.738,26.367,28.809,92.773,0
1580493210.590,20.508,33.203,24.902,29.297,47.852,0
1580493210.594,37.109,31.738,22.461,25.391,14.648,0
1580493210.598,37.109,32.715,23.926,24.902,60.059,0
1580493210.602,23.926,33.203,23.926,24.414,50.781,0
1580493210.605,26.367,36.133,23.438,20.508,48.340,0
1580493210.609,41.016,38.086,24.902,16.602,18.555,0
1580493210.613,41.504,35.156,23.438,19.043,39.551,0
1580493210.617,32.227,37.109,23.926,28.809,88.379,0
1580493210.621,28.320,37.598,23.438,28.809,64.941,0
1580493210.638,38.574,33.691,21.484,23.438,46.875,0
1580493210.642,49.805,34.180,21.484,22.461,45.898,0
1580493210.646,43.945,37.109,22.461,26.367,49.805,0
1580493210.650,34.668,38.574,21.484,33.691,104.004,0
1580493210.654,42.969,38.086,24.414,31.738,47.852,0
1580493210.658,59.570,37.109,24.414,28.320,-1.465,0
1580493210.662,53.711,38.574,23.926,32.715,3.418,0
1580493210.665,36.133,39.551,26.367,29.297,11.230,0
1580493210.669,42.480,35.645,24.902,27.344,41.016,4
1580493210.673,55.664,32.227,21.973,29.785,39.062,0
1580493210.677,47.363,34.180,22.949,29.785,26.855,0
1580493210.681,31.738,35.645,26.855,35.645,35.156,0
1580493210.678,33.691,34.180,28.320,32.715,39.062,0
1580493210.682,42.969,34.668,28.320,29.785,63.965,0
1580493210.686,41.016,36.621,29.785,32.227,46.387,0
1580493210.690,25.879,37.598,29.785,29.297,55.664,0
1580493210.694,15.625,37.109,30.273,26.367,70.312,0
1580493210.698,20.508,35.645,28.809,20.508,23.926,0
1580493210.702,24.902,35.156,25.879,16.113,22.461,0
1580493210.705,18.555,33.691,26.367,12.695,28.320,0
1580493210.709,12.695,32.715,27.832,15.625,38.086,0
1580493210.713,22.949,33.691,28.320,18.555,40.527,0
1580493210.717,38.574,32.227,27.344,18.066,-40.527,0
1580493210.721,38.574,31.250,26.855,24.414,-67.383,0
1580493210.718,30.273,34.668,29.297,30.762,-18.066,0
1580493210.722,35.156,37.109,29.785,31.250,-11.230,0
1580493210.726,50.293,36.133,27.832,28.809,10.254,0
1580493210.730,48.828,34.668,26.855,25.879,17.578,0
1580493210.734,32.227,35.156,25.391,30.762,46.387,0
1580493210.738,27.832,37.109,25.391,33.203,65.918,0
1580493210.742,41.992,35.645,24.902,29.297,42.480,0
1580493210.745,46.387,31.250,23.438,29.785,50.293,0
1580493210.749,32.227,34.668,24.414,30.273,48.340,0
1580493210.753,24.902,36.621,24.902,30.762,33.691,0
1580493210.757,34.668,33.691,25.391,34.180,52.734,0
1580493210.761,44.434,36.133,26.367,35.156,13.184,0
1580493210.778,30.762,40.039,26.367,33.203,16.602,0
1580493210.782,16.602,38.574,27.344,32.227,15.137,0
1580493210.786,20.020,37.598,27.832,25.879,17.578,0
1580493210.790,32.227,36.133,26.855,22.461,50.293,0
1580493210.794,27.832,34.668,27.832,24.902,22.461,0
1580493210.798,12.695,33.691,28.320,21.484,57.129,0
1580493210.802,20.508,32.715,28.320,16.602,68.848,0
1580493210.805,36.133,31.738,27.832,15.625,33.691,0
1580493210.809,39.062,34.668,25.391,22.949,33.691,0
1580493210.813,28.809,36.133,27.344,25.391,55.176,0
1580493210.817,21.973,32.715,28.809,24.414,-6.348,0
1580493210.821,31.738,34.668,27.832,25.879,17.578,0
1580493210.818,37.598,35.645,27.344,29.785,64.941,0
1580493210.822,30.273,33.691,27.344,37.109,71.289,0
1580493210.826,29.297,35.645,29.297,42.480,13.672,0
1580493210.830,38.574,37.109,28.320,38.086,-44.434,0
1580493210.834,48.828,36.133,25.879,37.598,6.348,0
1580493210.838,45.410,36.621,27.832,40.039,24.414,0
1580493210.842,34.668,37.109,29.785,36.621,56.641,0
1580493210.845,36.621,36.133,29.785,31.738,60.547,0
1580493210.849,47.363,35.645,28.809,29.297,32.227,0
1580493210.853,43.457,38.574,27.832,29.785,39.062,0
1580493210.857,31.250,40.527,29.297,28.320,25.391,0
1580493210.861,28.809,40.039,30.762,29.785,40.527,0
1580493210.858,37.109,39.062,30.273,28.809,61.523,0
1580493210.862,38.086,38.086,30.762,26.367,64.941,0
1580493210.866,25.879,40.039,32.227,26.367,88.867,0
1580493210.870,22.461,41.016,32.227,26.855,109.863,0
1580493210.874,29.785,38.086,30.273,23.438,112.793,0
1580493210.878,30.273,33.203,29.785,21.973,110.352,0
1580493210.882,22.949,34.668,29.297,24.414,97.656,0
1580493210.885,13.184,37.598,30.273,21.484,24.902,0
1580493210.889,20.508,36.133,28.320,14.160,11.230,0
1580493210.893,31.738,34.668,24.414,13.672,30.273,0
1580493210.897,30.762,37.109,26.367,20.020,34.668,0
1580493210.901,25.391,41.504,27.832,25.879,31.250,0
1580493210.919,29.785,41.992,24.414,31.250,14.648,0
1580493210.923,35.156,38.574,23.438,27.832,1.465,0
1580493210.927,33.203,38.086,24.902,24.902,-0.977,0
1580493210.931,20.508,41.504,27.832,23.926,18.066,0
1580493210.935,16.113,38.574,28.320,22.461,49.805,0
1580493210.939,30.273,34.668,28.809,22.461,39.062,0
1580493210.943,31.250,34.180,30.273,14.160,24.414,0
1580493210.946,17.090,33.691,27.344,14.160,16.113,0
1580493210.950,10.742,32.715,26.855,22.461,-1.465,0
1580493210.954,21.973,32.227,27.344,22.461,-4.395,0
1580493210.958,35.645,31.250,26.855,24.414,-48.340,0
1580493210.962,32.715,31.738,28.809,30.762,-62.988,0
1580493210.958,29.297,34.668,30.762,35.156,-7.324,0
1580493210.962,35.156,34.180,27.832,29.785,64.941,0
1580493210.966,41.504,32.227,26.367,21.973,77.637,0
1580493210.970,33.691,36.133,28.809,21.484,-3.418,0
1580493210.974,18.066,38.086,26.855,20.508,-10.254,0
1580493210.978,15.625,38.574,23.438,18.555,39.062,0
1580493210.982,27.832,38.574,23.926,14.648,62.012,0
1580493210.985,27.344,37.109,24.902,11.719,45.410,0
1580493210.989,16.602,37.598,26.855,20.508,-2.441,0
1580493210.993,17.090,33.691,25.879,24.414,12.695,0
1580493210.997,28.809,32.715,22.949,21.973,23.438,0
1580493211.001,36.133,35.156,23.926,26.855,44.922,0
1580493210.998,31.250,37.598,25.879,26.367,36.133,0
1580493211.002,29.785,38.086,31.250,28.809,-39.062,0
1580493211.006,39.551,33.691,32.227,27.832,16.602,0
1580493211.010,43.945,33.691,29.297,26.855,41.016,0
1580493211.014,30.762,37.109,30.762,31.738,33.203,0
1580493211.018,19.043,39.062,30.273,26.367,63.965,0
1580493211.022,24.902,36.621,28.320,19.531,101.562,0
1580493211.025,34.668,33.691,27.832,12.207,125.000,0
1580493211.029,27.832,33.203,26.855,4.395,49.316,0
1580493211.033,13.184,30.273,27.832,6.348,21.484,0
1580493211.037,20.996,32.227,29.297,14.648,28.809,0
1580493211.041,35.645,34.180,27.832,20.996,-16.602,0
1580493211.058,37.109,30.762,27.344,21.484,11.719,0
1580493211.062,28.809,30.273,27.832,22.461,61.035,0
1580493211.066,27.344,29.785,28.320,25.879,58.594,0
1580493211.070,38.574,29.297,25.879,23.926,32.227,0
1580493211.074,41.992,32.227,25.879,22.461,-32.227,0
1580493211.078,30.273,35.156,28.320,25.391,-8.301,0
1580493211.082,26.367,37.109,26.855,32.227,5.859,0
1580493211.085,39.062,37.109,24.414,35.645,39.551,0
1580493211.089,47.852,36.621,27.344,33.691,93.750,0
1580493211.093,39.062,37.109,31.250,35.645,25.879,0
1580493211.097,25.391,36.621,32.715,37.598,26.367,0
1580493211.101,27.344,36.621,32.715,34.180,41.504,0
1580493211.099,34.668,32.227,32.227,30.762,10.742,0
1580493211.103,26.367,30.273,33.203,30.273,25.879,0
1580493211.107,11.230,32.715,35.645,32.227,19.531,0
1580493211.111,13.672,32.715,32.227,28.320,14.160,0
1580493211.115,29.785,31.250,27.344,22.949,21.973,0
1580493211.119,31.250,29.297,27.832,20.996,26.855,0
1580493211.123,18.555,32.227,29.297,20.996,59.570,0
1580493211.126,14.160,35.645,30.273,20.020,113.770,0
1580493211.130,30.762,36.133,30.762,20.996,105.469,0
1580493211.134,39.062,35.645,30.762,19.043,10.742,0
1580493211.138,27.832,36.133,29.297,13.184,-16.602,0
1580493211.142,19.531,37.109,28.320,13.672,52.734,0
1580493211.138,23.926,33.203,25.879,16.602,11.230,0
1580493211.142,29.297,30.762,21.973,16.113,-25.879,0
1580493211.146,25.391,34.180,23.926,16.602,-6.348,0
1580493211.150,16.602,35.645,25.391,20.508,21.484,0
1580493211.154,16.113,34.180,23.926,20.508,47.363,0
1580493211.158,29.785,32.715,25.391,20.508,21.973,0
