timestamps,TP9,AF7,AF8,TP10,Right AUX,Marker0
1580328311.787,33.691,8.789,51.758,-8.789,-55.664,0
1580328311.791,30.762,12.207,52.734,-2.930,-56.152,0
1580328311.795,31.738,12.207,56.641,-0.977,-40.527,0
1580328311.799,29.785,11.719,55.664,-5.859,-18.555,0
1580328311.803,30.762,17.578,53.711,-13.672,-65.918,0
1580328311.807,31.250,16.602,51.758,-27.344,-63.965,0
1580328311.811,27.344,17.090,51.758,-34.180,-18.555,0
1580328311.814,29.297,20.508,51.758,-36.133,-4.883,0
1580328311.818,29.785,18.555,51.270,-35.156,-20.996,0
1580328311.822,30.762,21.973,51.758,-38.086,-75.195,0
1580328311.826,27.832,21.973,47.363,-34.180,-68.359,0
1580328311.830,23.438,17.090,41.504,8.789,-19.531,0
1580328311.827,28.320,19.531,44.434,46.387,-8.789,0
1580328311.831,32.715,23.438,48.340,62.500,-36.621,0
1580328311.835,34.180,24.902,49.316,83.008,-61.523,0
1580328311.839,32.227,24.414,47.852,102.051,-18.066,0
1580328311.843,30.273,24.902,46.387,116.211,-13.672,0
1580328311.847,32.715,24.902,49.316,131.836,-28.320,0
1580328311.851,34.180,23.438,49.805,147.461,-26.367,0
1580328311.854,34.180,23.926,50.293,167.969,-41.016,0
1580328311.858,35.645,26.367,49.316,187.500,-28.320,0
1580328311.862,33.691,26.855,47.363,194.336,-25.879,0
1580328311.866,32.715,27.344,46.875,195.801,-54.199,0
1580328311.870,30.762,27.832,45.410,196.777,-17.578,0
1580328311.907,29.785,28.809,46.387,202.148,-24.902,0
1580328311.911,29.785,28.809,46.875,205.078,-62.500,0
1580328311.915,26.367,27.832,44.922,211.426,-24.414,0
1580328311.919,22.461,29.297,41.504,222.168,-13.184,0
1580328311.923,20.996,27.344,40.039,222.168,-28.320,0
1580328311.927,24.902,28.809,44.922,228.027,-50.781,0
1580328311.931,23.438,28.320,43.945,231.934,-91.797,0
1580328311.934,15.137,22.949,39.551,222.656,-44.922,0
1580328311.938,18.555,25.391,41.504,213.379,-11.719,0
1580328311.942,19.531,25.391,40.527,206.055,-19.531,0
1580328311.946,18.066,25.391,40.039,210.449,-35.156,0
1580328311.950,20.020,28.809,43.457,211.914,-72.266,0
1580328311.947,17.578,23.438,41.992,200.195,-55.664,0
1580328311.951,14.648,22.461,40.527,171.387,-26.855,0
1580328311.955,12.207,24.902,40.039,149.414,-34.668,0
1580328311.959,12.695,23.438,39.551,130.859,-63.477,0
1580328311.963,14.648,25.879,41.504,92.773,-64.453,0
1580328311.967,12.207,23.438,40.527,63.477,-41.504,0
1580328311.971,10.254,18.555,38.574,30.762,-67.871,0
1580328311.974,7.812,19.531,39.062,-15.137,-46.387,0
1580328311.978,7.812,20.508,41.504,-38.574,-33.691,0
1580328311.982,11.230,23.438,40.039,-41.992,-54.199,0
1580328311.986,12.695,24.902,39.062,-49.316,-51.270,0
1580328311.990,15.137,23.926,40.527,-46.387,-70.312,0
1580328311.951,16.113,26.367,38.574,-44.922,-49.316,0
1580328311.955,16.113,27.344,37.598,-67.383,-26.367,0
1580328311.959,17.578,27.344,37.598,-90.332,-42.480,0
1580328311.963,20.020,28.809,38.574,-103.027,-42.480,0
1580328311.967,20.508,28.320,37.598,-112.793,-39.551,0
1580328311.971,24.902,23.438,35.156,-106.445,-16.113,0
1580328311.975,39.062,23.438,36.133,-88.867,-20.996,0
1580328311.978,40.527,32.227,30.273,-103.027,-72.754,0
1580328311.982,15.625,36.133,22.461,-139.160,-79.102,0
1580328311.986,-9.766,36.621,19.531,-166.992,-51.758,0
1580328311.990,-20.020,37.598,17.090,-189.453,-35.645,0
1580328311.994,-33.203,40.039,13.184,-220.703,-33.203,0
1580328312.007,-47.852,42.480,14.160,-258.301,-49.805,0
1580328312.011,-48.340,41.016,14.160,-266.113,-58.105,0
1580328312.015,-57.129,37.598,9.766,-273.438,-29.297,0
1580328312.019,-61.523,39.551,9.766,-276.367,-28.320,0
1580328312.023,-54.199,41.504,8.301,-264.648,-38.086,0
1580328312.027,-40.527,39.551,10.254,-250.977,-17.578,0
1580328312.031,-29.785,42.480,16.113,-240.723,-55.176,0
1580328312.034,-26.367,36.621,14.648,-239.258,-67.383,0
1580328312.038,-22.949,31.250,12.695,-234.375,-34.668,0
1580328312.042,-14.648,30.762,15.625,-223.145,-33.691,0
1580328312.046,-10.254,29.785,17.090,-213.379,-27.344,0
1580328312.050,-6.348,29.785,19.043,-209.961,1.953,0
1580328312.047,1.953,31.738,22.461,-207.031,14.648,0
1580328312.051,6.836,33.203,21.973,-211.426,-14.160,0
1580328312.055,7.812,31.250,20.020,-198.242,-8.301,0
1580328312.059,7.324,32.715,22.461,-198.242,-7.324,0
1580328312.063,6.836,33.691,26.367,-354.980,-45.898,0
1580328312.067,8.301,32.227,27.832,-560.547,-64.453,0
1580328312.071,7.812,31.250,26.855,-696.777,-57.617,0
1580328312.074,8.789,30.273,28.809,-819.336,-35.156,0
1580328312.078,12.695,30.273,29.297,-879.395,-29.785,0
1580328312.082,15.137,33.691,24.902,-908.203,-105.469,0
1580328312.086,16.602,30.762,25.879,-953.125,-120.605,0
1580328312.090,18.555,29.297,27.344,-969.238,-71.289,0
1580328312.127,15.625,31.738,24.414,-967.773,-68.359,0
1580328312.131,13.672,32.227,24.902,-968.262,-47.852,0
1580328312.135,16.602,32.227,27.344,-968.750,-38.574,0
1580328312.139,14.648,31.250,28.320,-968.750,-14.160,0
1580328312.143,14.648,31.738,30.273,-968.750,-14.648,0
1580328312.147,17.578,32.715,30.762,-968.262,-65.430,0
1580328312.151,15.625,32.227,28.809,-968.262,-86.426,0
1580328312.154,16.602,31.738,29.297,-968.750,-88.379,0
1580328312.158,16.113,31.250,27.832,-968.750,-75.195,0
1580328312.162,18.066,29.785,28.320,-966.309,-39.551,0
1580328312.166,24.902,31.250,31.250,-975.098,-57.617,0
1580328312.170,23.926,31.250,31.738,-944.824,-63.477,0
1580328312.207,23.926,30.273,32.227,-921.875,-54.688,0
1580328312.211,20.996,29.785,31.738,-965.332,-36.621,0
1580328312.215,23.438,27.832,32.227,-971.191,-57.617,0
1580328312.219,25.879,24.902,30.762,-966.797,-83.984,0
1580328312.223,21.484,23.438,29.785,-968.750,-49.316,0
1580328312.227,23.926,26.855,32.715,-968.262,-28.320,0
1580328312.231,20.508,28.320,32.715,-968.750,-26.855,0
1580328312.234,15.137,24.414,28.809,-968.750,-8.301,0
1580328312.238,20.020,25.879,28.320,-968.750,11.230,0
1580328312.242,21.973,30.273,25.391,-968.750,18.555,0
1580328312.246,15.625,32.227,23.926,-968.750,24.902,0
1580328312.250,6.836,29.785,23.926,-968.750,47.363,0
1580328312.211,7.324,29.785,22.461,-968.262,70.801,0
1580328312.215,12.695,30.762,25.879,-968.750,70.801,0
1580328312.219,12.695,30.273,30.762,-968.750,84.473,0
1580328312.223,12.695,31.738,29.785,-968.750,53.223,0
1580328312.227,14.648,29.297,29.785,-968.750,40.039,0
1580328312.231,13.672,25.879,30.273,-968.750,73.242,0
1580328312.235,13.184,27.832,29.297,-968.750,92.285,0
1580328312.238,13.672,24.902,26.855,-968.750,46.875,0
1580328312.242,17.578,25.879,27.832,-968.750,9.277,0
1580328312.246,20.508,27.344,30.273,-968.750,26.367,0
1580328312.250,18.555,25.879,27.344,-968.750,48.828,0
1580328312.254,15.137,27.832,27.344,-968.750,17.090,0
1580328312.227,13.672,29.297,25.879,-968.750,-24.414,0
1580328312.231,13.672,28.809,24.902,-968.262,10.742,0
1580328312.235,9.277,24.902,26.367,-968.750,12.695,0
1580328312.239,3.906,22.461,25.391,-968.262,5.859,0
1580328312.243,10.742,23.438,27.832,-968.750,4.395,0
1580328312.247,14.160,24.414,31.738,-968.750,2.441,0
1580328312.251,15.137,28.809,31.250,-968.750,3.906,0
1580328312.254,17.090,30.762,31.250,-968.750,-22.461,0
1580328312.258,13.672,29.785,31.250,-968.262,-41.504,0
1580328312.262,12.695,27.344,32.715,-968.262,-16.602,0
1580328312.266,14.160,30.762,34.668,-968.750,-15.137,0
1580328312.270,13.184,32.227,29.785,-968.750,-22.461,0
1580328312.287,11.230,28.320,29.297,-968.750,-34.668,0
1580328312.291,11.230,28.809,33.203,-968.750,-90.820,0
1580328312.295,9.277,27.832,29.785,-968.750,-85.938,0
1580328312.299,8.301,25.879,25.879,-968.750,-43.457,0
1580328312.303,8.789,28.809,27.832,-968.750,-3.906,0
1580328312.307,9.277,33.691,32.715,-969.727,-15.625,0
1580328312.311,7.812,31.738,33.203,-964.844,-55.664,0
1580328312.314,7.812,27.832,30.273,-960.938,-33.691,0
1580328312.318,7.812,28.320,28.809,-977.539,-24.902,0
1580328312.322,6.348,27.344,29.297,-729.004,-15.625,0
1580328312.326,9.766,27.832,36.133,-399.902,-24.902,0
1580328312.330,10.742,30.273,37.598,-419.434,-27.344,0
1580328312.327,5.859,28.809,34.668,-345.703,-13.184,0
1580328312.331,6.836,27.344,35.645,-240.723,-25.879,0
1580328312.335,10.742,28.320,35.645,-389.648,-1.465,0
1580328312.339,11.230,29.785,36.133,-369.141,7.324,0
1580328312.343,10.254,28.320,37.598,-211.426,19.043,0
1580328312.347,13.184,29.297,36.133,-147.461,16.602,0
1580328312.351,13.184,28.809,32.715,-49.316,-3.418,0
1580328312.354,6.836,23.926,33.203,59.570,0.488,0
1580328312.358,8.789,23.926,35.645,146.973,11.719,0
1580328312.362,9.766,24.414,38.086,198.242,-12.207,0
1580328312.366,3.906,23.438,37.598,257.812,-32.715,0
1580328312.370,4.883,22.949,36.133,335.938,-7.324,0
1580328312.387,7.812,20.020,36.621,382.324,-8.789,0
1580328312.391,4.883,18.555,38.574,400.879,-25.391,0
1580328312.395,4.395,19.043,39.062,432.617,-27.344,0
1580328312.399,3.418,18.555,38.086,483.398,-12.695,0
1580328312.403,1.465,21.973,39.551,512.695,-26.367,0
1580328312.407,0.488,26.855,40.527,520.508,-57.617,0
1580328312.411,3.906,27.344,40.527,518.066,-74.219,0
1580328312.414,2.930,25.391,37.109,507.324,-84.961,0
1580328312.418,-2.930,21.973,35.156,489.258,-56.641,0
1580328312.422,-1.953,21.484,36.133,479.980,-62.988,0
1580328312.426,2.441,21.973,37.109,487.305,-89.844,0
1580328312.430,5.371,22.461,38.574,504.883,-69.824,0
1580328312.448,5.371,22.461,39.062,517.578,-70.801,0
1580328312.452,6.348,20.020,38.086,520.508,-77.637,0
1580328312.456,11.719,21.484,37.109,505.859,-60.059,0
1580328312.460,14.648,22.949,37.598,466.309,-85.449,0
1580328312.464,15.625,20.508,39.062,432.129,-73.730,0
1580328312.468,12.695,20.020,38.574,414.062,-39.551,0
1580328312.472,10.254,21.973,38.086,397.949,-50.781,0
1580328312.475,14.648,22.461,37.598,382.812,-75.195,0
1580328312.479,13.184,25.879,38.086,367.676,-79.102,0
1580328312.483,12.207,26.367,37.598,343.262,-24.414,0
1580328312.487,14.648,23.926,38.574,292.969,-14.160,0
1580328312.491,11.719,22.461,40.039,235.840,-55.664,0
1580328312.467,10.742,24.902,41.016,192.383,-62.012,0
1580328312.471,9.766,27.832,41.016,151.367,-61.035,0
1580328312.475,6.348,25.391,36.133,159.668,-27.832,0
1580328312.479,8.301,24.414,37.598,203.125,-35.156,0
1580328312.483,7.812,21.484,38.574,231.934,-84.473,0
1580328312.487,6.836,21.973,33.203,239.746,-69.824,0
1580328312.491,8.301,24.902,34.668,219.727,-37.109,0
1580328312.494,8.789,24.414,37.598,213.379,-14.648,0
1580328312.498,10.742,24.902,38.086,250.000,-44.434,0
1580328312.502,13.184,23.926,37.109,279.785,-48.828,0
1580328312.506,11.230,26.855,38.574,284.668,-42.480,0
1580328312.510,14.160,30.273,39.062,299.316,-67.383,0
1580328312.527,15.625,28.320,39.551,309.570,-55.176,0
1580328312.531,15.137,25.879,42.969,277.832,-58.594,0
1580328312.535,15.625,25.391,42.480,191.895,-90.820,0
1580328312.539,11.230,22.461,38.574,129.883,-74.219,0
1580328312.543,10.254,22.461,41.016,130.859,-56.641,0
1580328312.547,9.766,23.438,41.016,-18.555,-62.012,0
1580328312.551,10.742,22.949,38.574,-341.309,-40.527,0
1580328312.554,12.207,26.855,35.645,-622.070,-50.293,0
1580328312.558,10.742,26.367,32.227,-793.945,-71.289,0
1580328312.562,7.812,23.926,34.668,-914.551,-72.754,0
1580328312.566,7.324,27.344,34.180,-970.215,-77.148,0
1580328312.570,10.254,28.320,33.203,-965.820,-90.820,0
1580328312.567,5.859,27.832,36.133,-963.867,-101.562,0
1580328312.571,1.465,29.297,35.156,-971.191,-102.539,0
1580328312.575,3.906,27.344,34.668,-916.016,-97.168,0
1580328312.579,4.883,26.367,35.645,-721.191,-81.055,0
1580328312.583,4.395,28.809,36.133,-489.746,-77.637,0
1580328312.587,6.348,29.297,37.109,-320.801,-105.957,0
1580328312.591,3.418,29.785,36.133,-197.754,-129.395,0
1580328312.594,0.977,29.297,35.156,-112.793,-110.352,0
1580328312.598,0.488,27.832,34.668,-43.457,-70.801,0
1580328312.602,0.977,27.344,35.156,19.043,-95.703,0
1580328312.606,4.883,29.785,41.016,46.875,-141.602,0
1580328312.610,2.441,24.902,39.062,47.363,-123.047,0
1580328312.607,-3.418,22.461,31.250,58.594,-78.613,0
1580328312.611,0.000,25.879,29.785,70.801,-57.617,0
1580328312.615,-1.465,24.902,31.250,54.199,-41.992,0
1580328312.619,-2.441,21.973,36.133,15.137,-52.246,0
1580328312.623,1.465,21.973,38.086,-28.809,-65.430,0
1580328312.627,0.488,26.367,37.109,-68.359,-71.777,0
1580328312.631,0.488,28.320,35.645,-102.051,-92.773,0
1580328312.634,0.977,25.879,35.156,-143.066,-91.309,0
1580328312.638,3.906,26.367,39.062,-210.938,-85.449,0
1580328312.642,2.441,26.367,36.621,-270.996,-77.148,0
1580328312.646,1.953,23.926,30.273,-270.996,-54.199,0
1580328312.650,3.418,23.926,34.180,-260.254,-52.734,0
1580328312.667,5.371,25.391,39.062,-257.324,-45.410,0
1580328312.671,7.812,25.879,40.039,-285.645,-71.777,0
1580328312.675,5.859,25.879,40.039,-369.141,-120.117,0
1580328312.679,5.859,27.344,40.039,-455.566,-88.867,0
1580328312.683,10.254,29.785,40.039,-502.930,-56.152,0
1580328312.687,14.160,30.273,37.598,-506.836,-62.988,0
1580328312.691,13.672,30.273,39.062,-505.371,-99.609,0
1580328312.694,10.254,30.762,39.062,-512.695,-125.000,0
1580328312.698,10.254,30.273,37.598,-500.977,-78.613,0
1580328312.702,10.254,27.832,39.062,-495.117,-65.430,0
1580328312.706,3.906,23.438,38.086,-513.672,-79.102,0
1580328312.710,5.371,25.391,36.621,-520.020,-112.793,0
1580328312.728,9.766,26.855,37.598,-513.184,-120.117,0
1580328312.732,9.277,26.855,38.086,-516.602,-74.219,0
1580328312.736,10.742,28.320,39.062,-531.250,-86.914,0
1580328312.740,8.301,26.855,39.551,-547.852,-87.891,0
1580328312.744,6.836,25.879,38.574,-588.867,-90.820,0
1580328312.748,6.348,26.855,36.621,-618.652,-107.910,0
1580328312.752,3.906,26.367,35.156,-629.395,-84.961,0
1580328312.755,5.859,25.391,35.645,-620.117,-112.793,0
1580328312.759,7.324,25.879,37.109,-607.910,-142.578,0
1580328312.763,8.789,26.367,36.621,-599.121,-115.723,0
1580328312.767,11.719,27.832,40.039,-577.637,-122.559,0
1580328312.771,11.719,26.855,38.574,-566.895,-126.465,0
1580328312.767,14.160,28.320,36.621,-545.898,-139.160,0
1580328312.771,13.184,30.762,36.133,-534.180,-149.902,0
1580328312.775,8.789,27.832,36.133,-536.621,-123.535,0
1580328312.779,9.277,22.949,37.109,-530.273,-128.906,0
1580328312.783,10.254,22.461,36.621,-532.227,-149.902,0
1580328312.787,9.277,25.391,35.645,-542.969,-131.348,0
1580328312.791,11.230,26.855,35.645,-546.875,-118.164,0
1580328312.794,13.672,23.926,37.109,-514.648,-137.207,0
1580328312.798,11.719,21.484,35.645,-465.820,-160.156,0
1580328312.802,12.207,21.484,33.203,-478.516,-138.184,0
1580328312.806,16.602,23.438,36.133,-547.852,-127.930,0
1580328312.810,18.555,23.926,38.086,-542.969,-136.230,0
1580328312.847,17.578,22.949,34.668,-447.266,-122.070,0
1580328312.851,14.648,21.973,38.086,-359.863,-125.000,0
1580328312.855,11.719,21.484,43.457,-309.570,-110.840,0
1580328312.859,12.207,23.926,40.527,-283.691,-105.957,0
1580328312.863,16.113,25.391,38.574,-265.137,-105.469,0
1580328312.867,17.578,23.438,36.133,-252.441,-131.348,0
1580328312.871,20.508,24.902,38.574,-274.902,-150.879,0
1580328312.874,23.438,21.973,39.062,-297.852,-86.914,0
1580328312.878,27.344,21.973,37.109,-319.336,-52.734,0
1580328312.882,31.250,25.879,39.551,-340.332,-83.496,0
1580328312.886,28.320,25.879,39.551,-333.496,-90.332,0
1580328312.890,30.762,28.320,41.016,-303.711,-97.656,0
1580328312.888,30.273,29.785,39.551,-228.516,-105.469,0
1580328312.892,23.438,26.367,36.621,-135.742,-101.562,0
1580328312.896,27.832,25.391,38.574,-78.613,-66.406,0
1580328312.900,27.344,27.344,38.574,-60.059,-53.711,0
1580328312.904,22.949,28.809,38.086,-71.777,-80.566,0
1580328312.908,21.973,27.344,40.039,-103.516,-88.867,0
1580328312.912,18.066,27.832,38.574,-132.324,-96.191,0
1580328312.915,12.207,25.879,36.133,-118.164,-83.008,0
1580328312.919,8.789,24.902,35.156,-81.543,-44.922,0
1580328312.923,9.277,27.344,36.133,-79.590,-26.855,0
1580328312.927,9.766,26.855,37.598,-88.867,-64.453,0
1580328312.931,10.254,24.414,37.598,-88.867,-80.078,0
1580328312.891,13.184,25.391,37.598,-108.398,-47.852,0
1580328312.895,11.719,28.320,39.062,-133.301,-40.527,0
1580328312.899,12.695,31.250,41.016,-158.691,-45.898,0
1580328312.903,15.137,31.250,42.480,-173.828,-34.668,0
1580328312.907,12.207,29.785,41.504,-178.223,-32.715,0
1580328312.911,12.695,30.273,41.504,-220.703,-37.109,0
1580328312.915,13.672,30.273,41.992,-270.996,-27.832,0
1580328312.918,9.766,31.250,41.504,-299.316,-28.809,0
1580328312.922,6.348,29.297,37.109,-321.289,-16.602,0
1580328312.926,6.836,28.809,35.645,-354.492,2.441,0
1580328312.930,9.766,29.297,37.598,-422.852,-1.953,0
1580328312.934,10.742,27.832,35.645,-480.469,-9.766,0
1580328312.947,5.859,29.297,34.668,-446.777,-20.508,0
1580328312.951,0.000,29.297,33.691,-365.723,-1.953,0
1580328312.955,0.488,29.785,33.691,-301.758,11.719,0
1580328312.959,1.953,27.832,32.715,-261.719,13.184,0
1580328312.963,4.883,28.320,35.156,-256.836,20.508,0
1580328312.967,6.348,27.832,35.645,-279.785,37.109,0
1580328312.971,10.742,25.879,35.156,-308.594,26.367,0
1580328312.974,13.672,26.855,36.621,-357.422,-23.438,0
1580328312.978,12.695,25.391,35.156,-419.434,-13.184,0
1580328312.982,14.648,24.414,33.691,-490.723,33.691,0
1580328312.986,14.648,26.367,32.715,-536.621,74.219,0
1580328312.990,19.043,27.344,31.250,-535.645,61.035,0
1580328312.988,24.414,27.832,28.809,-529.785,54.199,0
1580328312.992,20.020,25.879,29.297,-508.301,75.684,0
1580328312.996,7.324,22.461,37.109,-458.984,88.379,0
1580328313.000,2.441,20.996,43.945,-403.320,88.379,0
1580328313.004,0.977,18.555,48.828,-377.441,86.914,0
1580328313.008,-4.395,12.695,52.734,-391.602,88.867,0
1580328313.012,-7.812,7.324,56.152,-394.043,77.148,0
1580328313.015,-13.184,4.395,59.570,-393.066,49.805,0
1580328313.019,-17.090,-0.488,60.547,-425.293,65.918,0
1580328313.023,-17.578,-1.953,65.918,-455.078,72.754,0
1580328313.027,-20.020,-3.418,66.406,-454.102,70.312,0
1580328313.031,-18.066,-0.488,64.453,-471.680,90.820,0
1580328313.027,-15.625,2.441,63.477,-518.555,78.125,0
1580328313.031,-12.695,0.977,59.570,-558.594,72.754,0
1580328313.035,-6.348,4.395,59.570,-583.008,94.727,0
1580328313.039,-3.418,5.859,59.082,-627.441,126.465,0
1580328313.043,-2.441,5.371,54.199,-682.617,115.234,0
1580328313.047,-0.977,7.324,52.246,-750.488,111.816,0
1580328313.051,-2.930,3.906,48.340,-832.031,120.117,0
1580328313.054,-0.977,3.418,42.969,-861.328,129.395,0
1580328313.058,3.906,9.277,45.410,-863.770,88.379,0
1580328313.062,3.906,10.254,47.363,-884.277,30.273,0
1580328313.066,2.930,8.789,46.387,-895.020,44.922,0
1580328313.070,8.301,10.254,47.363,-910.645,58.594,0
1580328313.087,10.254,12.207,46.875,-906.250,62.500,0
1580328313.091,9.277,14.160,46.387,-861.816,36.621,0
1580328313.095,11.230,13.184,45.410,-791.992,17.090,0
1580328313.099,11.719,12.207,43.945,-722.168,4.883,0
1580328313.103,10.254,13.672,45.898,-693.359,-4.395,0
1580328313.107,11.719,18.066,46.387,-671.875,-11.230,0
1580328313.111,12.207,19.531,45.898,-609.375,-26.855,0
1580328313.114,10.254,17.090,41.992,-548.828,-32.715,0
1580328313.118,11.230,17.578,40.039,-618.652,-23.438,0
1580328313.122,15.625,18.555,41.504,-778.809,-10.254,0
1580328313.126,19.531,17.090,40.039,-810.547,-7.812,0
1580328313.130,20.996,19.531,37.109,-802.734,-16.113,0
1580328313.147,20.020,20.508,36.133,-831.055,-26.855,0
1580328313.151,19.043,18.555,36.133,-859.375,-11.230,0
1580328313.155,19.531,20.508,38.086,-904.297,-26.855,0
1580328313.159,22.461,23.926,38.574,-924.316,-44.434,0
1580328313.163,23.438,24.902,38.086,-952.148,-25.391,0
1580328313.167,21.973,22.949,38.086,-970.215,-47.363,0
1580328313.171,18.555,21.973,35.156,-967.773,-67.383,0
1580328313.174,18.066,22.949,33.691,-968.262,-36.621,0
1580328313.178,16.113,24.414,33.203,-968.750,4.883,0
1580328313.182,15.625,25.391,33.203,-968.262,0.977,0
1580328313.186,20.020,25.391,33.691,-968.750,0.000,0
1580328313.190,16.113,20.996,30.273,-966.797,22.949,0
1580328313.187,13.184,20.508,30.762,-969.238,34.668,0
1580328313.191,13.672,19.043,31.738,-968.750,52.246,0
1580328313.195,15.625,20.020,30.762,-916.992,51.270,0
1580328313.199,14.648,20.508,28.809,-919.922,30.273,0
1580328313.203,11.230,19.043,28.320,-967.285,39.551,0
1580328313.207,13.672,20.020,32.227,-968.262,62.012,0
1580328313.211,15.625,20.020,31.738,-967.773,84.473,0
1580328313.214,16.113,23.926,31.738,-968.750,80.566,0
1580328313.218,17.578,24.902,30.273,-968.750,60.059,0
1580328313.222,20.996,22.461,27.832,-968.750,76.660,0
1580328313.226,22.461,22.461,28.809,-968.750,66.895,0
1580328313.230,19.531,21.484,30.273,-968.750,17.090,0
1580328313.267,18.066,21.484,28.809,-968.750,41.016,0
1580328313.271,18.066,22.461,29.297,-968.750,21.973,0
1580328313.275,12.695,20.020,29.785,-968.262,27.832,0
1580328313.279,11.230,19.531,26.367,-968.262,49.316,0
1580328313.283,11.230,21.973,28.809,-968.262,35.156,0
1580328313.287,10.742,24.414,34.180,-968.262,41.504,0
1580328313.291,9.277,21.973,33.203,-968.262,29.785,0
1580328313.294,9.277,21.973,32.715,-968.750,45.410,0
1580328313.298,12.207,27.344,33.203,-968.750,42.969,0
1580328313.302,12.207,27.832,32.715,-968.262,32.227,0
1580328313.306,9.766,23.926,32.715,-968.750,41.504,0
1580328313.310,12.207,21.973,33.691,-968.750,10.254,0
1580328313.270,19.043,19.531,30.762,-968.262,-15.625,0
1580328313.274,28.320,24.902,26.367,-965.332,2.930,0
1580328313.278,27.832,36.133,22.949,-977.539,4.395,0
1580328313.282,15.625,39.551,18.066,-916.016,-11.230,0
1580328313.286,8.789,43.457,9.766,-861.816,0.488,0
1580328313.290,3.906,44.434,4.395,-935.059,-10.254,0
1580328313.294,-2.441,46.387,2.441,-978.516,-21.973,0
1580328313.297,1.953,49.805,-3.906,-939.453,-0.488,0
1580328313.301,2.441,52.734,-7.324,-884.277,-12.207,0
1580328313.305,-5.371,54.199,-7.812,-880.371,-50.781,0
1580328313.309,-10.742,53.223,-8.301,-890.625,-43.945,0
1580328313.313,-10.254,49.316,-7.324,-822.266,-13.672,0
1580328313.307,-7.812,43.945,-5.371,-717.773,-16.113,0
1580328313.311,-9.766,45.898,-0.977,-669.434,-13.672,0
1580328313.315,-3.906,47.363,2.441,-570.801,3.906,0
1580328313.319,5.859,45.898,3.906,-473.145,23.926,0
1580328313.323,11.230,43.945,6.348,-436.523,38.086,0
1580328313.327,20.020,43.457,10.742,-438.965,-1.953,0
1580328313.331,21.973,43.945,12.207,-450.684,8.789,0
1580328313.334,21.973,43.945,12.207,-467.773,24.902,0
1580328313.338,23.438,44.434,13.672,-505.859,-17.578,0
1580328313.342,20.996,41.992,15.137,-528.320,-5.371,0
1580328313.346,21.973,40.527,16.602,-541.016,18.555,0
1580328313.350,21.973,38.086,17.578,-570.801,30.762,0
1580328313.367,23.438,39.062,19.043,-584.473,44.434,0
1580328313.371,25.391,40.527,21.484,-588.867,10.742,0
1580328313.375,24.902,35.156,20.508,-589.355,-10.742,0
1580328313.379,29.785,34.668,21.973,-544.922,6.836,0
1580328313.383,28.320,32.715,23.926,-531.250,21.484,0
1580328313.387,27.344,31.738,26.367,-552.246,2.441,0
1580328313.391,30.273,32.227,27.832,-632.324,-25.879,0
1580328313.394,27.344,27.832,26.367,-716.309,-15.137,0
1580328313.398,25.879,29.297,25.879,-768.555,-18.066,0
1580328313.402,26.367,29.785,26.367,-817.383,-18.066,0
1580328313.406,28.320,30.273,28.809,-807.617,-50.781,0
1580328313.410,23.438,30.762,30.273,-784.668,-72.266,0
1580328313.407,16.602,27.832,29.297,-766.113,-32.715,0
1580328313.411,21.973,28.320,29.785,-806.641,-9.766,0
1580328313.415,20.020,28.320,30.762,-880.859,-14.648,0
1580328313.419,13.184,25.879,31.250,-924.316,-47.363,0
1580328313.423,11.230,25.879,30.273,-959.961,-59.570,0
1580328313.427,6.836,26.367,28.809,-969.238,-20.020,0
1580328313.431,6.348,26.855,29.785,-967.285,-8.789,0
1580328313.434,10.742,24.902,25.391,-968.750,-41.016,0
1580328313.438,14.160,24.902,22.461,-968.750,-58.594,0
1580328313.442,13.672,26.367,30.273,-968.262,-41.992,0
1580328313.446,10.254,25.879,31.250,-968.262,-44.922,0
1580328313.450,12.207,26.367,29.297,-968.262,-48.828,0
1580328313.447,16.602,26.855,33.691,-968.262,-52.734,0
1580328313.451,21.484,29.297,34.180,-968.262,-19.531,0
1580328313.455,20.020,31.738,35.156,-968.262,22.461,0
1580328313.459,17.090,33.203,35.645,-968.750,6.348,0
1580328313.463,12.695,34.668,35.645,-968.750,9.766,0
1580328313.467,5.859,34.668,37.109,-968.750,21.484,0
1580328313.471,1.465,36.621,38.574,-968.750,27.344,0
1580328313.474,-10.742,41.992,44.922,-968.750,-4.883,0
1580328313.478,-24.414,45.898,48.340,-968.262,-9.766,0
1580328313.482,-29.785,45.410,47.852,-968.750,41.992,0
1580328313.486,-41.016,47.852,50.781,-968.262,51.758,0
1580328313.490,-59.082,52.246,53.711,-962.891,34.180,0
1580328313.507,-78.613,56.152,55.176,-976.074,23.926,0
1580328313.511,-105.469,54.199,60.059,-871.094,49.805,0
1580328313.515,-126.953,47.363,65.430,-665.039,87.891,0
1580328313.519,-134.277,47.363,67.871,-443.848,93.262,0
1580328313.523,-144.531,52.734,71.777,-243.652,67.383,0
1580328313.527,-155.762,60.059,68.848,-122.070,41.504,0
1580328313.531,-152.832,62.988,65.918,15.137,50.781,0
1580328313.534,-159.668,62.988,68.848,133.301,78.613,0
1580328313.538,-169.922,57.129,73.730,231.934,68.359,0
1580328313.542,-173.340,49.805,75.195,342.773,49.316,0
1580328313.546,-168.945,49.316,74.707,456.543,38.574,0
1580328313.550,-153.320,49.316,72.754,546.875,7.812,0
1580328313.547,-141.602,51.758,66.406,629.395,-7.812,0
1580328313.551,-142.578,52.734,58.594,696.289,-11.230,0
1580328313.555,-137.207,47.852,51.270,735.352,-16.602,0
1580328313.559,-118.652,47.852,50.293,750.977,-20.996,0
1580328313.563,-110.840,45.898,51.758,731.934,-23.926,0
1580328313.567,-104.980,43.945,47.852,723.145,-9.277,0
1580328313.571,-89.355,46.387,43.457,748.047,-30.273,0
1580328313.574,-71.777,45.898,40.039,759.277,-39.551,0
1580328313.578,-48.828,44.922,36.621,749.023,-43.945,0
1580328313.582,-31.250,42.480,35.156,719.727,-78.125,0
1580328313.586,-21.484,34.180,34.668,680.176,-72.266,0
1580328313.590,-7.324,27.832,34.668,672.852,-45.898,0
1580328313.607,6.348,25.391,35.156,682.617,-34.180,0
1580328313.611,18.066,20.996,29.785,690.430,-42.480,0
1580328313.615,33.203,19.531,21.973,691.895,-55.176,0
1580328313.619,41.016,20.020,23.438,690.430,-44.434,0
1580328313.623,45.898,17.578,25.391,699.219,-36.133,0
1580328313.627,54.199,13.672,24.414,699.707,-56.641,0
1580328313.631,54.688,14.160,19.043,701.172,-39.551,0
1580328313.634,66.895,18.066,20.996,726.562,-33.203,0
1580328313.638,73.730,16.602,24.414,754.395,-61.035,0
1580328313.642,70.312,13.184,22.949,778.809,-53.711,0
1580328313.646,78.613,13.184,24.414,810.547,-71.289,0
1580328313.650,83.496,12.695,25.879,840.820,-63.477,0
1580328313.647,81.543,13.672,26.367,849.121,-30.273,0
1580328313.651,83.984,14.160,30.273,812.012,-24.902,0
1580328313.655,88.379,16.602,30.762,768.555,-25.391,0
1580328313.659,88.379,16.602,29.785,778.320,-25.391,0
1580328313.663,88.379,16.113,30.762,797.852,-27.344,0
1580328313.667,91.309,17.090,28.809,812.988,-21.973,0
1580328313.671,88.379,14.648,26.367,833.008,-35.645,0
1580328313.674,87.402,13.184,26.367,851.074,-53.223,0
1580328313.678,84.473,15.625,25.391,849.121,-53.223,0
1580328313.682,81.543,17.090,24.902,831.055,-28.320,0
1580328313.686,82.031,19.043,28.809,813.965,-47.363,0
1580328313.690,81.543,19.531,32.715,795.410,-84.473,0
1580328313.707,77.148,17.578,31.738,791.504,-57.129,0
1580328313.711,72.266,17.090,29.785,786.621,-34.668,0
1580328313.715,72.266,18.066,31.250,782.227,-37.598,0
1580328313.719,72.754,22.461,31.250,791.016,-65.430,0
1580328313.723,71.289,23.438,31.250,797.363,-65.918,0
1580328313.727,73.730,23.438,34.668,804.688,-31.738,0
1580328313.731,72.266,24.414,34.668,793.457,-36.621,0
1580328313.734,66.895,22.461,32.227,784.668,-50.781,0
1580328313.738,65.918,20.020,31.738,790.527,-47.363,0
1580328313.742,62.988,22.461,30.762,782.715,-31.738,0
1580328313.746,59.570,24.414,29.297,762.207,-36.621,0
1580328313.750,61.523,22.461,29.297,714.844,-57.617,0
1580328313.727,61.035,20.996,29.785,663.574,-49.316,0
1580328313.731,58.594,21.973,28.320,631.348,-46.875,0
1580328313.735,56.152,21.973,25.391,620.605,-44.434,0
1580328313.739,51.758,24.414,27.832,607.422,-49.805,0
1580328313.743,53.711,27.344,29.785,564.941,-52.734,0
1580328313.747,50.293,25.391,28.320,528.320,-37.109,0
1580328313.751,41.992,22.949,28.809,535.645,-19.043,0
1580328313.754,40.039,22.949,30.762,570.312,-28.809,0
1580328313.758,37.598,21.973,31.738,609.375,-69.336,0
1580328313.762,37.109,20.020,31.250,646.973,-22.461,0
1580328313.766,37.598,21.484,32.227,674.805,12.207,0
1580328313.770,33.203,21.484,35.156,679.199,-16.602,0
1580328313.787,32.715,20.996,35.645,676.758,-60.547,0
1580328313.791,33.203,20.996,32.227,685.059,-62.012,0
1580328313.795,32.227,19.531,32.227,688.477,-15.137,0
1580328313.799,34.668,21.484,35.156,687.012,-8.301,0
1580328313.803,36.133,24.902,36.133,679.199,-31.250,0
1580328313.807,35.645,26.367,36.133,661.621,-68.359,0
1580328313.811,35.156,25.879,37.109,640.137,-49.316,0
1580328313.814,32.715,24.902,36.621,616.699,-15.625,0
1580328313.818,32.227,26.367,35.156,592.285,-35.645,0
1580328313.822,29.785,25.879,36.621,561.523,-52.734,0
1580328313.826,27.832,25.391,41.992,530.762,-76.660,0
1580328313.830,25.391,24.902,41.504,507.812,-63.477,0
1580328313.827,24.414,23.926,38.086,481.445,-45.410,0
1580328313.831,26.855,27.344,41.016,463.379,-70.801,0
1580328313.835,28.809,29.297,42.480,445.801,-73.730,0
1580328313.839,30.762,27.344,41.992,413.086,-61.035,0
1580328313.843,31.738,28.320,42.480,394.043,-50.293,0
1580328313.847,28.809,30.762,41.992,381.836,-83.496,0
1580328313.851,27.344,28.320,40.039,382.812,-70.801,0
1580328313.854,26.367,24.902,39.551,391.113,-42.480,0
1580328313.858,26.367,28.320,43.457,386.719,-41.992,0
1580328313.862,24.414,26.855,41.504,375.977,-53.711,0
1580328313.866,23.438,22.949,37.598,372.559,-67.383,0
1580328313.870,22.949,23.438,39.062,365.234,-63.965,0
1580328313.867,17.578,21.484,39.062,349.121,-60.547,0
1580328313.871,17.090,20.996,39.551,347.168,-57.129,0
1580328313.875,16.113,20.996,43.457,333.984,-85.449,0
1580328313.879,12.695,20.020,41.504,313.477,-72.754,0
1580328313.883,16.602,19.043,40.527,294.922,-14.648,0
1580328313.887,20.020,20.508,42.480,279.297,-18.555,0
1580328313.891,20.996,22.461,40.527,266.602,-46.875,0
1580328313.894,23.926,24.902,43.457,260.254,-100.586,0
1580328313.898,20.996,23.926,43.945,256.836,-95.703,0
1580328313.902,20.996,22.949,43.945,247.070,-35.156,0
1580328313.906,23.926,24.902,46.387,226.074,-42.969,0
1580328313.910,21.484,27.344,45.410,202.148,-58.594,0
1580328313.927,20.020,27.832,44.434,181.641,-40.527,0
1580328313.931,12.207,24.414,42.480,153.320,6.348,0
1580328313.935,5.859,25.391,42.480,128.906,2.930,0
1580328313.939,4.883,25.879,43.457,102.539,-25.879,0
1580328313.943,2.930,22.949,40.527,76.172,-34.180,0
1580328313.947,3.418,22.461,39.551,59.082,-27.832,0
1580328313.951,8.301,21.973,39.062,32.227,-27.344,0
1580328313.954,11.719,20.996,41.504,7.812,-54.199,0
1580328313.958,13.184,22.949,43.457,-0.488,-56.152,0
1580328313.962,15.625,24.414,37.598,-16.113,-29.297,0
1580328313.966,20.996,24.414,35.156,-48.340,-39.551,0
1580328313.970,22.949,23.438,36.621,-70.801,-57.617,0
1580328314.007,19.531,25.879,34.668,-82.031,-46.387,0
1580328314.011,20.020,28.809,36.133,-103.027,-33.203,0
1580328314.015,15.625,25.879,37.598,-118.164,-28.320,0
1580328314.019,11.719,25.879,38.574,-161.133,-33.691,0
1580328314.023,13.184,24.902,38.574,-222.168,-50.293,0
1580328314.027,9.766,22.461,36.621,-273.438,-62.012,0
1580328314.031,9.766,23.438,34.180,-334.961,-37.598,0
1580328314.034,10.742,21.973,32.715,-390.625,-43.945,0
1580328314.038,11.719,22.461,34.180,-419.434,-71.289,0
1580328314.042,10.742,24.902,37.109,-381.348,-94.727,0
1580328314.046,8.789,23.438,39.551,-295.410,-67.871,0
1580328314.050,9.766,22.949,40.527,-233.398,-37.109,0
1580328314.010,9.766,24.414,40.527,-208.984,-72.266,0
1580328314.014,12.695,24.414,41.504,-170.898,-83.008,0
1580328314.018,13.672,24.902,38.574,-146.484,-54.688,0
1580328314.022,9.766,26.367,35.645,-139.648,-18.555,0
1580328314.026,9.766,25.879,37.598,-115.723,-37.598,0
1580328314.030,12.695,28.809,38.086,-106.934,-73.242,0
1580328314.034,15.625,31.250,33.691,-105.469,-85.938,0
1580328314.037,15.625,29.297,35.156,-111.328,-71.777,0
1580328314.041,12.207,28.809,37.598,-149.902,-33.203,0
1580328314.045,9.766,28.320,37.598,-179.688,-52.246,0
1580328314.049,11.719,26.855,35.645,-200.684,-60.547,0
1580328314.053,13.184,26.855,36.133,-216.309,-40.527,0
1580328314.067,9.277,27.832,37.109,-268.066,-34.180,0
1580328314.071,6.836,25.879,34.180,-343.262,-72.266,0
1580328314.075,8.301,23.926,35.156,-376.953,-87.402,0
1580328314.079,9.766,26.855,34.180,-385.254,-55.176,0
1580328314.083,10.742,26.367,32.227,-385.742,-45.898,0
1580328314.087,14.648,27.344,34.180,-403.809,-63.477,0
1580328314.091,20.508,30.273,35.156,-389.160,-87.891,0
1580328314.094,18.066,27.344,34.668,-312.988,-60.547,0
1580328314.098,14.648,26.855,35.156,-225.098,-29.297,0
1580328314.102,15.625,27.344,33.203,-154.297,-28.320,0
1580328314.106,16.602,27.832,34.668,-68.359,-41.016,0
1580328314.110,17.578,25.879,35.645,20.020,-37.598,0
1580328314.107,16.113,25.391,33.691,68.848,-15.625,0
1580328314.111,15.625,27.344,35.156,107.422,-21.973,0
1580328314.115,17.578,25.879,36.133,131.836,-28.809,0
1580328314.119,15.137,22.461,36.621,143.066,-20.508,0
1580328314.123,14.160,22.461,36.133,152.832,-6.836,0
1580328314.127,15.137,24.414,36.133,165.039,-33.203,0
1580328314.131,11.719,23.926,36.621,176.758,-45.898,0
1580328314.134,8.789,21.484,33.203,193.848,-12.695,0
1580328314.138,8.301,21.484,32.715,209.961,6.836,0
1580328314.142,7.324,23.438,33.691,217.773,20.508,0
1580328314.146,5.859,21.973,32.715,224.121,14.648,0
1580328314.150,4.883,20.508,34.180,228.027,5.371,0
1580328314.167,7.324,20.020,34.668,228.516,51.758,0
1580328314.171,9.277,21.973,36.621,218.262,65.430,0
1580328314.175,9.277,21.973,38.574,203.613,31.250,0
1580328314.179,5.859,20.508,36.621,193.359,47.363,0
1580328314.183,4.883,21.484,35.156,180.176,54.199,0
1580328314.187,6.836,22.461,35.156,163.086,43.945,0
1580328314.191,5.859,22.461,36.621,143.066,47.363,0
1580328314.194,5.371,23.438,40.527,109.863,17.578,0
1580328314.198,5.371,24.414,38.086,58.594,50.781,0
1580328314.202,5.371,22.461,36.133,6.836,86.426,0
1580328314.206,3.418,22.949,41.016,-5.371,81.055,0
1580328314.210,4.883,26.855,41.016,0.488,55.664,0
1580328314.207,2.930,24.414,39.551,10.254,25.879,0
1580328314.211,-0.977,21.484,40.039,20.508,55.664,0
1580328314.215,2.441,25.391,39.062,1.465,79.102,0
1580328314.219,0.000,24.902,38.086,-16.602,55.176,0
1580328314.223,3.418,24.902,41.016,-21.973,20.020,0
1580328314.227,9.277,26.855,38.574,-32.227,25.879,0
1580328314.231,13.672,24.902,38.574,-42.969,25.879,0
1580328314.234,16.602,29.297,39.551,-64.453,3.418,0
1580328314.238,15.137,33.691,34.180,-99.609,-2.930,0
1580328314.242,27.344,34.180,34.668,-104.004,-7.812,0
1580328314.246,41.992,35.645,36.621,-104.492,-14.160,0
1580328314.250,47.852,35.645,36.621,-119.629,-26.367,0
1580328314.247,51.270,35.645,34.668,-125.977,-29.297,0
1580328314.251,58.594,37.598,30.273,-127.441,-13.672,0
1580328314.255,66.406,40.039,30.762,-125.488,-3.906,0
1580328314.259,72.754,42.969,31.250,-121.582,-21.973,0
1580328314.263,83.496,44.434,30.273,-117.676,-34.180,0
1580328314.267,93.262,45.410,33.203,-109.863,-42.480,0
1580328314.271,104.980,46.387,33.691,-88.379,-25.391,0
1580328314.274,107.422,45.898,33.691,-84.961,1.953,0
1580328314.278,99.609,45.410,39.062,-93.750,-19.043,0
1580328314.282,95.703,40.039,40.039,-87.402,-42.969,0
1580328314.286,94.727,36.621,39.062,-69.824,-23.438,0
1580328314.290,89.844,38.086,41.992,-63.477,-3.906,0
1580328314.307,89.844,37.109,42.969,-60.547,9.766,0
1580328314.311,93.262,39.062,42.480,-52.246,-0.977,0
1580328314.315,89.844,40.039,42.969,-52.734,2.441,0
1580328314.319,84.473,40.527,42.969,-53.711,8.301,0
1580328314.323,79.102,40.527,41.504,-55.176,-3.418,0
1580328314.327,72.266,40.527,43.457,-54.688,-8.301,0
1580328314.331,67.871,39.062,41.992,-55.664,-38.086,0
1580328314.334,62.988,37.109,38.574,-45.898,-48.340,0
1580328314.338,53.711,36.133,36.621,-9.277,-20.508,0
1580328314.342,49.805,33.691,38.574,30.762,-20.508,0
1580328314.346,45.410,30.762,39.551,91.309,-13.184,0
1580328314.350,43.457,30.273,40.039,158.691,-13.672,0
1580328314.347,41.016,30.273,40.039,190.430,-16.602,0
1580328314.351,38.086,29.297,40.039,194.336,-14.160,0
1580328314.355,41.504,32.227,39.062,201.172,-31.738,0
1580328314.359,42.480,33.203,40.039,206.543,-34.180,0
1580328314.363,39.551,29.297,42.969,215.820,-67.871,0
1580328314.367,40.039,30.762,41.504,234.863,-98.633,0
1580328314.371,40.039,31.738,40.039,244.141,-75.684,0
1580328314.374,37.109,27.832,41.504,251.465,-59.082,0
1580328314.378,31.738,22.461,40.527,258.301,-49.805,0
1580328314.382,33.203,26.367,42.969,261.230,-62.988,0
1580328314.386,33.203,31.738,43.457,262.207,-106.445,0
1580328314.390,29.297,27.832,41.504,265.137,-105.469,0
1580328314.387,29.785,25.879,43.457,268.066,-67.383,0
1580328314.391,29.785,25.879,43.457,272.949,-36.133,0
1580328314.395,31.738,27.832,44.922,284.668,-46.875,0
1580328314.399,30.273,29.297,43.945,283.203,-106.934,0
1580328314.403,27.344,25.879,42.969,285.156,-93.262,0
1580328314.407,26.367,24.902,45.410,292.969,-62.500,0
1580328314.411,23.438,24.902,44.434,284.668,-90.332,0
1580328314.414,21.973,21.973,43.945,270.020,-70.312,0
1580328314.418,24.902,22.949,45.410,250.977,-68.848,0
1580328314.422,20.020,24.414,41.504,234.863,-85.449,0
1580328314.426,18.066,23.438,40.039,249.023,-60.547,0
1580328314.430,19.531,25.391,41.016,265.625,-59.570,0
1580328314.450,16.113,27.832,42.480,263.184,-59.082,0
1580328314.454,15.137,28.320,41.992,260.742,-31.250,0
1580328314.458,12.695,25.391,39.551,271.484,-8.301,0
1580328314.462,9.277,25.879,41.504,271.484,-33.203,0
1580328314.466,9.766,25.879,41.504,258.789,-38.086,0
1580328314.470,14.160,26.367,43.457,242.188,-25.879,0
1580328314.474,16.113,28.320,45.410,220.703,-23.438,0
1580328314.477,15.625,29.297,44.434,193.848,-32.715,0
1580328314.481,17.578,28.809,44.434,159.668,-40.527,0
1580328314.485,20.508,29.785,45.898,128.906,-17.578,0
1580328314.489,22.949,33.203,46.387,99.121,9.766,0
1580328314.493,23.438,33.691,45.898,70.801,-23.438,0
1580328314.487,18.066,31.738,43.945,43.945,-33.691,0
1580328314.491,12.695,29.297,41.504,19.043,-13.184,0
1580328314.495,13.184,25.391,40.039,-3.418,-3.418,0
1580328314.499,15.137,24.414,38.574,-26.367,15.625,0
1580328314.503,18.066,29.297,38.574,-44.434,-34.180,0
1580328314.507,21.484,31.250,39.062,-59.082,-72.754,0
1580328314.511,20.020,26.855,37.109,-77.148,-13.184,0
1580328314.514,19.531,25.391,38.086,-92.285,-8.789,0
1580328314.518,23.438,26.855,38.086,-109.863,-46.875,0
1580328314.522,22.949,23.438,38.086,-133.789,-79.102,0
1580328314.526,27.832,26.367,35.156,-146.973,-79.590,0
1580328314.530,37.109,27.832,31.738,-144.043,-56.152,0
1580328314.527,20.020,19.043,36.621,-162.109,-62.012,0
1580328314.531,-13.184,18.555,37.598,-212.891,-80.566,0
1580328314.535,-35.156,20.020,38.574,-251.465,-79.102,0
1580328314.539,-50.781,16.113,40.039,-277.344,-52.246,0
1580328314.543,-75.684,12.207,36.621,-318.848,-47.363,0
1580328314.547,-96.680,7.812,33.203,-354.004,-81.543,0
1580328314.551,-112.305,5.371,32.715,-381.348,-76.660,0
1580328314.554,-139.648,2.930,31.250,-419.434,-62.500,0
1580328314.558,-140.137,2.930,34.180,-428.711,-103.516,0
1580328314.562,-141.602,-0.977,34.668,-429.688,-92.773,0
1580328314.566,-144.043,-5.371,28.320,-429.688,-31.738,0
1580328314.570,-132.324,-3.418,28.320,-426.270,-31.738,0
1580328314.587,-137.207,0.000,30.273,-435.547,-56.641,0
1580328314.591,-130.371,4.395,31.738,-431.641,-81.055,0
1580328314.595,-117.676,5.371,28.320,-425.781,-62.500,0
1580328314.599,-105.957,3.418,28.809,-428.711,-31.250,0
1580328314.603,-87.402,5.859,31.250,-436.523,-35.156,0
1580328314.607,-73.242,9.277,30.273,-431.152,-58.594,0
1580328314.611,-62.988,9.766,29.297,-426.758,-58.594,0
1580328314.614,-54.199,9.277,26.367,-417.480,-30.762,0
1580328314.618,-45.410,11.230,24.902,-400.391,-13.184,0
1580328314.622,-39.551,13.672,26.367,-387.207,-29.785,0
1580328314.626,-33.691,15.625,30.273,-408.691,-59.082,0
1580328314.630,-23.926,20.508,34.180,-601.562,-55.664,0
1580328314.627,-16.113,20.020,31.738,-854.492,-47.363,0
1580328314.631,-11.230,18.066,29.785,-957.520,-41.992,0
1580328314.635,-7.812,20.508,29.785,-965.332,-43.945,0
1580328314.639,-1.953,21.484,29.785,-966.797,-59.082,0
1580328314.643,-0.488,20.996,29.297,-968.750,-37.598,0
1580328314.647,-1.953,21.484,26.855,-968.262,0.488,0
1580328314.651,1.465,20.020,26.855,-968.262,-1.465,0
1580328314.654,3.906,19.531,27.832,-968.262,-14.160,0
1580328314.658,5.371,21.484,24.902,-968.262,18.066,0
1580328314.662,12.695,28.320,26.367,-968.262,17.578,0
1580328314.666,11.719,28.320,27.344,-968.750,3.906,0
1580328314.670,11.719,23.438,21.973,-968.262,26.367,0
1580328314.669,17.090,24.414,24.902,-968.262,67.871,0
1580328314.673,17.090,25.879,24.902,-968.262,106.934,0
1580328314.677,20.996,26.855,25.879,-968.750,93.262,0
1580328314.681,23.438,26.855,25.879,-968.750,87.891,0
1580328314.685,20.508,24.902,23.926,-968.750,83.008,0
1580328314.689,22.949,24.414,21.484,-968.262,82.520,0
1580328314.693,23.926,24.902,21.484,-968.262,82.520,0
1580328314.696,21.973,27.344,27.832,-968.750,49.316,0
1580328314.700,22.949,29.297,31.250,-968.750,20.508,0
1580328314.704,20.508,27.344,31.250,-968.750,30.762,0
1580328314.708,18.066,25.879,31.738,-968.262,22.949,0
1580328314.712,16.113,26.367,33.203,-968.262,-1.953,0
1580328314.747,17.578,25.879,35.156,-968.262,-26.367,0
1580328314.751,16.602,25.391,35.645,-968.262,-30.273,0
1580328314.755,18.066,26.367,33.203,-968.262,-8.789,0
1580328314.759,20.020,28.320,33.203,-968.262,-70.801,0
1580328314.763,15.137,28.320,34.668,-968.262,-135.254,0
1580328314.767,13.672,28.320,33.691,-968.750,-112.793,0
1580328314.771,15.137,29.785,32.715,-968.750,-120.117,0
1580328314.774,12.695,27.344,30.762,-968.750,-165.039,0
1580328314.778,8.789,23.926,29.785,-968.262,-180.664,0
1580328314.782,7.812,24.414,31.250,-968.262,-187.988,0
1580328314.786,12.695,25.879,32.715,-968.750,-183.105,0
1580328314.790,16.602,25.391,30.273,-968.750,-182.617,0
1580328314.787,19.043,24.414,30.762,-968.262,-208.984,0
1580328314.791,20.020,24.902,35.156,-968.262,-220.703,0
1580328314.795,22.461,24.902,34.668,-968.750,-203.613,0
1580328314.799,23.438,28.809,33.203,-968.750,-192.383,0
1580328314.803,27.832,30.762,33.203,-968.262,-188.477,0
1580328314.807,32.227,28.809,38.086,-968.750,-218.262,0
1580328314.811,26.367,26.367,36.621,-968.750,-224.609,0
1580328314.814,22.949,23.438,34.668,-968.750,-180.664,0
1580328314.818,23.926,22.461,36.621,-968.262,-187.988,0
1580328314.822,23.438,25.391,37.109,-968.262,-252.930,0
1580328314.826,17.578,25.879,34.668,-968.262,-255.371,0
1580328314.830,20.020,24.902,31.250,-968.750,-215.332,0
1580328314.807,32.715,27.832,31.250,-968.750,-215.820,0
1580328314.811,34.668,29.297,34.668,-968.750,-230.469,0
1580328314.815,24.902,27.344,40.527,-968.262,-251.953,0
1580328314.819,23.926,24.902,41.992,-968.262,-262.695,0
1580328314.823,26.367,21.484,38.574,-968.750,-217.773,0
1580328314.827,33.203,23.926,39.062,-968.750,-220.703,0
1580328314.831,32.227,24.902,37.598,-968.750,-231.445,0
1580328314.834,26.367,22.461,37.598,-968.750,-198.242,0
1580328314.838,29.785,22.949,38.086,-968.262,-185.547,0
1580328314.842,30.762,23.438,37.109,-969.238,-140.625,0
1580328314.846,34.180,24.902,40.527,-966.797,-143.066,0
1580328314.850,34.668,26.855,39.062,-967.773,-104.980,0
1580328314.867,33.691,27.344,34.180,-963.867,-29.297,0
1580328314.871,35.645,28.809,37.109,-872.559,-50.781,0
1580328314.875,30.762,27.344,41.016,-743.652,-80.566,0
1580328314.879,20.508,23.438,40.039,-649.414,-12.695,0
1580328314.883,22.461,24.414,39.551,-563.965,37.109,0
1580328314.887,25.879,23.926,39.062,-494.141,47.363,0
1580328314.891,23.926,22.949,39.062,-430.664,51.758,0
1580328314.894,21.973,23.926,37.109,-351.562,53.711,0
1580328314.898,22.461,23.438,35.645,-280.273,81.543,0
1580328314.902,22.949,23.926,34.180,-227.539,102.051,0
1580328314.906,25.879,22.461,37.109,-160.645,110.352,0
1580328314.910,30.273,22.461,40.527,-104.980,111.816,0
1580328314.907,27.344,25.879,37.598,-80.078,144.531,0
1580328314.911,32.227,28.809,37.598,-51.758,182.129,0
1580328314.915,35.645,26.367,37.598,1.465,189.453,0
1580328314.919,35.645,21.973,38.574,47.363,187.500,0
1580328314.923,43.457,22.949,41.504,67.871,217.773,0
1580328314.927,44.922,27.832,39.551,80.566,256.348,0
1580328314.931,33.203,32.227,36.133,48.340,275.391,0
1580328314.934,14.160,32.227,33.691,-0.977,301.270,0
1580328314.938,8.301,32.227,29.297,-11.719,317.383,0
1580328314.942,11.719,35.156,26.367,-11.230,316.406,0
1580328314.946,3.418,35.645,24.902,-16.602,317.383,0
1580328314.950,0.488,35.156,22.949,-41.992,298.828,0
1580328314.947,-3.906,33.691,20.020,-85.449,312.500,0
1580328314.951,0.000,34.668,21.484,-103.516,338.867,0
1580328314.955,7.812,35.156,25.391,-103.027,330.566,0
1580328314.959,7.324,35.156,25.391,-117.676,332.520,0
1580328314.963,7.324,33.691,24.902,-118.652,350.586,0
1580328314.967,7.812,33.203,25.391,-116.211,348.145,0
1580328314.971,9.766,34.668,23.438,-139.648,358.887,0
1580328314.974,14.160,36.621,25.879,-177.246,352.539,0
1580328314.978,8.789,34.180,25.879,-244.141,340.820,0
1580328314.982,7.324,30.762,24.414,-281.250,384.766,0
1580328314.986,13.184,33.203,27.344,-307.617,437.988,0
1580328314.990,11.230,35.645,32.227,-367.676,445.312,0
1580328315.007,12.695,35.156,35.645,-394.043,412.598,0
1580328315.011,17.090,34.180,36.133,-395.996,428.223,0
1580328315.015,17.090,33.203,37.109,-419.922,440.430,0
1580328315.019,13.184,28.320,36.133,-427.246,436.035,0
1580328315.023,11.719,26.855,36.133,-393.555,435.059,0
1580328315.027,13.672,31.738,36.133,-355.469,421.387,0
1580328315.031,14.160,33.691,32.715,-348.633,396.973,0
1580328315.034,12.695,28.809,34.180,-363.281,387.695,0
1580328315.038,13.184,26.855,37.109,-380.371,362.793,0
1580328315.042,10.254,26.367,37.598,-414.062,331.055,0
1580328315.046,9.277,23.926,38.574,-453.125,319.336,0
1580328315.050,10.254,21.973,39.062,-459.961,312.012,0
1580328315.047,11.230,19.043,40.039,-450.195,297.852,0
1580328315.051,14.648,17.578,37.109,-454.102,285.156,0
1580328315.055,17.578,19.043,33.203,-464.844,297.852,0
1580328315.059,19.043,22.461,35.156,-471.191,310.059,0
1580328315.063,18.066,21.973,37.598,-462.891,297.363,0
1580328315.067,19.531,23.438,36.621,-470.215,248.047,0
1580328315.071,20.508,27.344,34.180,-524.414,230.957,0
1580328315.074,17.578,25.391,33.691,-550.293,231.934,0
1580328315.078,17.090,26.367,34.668,-541.504,229.492,0
1580328315.082,21.973,29.297,38.086,-540.039,169.922,0
1580328315.086,22.461,26.855,37.598,-544.922,106.445,0
1580328315.090,21.973,26.367,31.738,-566.895,112.305,0
1580328315.087,24.414,24.902,30.273,-583.984,120.117,0
1580328315.091,25.391,25.391,33.691,-585.449,98.633,0
1580328315.095,23.438,27.344,31.738,-586.426,59.570,0
1580328315.099,18.555,28.809,32.227,-588.379,74.707,0
1580328315.103,18.066,32.227,34.668,-598.633,108.887,0
1580328315.107,21.973,33.691,35.156,-613.770,79.102,0
1580328315.111,23.438,31.250,39.062,-618.652,50.293,0
1580328315.114,24.414,29.785,40.039,-615.723,53.223,0
1580328315.118,22.949,29.297,39.551,-609.863,47.363,0
1580328315.122,19.043,25.879,35.645,-606.934,79.590,0
1580328315.126,19.043,25.391,32.227,-608.887,105.957,0
1580328315.130,19.531,23.926,29.297,-623.047,119.141,0
1580328315.147,20.508,25.879,27.832,-630.371,112.793,0
1580328315.151,21.484,27.344,27.832,-630.371,96.191,0
1580328315.155,18.066,24.902,27.344,-625.000,83.496,0
1580328315.159,10.742,20.508,28.809,-618.164,105.957,0
1580328315.163,9.277,18.066,31.738,-652.832,113.281,0
1580328315.167,11.719,20.996,33.691,-699.219,92.285,0
1580328315.171,10.254,21.484,33.691,-701.172,19.531,0
1580328315.174,4.395,20.508,30.762,-689.941,-7.812,0
1580328315.178,5.371,23.438,30.273,-687.988,6.348,0
1580328315.182,9.766,25.391,33.203,-670.898,5.859,0
1580328315.186,10.742,24.414,35.156,-656.250,-28.320,0
1580328315.190,10.742,25.391,37.109,-654.785,-63.477,0
1580328315.187,13.672,25.391,34.668,-635.742,-27.832,0
1580328315.191,14.648,25.879,33.691,-608.398,-15.625,0
1580328315.195,17.090,26.855,34.180,-580.078,-40.039,0
1580328315.199,24.902,26.855,29.297,-553.223,-30.762,0
1580328315.203,30.273,28.809,32.715,-535.156,-35.645,0
1580328315.207,16.113,27.832,39.551,-527.344,-5.371,0
1580328315.211,3.906,25.391,41.504,-516.602,21.484,0
1580328315.214,4.883,22.949,44.922,-494.141,20.020,0
1580328315.218,5.371,19.531,47.363,-481.445,35.156,0
1580328315.222,6.348,18.066,46.387,-475.098,16.113,0
1580328315.226,3.418,14.648,46.875,-465.332,2.441,0
1580328315.230,2.930,13.672,48.828,-461.426,8.789,0
1580328315.227,3.906,13.672,47.363,-456.543,-7.812,0
1580328315.231,5.859,15.137,44.434,-462.891,-16.602,0
1580328315.235,10.254,19.531,45.898,-476.562,-28.320,0
1580328315.239,9.277,17.090,44.434,-472.656,-14.160,0
1580328315.243,8.301,15.625,40.527,-492.188,-8.301,0
1580328315.247,9.766,17.578,40.527,-523.926,1.953,0
1580328315.251,7.812,17.578,39.551,-540.527,12.207,0
1580328315.254,8.301,17.090,40.039,-562.988,-35.645,0
1580328315.258,6.348,16.602,41.016,-565.918,-46.387,0
1580328315.262,0.000,16.113,40.039,-541.992,-22.949,0
1580328315.266,-0.977,17.090,37.109,-535.156,-4.883,0
1580328315.270,-2.441,17.090,34.668,-565.918,20.996,0
1580328315.287,-4.395,18.555,35.156,-593.262,20.508,0
1580328315.291,-6.836,19.531,33.203,-603.516,-4.395,0
1580328315.295,-6.348,18.555,33.691,-583.496,-6.348,0
1580328315.299,-2.930,17.578,33.691,-540.039,23.926,0
1580328315.303,-3.418,17.090,32.227,-526.855,11.230,0
1580328315.307,-4.395,17.578,34.180,-542.969,-47.363,0
1580328315.311,-4.395,17.578,33.203,-531.250,-43.945,0
1580328315.314,-0.488,20.508,32.227,-505.371,-9.766,0
1580328315.318,3.906,22.949,34.668,-486.328,-7.324,0
1580328315.322,3.418,23.438,35.645,-463.379,0.488,0
1580328315.326,5.859,24.902,40.039,-541.504,-26.367,0
1580328315.330,6.348,24.902,37.109,-682.129,-37.598,0
1580328315.327,2.441,23.926,31.250,-712.402,-41.992,0
1580328315.331,4.883,23.926,33.203,-673.340,-74.707,0
1580328315.335,6.836,23.926,31.738,-660.645,-67.871,0
1580328315.339,7.812,26.367,34.668,-655.273,-43.945,0
1580328315.343,11.719,29.297,37.598,-644.043,-64.453,0
1580328315.347,12.207,28.320,38.574,-651.367,-69.824,0
1580328315.351,12.695,25.879,37.109,-651.367,-63.477,0
1580328315.354,13.672,24.414,34.668,-612.793,-62.012,0
1580328315.358,14.648,27.832,36.621,-563.965,-22.461,0
1580328315.362,14.160,28.320,37.598,-553.711,-12.695,0
1580328315.366,11.719,25.879,35.156,-561.523,-2.930,0
1580328315.370,12.695,26.855,38.086,-560.059,53.223,0
1580328315.387,14.160,25.391,41.016,-568.848,77.637,0
1580328315.391,11.719,22.949,37.598,-569.336,60.059,0
1580328315.395,9.766,23.438,35.645,-562.012,52.734,0
1580328315.399,12.695,23.438,33.203,-565.918,59.570,0
1580328315.403,16.113,24.414,32.715,-568.848,51.270,0
1580328315.407,18.066,26.855,34.668,-571.777,47.852,0
1580328315.411,19.531,29.297,33.691,-592.773,42.969,0
1580328315.414,27.832,33.691,33.691,-582.520,1.465,0
1580328315.418,20.996,29.785,37.109,-493.164,-19.043,0
1580328315.422,5.859,22.949,40.039,-392.090,-15.625,0
1580328315.426,5.371,21.973,38.574,-334.473,-51.758,0
1580328315.430,4.883,20.020,40.527,-300.781,-69.824,0
1580328315.427,5.371,18.066,42.480,-288.086,-61.523,0
1580328315.431,2.441,17.578,40.039,-289.062,-78.125,0
1580328315.435,0.488,16.602,38.574,-257.324,-92.773,0
1580328315.439,4.395,15.625,35.156,-247.070,-94.238,0
1580328315.443,4.883,16.113,31.250,-258.789,-98.633,0
1580328315.447,6.836,18.555,31.738,-233.398,-80.078,0
1580328315.451,9.277,20.508,35.156,-203.125,-62.500,0
1580328315.454,7.324,21.484,37.109,-185.059,-69.336,0
1580328315.458,8.301,23.438,38.574,-166.504,-78.613,0
1580328315.462,9.277,22.949,35.645,-165.039,-78.125,0
1580328315.466,11.719,23.438,37.598,-181.641,-67.871,0
1580328315.470,11.230,25.391,41.016,-199.219,-108.887,0
1580328315.487,7.812,24.902,39.062,-210.938,-130.859,0
1580328315.491,12.207,25.391,41.016,-222.656,-117.188,0
1580328315.495,12.695,26.367,40.039,-236.328,-91.797,0
1580328315.499,14.648,28.809,38.086,-248.535,-104.004,0
1580328315.503,12.695,27.344,37.598,-254.395,-146.484,0
1580328315.507,5.371,28.809,35.156,-259.766,-139.648,0
1580328315.511,6.348,30.273,34.668,-267.578,-119.629,0
1580328315.514,9.277,26.855,35.645,-271.484,-84.961,0
1580328315.518,17.090,29.297,36.133,-276.855,-113.281,0
1580328315.522,20.996,29.785,33.691,-298.340,-165.527,0
1580328315.526,19.043,26.367,31.250,-309.570,-145.020,0
1580328315.530,22.461,29.297,38.086,-291.504,-116.699,0
1580328315.507,21.484,29.297,39.062,-283.691,-118.652,0
1580328315.511,23.438,30.762,37.109,-283.691,-114.746,0
1580328315.515,25.391,29.297,37.598,-291.992,-112.305,0
1580328315.519,20.508,26.367,40.527,-295.410,-109.863,0
1580328315.523,17.090,26.855,44.434,-266.113,-145.020,0
1580328315.527,16.602,25.391,43.945,-236.328,-165.039,0
1580328315.531,16.113,24.902,42.480,-231.445,-152.832,0
1580328315.534,14.648,24.902,39.062,-254.395,-145.996,0
1580328315.538,14.160,26.855,38.574,-280.273,-125.488,0
1580328315.542,11.719,29.785,40.527,-283.203,-129.395,0
1580328315.546,9.766,29.785,39.551,-277.344,-107.910,0
1580328315.550,12.695,28.809,41.504,-266.602,-108.398,0
1580328315.567,16.113,27.832,43.457,-272.461,-153.320,0
1580328315.571,13.672,25.391,39.062,-295.410,-124.512,0
1580328315.575,8.301,22.949,38.574,-297.852,-89.355,0
1580328315.579,11.719,22.461,41.992,-279.785,-87.891,0
1580328315.583,15.137,25.391,41.504,-264.648,-67.383,0
1580328315.587,15.137,27.832,44.922,-265.137,-75.195,0
1580328315.591,15.137,27.344,45.410,-262.207,-105.957,0
1580328315.594,17.578,29.297,40.527,-255.859,-81.543,0
1580328315.598,16.113,30.762,41.992,-252.441,-48.340,0
1580328315.602,12.695,28.809,46.387,-260.742,-76.172,0
1580328315.606,14.160,30.762,49.805,-269.531,-127.441,0
1580328315.610,12.695,30.273,46.387,-279.297,-108.398,0
1580328315.607,9.766,27.344,42.969,-291.016,-95.703,0
1580328315.611,13.184,26.855,44.922,-299.316,-116.699,0
1580328315.615,12.695,25.391,41.992,-308.594,-155.762,0
1580328315.619,10.254,23.926,40.527,-305.176,-176.758,0
1580328315.623,8.789,22.461,40.039,-299.316,-150.391,0
1580328315.627,9.277,23.438,41.504,-276.855,-147.949,0
1580328315.631,8.789,25.879,42.480,-253.906,-169.434,0
1580328315.634,10.742,25.879,38.574,-261.719,-160.156,0
1580328315.638,18.555,26.855,39.062,-270.996,-179.688,0
1580328315.642,14.648,23.438,40.039,-278.320,-173.828,0
1580328315.646,-0.977,20.020,41.992,-266.602,-147.461,0
1580328315.650,-9.277,19.531,48.340,-265.625,-183.594,0
1580328315.667,-4.883,19.531,48.340,-289.551,-172.363,0
1580328315.671,4.395,21.973,49.805,-324.219,-150.879,0
1580328315.675,2.930,23.438,51.758,-372.559,-184.082,0
1580328315.679,-3.418,21.484,50.781,-412.109,-208.984,0
1580328315.683,-3.418,20.020,51.758,-436.035,-209.961,0
1580328315.687,-2.930,19.531,53.223,-446.289,-200.195,0
1580328315.691,-3.418,20.996,52.734,-458.496,-217.773,0
1580328315.694,-3.418,21.484,51.270,-475.586,-282.227,0
1580328315.698,-6.836,18.066,47.363,-490.234,-260.742,0
1580328315.702,-6.348,17.090,48.340,-492.188,-205.078,0
1580328315.706,0.000,18.555,50.293,-496.094,-209.473,0
1580328315.710,0.977,20.508,45.410,-502.930,-248.535,0
1580328315.707,-0.488,21.484,40.039,-505.859,-271.484,0
1580328315.711,1.465,22.461,39.551,-503.906,-264.648,0
1580328315.715,1.953,20.996,40.527,-508.301,-267.578,0
1580328315.719,1.465,20.020,43.457,-514.160,-291.992,0
1580328315.723,4.883,20.020,45.898,-543.457,-312.988,0
1580328315.727,8.789,20.996,46.875,-568.848,-331.055,0
1580328315.731,6.836,23.438,46.875,-554.199,-323.730,0
1580328315.734,6.348,24.902,44.922,-532.227,-312.012,0
1580328315.738,7.812,24.902,44.922,-515.137,-302.734,0
1580328315.742,7.812,25.391,44.434,-483.398,-296.875,0
1580328315.746,11.719,27.832,44.434,-459.473,-316.406,0
1580328315.750,10.254,26.855,42.480,-473.633,-307.129,0
1580328315.747,6.348,24.414,38.574,-500.488,-276.855,0
1580328315.751,9.766,25.879,39.551,-501.953,-256.836,0
1580328315.755,9.277,24.902,39.062,-493.164,-253.418,0
1580328315.759,7.324,20.996,36.133,-505.371,-277.344,0
1580328315.763,7.812,19.531,38.086,-515.625,-292.480,0
1580328315.767,10.254,20.020,38.574,-509.766,-260.742,0
1580328315.771,11.719,20.996,39.062,-504.883,-259.766,0
1580328315.774,7.324,22.461,40.039,-497.070,-234.863,0
1580328315.778,8.301,26.855,43.457,-472.656,-232.422,0
1580328315.782,7.812,24.902,41.504,-461.426,-299.316,0
1580328315.786,-0.488,19.531,36.133,-463.379,-272.949,0
1580328315.790,-1.465,19.531,38.574,-472.168,-215.820,0
1580328315.807,2.930,20.996,40.039,-500.000,-222.168,0
1580328315.811,5.859,22.461,39.551,-520.508,-235.840,0
1580328315.815,6.348,20.508,37.598,-528.809,-200.684,0
1580328315.819,5.371,19.531,35.645,-526.855,-194.336,0
1580328315.823,4.395,19.531,35.645,-517.090,-225.098,0
1580328315.827,4.395,18.555,38.574,-529.297,-241.211,0
1580328315.831,6.836,20.508,41.016,-534.668,-229.004,0
1580328315.834,6.348,22.461,40.527,-524.414,-215.820,0
1580328315.838,4.883,20.996,39.062,-520.996,-186.523,0
1580328315.842,10.254,23.438,38.574,-503.418,-209.961,0
1580328315.846,8.301,24.414,39.062,-487.305,-217.285,0
1580328315.850,6.348,23.926,40.527,-479.492,-186.523,0
1580328315.847,9.766,24.414,41.016,-473.145,-192.383,0
1580328315.851,11.230,24.902,42.969,-469.238,-201.660,0
1580328315.855,12.695,27.344,42.969,-457.520,-181.641,0
1580328315.859,15.137,26.855,39.551,-454.102,-145.996,0
1580328315.863,20.508,27.344,41.016,-474.121,-131.348,0
1580328315.867,25.391,29.297,36.621,-487.793,-148.438,0
1580328315.871,25.391,27.832,30.762,-471.191,-132.812,0
1580328315.874,24.902,27.832,31.738,-462.891,-131.348,0
1580328315.878,19.043,27.344,29.297,-478.027,-125.000,0
1580328315.882,16.602,26.855,32.715,-468.262,-97.168,0
1580328315.886,23.926,26.367,35.156,-463.379,-114.258,0
1580328315.890,20.020,19.531,34.668,-467.773,-119.141,0
1580328315.887,7.324,18.066,40.527,-445.312,-95.215,0
1580328315.891,2.441,21.484,41.016,-416.016,-79.102,0
1580328315.895,3.906,19.043,42.480,-354.492,-73.242,0
1580328315.899,1.953,19.531,48.340,-301.758,-94.238,0
1580328315.903,-2.930,17.090,44.434,-344.238,-63.477,0
1580328315.907,0.000,13.184,45.898,-437.988,-35.156,0
1580328315.911,-0.977,13.672,46.875,-503.418,-68.359,0
1580328315.914,1.465,15.625,43.457,-543.945,-78.125,0
1580328315.918,8.301,19.043,46.875,-585.449,-93.750,0
1580328315.922,6.348,19.531,43.945,-633.789,-90.820,0
1580328315.926,2.930,19.043,40.527,-658.691,-43.945,0
1580328315.930,3.906,20.508,40.527,-659.180,-47.852,0
1580328315.947,6.348,19.043,38.574,-664.551,-38.086,0
1580328315.951,5.371,18.555,39.551,-672.363,-27.344,0
1580328315.955,1.465,15.137,37.598,-687.012,-33.691,0
1580328315.959,3.906,14.648,38.086,-683.594,-20.508,0
1580328315.963,3.906,18.555,38.086,-668.457,-23.926,0
1580328315.967,3.418,18.555,37.109,-660.156,3.418,0
1580328315.971,9.766,20.020,37.109,-644.531,15.625,0
1580328315.974,10.254,20.996,36.621,-623.535,-33.203,0
1580328315.978,6.836,18.066,36.133,-547.852,-37.598,0
1580328315.982,15.625,20.508,35.645,-440.430,-16.602,0
1580328315.986,18.555,22.461,36.621,-383.789,-18.066,0
1580328315.990,14.648,23.926,39.551,-357.422,-53.223,0
1580328315.987,12.207,24.414,41.504,-325.684,-72.754,0
1580328315.991,9.766,23.926,41.016,-298.828,-59.082,0
1580328315.995,9.766,23.438,37.598,-295.410,-20.020,0
1580328315.999,10.254,24.902,35.645,-286.621,-7.812,0
1580328316.003,12.695,27.344,38.086,-279.785,-23.926,0
1580328316.007,12.695,26.367,38.086,-250.977,-31.738,0
1580328316.011,10.254,25.391,37.109,-210.938,-15.137,0
1580328316.014,12.695,24.902,38.086,-187.500,20.508,0
1580328316.018,13.672,23.926,40.039,-158.203,1.465,0
1580328316.022,14.160,28.809,40.527,-161.133,-18.555,0
1580328316.026,14.160,26.367,39.062,-177.246,-6.836,0
1580328316.030,9.277,20.508,37.109,-187.012,10.742,0
1580328316.029,9.766,21.973,38.086,-191.406,7.812,0
1580328316.033,9.277,20.508,37.598,-207.520,-8.789,0
1580328316.037,5.371,19.043,36.621,-209.473,29.785,0
1580328316.041,6.836,19.043,39.062,-165.039,55.664,0
1580328316.045,7.324,18.066,38.574,-140.137,20.508,0
1580328316.049,5.859,19.043,37.109,-119.629,1.465,0
1580328316.053,2.930,19.531,36.621,-57.617,-2.441,0
1580328316.056,5.859,19.043,35.645,-27.344,30.762,0
1580328316.060,9.277,19.043,35.645,-35.156,52.734,0
1580328316.064,7.812,19.531,34.668,-42.969,57.617,0
1580328316.068,9.766,21.973,36.133,-40.039,83.008,0
1580328316.072,7.324,21.484,38.574,-53.223,118.164,0
1580328316.087,1.953,20.020,38.574,-89.355,125.488,0
1580328316.091,2.930,21.484,39.551,-104.492,110.840,0
1580328316.095,2.930,19.531,37.109,-101.562,104.492,0
1580328316.099,1.953,17.090,35.645,-99.609,111.816,0
1580328316.103,2.441,17.578,37.109,-102.051,120.605,0
1580328316.107,3.418,20.020,37.109,-95.703,82.031,0
1580328316.111,5.371,23.438,38.574,-104.004,60.059,0
1580328316.114,8.789,24.414,39.551,-125.977,67.383,0
1580328316.118,9.766,22.949,35.156,-132.324,104.980,0
1580328316.122,8.301,24.902,34.180,-145.020,119.629,0
1580328316.126,9.766,23.926,34.180,-142.090,118.164,0
1580328316.130,16.113,24.902,35.156,-76.172,145.020,0
1580328316.127,22.949,24.414,37.109,-36.133,134.766,0
1580328316.131,17.090,18.555,41.504,-80.078,103.027,0
1580328316.135,2.930,15.625,42.969,-149.902,84.961,0
1580328316.139,1.953,14.160,41.016,-150.879,102.539,0
1580328316.143,4.395,9.766,43.457,-114.746,98.145,0
1580328316.147,1.953,8.301,44.434,-138.672,94.727,0
1580328316.151,1.953,12.207,41.992,-175.781,110.840,0
1580328316.154,3.906,14.160,47.363,-164.551,92.773,0
1580328316.158,1.465,13.672,52.246,-132.324,102.051,0
1580328316.162,1.953,17.090,50.781,-119.629,103.027,0
1580328316.166,5.371,20.020,49.805,-148.438,49.805,0
1580328316.170,6.836,19.043,48.828,-205.566,41.992,0
1580328316.168,8.301,20.020,46.875,-229.004,46.875,0
1580328316.172,9.277,18.555,44.922,-232.422,45.410,0
1580328316.176,13.672,17.578,45.410,-224.609,43.457,0
1580328316.180,13.184,18.066,43.945,-241.211,25.391,0
1580328316.184,12.695,18.066,39.062,-258.301,22.461,0
1580328316.188,19.043,20.020,40.039,-238.281,34.180,0
1580328316.192,17.090,20.020,44.434,-214.355,56.152,0
1580328316.195,14.160,21.973,45.898,-180.664,41.016,0
1580328316.199,12.695,23.438,46.387,-146.973,-15.137,0
1580328316.203,5.371,21.973,42.480,-35.645,9.277,0
1580328316.207,8.789,22.461,40.039,98.633,40.527,0
1580328316.211,15.625,23.438,42.969,159.668,29.297,0
1580328316.228,14.648,24.414,43.945,264.648,39.551,0
1580328316.232,14.160,23.438,40.039,394.043,17.578,0
1580328316.236,13.184,21.484,38.086,477.539,7.812,0
1580328316.240,13.184,22.461,38.574,560.547,30.273,0
1580328316.244,14.648,23.926,41.016,625.488,8.301,0
1580328316.248,16.113,23.926,42.969,642.578,-33.203,0
1580328316.252,15.137,22.949,40.039,653.320,-27.832,0
1580328316.255,12.695,20.508,39.062,668.457,-23.926,0
1580328316.259,13.672,21.484,39.551,673.340,-23.926,0
1580328316.263,12.695,20.996,40.039,684.082,-18.555,0
1580328316.267,12.695,18.066,40.527,678.223,-20.996,0
1580328316.271,10.254,18.066,37.598,631.836,-15.625,0
1580328316.267,6.348,17.090,35.156,601.562,-11.230,0
1580328316.271,4.883,19.531,39.062,600.586,-29.297,0
1580328316.275,4.883,23.438,40.527,598.145,-27.832,0
1580328316.279,6.836,21.484,41.016,613.281,-31.250,0
1580328316.283,6.836,21.484,42.969,607.422,-87.891,0
1580328316.287,10.742,23.438,41.992,583.496,-126.953,0
1580328316.291,12.207,20.020,41.016,583.984,-84.473,0
1580328316.294,8.789,19.531,41.992,594.238,-65.430,0
1580328316.298,9.766,23.926,41.016,576.172,-84.961,0
1580328316.302,13.672,27.344,43.945,563.965,-115.234,0
1580328316.306,10.742,26.367,42.480,567.383,-116.211,0
1580328316.310,9.766,23.926,37.598,564.941,-59.570,0
1580328316.307,13.672,22.461,38.574,563.477,-32.227,0
1580328316.311,14.160,23.438,42.480,564.941,-52.246,0
1580328316.315,14.648,23.438,41.504,579.590,-36.621,0
1580328316.319,15.625,23.438,40.039,598.633,7.324,0
1580328316.323,16.113,24.414,41.504,578.613,1.953,0
1580328316.327,18.066,26.367,41.016,537.109,-23.438,0
1580328316.331,15.137,23.926,41.504,528.320,-21.484,0
1580328316.334,14.648,20.996,41.016,539.062,-56.152,0
1580328316.338,15.625,22.949,38.574,546.875,-78.613,0
1580328316.342,18.555,22.949,35.645,540.039,-50.781,0
1580328316.346,22.949,24.902,36.133,526.855,-41.504,0
1580328316.350,16.113,25.391,39.062,506.836,-41.016,0
1580328316.367,6.836,26.367,41.016,502.930,-56.152,0
1580328316.371,5.859,27.832,39.062,530.273,-48.340,0
1580328316.375,8.789,26.855,38.574,553.223,-26.367,0
1580328316.379,13.184,28.320,38.086,564.941,-50.293,0
1580328316.383,13.184,27.344,40.039,552.246,-40.527,0
1580328316.387,14.160,29.297,42.480,505.859,12.695,0
1580328316.391,17.090,32.715,42.480,464.355,-19.043,0
1580328316.394,15.137,31.250,39.062,451.172,-23.926,0
1580328316.398,13.672,29.297,35.645,445.312,37.109,0
1580328316.402,11.719,27.832,34.668,427.734,46.387,0
1580328316.406,11.230,28.320,38.086,314.941,29.297,0
1580328316.410,8.301,28.809,41.016,178.223,-5.859,0
1580328316.407,8.301,28.320,40.039,118.652,8.789,0
1580328316.411,12.207,28.809,40.039,74.707,12.207,0
1580328316.415,13.672,26.855,38.086,51.270,-20.508,0
1580328316.419,17.090,25.879,38.086,48.340,-18.555,0
1580328316.423,15.625,26.367,41.016,42.969,2.930,0
1580328316.427,14.648,31.250,40.527,24.414,-4.395,0
1580328316.431,14.648,34.180,39.062,6.348,-26.855,0
1580328316.434,10.254,33.203,41.016,-24.414,-28.809,0
1580328316.438,10.742,31.250,40.527,-63.477,-15.625,0
1580328316.442,14.160,33.203,38.086,-101.562,-23.438,0
1580328316.446,9.277,32.227,37.598,-141.113,-64.941,0
1580328316.450,6.348,27.344,37.598,-195.312,-44.434,0
1580328316.449,9.766,28.320,34.668,-196.777,-13.672,0
1580328316.453,9.277,25.391,33.203,-138.184,-2.930,0
1580328316.457,9.766,23.926,35.156,-163.574,-23.926,0
1580328316.461,11.230,24.414,34.668,-248.535,-44.922,0
1580328316.465,5.859,22.949,35.156,-319.824,-33.691,0
1580328316.469,4.883,23.926,36.133,-365.723,-5.859,0
1580328316.473,3.418,24.414,32.715,-411.133,9.766,0
1580328316.476,1.953,26.367,31.738,-448.730,-4.395,0
1580328316.480,4.883,27.344,32.227,-477.051,-21.484,0
1580328316.484,0.488,25.391,30.273,-502.441,10.254,0
1580328316.488,-4.395,24.902,30.273,-467.773,33.203,0
1580328316.492,-6.348,22.461,29.297,-511.230,23.438,0
1580328316.507,-3.418,23.438,30.762,-647.461,6.836,0
1580328316.511,1.953,24.902,29.785,-724.609,8.301,0
1580328316.515,0.000,22.461,30.762,-751.953,52.734,0
1580328316.519,-1.465,22.949,32.715,-751.953,63.965,0
1580328316.523,0.000,23.438,27.344,-754.395,42.969,0
1580328316.527,0.977,22.949,29.297,-760.254,12.207,0
1580328316.531,6.348,23.926,34.180,-759.277,17.090,0
1580328316.534,11.719,27.832,31.738,-754.395,36.621,0
1580328316.538,16.602,29.297,29.297,-729.492,34.668,0
1580328316.542,8.301,25.391,33.203,-710.449,23.926,0
1580328316.546,-7.324,21.484,37.109,-720.703,41.504,0
1580328316.550,-10.254,18.555,39.551,-723.633,54.688,0
1580328316.549,-9.766,16.602,39.551,-704.102,36.621,0
1580328316.553,-5.371,18.555,40.039,-639.160,23.438,0
1580328316.557,-3.906,19.043,39.551,-564.453,12.207,0
1580328316.561,-8.301,20.996,40.527,-508.301,9.277,0
1580328316.565,-7.324,20.996,39.551,-503.906,-4.883,0
1580328316.569,-5.371,20.020,37.109,-474.121,1.953,0
1580328316.573,-2.930,22.461,39.062,-313.965,4.883,0
1580328316.576,3.418,25.391,40.527,-184.570,8.789,0
1580328316.580,2.930,24.902,41.992,-109.863,30.273,0
1580328316.584,0.977,23.438,41.504,-26.855,10.742,0
1580328316.588,1.465,23.926,39.062,8.789,-10.254,0
1580328316.592,5.371,25.391,40.527,8.789,9.766,0
1580328316.587,7.812,25.879,41.504,88.867,11.719,0
1580328316.591,6.836,24.902,39.551,202.148,21.973,0
1580328316.595,10.742,25.879,37.109,291.504,14.648,0
1580328316.599,12.207,28.320,39.551,341.309,4.395,0
1580328316.603,8.301,25.879,41.504,364.258,6.348,0
1580328316.607,12.207,25.879,43.457,378.906,-31.250,0
1580328316.611,15.625,27.832,44.922,380.371,-50.293,0
1580328316.614,11.230,25.391,43.945,377.930,-37.598,0
1580328316.618,8.301,24.414,42.969,373.535,-45.898,0
1580328316.622,7.324,24.902,38.086,378.906,-71.777,0
1580328316.626,13.672,24.902,38.086,373.047,-42.480,0
1580328316.630,18.555,23.438,39.551,355.957,-10.254,0
1580328316.647,18.066,21.973,38.086,347.656,-27.832,0
1580328316.651,13.184,22.461,38.086,345.703,-11.230,0
1580328316.655,13.672,21.973,39.551,358.398,-3.418,0
1580328316.659,21.973,22.461,40.039,375.488,-33.203,0
1580328316.663,20.508,22.949,39.551,354.492,-16.113,0
1580328316.667,20.508,25.391,41.992,355.957,-19.531,0
1580328316.671,21.973,27.832,38.574,383.789,-49.316,0
1580328316.674,17.578,24.414,35.645,387.695,-67.871,0
1580328316.678,18.066,25.391,38.574,387.695,-75.195,0
1580328316.682,17.090,24.902,35.645,407.715,-36.621,0
1580328316.686,12.207,23.438,35.156,412.598,-30.273,0
1580328316.690,11.230,23.926,36.621,407.715,-58.105,0
1580328316.687,10.254,17.578,37.109,419.922,-81.055,0
1580328316.691,5.859,16.602,37.109,425.781,-40.039,0
1580328316.695,6.836,20.996,36.621,446.289,13.184,0
1580328316.699,7.812,21.484,38.574,487.793,-46.387,0
1580328316.703,4.883,20.020,39.062,532.715,-95.703,0
1580328316.707,4.395,20.996,40.039,575.684,-66.895,0
1580328316.711,5.859,25.391,43.457,611.816,-24.902,0
1580328316.714,7.324,29.297,42.969,625.000,-13.672,0
1580328316.718,7.812,31.250,42.969,624.023,-19.531,0
1580328316.722,1.465,30.273,45.410,617.676,-45.898,0
1580328316.726,-5.859,33.203,41.504,623.535,-37.109,0
1580328316.730,-11.719,36.621,41.992,642.090,-24.414,0
1580328316.727,-15.137,39.062,50.293,655.273,-43.457,0
1580328316.731,-19.043,39.062,57.129,681.152,-54.688,0
1580328316.735,-19.043,42.969,55.176,707.031,-49.316,0
1580328316.739,-28.809,57.617,49.316,704.102,-45.898,0
1580328316.743,-53.711,64.941,46.387,678.223,-60.059,0
1580328316.747,-76.660,67.871,45.898,652.344,-67.383,0
1580328316.751,-92.285,74.219,45.898,634.766,-35.156,0
1580328316.754,-102.051,81.055,40.039,610.352,-16.602,0
1580328316.758,-115.723,79.102,37.109,583.008,-51.270,0
1580328316.762,-136.719,77.637,35.156,552.246,-51.270,0
1580328316.766,-149.414,79.102,32.227,521.973,-34.668,0
1580328316.770,-152.832,82.520,31.738,520.020,-39.551,0
1580328316.787,-157.715,87.402,29.297,544.922,-60.547,0
1580328316.791,-161.133,89.355,22.949,560.547,-62.012,0
1580328316.795,-155.762,90.332,18.066,551.758,-43.945,0
1580328316.799,-146.484,90.332,19.531,538.574,-29.297,0
1580328316.803,-140.625,85.938,20.508,540.039,-65.918,0
1580328316.807,-128.906,85.938,22.461,548.340,-120.117,0
1580328316.811,-117.188,86.426,23.438,553.711,-113.281,0
1580328316.814,-115.723,77.637,20.508,564.941,-59.082,0
1580328316.818,-108.887,72.754,23.926,576.660,-40.527,0
1580328316.822,-88.867,69.824,26.855,599.121,-55.664,0
1580328316.826,-67.383,65.918,25.879,617.188,-75.195,0
1580328316.830,-51.758,59.082,28.809,631.836,-68.848,0
1580328316.827,-41.016,53.711,30.273,646.973,-52.246,0
1580328316.831,-26.367,49.316,29.297,659.180,-58.594,0
1580328316.835,-16.602,40.527,29.297,663.086,-26.367,0
1580328316.839,-12.695,32.715,30.762,656.250,-3.418,0
1580328316.843,2.441,28.320,30.273,655.273,-20.020,0
1580328316.847,18.066,27.344,29.297,640.625,-23.438,0
1580328316.851,28.809,26.367,27.344,598.633,-24.414,0
1580328316.854,41.992,21.484,25.391,563.477,-26.855,0
1580328316.858,47.363,16.113,29.297,564.453,9.277,0
1580328316.862,53.223,10.742,30.762,570.312,0.488,0
1580328316.866,62.988,9.766,25.391,567.871,-28.809,0
1580328316.870,68.359,8.789,23.438,564.941,-33.203,0
1580328316.867,74.707,6.836,23.926,555.664,-26.367,0
1580328316.871,86.426,8.301,27.344,556.641,-15.625,0
1580328316.875,92.285,10.742,32.227,578.613,-29.785,0
1580328316.879,95.215,9.766,31.738,591.797,-47.852,0
1580328316.883,97.168,11.230,29.297,589.844,-63.477,0
1580328316.887,97.656,13.184,26.367,586.426,-40.039,0
1580328316.891,99.121,13.184,25.391,592.285,-11.719,0
1580328316.894,101.562,13.184,31.738,590.332,-39.551,0
1580328316.898,97.656,10.254,33.203,579.102,-56.152,0
1580328316.902,92.773,10.254,30.762,586.914,-29.297,0
1580328316.906,96.680,12.207,34.668,597.656,-33.203,0
1580328316.910,96.680,7.812,38.574,586.914,-63.477,0
1580328316.927,91.797,9.766,37.109,577.148,-67.383,0
1580328316.931,88.379,14.648,33.691,580.566,-63.965,0
1580328316.935,85.449,14.160,32.227,593.262,-83.496,0
1580328316.939,83.496,13.184,30.273,605.469,-96.191,0
1580328316.943,82.031,12.207,29.785,618.164,-81.055,0
1580328316.947,83.984,14.160,34.180,632.324,-86.426,0
1580328316.951,82.031,16.113,34.180,637.207,-75.684,0
1580328316.954,76.172,14.160,32.227,635.254,-61.523,0
1580328316.958,73.730,11.719,32.227,639.160,-67.871,0
1580328316.962,70.801,10.254,31.250,640.137,-30.273,0
1580328316.966,70.312,12.207,34.668,632.812,-52.246,0
1580328316.970,66.895,14.160,36.621,623.535,-76.660,0
1580328316.987,63.477,15.137,32.227,630.371,-47.363,0
1580328316.991,63.477,19.531,32.227,654.785,-41.992,0
1580328316.995,63.477,20.996,35.156,666.504,-33.691,0
1580328316.999,62.500,21.484,37.109,659.180,-59.082,0
1580328317.003,61.523,22.461,39.551,642.578,-73.242,0
1580328317.007,59.570,21.973,39.062,622.559,-40.039,0
1580328317.011,52.734,19.531,35.645,599.609,-24.902,0
1580328317.014,46.875,15.137,33.203,577.637,-32.227,0
1580328317.018,46.875,15.137,38.086,556.152,-37.109,0
1580328317.022,47.363,16.602,38.574,535.156,-36.133,0
1580328317.026,44.434,15.137,31.738,533.203,11.230,0
1580328317.030,41.504,14.160,31.250,528.809,55.176,0
1580328317.009,38.086,13.672,34.668,510.742,60.547,0
1580328317.013,36.621,15.625,36.133,502.441,42.969,0
1580328317.017,33.203,15.625,33.691,497.070,61.035,0
1580328317.021,28.809,15.137,31.738,499.023,70.312,0
1580328317.025,27.832,13.672,33.203,495.117,41.992,0
1580328317.029,30.273,14.160,33.203,489.746,42.480,0
1580328317.033,32.227,17.578,31.250,488.281,69.824,0
1580328317.036,27.832,19.531,33.691,481.445,68.848,0
1580328317.040,23.926,20.020,34.180,482.910,56.641,0
1580328317.044,27.344,21.484,32.227,490.723,83.008,0
1580328317.048,28.320,20.996,33.203,500.488,79.590,0
1580328317.052,26.855,22.461,36.621,513.184,72.266,0
1580328317.067,24.414,24.902,38.086,522.461,83.008,0
1580328317.071,21.973,22.949,36.133,536.133,94.727,0
1580328317.075,23.926,23.438,35.645,543.457,94.727,0
1580328317.079,22.461,24.414,36.621,546.387,86.426,0
1580328317.083,18.066,23.926,34.668,560.059,58.105,0
1580328317.087,20.508,23.926,35.645,571.289,13.672,0
1580328317.091,19.043,22.949,35.156,575.195,-12.207,0
1580328317.094,14.648,21.484,31.250,582.031,5.859,0
1580328317.098,14.160,22.461,29.785,586.426,45.410,0
1580328317.102,15.137,21.484,31.250,586.914,28.809,0
1580328317.106,13.672,22.949,31.738,583.496,-13.672,0
1580328317.110,16.602,23.926,28.320,594.727,-4.883,0
1580328317.107,26.855,20.508,27.832,617.676,33.203,0
1580328317.111,20.020,15.137,33.691,619.629,18.555,0
1580328317.115,4.883,13.184,42.969,612.305,-27.344,0
1580328317.119,-0.977,13.672,48.340,611.328,-35.645,0
1580328317.123,0.977,10.742,49.316,619.141,-9.277,0
1580328317.127,-3.906,5.859,51.758,617.676,-14.160,0
1580328317.131,-5.859,3.418,54.688,612.793,-22.949,0
1580328317.134,-7.324,2.441,53.223,617.188,-20.996,0
1580328317.138,-9.766,1.465,56.152,621.094,-42.480,0
1580328317.142,-10.254,0.977,61.035,618.164,-78.125,0
1580328317.146,-7.812,3.906,58.594,620.117,-40.527,0
1580328317.150,1.953,8.301,56.152,627.441,-21.973,0
1580328317.207,2.930,7.324,55.176,623.535,-10.254,0
1580328317.211,2.441,6.836,56.152,619.141,2.930,0
1580328317.215,3.418,9.277,54.688,618.652,-30.762,0
1580328317.219,5.859,10.742,54.688,621.582,-29.297,0
1580328317.223,8.301,11.719,54.199,624.023,-35.645,0
1580328317.227,8.789,14.160,52.246,624.512,-1.465,0
1580328317.231,14.160,17.578,49.316,625.000,-17.578,0
1580328317.234,14.160,16.113,47.852,614.258,-49.316,0
1580328317.238,9.277,14.160,48.340,602.051,-19.043,0
1580328317.242,11.230,16.602,48.340,601.562,18.555,0
1580328317.246,9.766,20.508,50.781,602.539,31.738,0
1580328317.250,13.672,20.996,51.270,602.051,-31.738,0
1580328317.211,18.066,20.020,48.828,597.656,-54.199,0
1580328317.215,13.184,18.066,46.875,591.797,-9.766,0
1580328317.219,11.719,19.531,47.363,590.820,3.418,0
1580328317.223,17.090,20.996,49.805,588.379,-29.297,0
1580328317.227,16.113,20.508,47.363,580.566,-52.246,0
1580328317.231,11.230,23.438,42.480,576.660,-57.617,0
1580328317.235,11.719,25.879,42.480,572.754,-71.289,0
1580328317.238,12.207,25.391,42.480,566.895,-93.750,0
1580328317.242,12.695,26.367,41.016,567.383,-105.469,0
1580328317.246,16.113,26.367,41.016,566.895,-86.426,0
1580328317.250,16.113,21.973,41.504,558.594,-77.637,0
1580328317.254,11.230,20.020,42.480,548.340,-71.289,0
1580328317.287,9.766,20.508,43.457,545.898,-57.129,0
1580328317.291,9.766,19.043,45.898,543.457,-65.430,0
1580328317.295,9.277,17.578,43.457,535.645,-56.641,0
1580328317.299,12.207,19.043,39.551,530.273,-41.504,0
1580328317.303,11.719,19.043,38.574,524.414,-58.105,0
1580328317.307,11.230,17.578,40.039,521.484,-82.520,0
1580328317.311,13.184,19.531,39.062,520.508,-79.590,0
1580328317.314,12.207,24.902,35.645,514.160,-61.035,0
1580328317.318,11.719,25.391,35.645,506.348,-62.012,0
1580328317.322,10.742,25.879,37.598,500.000,-134.277,0
1580328317.326,8.301,24.902,38.086,498.535,-130.859,0
1580328317.330,10.742,23.438,38.086,500.977,-33.691,0
1580328317.290,11.719,22.461,36.621,496.094,-16.602,0
1580328317.294,13.184,20.508,37.109,495.117,-40.039,0
1580328317.298,15.137,21.484,39.062,495.117,-44.922,0
1580328317.302,16.113,21.973,40.039,493.652,-41.504,0
1580328317.306,17.090,21.973,40.039,495.117,-14.160,0
1580328317.310,16.113,22.949,38.086,495.117,3.418,0
1580328317.314,16.602,23.438,39.551,490.234,-14.648,0
1580328317.317,17.578,22.949,41.016,484.375,-20.020,0
1580328317.321,19.043,22.461,41.016,477.051,-6.348,0
1580328317.325,19.043,22.949,42.969,471.191,11.230,0
1580328317.329,18.555,21.973,43.457,468.750,-1.953,0
1580328317.333,18.066,24.414,44.434,468.262,4.883,0
1580328317.367,18.066,24.414,44.434,465.332,25.391,0
1580328317.371,19.043,20.508,42.969,463.867,24.414,0
1580328317.375,24.414,19.043,42.969,471.680,-9.766,0
1580328317.379,25.391,23.926,41.016,473.145,-3.906,0
1580328317.383,17.090,26.855,37.109,461.426,36.621,0
1580328317.387,10.254,27.344,37.598,444.824,-8.789,0
1580328317.391,3.418,23.926,37.109,433.105,-46.387,0
1580328317.394,4.395,21.973,36.621,438.477,-22.949,0
1580328317.398,6.348,24.414,37.109,442.383,-7.324,0
1580328317.402,5.859,24.902,38.086,439.453,12.207,0
1580328317.406,11.230,27.344,37.109,441.895,3.418,0
1580328317.410,14.648,28.809,36.133,446.289,-10.254,0
1580328317.389,11.719,28.320,37.109,447.266,30.273,0
1580328317.393,10.742,27.832,37.598,440.918,28.320,0
1580328317.397,16.113,28.320,39.551,432.129,-11.230,0
1580328317.401,17.578,28.809,39.062,432.129,-17.090,0
1580328317.405,14.648,27.832,35.645,438.965,11.719,0
1580328317.409,16.113,26.855,35.645,440.918,8.789,0
1580328317.413,16.113,27.344,36.133,438.477,-19.531,0
1580328317.416,12.207,26.367,34.668,431.641,-19.531,0
1580328317.420,12.207,24.902,34.668,429.199,-44.922,0
1580328317.424,14.648,27.344,36.133,433.105,-23.438,0
1580328317.428,10.254,25.879,35.645,430.176,4.395,0
1580328317.432,6.348,23.926,35.156,427.246,-35.645,0
1580328317.452,8.789,28.320,38.086,433.105,-34.180,0
1580328317.456,8.789,28.809,39.551,434.082,-37.109,0
1580328317.460,4.883,26.367,36.133,432.129,-17.090,0
1580328317.464,5.371,22.461,32.715,437.012,11.230,0
1580328317.468,8.301,21.973,31.738,443.848,11.230,0
1580328317.472,10.254,26.367,32.715,449.219,28.320,0
1580328317.476,13.672,29.297,32.715,450.195,32.715,0
1580328317.479,18.555,29.785,34.180,445.312,-9.277,0
1580328317.483,20.508,26.367,35.645,444.336,-26.367,0
1580328317.487,20.020,25.391,37.109,449.219,8.301,0
1580328317.491,20.020,26.855,37.598,448.242,34.668,0
1580328317.495,17.578,25.391,36.621,447.754,22.949,0
1580328317.487,17.090,21.973,35.156,446.289,-12.695,0
1580328317.491,15.625,22.949,31.738,440.918,-19.531,0
1580328317.495,10.742,22.949,30.273,435.059,-6.348,0
1580328317.499,6.836,21.484,30.762,426.758,28.320,0
1580328317.503,6.836,21.484,33.691,422.852,8.301,0
1580328317.507,4.883,18.066,33.691,421.387,-3.906,0
1580328317.511,2.441,17.578,33.203,418.945,29.785,0
1580328317.514,1.465,19.531,33.203,416.992,25.391,0
1580328317.518,0.977,19.531,30.762,418.457,24.902,0
1580328317.522,6.836,20.020,36.133,423.340,1.465,0
1580328317.526,9.277,20.508,41.992,423.828,-20.996,0
1580328317.530,6.836,19.531,40.527,423.828,21.973,0
1580328317.527,12.207,22.461,40.527,427.246,28.320,0
1580328317.531,12.695,21.484,40.039,426.270,-22.949,0
1580328317.535,14.160,22.461,39.551,427.246,-19.043,0
1580328317.539,25.879,23.438,41.016,431.641,-6.836,0
1580328317.543,26.855,28.320,36.621,425.293,0.000,0
1580328317.547,15.137,35.156,32.227,407.227,-6.836,0
1580328317.551,3.418,35.645,25.879,389.160,-5.859,0
1580328317.554,0.977,32.715,22.461,388.184,13.184,0
1580328317.558,4.883,32.227,26.367,388.672,0.000,0
1580328317.562,0.000,35.645,21.973,374.023,-8.789,0
1580328317.566,-6.348,35.645,14.160,368.652,-4.883,0
1580328317.570,-3.906,32.715,15.137,373.535,-10.742,0
1580328317.607,-2.930,33.203,18.555,371.582,-3.418,0
1580328317.611,-5.371,30.762,20.996,366.699,-24.414,0
1580328317.615,-0.977,26.367,25.391,368.652,-43.945,0
1580328317.619,5.371,25.391,27.344,376.465,-35.156,0
1580328317.623,10.254,22.949,27.344,376.953,-12.207,0
1580328317.627,14.648,26.367,27.344,376.953,-16.113,0
1580328317.631,19.531,33.691,29.297,379.395,-71.777,0
1580328317.634,16.602,35.645,30.762,374.512,-77.637,0
1580328317.638,15.137,33.691,30.273,375.000,-7.812,0
1580328317.642,19.531,35.645,30.762,374.023,3.418,0
1580328317.646,19.531,38.574,30.762,370.605,-44.434,0
1580328317.650,19.043,38.086,30.273,368.652,-44.922,0
1580328317.627,18.555,35.645,27.832,366.211,-19.043,0
1580328317.631,17.578,36.133,28.320,364.258,-9.766,0
1580328317.635,14.160,34.180,26.855,360.352,-0.977,0
1580328317.639,14.648,31.738,26.367,359.863,-12.207,0
1580328317.643,18.555,33.203,30.273,363.770,-23.438,0
1580328317.647,17.090,33.691,33.691,361.328,-20.020,0
1580328317.651,14.648,33.203,34.180,360.352,-29.785,0
1580328317.654,13.672,33.691,39.062,361.816,-19.531,0
1580328317.658,10.742,33.691,39.062,357.910,-10.742,0
1580328317.662,15.625,32.715,39.062,359.375,-45.898,0
1580328317.666,17.578,31.250,41.016,357.910,-61.523,0
1580328317.670,17.090,31.250,37.598,353.027,-38.574,0
1580328317.707,19.531,32.227,35.645,355.469,-29.297,0
1580328317.711,17.090,30.273,35.645,354.492,-23.438,0
1580328317.715,21.484,27.832,37.598,352.051,-34.668,0
1580328317.719,25.391,26.367,39.551,349.121,-91.797,0
1580328317.723,18.555,27.344,36.621,344.727,-79.102,0
1580328317.727,20.996,32.227,37.109,348.633,-19.043,0
1580328317.731,20.508,33.691,36.133,347.168,-11.719,0
1580328317.734,13.184,31.738,37.109,343.750,-47.363,0
1580328317.738,11.230,31.250,38.086,337.402,-81.543,0
1580328317.742,6.348,28.809,33.691,327.637,-66.895,0
1580328317.746,3.906,26.855,31.250,326.172,-31.738,0
1580328317.750,4.883,26.367,32.715,331.055,-56.152,0
1580328317.729,7.324,26.855,33.203,336.426,-60.547,0
1580328317.733,12.695,29.785,34.180,338.379,-55.664,0
1580328317.737,16.113,28.320,32.227,334.961,-75.195,0
1580328317.741,20.508,29.785,30.273,335.938,-60.547,0
1580328317.745,27.832,30.762,32.227,334.473,-72.266,0
1580328317.749,32.715,27.832,34.668,336.426,-51.270,0
1580328317.753,36.133,27.832,35.156,341.797,-39.062,0
1580328317.756,33.203,27.832,33.691,342.285,-46.875,0
1580328317.760,30.273,28.809,37.109,342.773,-48.828,0
1580328317.764,26.855,28.320,37.109,341.797,-61.523,0
1580328317.768,20.996,27.832,37.109,341.309,-52.734,0
1580328317.772,19.531,29.297,38.086,338.867,-45.898,0
1580328317.788,19.043,27.344,34.668,334.961,-68.359,0
1580328317.792,18.555,25.391,32.715,335.938,-86.426,0
1580328317.796,16.113,27.344,32.715,334.473,-94.238,0
1580328317.800,15.137,26.367,33.691,330.566,-77.637,0
1580328317.804,17.578,27.832,36.133,330.566,-81.055,0
1580328317.808,14.160,28.809,35.645,329.590,-107.422,0
1580328317.812,11.719,26.367,33.203,329.102,-78.613,0
1580328317.815,10.742,25.391,33.691,329.590,-65.430,0
1580328317.819,6.348,24.902,34.180,328.613,-66.406,0
1580328317.823,9.766,25.391,34.180,328.613,-75.684,0
1580328317.827,12.695,27.344,37.598,328.613,-94.727,0
1580328317.831,9.766,26.855,38.086,328.613,-66.895,0
1580328317.807,10.742,25.879,38.086,331.543,-41.504,0
1580328317.811,11.719,25.879,40.039,332.520,-51.758,0
1580328317.815,12.695,25.879,40.527,330.078,-36.133,0
1580328317.819,14.160,23.438,40.039,330.078,-11.230,0
1580328317.823,15.625,22.461,39.551,332.520,-19.531,0
1580328317.827,16.602,22.949,41.504,329.590,-35.156,0
1580328317.831,14.648,22.949,40.039,323.730,-47.363,0
1580328317.834,18.555,28.809,41.016,326.660,-44.434,0
1580328317.838,18.066,27.832,41.016,327.148,-18.555,0
1580328317.842,14.648,26.367,37.598,321.289,-26.855,0
1580328317.846,13.672,26.367,35.645,318.359,-41.504,0
1580328317.850,10.742,24.902,34.668,317.383,-27.344,0
1580328317.867,11.719,26.367,36.133,317.383,-32.227,0
1580328317.871,10.742,27.344,35.645,308.105,-67.871,0
1580328317.875,9.277,25.391,33.691,305.664,-37.598,0
1580328317.879,12.207,23.926,32.715,312.012,-22.949,0
1580328317.883,16.602,25.391,34.668,311.523,-26.367,0
1580328317.887,18.555,27.344,36.621,311.035,-35.645,0
1580328317.891,12.207,22.949,35.156,308.105,-49.805,0
1580328317.894,12.207,22.461,33.691,305.176,-40.527,0
1580328317.898,15.137,24.902,33.691,305.664,-25.391,0
1580328317.902,13.672,25.879,35.645,309.082,13.184,0
1580328317.906,15.625,25.879,40.039,312.012,8.789,0
1580328317.910,15.137,23.438,40.527,309.570,-12.207,0
1580328317.927,13.184,23.438,40.039,306.641,-30.273,0
1580328317.931,13.184,27.344,40.039,306.641,-16.113,0
1580328317.935,13.672,26.367,37.598,304.199,-12.207,0
1580328317.939,12.695,24.902,36.621,304.199,0.000,0
1580328317.943,9.277,24.902,38.574,302.246,13.672,0
1580328317.947,9.277,25.879,38.086,296.387,44.922,0
1580328317.951,9.277,25.391,34.668,296.387,58.105,0
1580328317.954,7.812,21.484,33.203,293.945,50.293,0
1580328317.958,9.277,21.973,34.668,294.434,78.125,0
1580328317.962,10.254,24.902,38.086,294.434,75.195,0
1580328317.966,11.230,23.926,42.480,289.062,94.727,0
1580328317.970,14.160,24.414,41.016,291.992,103.027,0
1580328317.949,15.625,24.414,40.527,299.316,86.426,0
1580328317.953,16.113,24.414,43.457,301.758,100.098,0
1580328317.957,17.090,24.902,42.480,302.246,118.164,0
1580328317.961,17.090,24.902,40.527,301.270,111.328,0
1580328317.965,14.648,26.367,39.551,297.852,92.285,0
1580328317.969,12.207,27.344,39.062,298.340,91.309,0
1580328317.973,13.184,26.855,40.039,298.340,106.445,0
1580328317.976,11.719,24.902,43.457,295.410,84.473,0
1580328317.980,9.766,24.902,43.945,290.527,44.922,0
1580328317.984,11.230,25.391,42.480,286.133,55.176,0
1580328317.988,11.230,27.344,41.992,285.156,77.637,0
1580328317.992,7.324,28.320,41.992,280.762,80.566,0
1580328318.027,7.324,27.832,43.457,279.297,47.363,0
1580328318.031,9.277,29.297,42.969,278.809,33.691,0
1580328318.035,9.766,25.879,39.551,278.320,49.805,0
1580328318.039,7.324,25.391,40.527,275.879,43.945,0
1580328318.043,3.418,23.438,41.504,272.461,26.855,0
1580328318.047,6.836,21.484,41.016,275.879,19.531,0
1580328318.051,10.254,25.391,40.527,276.367,20.020,0
1580328318.054,4.883,24.902,39.062,273.438,16.602,0
1580328318.058,-0.488,22.949,38.574,271.484,26.367,0
1580328318.062,2.930,20.996,39.062,272.949,33.691,0
1580328318.066,7.812,20.508,41.016,277.832,20.508,0
1580328318.070,7.812,26.367,41.016,278.809,-13.184,0
1580328318.069,6.348,28.320,38.574,277.344,3.418,0
1580328318.073,7.324,28.320,41.016,275.879,-10.742,0
1580328318.077,5.859,26.367,40.039,275.391,-4.395,0
1580328318.081,6.348,23.926,38.086,275.391,8.301,0
1580328318.085,8.301,23.438,40.039,275.391,-20.996,0
1580328318.089,6.836,20.020,41.016,274.902,-43.457,0
1580328318.093,6.348,21.484,38.574,274.414,-52.246,0
1580328318.096,4.883,22.461,35.645,270.996,4.395,0
1580328318.100,2.930,20.996,36.133,270.020,39.551,0
1580328318.104,5.859,20.996,39.551,272.461,5.371,0
1580328318.108,6.836,21.484,39.062,268.066,-37.598,0
1580328318.112,7.324,20.996,36.133,262.695,-15.625,0
1580328318.107,7.324,20.996,34.180,262.695,24.902,0
1580328318.111,4.395,21.484,33.691,264.648,11.719,0
1580328318.115,7.324,22.461,33.691,265.137,8.301,0
1580328318.119,7.324,23.438,37.109,266.602,6.836,0
1580328318.123,9.277,21.973,40.039,272.461,19.531,0
1580328318.127,17.090,23.926,38.574,275.879,10.742,0
1580328318.131,13.184,28.809,34.668,265.137,9.277,0
1580328318.134,6.348,29.297,32.715,252.441,11.230,0
1580328318.138,6.348,29.297,32.715,251.465,-4.395,0
1580328318.142,7.812,32.227,32.227,252.441,36.621,0
1580328318.146,4.395,30.273,35.645,246.582,40.527,0
1580328318.150,-0.488,27.344,37.109,239.258,28.809,0
1580328318.147,4.883,29.785,35.645,243.652,25.391,0
1580328318.151,8.301,32.227,38.086,242.676,-31.738,0
1580328318.155,6.836,32.227,36.133,238.770,-38.086,0
1580328318.159,13.184,30.273,34.668,244.629,-35.645,0
1580328318.163,14.648,26.367,37.109,248.047,-23.926,0
1580328318.167,15.137,25.879,36.133,249.512,-25.391,0
1580328318.171,14.648,26.855,33.691,249.023,-54.199,0
1580328318.174,14.160,25.879,33.203,248.535,-60.547,0
1580328318.178,17.090,25.391,33.691,250.977,-41.992,0
1580328318.182,18.066,25.879,35.156,251.953,-8.301,0
1580328318.186,20.020,28.320,37.109,253.418,-30.762,0
1580328318.190,20.996,26.367,39.551,249.512,-54.199,0
1580328318.187,18.066,23.438,39.062,249.512,-46.875,0
1580328318.191,16.602,24.902,38.086,252.930,-35.156,0
1580328318.195,18.066,27.832,38.086,253.906,-12.695,0
1580328318.199,19.531,30.273,40.527,256.836,-41.016,0
1580328318.203,20.020,29.785,41.016,253.906,-76.172,0
1580328318.207,18.555,29.297,39.062,251.465,-71.777,0
1580328318.211,17.090,27.832,39.062,251.465,-57.129,0
1580328318.214,14.648,24.414,37.598,252.930,-56.152,0
1580328318.218,15.137,25.879,37.598,255.371,-59.570,0
1580328318.222,18.555,28.809,39.551,252.930,-83.984,0
1580328318.226,13.184,25.391,36.621,248.047,-77.148,0
1580328318.230,12.695,24.414,35.156,250.000,-40.527,0
1580328318.247,16.602,26.367,38.574,253.906,-25.391,0
1580328318.251,14.648,26.367,40.039,256.348,-13.184,0
1580328318.255,14.648,26.855,38.086,253.418,13.672,0
1580328318.259,17.090,26.855,36.133,255.859,18.066,0
1580328318.263,14.160,24.414,36.621,254.395,5.859,0
1580328318.267,14.160,24.414,39.551,253.418,-10.742,0
1580328318.271,18.066,26.855,39.551,256.836,12.207,0
1580328318.274,18.066,26.855,38.574,253.418,24.902,0
1580328318.278,12.207,23.438,38.574,247.559,2.930,0
1580328318.282,11.719,26.855,38.086,249.512,5.371,0
1580328318.286,11.230,27.832,37.598,248.535,6.836,0
1580328318.290,9.277,26.855,38.086,248.047,29.785,0
1580328318.287,11.230,26.855,42.480,243.652,12.695,0
1580328318.291,10.742,24.902,38.574,238.770,-13.184,0
1580328318.295,10.254,25.879,33.203,241.699,24.902,0
1580328318.299,13.184,28.809,36.621,245.117,17.090,0
1580328318.303,15.625,28.809,36.621,242.188,-1.953,0
1580328318.307,17.090,30.273,36.133,239.258,-1.465,0
1580328318.311,16.113,29.297,36.621,236.328,-10.742,0
1580328318.314,13.672,27.344,34.668,234.375,0.488,0
1580328318.318,15.137,26.855,35.156,236.816,10.254,0
1580328318.322,17.090,26.367,36.621,236.816,-7.324,0
1580328318.326,20.508,27.832,38.086,236.816,-28.809,0
1580328318.330,22.949,26.855,38.574,235.352,-29.785,0
1580328318.347,17.578,24.414,35.156,231.445,2.930,0
1580328318.351,17.090,26.855,34.180,229.980,1.465,0
1580328318.355,20.996,27.832,34.668,231.934,-28.320,0
1580328318.359,20.020,28.809,38.086,233.887,-34.180,0
1580328318.363,17.578,28.809,40.039,232.910,-0.488,0
1580328318.367,17.090,26.367,37.598,230.957,10.254,0
1580328318.371,15.625,27.344,35.645,227.051,-31.738,0
1580328318.374,16.602,25.879,35.156,228.027,-27.832,0
1580328318.378,17.578,22.461,34.668,230.957,-3.906,0
1580328318.382,17.578,21.484,35.645,228.027,-8.301,0
1580328318.386,16.113,20.508,34.668,223.633,-17.090,0
1580328318.390,20.020,23.438,34.668,227.051,-31.738,0
1580328318.367,20.508,24.414,33.691,226.562,-12.695,0
1580328318.371,16.113,23.438,36.621,223.633,13.184,0
1580328318.375,20.996,24.902,40.039,223.633,-9.277,0
1580328318.379,20.020,22.949,36.621,220.215,-26.367,0
1580328318.383,18.555,23.438,38.574,222.656,15.625,0
1580328318.387,19.531,27.344,40.039,226.562,43.945,0
1580328318.391,17.090,27.832,38.086,225.586,2.930,0
1580328318.394,15.625,27.344,37.598,223.145,-14.648,0
1580328318.398,14.160,28.809,40.527,221.680,19.531,0
1580328318.402,18.555,31.250,40.527,225.586,27.344,0
1580328318.406,22.949,31.738,37.109,227.539,-7.324,0
1580328318.410,19.043,31.250,36.133,226.074,-28.809,0
1580328318.447,16.113,31.250,36.621,221.191,-43.457,0
1580328318.451,13.184,30.273,36.621,214.844,-38.086,0
1580328318.455,10.742,27.344,33.691,212.891,0.000,0
1580328318.459,11.230,28.809,35.156,214.355,-5.859,0
1580328318.463,19.531,29.785,34.180,222.168,-2.930,0
1580328318.467,36.621,33.691,32.715,232.910,19.531,0
1580328318.471,28.320,29.785,38.574,228.027,-12.695,0
1580328318.474,9.766,22.461,42.480,214.355,-8.301,0
1580328318.478,10.742,21.973,45.410,216.309,16.602,0
1580328318.482,13.184,20.996,49.316,221.191,24.902,0
1580328318.486,12.695,19.531,51.758,217.285,-2.441,0
1580328318.490,9.277,19.531,49.805,214.844,5.371,0
1580328318.466,0.000,18.066,49.316,215.820,16.602,0
1580328318.470,-7.324,16.113,50.293,210.449,-10.254,0
1580328318.474,-6.348,14.648,47.363,205.566,10.254,0
1580328318.478,-2.930,15.625,45.898,209.961,0.000,0
1580328318.482,-2.441,16.602,45.410,208.984,-23.438,0
1580328318.486,-2.441,17.090,42.480,205.566,-13.672,0
1580328318.490,-1.953,18.555,41.992,207.031,5.371,0
1580328318.493,1.953,21.484,44.434,208.008,4.395,0
1580328318.497,8.301,23.926,46.387,210.938,-1.465,0
1580328318.501,7.812,22.949,43.945,209.473,-2.441,0
1580328318.505,6.836,20.996,41.504,210.449,18.066,0
1580328318.509,10.254,21.484,41.016,212.891,18.066,0
1580328318.527,10.254,20.508,38.574,208.984,-5.371,0
1580328318.531,11.230,20.996,40.039,208.984,-18.066,0
1580328318.535,11.719,21.484,41.504,206.055,-29.785,0
1580328318.539,7.324,18.066,37.598,200.684,11.719,0
1580328318.543,5.371,20.020,35.645,204.102,15.137,0
1580328318.547,4.395,21.973,35.156,202.637,-27.344,0
1580328318.551,2.930,20.508,36.621,203.613,-25.879,0
1580328318.554,4.883,20.508,38.086,202.148,-7.324,0
1580328318.558,9.277,20.020,38.574,199.219,-6.348,0
1580328318.562,14.160,17.090,37.109,206.543,6.836,0
1580328318.566,12.695,19.043,37.109,210.938,3.418,0
1580328318.570,9.766,21.484,39.062,207.520,-11.230,0
1580328318.568,10.254,18.555,39.551,206.055,20.020,0
1580328318.572,7.812,18.555,41.016,205.078,-0.488,0
1580328318.576,6.836,19.531,42.969,205.078,-19.531,0
1580328318.580,9.766,21.484,41.504,205.078,-3.418,0
1580328318.584,12.207,22.949,41.016,208.984,-0.488,0
1580328318.588,13.672,22.949,41.016,209.961,-4.395,0
1580328318.592,13.184,22.461,41.016,207.031,0.977,0
1580328318.595,10.254,23.926,39.551,206.055,7.812,0
1580328318.599,9.766,24.414,35.156,206.055,-11.230,0
1580328318.603,9.277,20.996,36.133,203.613,-26.367,0
1580328318.607,10.254,24.902,41.016,200.684,-32.227,0
1580328318.611,14.648,27.832,42.480,204.590,-5.859,0
1580328318.607,12.695,24.414,40.527,207.031,9.766,0
1580328318.611,10.254,25.879,40.039,202.637,-41.992,0
1580328318.615,5.371,25.391,36.133,200.195,-39.551,0
1580328318.619,1.953,22.949,37.598,197.266,-35.645,0
1580328318.623,3.418,21.973,38.574,196.777,-28.320,0
1580328318.627,2.441,21.484,33.691,196.777,-25.391,0
1580328318.631,-1.465,19.531,32.715,189.941,-39.062,0
1580328318.634,-3.418,21.484,33.203,188.965,-4.883,0
1580328318.638,-1.465,23.438,36.621,193.848,-14.648,0
1580328318.642,0.488,25.879,38.086,190.918,-44.434,0
1580328318.646,4.883,26.855,32.715,190.430,-36.621,0
1580328318.650,7.324,26.367,33.203,194.824,-31.738,0
1580328318.667,3.906,26.855,34.180,195.801,-25.391,0
1580328318.671,4.395,27.832,34.180,198.730,-4.883,0
1580328318.675,6.348,31.250,37.109,198.730,-20.508,0
1580328318.679,5.371,28.809,35.156,196.289,-56.641,0
1580328318.683,4.883,24.414,34.180,197.266,-49.316,0
1580328318.687,7.324,22.461,38.086,197.754,-24.414,0
1580328318.691,5.859,23.926,38.086,196.289,-28.320,0
1580328318.694,0.488,23.926,35.156,190.918,-46.387,0
1580328318.698,0.488,23.438,34.668,192.383,-47.852,0
1580328318.702,0.977,27.344,36.133,195.312,-6.348,0
1580328318.706,-0.488,29.785,37.598,194.336,9.277,0
1580328318.710,2.441,27.832,38.086,196.777,-31.250,0
1580328318.707,2.930,25.391,38.574,192.383,-40.527,0
1580328318.711,-0.488,23.926,37.598,189.941,-29.785,0
1580328318.715,-2.441,20.996,35.156,192.383,-18.066,0
1580328318.719,-3.418,20.020,35.645,189.453,-27.344,0
1580328318.723,-3.906,19.043,36.621,187.012,-24.414,0
1580328318.727,-1.465,19.043,34.180,189.941,14.160,0
1580328318.731,2.441,20.996,34.180,192.871,5.371,0
1580328318.734,2.930,19.531,37.109,195.312,-26.367,0
1580328318.738,7.324,18.555,39.062,202.637,-11.230,0
1580328318.742,7.812,25.879,38.574,201.660,-21.973,0
1580328318.746,0.488,31.250,36.621,188.477,-45.410,0
1580328318.750,-1.953,30.273,34.668,183.105,-13.184,0
1580328318.788,-0.488,27.832,31.738,182.617,-12.207,0
1580328318.792,-5.371,25.391,32.715,177.734,-3.418,0
1580328318.796,-3.418,26.855,33.203,176.758,26.855,0
1580328318.800,6.836,28.320,31.738,179.199,4.883,0
1580328318.804,8.301,24.414,32.227,176.270,-8.789,0
1580328318.808,6.836,24.902,32.715,179.199,-19.531,0
1580328318.812,1.465,21.973,31.738,183.594,-9.766,0
1580328318.815,-3.418,19.531,31.250,182.617,25.391,0
1580328318.819,-3.418,22.949,34.668,178.711,2.930,0
1580328318.823,-3.906,23.438,33.691,175.781,-42.480,0
1580328318.827,-3.418,21.973,32.227,178.711,-25.879,0
1580328318.831,1.953,24.414,33.203,182.129,-5.859,0
1580328318.809,6.836,26.367,34.180,184.570,1.465,0
1580328318.813,3.906,23.438,34.668,187.012,-32.227,0
1580328318.817,2.930,23.926,33.203,185.059,-48.340,0
1580328318.821,2.930,25.879,32.715,183.105,-10.254,0
1580328318.825,2.441,25.391,33.203,182.617,0.488,0
1580328318.829,1.953,30.762,34.668,181.641,-23.438,0
1580328318.833,0.000,33.691,37.598,182.617,-44.922,0
1580328318.836,0.000,27.832,36.621,183.594,-32.227,0
1580328318.840,1.465,27.344,34.180,183.594,-9.766,0
1580328318.844,-0.977,26.367,39.062,183.594,-18.066,0
1580328318.848,-3.418,22.949,40.527,183.105,-19.531,0
1580328318.852,0.977,25.391,39.551,186.035,-17.090,0
1580328318.847,1.953,25.879,41.992,183.594,-24.902,0
1580328318.851,1.465,23.438,42.480,180.664,-38.574,0
1580328318.855,5.371,24.414,41.016,182.129,-83.008,0
1580328318.859,5.371,26.367,37.598,182.617,-38.574,0
1580328318.863,6.836,29.785,36.133,184.082,19.531,0
1580328318.867,12.207,29.297,35.645,183.594,-24.414,0
1580328318.871,12.695,28.809,34.668,181.641,-63.965,0
1580328318.874,15.137,29.785,37.598,181.641,-49.805,0
1580328318.878,18.555,26.855,39.062,183.105,-33.203,0
1580328318.882,15.137,25.879,39.551,185.547,-48.340,0
1580328318.886,16.113,26.855,39.062,184.570,-91.797,0
1580328318.890,14.160,25.391,36.133,177.246,-101.074,0
1580328318.887,3.418,23.438,35.156,173.828,-41.992,0
1580328318.891,3.418,23.926,38.574,180.176,17.578,0
1580328318.895,10.742,24.902,40.527,181.152,1.953,0
1580328318.899,7.324,25.391,37.598,174.316,-51.758,0
1580328318.903,2.930,22.461,35.645,168.945,-40.039,0
1580328318.907,1.953,22.461,38.086,171.875,-7.324,0
1580328318.911,1.953,24.902,36.133,173.828,-25.391,0
1580328318.914,0.488,25.879,34.668,172.363,-40.039,0
1580328318.918,2.441,26.855,38.086,171.387,-31.738,0
1580328318.922,4.395,26.367,39.551,167.969,-56.641,0
1580328318.926,6.836,23.926,38.574,169.922,-38.086,0
1580328318.930,14.160,23.926,37.109,172.363,-17.578,0
1580328318.947,19.531,26.855,36.133,174.805,-27.832,0
1580328318.951,15.137,25.879,35.156,174.316,-15.625,0
1580328318.955,9.766,23.438,31.250,171.875,8.789,0
1580328318.959,12.207,23.926,30.273,173.340,18.555,0
1580328318.963,12.207,24.902,33.203,175.293,-1.953,0
1580328318.967,12.207,26.855,35.156,176.270,31.250,0
1580328318.971,13.672,29.297,36.621,176.758,57.617,0
1580328318.974,9.766,26.855,36.621,170.410,35.645,0
1580328318.978,6.836,23.926,34.180,166.504,47.852,0
1580328318.982,7.812,26.367,36.133,168.945,66.406,0
1580328318.986,4.395,24.902,38.574,168.945,100.586,0
1580328318.990,9.277,24.414,39.551,169.922,97.656,0
1580328318.987,16.113,21.484,37.598,176.270,54.688,0
1580328318.991,19.043,22.461,35.156,178.223,86.426,0
1580328318.995,11.719,31.250,31.250,167.480,100.586,0
1580328318.999,7.324,33.691,27.344,162.598,79.590,0
1580328319.003,10.254,36.133,26.367,159.668,64.941,0
1580328319.007,-1.465,35.645,22.949,148.438,50.781,0
1580328319.011,-4.395,35.645,20.020,148.926,47.363,0
1580328319.014,1.465,36.621,17.090,147.949,74.219,0
1580328319.018,-2.441,33.691,16.113,138.672,75.195,0
1580328319.022,1.953,34.180,18.066,143.066,48.340,0
1580328319.026,3.906,35.645,21.973,143.066,15.625,0
1580328319.030,-5.371,30.762,22.461,135.742,34.668,0
1580328319.028,-3.418,27.832,21.484,137.695,65.430,0
1580328319.032,1.953,28.809,20.020,143.066,43.457,0
1580328319.036,5.859,27.832,21.973,149.902,21.973,0
1580328319.040,9.766,25.879,23.926,151.367,20.508,0
1580328319.044,10.254,25.391,25.879,152.832,26.367,0
1580328319.048,11.230,28.320,29.785,158.691,-2.441,0
1580328319.052,10.254,30.762,30.273,158.691,-4.883,0
1580328319.055,9.766,31.738,31.250,159.668,23.926,0
1580328319.059,13.184,31.738,31.738,158.203,8.789,0
1580328319.063,12.695,29.297,30.273,155.273,-27.344,0
1580328319.067,12.695,29.785,28.320,154.785,-27.832,0
1580328319.071,11.230,27.832,27.344,153.809,-26.367,0
1580328319.087,11.719,28.320,31.250,155.273,-33.691,0
1580328319.091,12.207,30.762,33.691,155.273,-66.406,0
1580328319.095,10.742,32.227,30.762,152.832,-43.457,0
1580328319.099,13.184,31.738,30.273,156.250,1.953,0
1580328319.103,16.113,29.785,36.133,157.715,10.742,0
1580328319.107,17.090,31.250,36.621,158.691,7.812,0
1580328319.111,17.578,32.715,36.133,163.086,-34.180,0
1580328319.114,17.578,34.180,37.109,161.621,-29.785,0
1580328319.118,17.090,35.645,38.086,161.621,2.441,0
1580328319.122,16.113,34.668,37.109,164.062,4.883,0
1580328319.126,13.184,34.668,35.156,165.039,21.973,0
1580328319.130,14.648,36.621,39.062,163.574,10.254,0
1580328319.127,16.113,35.156,39.062,156.738,18.066,0
1580328319.131,16.113,29.785,35.645,159.180,73.730,0
1580328319.135,17.578,28.809,35.645,162.598,49.316,0
1580328319.139,17.090,29.297,38.086,164.062,31.738,0
1580328319.143,20.508,29.297,38.086,166.504,55.176,0
1580328319.147,23.926,31.250,34.668,164.062,50.781,0
1580328319.151,20.020,29.785,34.668,159.668,52.246,0
1580328319.154,14.648,26.367,34.668,155.273,54.199,0
1580328319.158,14.648,25.879,34.668,152.344,49.805,0
1580328319.162,15.625,29.297,38.574,152.344,36.133,0
1580328319.166,17.578,32.227,39.551,147.949,13.184,0
1580328319.170,15.137,28.320,36.621,147.949,2.930,0
1580328319.166,13.184,25.391,38.574,150.879,-3.418,0
1580328319.170,15.625,27.344,39.062,151.855,-7.324,0
1580328319.174,18.555,29.785,40.527,154.785,-30.273,0
1580328319.178,18.555,29.785,41.504,152.344,-47.852,0
1580328319.182,15.137,28.809,41.016,149.414,-30.762,0
1580328319.186,11.719,29.297,41.016,153.809,-6.348,0
1580328319.190,9.766,28.320,39.551,152.832,8.301,0
1580328319.193,8.301,28.320,40.039,150.391,-20.996,0
1580328319.197,7.324,31.738,41.016,149.414,-43.457,0
1580328319.201,5.371,30.762,37.109,145.996,-33.203,0
1580328319.205,6.348,29.297,39.062,153.320,-28.809,0
1580328319.209,9.766,29.785,41.016,159.668,-47.852,0
1580328319.226,8.789,29.785,38.086,157.227,-48.828,0
1580328319.230,10.254,30.273,40.039,157.227,-30.762,0
1580328319.234,11.719,27.344,41.016,156.738,-4.883,0
1580328319.238,11.719,24.902,42.480,157.227,-26.855,0
1580328319.242,14.160,28.809,43.945,157.227,-62.012,0
1580328319.246,18.066,34.180,45.898,160.156,-36.621,0
1580328319.250,17.090,32.715,45.898,156.738,-19.531,0
1580328319.253,19.531,26.855,42.480,152.832,-7.812,0
1580328319.257,26.367,26.367,42.480,157.715,-23.438,0
1580328319.261,23.926,26.855,43.457,160.156,-20.020,0
1580328319.265,23.926,26.855,44.434,162.109,16.602,0
1580328319.269,28.320,31.250,47.363,163.086,-10.742,0
1580328319.267,26.855,30.762,45.898,159.180,-32.715,0
1580328319.271,22.949,24.902,41.992,155.273,-19.531,0
1580328319.275,22.461,23.438,39.062,155.762,-8.789,0
1580328319.279,23.438,24.414,38.086,158.203,33.203,0
1580328319.283,24.902,26.855,40.527,159.668,43.945,0
1580328319.287,22.949,28.809,41.992,161.133,19.531,0
1580328319.291,21.973,28.320,40.039,162.109,27.344,0
1580328319.294,23.926,27.832,40.039,163.574,36.621,0
1580328319.298,23.438,26.367,39.551,165.039,35.156,0
1580328319.302,24.902,27.832,41.016,165.039,-0.977,0
1580328319.306,23.926,25.879,39.062,161.133,8.301,0
1580328319.310,19.531,24.902,35.645,157.227,22.949,0
1580328319.306,25.879,28.320,37.109,163.574,20.508,0
1580328319.310,34.668,26.855,36.621,174.805,12.207,0
1580328319.314,31.250,24.902,44.434,175.781,2.441,0
1580328319.318,16.602,22.461,51.270,162.109,10.742,0
1580328319.322,6.836,21.484,49.805,154.785,32.715,0
1580328319.326,7.324,20.996,52.246,158.203,19.043,0
1580328319.330,7.812,15.625,50.293,159.180,-16.602,0
1580328319.333,6.348,15.625,47.852,158.203,-4.395,0
1580328319.337,9.766,19.043,48.340,156.738,-1.465,0
1580328319.341,6.348,17.578,47.852,152.832,23.438,0
1580328319.345,7.812,19.531,45.898,153.809,11.230,0
1580328319.349,15.137,23.926,45.898,159.180,-14.648,0
1580328319.366,18.066,25.391,46.875,162.109,14.160,0
1580328319.370,17.578,24.414,42.969,153.809,12.207,0
1580328319.374,13.672,23.438,41.504,149.414,-15.137,0
1580328319.378,16.113,24.902,42.480,156.738,-5.859,0
1580328319.382,18.555,22.949,41.016,155.762,25.391,0
1580328319.386,18.555,20.996,41.016,155.273,22.461,0
1580328319.390,17.090,23.438,43.457,156.250,-26.855,0
1580328319.393,9.766,20.020,41.992,148.926,-20.508,0
1580328319.397,10.742,15.625,41.016,149.414,31.250,0
1580328319.401,12.695,14.160,42.480,153.320,45.410,3
1580328319.405,11.719,17.090,43.457,154.785,5.371,0
1580328319.409,12.695,23.438,41.992,155.273,6.836,0
1580328319.407,14.648,23.438,39.551,154.297,32.227,0
1580328319.411,15.137,22.461,39.551,152.344,17.090,0
1580328319.415,13.672,22.461,39.551,152.832,8.301,0
1580328319.419,13.672,22.949,40.039,156.738,3.418,0
1580328319.423,14.648,22.949,41.992,154.785,-15.625,0
1580328319.427,16.602,22.461,41.016,154.297,-30.273,0
1580328319.431,19.531,22.461,38.574,157.715,-25.879,0
1580328319.434,18.555,21.973,38.086,156.738,-18.555,0
1580328319.438,17.090,22.461,36.621,155.273,-15.137,0
1580328319.442,16.602,23.926,38.574,153.809,0.000,0
1580328319.446,15.625,24.902,40.039,147.949,16.113,0
1580328319.450,14.160,25.879,35.645,148.926,9.766,0
1580328319.446,14.160,25.391,34.668,153.320,-8.789,0
1580328319.450,13.672,25.391,35.645,150.391,6.348,0
1580328319.454,13.184,26.367,35.645,147.461,12.695,0
1580328319.458,12.695,24.902,36.133,146.484,-6.348,0
1580328319.462,14.648,24.902,37.109,147.949,4.883,0
1580328319.466,15.137,27.832,38.574,148.926,29.297,0
1580328319.470,16.602,28.320,37.598,147.949,51.758,0
1580328319.473,18.066,28.809,35.645,147.461,21.484,0
1580328319.477,15.625,26.367,33.691,139.648,-17.578,0
1580328319.481,14.160,24.414,33.691,139.648,6.836,0
1580328319.485,14.648,24.414,36.133,142.090,31.250,0
1580328319.489,11.230,22.949,34.668,137.695,20.508,0
1580328319.506,15.137,25.879,34.180,139.160,4.395,0
1580328319.510,16.113,24.414,36.133,141.113,-0.977,0
1580328319.514,12.695,21.973,35.645,140.625,11.230,0
1580328319.518,15.137,23.926,34.668,141.602,23.438,0
1580328319.522,18.066,26.855,36.621,143.066,-14.648,0
1580328319.526,19.531,26.855,37.598,145.508,-56.641,0
1580328319.530,16.113,23.438,37.109,139.648,-52.734,0
1580328319.533,9.766,21.484,37.109,138.672,5.371,0
1580328319.537,13.184,21.484,35.645,143.066,12.695,0
1580328319.541,19.043,21.973,34.180,140.137,-19.531,0
1580328319.545,18.555,23.438,35.156,142.578,-5.859,0
1580328319.549,16.113,22.461,34.180,142.090,24.902,0
1580328319.547,13.672,20.020,32.227,136.230,29.297,0
1580328319.551,16.602,21.973,33.691,140.625,0.977,0
1580328319.555,20.508,22.461,33.203,145.020,-14.160,0
1580328319.559,17.578,21.484,31.738,141.602,6.348,0
1580328319.563,16.113,20.508,34.668,139.648,3.418,0
1580328319.567,15.625,20.508,33.691,136.719,-25.879,0
1580328319.571,15.137,23.926,32.715,138.184,-37.109,0
1580328319.574,13.184,21.973,32.227,139.648,2.441,0
1580328319.578,12.207,23.438,32.715,140.137,22.461,0
1580328319.582,12.695,27.344,35.156,134.766,-12.207,0
1580328319.586,10.742,25.879,38.574,131.348,-31.738,0
1580328319.590,7.812,24.902,38.086,138.672,12.695,0
1580328319.587,9.766,26.367,35.645,138.672,43.457,0
1580328319.591,11.230,25.879,36.621,136.230,1.465,0
1580328319.595,9.277,25.391,38.086,135.254,-1.465,0
1580328319.599,7.812,26.855,36.621,134.277,26.367,0
1580328319.603,11.719,30.762,37.109,135.742,45.898,0
1580328319.607,17.578,33.203,40.039,139.160,32.715,0
1580328319.611,15.137,30.273,39.062,135.742,-7.324,0
1580328319.614,14.648,28.320,40.527,133.789,-23.438,0
1580328319.618,16.602,25.879,40.527,134.766,-15.137,0
1580328319.622,20.020,22.461,34.180,138.184,9.766,0
1580328319.626,21.973,21.484,39.062,144.531,-9.277,0
1580328319.630,4.395,20.508,47.363,133.301,3.418,0
1580328319.647,-16.113,17.578,48.828,120.117,8.301,0
1580328319.651,-15.137,11.719,50.293,122.070,18.555,0
1580328319.655,-9.277,12.695,50.781,119.141,7.324,0
1580328319.659,-9.277,15.137,50.781,119.629,-13.184,0
1580328319.663,-10.742,14.648,52.734,122.559,17.578,0
1580328319.667,-10.742,15.137,53.711,120.117,23.926,0
1580328319.671,-6.836,14.648,51.270,118.652,-7.324,0
1580328319.674,-1.465,15.625,46.387,123.535,-8.789,0
1580328319.678,3.906,18.555,45.898,130.371,3.418,0
1580328319.682,5.371,18.555,45.898,131.348,5.859,0
1580328319.686,7.812,18.555,48.340,133.789,-12.207,0
1580328319.690,4.883,15.625,48.828,129.395,-11.719,0
1580328319.687,-2.441,13.184,43.457,123.047,27.832,0
1580328319.691,-0.977,16.113,43.457,127.930,-7.324,0
1580328319.695,2.930,20.020,43.457,128.418,-35.156,0
1580328319.699,3.906,22.949,44.922,125.977,-31.738,0
1580328319.703,4.883,20.996,42.480,125.000,-46.875,0
1580328319.707,5.371,20.508,37.598,125.977,-18.555,0
1580328319.711,7.812,21.973,39.551,128.906,-9.766,0
1580328319.714,10.742,22.949,40.039,127.930,-30.273,0
1580328319.718,11.719,21.973,39.062,128.906,-34.668,0
1580328319.722,13.672,21.973,43.945,132.812,-57.617,0
1580328319.726,11.230,23.926,43.945,131.836,-25.391,0
1580328319.730,12.207,23.926,41.016,133.789,-1.953,0
1580328319.727,13.184,24.414,41.992,136.719,-41.992,0
1580328319.731,13.184,24.414,41.992,137.207,-33.691,0
1580328319.735,17.578,24.414,43.945,142.090,-17.578,0
1580328319.739,17.578,22.949,42.480,142.578,-3.418,0
1580328319.743,20.020,22.949,40.527,144.043,-10.254,0
1580328319.747,23.926,25.879,43.457,145.996,-25.391,0
1580328319.751,22.461,24.414,43.457,145.020,14.160,0
1580328319.754,15.137,22.461,44.922,142.578,20.020,0
1580328319.758,10.254,20.996,44.434,137.695,-15.137,0
1580328319.762,4.883,17.578,41.504,137.207,3.906,0
1580328319.766,5.371,19.043,40.527,136.230,10.742,0
1580328319.770,11.230,23.438,40.527,141.113,18.066,0
1580328319.787,14.648,24.414,39.062,142.090,2.441,0
1580328319.791,13.672,24.902,37.109,137.695,-18.066,0
1580328319.795,12.695,27.344,38.086,141.113,0.000,0
1580328319.799,13.672,25.879,39.551,142.578,1.953,0
1580328319.803,14.160,25.391,40.527,140.137,-4.395,0
1580328319.807,14.648,26.367,40.527,139.160,-18.066,0
1580328319.811,10.254,22.949,38.086,137.207,-23.926,0
1580328319.814,10.254,23.926,39.551,138.184,-10.254,0
1580328319.818,13.184,23.926,40.039,137.695,-17.090,0
1580328319.822,12.695,21.484,35.645,136.230,3.906,0
1580328319.826,12.695,20.508,33.203,135.742,-8.789,0
1580328319.830,14.160,20.508,34.180,137.207,2.930,0
1580328319.847,16.602,22.461,36.133,139.160,12.695,0
1580328319.851,15.137,21.973,36.133,135.254,-19.531,0
1580328319.855,13.672,20.508,36.621,133.789,-26.367,0
1580328319.859,17.090,25.879,38.086,137.695,-29.297,0
1580328319.863,20.996,27.832,38.086,135.742,4.883,0
1580328319.867,15.137,26.367,38.574,132.812,-2.441,0
1580328319.871,12.207,23.926,37.598,133.789,-20.508,0
1580328319.874,13.672,23.926,39.062,134.766,2.441,0
1580328319.878,13.184,25.879,41.016,138.672,22.949,0
1580328319.882,13.184,27.344,40.039,138.184,-20.508,0
1580328319.886,11.230,26.855,36.621,131.836,-40.039,0
1580328319.890,10.254,28.320,34.668,132.812,-4.883,0
1580328319.867,10.254,28.809,33.691,134.766,-6.348,0
1580328319.871,9.277,27.344,35.645,131.836,-25.391,0
1580328319.875,8.301,27.832,39.062,130.371,-47.852,0
1580328319.879,6.836,26.855,35.645,131.836,-31.250,0
1580328319.883,9.277,24.414,34.668,131.836,-2.930,0
1580328319.887,12.695,23.438,38.574,131.348,-8.301,0
1580328319.891,12.695,23.926,40.039,134.277,-40.527,0
1580328319.894,13.184,22.461,39.551,136.230,-61.035,0
1580328319.898,10.742,20.020,37.598,135.254,-48.340,0
1580328319.902,10.254,21.484,36.133,134.766,-46.387,0
1580328319.906,12.695,25.879,37.598,134.766,-35.645,0
1580328319.910,17.578,26.855,38.574,138.672,-25.879,0
1580328319.928,22.461,29.785,39.062,139.160,-45.898,0
1580328319.932,17.090,28.809,38.574,131.348,-45.898,0
1580328319.936,14.648,24.902,34.668,129.883,-30.762,0
1580328319.940,19.043,24.414,36.621,134.277,-29.297,0
1580328319.944,14.648,25.391,39.551,135.742,-17.090,0
1580328319.948,16.113,27.344,39.062,136.230,-3.418,0
1580328319.952,16.602,25.391,38.086,135.254,-12.695,0
1580328319.955,11.230,23.438,39.062,130.371,-9.766,0
1580328319.959,12.207,23.438,38.574,129.395,-24.414,0
1580328319.963,9.766,23.438,36.621,128.906,-1.953,0
1580328319.967,10.254,25.879,37.598,128.418,-20.508,0
1580328319.971,9.766,26.855,37.598,125.000,-75.195,0
1580328319.967,5.859,24.902,36.621,125.977,-34.180,0
1580328319.971,9.277,24.414,36.621,131.836,-7.324,0
1580328319.975,11.230,24.902,34.668,133.789,16.602,0
1580328319.979,12.695,26.855,38.086,136.719,18.066,0
1580328319.983,15.625,28.809,37.598,135.742,-30.762,0
1580328319.987,17.578,28.809,37.598,134.277,-28.320,0
1580328319.991,18.555,28.809,40.527,135.254,-2.930,0
1580328319.994,16.602,26.367,38.086,132.324,-30.273,0
1580328319.998,16.113,25.391,38.086,132.324,-37.109,0
1580328320.002,15.137,29.785,39.062,127.930,-62.012,0
1580328320.006,13.672,29.297,35.156,125.488,-46.387,0
1580328320.010,14.160,27.344,34.668,128.906,0.488,0
1580328320.007,11.230,26.367,37.109,129.395,2.930,0
1580328320.011,14.160,28.320,39.551,132.324,-2.930,0
1580328320.015,12.695,28.320,40.527,132.812,7.812,0
1580328320.019,11.719,26.367,38.574,129.883,31.738,0
1580328320.023,17.090,27.832,40.039,129.395,20.020,0
1580328320.027,15.625,30.273,40.527,131.348,5.859,0
1580328320.031,9.766,29.297,37.109,127.930,46.875,0
1580328320.034,10.742,27.832,37.598,124.023,49.805,0
1580328320.038,11.230,26.855,36.133,122.070,45.410,0
1580328320.042,10.254,24.902,35.156,124.023,56.152,0
1580328320.046,13.672,23.438,35.645,128.418,73.730,0
1580328320.050,15.625,23.438,36.133,129.883,80.078,0
1580328320.068,12.207,21.973,36.133,127.441,61.523,0
1580328320.072,11.719,22.949,33.691,127.930,66.895,0
1580328320.076,12.695,26.855,36.621,128.418,85.449,0
1580328320.080,10.254,24.414,38.086,130.859,115.723,0
1580328320.084,11.230,24.414,39.551,131.348,123.047,0
1580328320.088,10.742,25.879,41.016,125.977,77.637,0
1580328320.092,9.277,24.902,39.062,123.535,60.059,0
1580328320.095,8.301,25.391,39.551,126.465,91.797,0
1580328320.099,9.277,26.367,41.016,129.883,79.102,0
1580328320.103,8.789,24.414,41.016,128.418,55.664,0
1580328320.107,8.789,22.461,41.504,126.465,55.664,0
1580328320.111,9.766,23.926,39.551,123.047,40.039,0
1580328320.107,8.789,26.367,36.621,124.512,66.895,0
1580328320.111,9.766,25.391,39.062,127.930,89.844,0
1580328320.115,7.812,24.414,37.598,127.441,47.363,0
1580328320.119,10.254,25.879,35.645,127.441,30.273,0
1580328320.123,10.742,24.414,37.598,126.953,43.945,0
1580328320.127,7.812,24.414,41.016,128.906,20.508,0
1580328320.131,8.301,25.879,38.574,126.465,-15.137,0
1580328320.134,6.836,25.391,35.645,122.559,-6.348,0
1580328320.138,6.348,23.926,40.039,125.977,22.461,0
1580328320.142,9.766,22.949,41.016,127.441,17.090,0
1580328320.146,8.301,21.484,39.551,127.441,-6.836,0
1580328320.150,5.371,20.508,38.574,128.418,-4.883,0
1580328320.168,5.859,22.949,38.574,125.977,11.719,0
1580328320.172,9.277,23.926,40.527,125.488,6.348,0
1580328320.176,7.812,23.438,39.551,120.605,-17.090,0
1580328320.180,4.883,20.996,36.621,118.164,1.953,0
1580328320.184,6.836,22.461,39.062,124.023,14.160,0
1580328320.188,8.301,24.414,39.551,128.906,-3.418,0
1580328320.192,9.277,24.902,37.598,130.371,1.465,0
1580328320.195,11.719,25.391,38.086,124.023,-29.785,0
1580328320.199,9.277,25.391,36.133,123.535,-39.551,0
1580328320.203,5.371,25.879,34.668,127.930,16.113,0
1580328320.207,5.859,24.414,35.645,125.488,39.551,0
1580328320.211,9.766,24.902,35.645,125.488,20.996,0
1580328320.248,13.672,24.902,35.156,126.465,27.344,0
1580328320.252,11.719,24.902,35.645,125.488,35.645,0
1580328320.256,12.207,26.367,37.598,124.512,48.828,0
1580328320.260,14.648,25.879,37.598,125.000,28.809,0
1580328320.264,15.625,26.367,35.645,126.465,31.250,0
1580328320.268,20.020,30.762,35.645,130.371,35.645,0
1580328320.272,21.484,31.738,33.691,131.836,17.090,0
1580328320.275,19.043,28.809,35.645,131.836,19.531,0
1580328320.279,18.555,31.738,38.574,130.371,-1.953,0
1580328320.283,18.555,31.250,36.621,125.977,-22.461,0
1580328320.287,17.578,30.273,37.109,126.953,-24.902,0
1580328320.291,14.160,28.809,39.551,125.488,-22.461,0
1580328320.254,14.648,31.250,39.062,124.023,-39.551,0
1580328320.258,13.184,32.715,36.621,123.535,-41.504,0
1580328320.262,9.277,30.273,37.598,121.582,-14.160,0
1580328320.266,14.648,31.738,41.016,127.930,-14.648,0
1580328320.270,14.648,29.297,40.039,127.441,-42.480,0
1580328320.274,10.742,26.855,36.133,125.488,-68.848,0
1580328320.278,9.766,25.879,36.133,127.930,-51.270,0
1580328320.281,9.766,23.926,38.574,125.977,-15.625,0
1580328320.285,12.207,25.879,40.039,120.605,-15.137,0
1580328320.289,13.672,28.320,39.062,118.652,-21.973,0
1580328320.293,16.113,27.832,37.598,117.676,-35.645,0
1580328320.297,13.184,25.391,37.109,111.328,-20.996,0
1580328320.307,6.836,22.461,35.645,109.863,3.906,0
1580328320.311,7.812,24.902,35.645,113.281,-25.879,0
1580328320.315,10.254,22.461,35.156,113.770,-21.484,0
1580328320.319,9.277,20.508,34.180,111.816,-27.832,0
1580328320.323,10.254,25.879,37.598,113.281,-30.762,0
1580328320.327,10.254,26.855,40.039,113.281,-17.578,0
