timestamps,TP9,AF7,AF8,TP10,Right AUX,Marker0
1580328468.246,7.324,24.902,27.832,5.859,15.625,0
1580328468.250,7.324,24.414,29.785,8.789,25.391,0
1580328468.254,3.906,25.391,30.762,8.301,110.840,0
1580328468.258,-2.441,24.414,26.367,5.371,103.516,0
1580328468.262,-2.441,24.902,23.926,3.418,36.133,0
1580328468.266,0.000,23.926,27.344,1.465,-6.348,0
1580328468.270,3.906,24.414,29.785,6.348,3.418,0
1580328468.273,7.324,26.367,25.879,5.371,25.879,0
1580328468.277,5.371,27.344,26.855,2.441,-19.043,0
1580328468.281,3.906,30.762,28.320,5.859,-24.902,0
1580328468.285,1.953,31.738,29.785,6.348,22.461,0
1580328468.289,1.465,30.762,32.715,4.395,53.711,0
1580328468.270,2.441,31.738,32.227,3.906,43.945,0
1580328468.274,3.906,32.715,30.762,6.348,41.016,0
1580328468.278,7.324,31.250,27.832,7.812,-4.883,0
1580328468.282,6.348,28.809,24.414,6.348,-21.973,0
1580328468.286,3.418,26.367,25.879,5.371,46.387,0
1580328468.290,3.906,23.926,28.320,3.906,78.613,0
1580328468.294,6.836,26.367,26.855,3.906,49.316,0
1580328468.297,10.254,27.832,24.902,6.348,31.738,0
1580328468.301,13.184,23.926,26.367,4.395,23.438,0
1580328468.305,15.137,23.438,29.785,2.930,26.367,0
1580328468.309,18.066,26.855,28.809,9.766,12.695,0
1580328468.313,13.184,25.391,26.367,12.207,22.461,0
1580328468.327,10.742,23.926,29.297,8.789,43.457,0
1580328468.331,9.766,25.391,28.320,8.301,39.062,0
1580328468.335,10.742,28.320,27.832,8.789,42.969,0
1580328468.339,13.184,28.809,32.715,9.277,37.109,0
1580328468.343,8.301,26.367,33.691,4.395,38.574,0
1580328468.347,6.836,26.855,30.273,2.930,62.012,0
1580328468.351,10.254,28.809,32.227,7.324,13.184,0
1580328468.354,13.672,29.785,29.785,5.859,34.668,0
1580328468.358,14.160,31.250,27.832,3.906,30.273,0
1580328468.362,13.672,32.227,29.297,3.906,-11.719,0
1580328468.366,14.648,32.715,26.855,4.395,16.602,0
1580328468.370,15.625,33.691,28.809,9.277,20.020,0
1580328468.367,17.090,33.691,31.250,10.254,30.273,0
1580328468.371,19.531,33.203,30.273,5.371,62.988,0
1580328468.375,19.043,30.762,31.738,7.324,51.758,0
1580328468.379,21.973,32.227,32.715,11.719,41.016,0
1580328468.383,24.902,34.668,27.344,13.672,65.430,0
1580328468.387,25.879,35.156,27.832,15.625,30.273,0
1580328468.391,26.855,34.668,30.273,17.578,20.996,0
1580328468.394,26.855,35.645,29.297,17.090,49.805,0
1580328468.398,27.344,36.621,33.203,14.648,23.926,0
1580328468.402,31.250,38.086,33.691,16.113,5.371,0
1580328468.406,27.832,40.039,32.227,17.578,23.438,0
1580328468.410,26.367,43.457,33.203,19.531,38.574,0
1580328468.407,31.250,44.434,33.203,17.578,84.961,0
1580328468.411,25.879,41.504,31.738,15.625,79.590,0
1580328468.415,20.020,39.551,29.785,13.672,35.156,0
1580328468.419,21.973,37.598,30.762,15.137,38.574,0
1580328468.423,21.484,37.109,33.691,12.695,10.742,0
1580328468.427,21.484,38.574,33.691,7.812,5.859,0
1580328468.431,21.484,38.574,32.715,11.230,3.418,0
1580328468.434,17.090,35.156,32.715,14.648,15.137,0
1580328468.438,13.184,34.668,32.227,14.160,29.297,0
1580328468.442,15.137,38.086,30.762,14.160,58.105,0
1580328468.446,13.672,37.109,29.297,8.301,40.039,0
1580328468.450,8.789,30.273,28.809,5.371,-7.812,0
1580328468.467,10.254,31.738,28.809,12.207,-30.762,0
1580328468.471,11.719,35.156,27.344,12.695,26.855,0
1580328468.475,13.672,34.668,27.344,14.160,47.363,0
1580328468.479,14.160,35.645,29.297,14.648,64.941,0
1580328468.483,11.230,37.109,28.809,15.137,53.711,0
1580328468.487,13.184,37.109,28.320,19.531,-57.129,0
1580328468.491,12.207,36.621,28.809,20.508,-36.621,0
1580328468.494,5.859,35.645,29.297,16.113,53.223,0
1580328468.498,4.883,36.133,31.250,8.301,71.289,0
1580328468.502,1.953,36.133,31.250,3.418,34.180,0
1580328468.506,0.488,34.180,28.809,2.441,37.598,0
1580328468.510,2.441,34.180,27.832,1.953,58.594,0
1580328468.507,-0.488,35.156,30.273,3.418,13.184,0
1580328468.511,1.465,36.621,30.762,3.418,-10.254,0
1580328468.515,2.930,35.645,28.809,4.883,-0.977,0
1580328468.519,2.930,34.668,29.297,4.883,31.250,0
1580328468.523,6.348,35.645,31.250,8.301,39.551,0
1580328468.527,6.836,35.156,32.227,12.207,35.156,0
1580328468.531,8.301,34.180,29.785,14.160,58.105,0
1580328468.534,11.230,35.645,29.785,19.531,50.293,0
1580328468.538,12.207,36.621,31.250,17.578,36.621,0
1580328468.542,14.648,39.062,34.180,15.137,28.809,0
1580328468.546,13.672,39.062,32.227,15.137,67.383,0
1580328468.550,15.137,38.574,29.785,15.137,50.781,0
1580328468.546,15.137,39.062,31.250,15.625,38.574,0
1580328468.550,13.672,40.039,31.738,15.137,24.902,0
1580328468.554,13.672,39.551,29.297,14.160,21.973,0
1580328468.558,13.672,39.062,28.320,13.672,19.531,0
1580328468.562,16.602,39.551,31.250,16.113,24.414,0
1580328468.566,17.578,41.504,32.715,18.555,33.203,0
1580328468.570,16.113,43.945,34.180,16.113,21.973,0
1580328468.573,15.137,41.992,33.203,17.090,20.996,0
1580328468.577,12.695,39.062,33.203,17.090,38.086,0
1580328468.581,11.719,37.109,35.645,14.160,57.617,0
1580328468.585,11.230,35.645,37.109,13.184,52.246,0
1580328468.589,8.789,34.668,36.133,13.672,50.293,0
1580328468.588,9.277,37.109,32.227,16.602,44.434,0
1580328468.592,10.254,38.086,32.715,12.695,17.578,0
1580328468.596,9.766,37.598,35.645,10.254,-16.113,0
1580328468.600,8.301,39.062,37.598,13.184,39.062,0
1580328468.604,7.324,40.039,41.992,15.137,29.297,0
1580328468.608,8.301,40.527,43.457,15.625,-52.246,0
1580328468.612,8.301,40.039,38.574,11.230,18.555,0
1580328468.615,8.789,38.086,34.180,10.742,51.270,0
1580328468.619,6.348,37.109,32.227,6.836,54.199,0
1580328468.623,1.953,37.598,30.273,7.812,12.207,0
1580328468.627,4.395,36.621,33.203,13.672,-75.684,0
1580328468.631,4.395,37.109,36.621,15.137,1.953,0
1580328468.647,4.883,38.086,36.621,19.531,-4.395,0
1580328468.651,8.301,34.180,40.039,17.578,20.020,0
1580328468.655,7.812,30.762,37.598,14.160,76.172,0
1580328468.659,5.859,32.715,35.645,13.672,28.809,0
1580328468.663,7.324,33.691,40.039,13.184,11.719,0
1580328468.667,10.254,33.203,37.109,15.137,47.852,0
1580328468.671,12.695,34.668,37.598,12.695,46.875,0
1580328468.674,9.766,33.691,40.039,6.836,14.160,0
1580328468.678,6.348,33.203,36.133,7.324,43.945,0
1580328468.682,5.371,32.715,32.715,7.812,94.238,0
1580328468.686,4.883,31.250,32.227,5.859,83.008,0
1580328468.690,8.789,33.203,34.180,7.812,28.809,0
1580328468.687,10.254,39.062,34.180,9.766,18.066,0
1580328468.691,5.859,41.016,31.250,7.812,23.438,0
1580328468.695,6.836,39.062,31.738,7.812,68.848,0
1580328468.699,11.719,38.574,35.156,9.766,130.859,0
1580328468.703,8.301,35.645,34.180,8.789,107.910,0
1580328468.707,6.348,33.203,30.762,6.348,27.344,0
1580328468.711,10.742,33.691,30.762,9.277,-7.812,0
1580328468.714,8.301,31.738,32.227,8.789,39.551,0
1580328468.718,4.883,30.273,33.203,6.836,38.086,0
1580328468.722,8.301,32.227,31.250,8.789,-15.137,0
1580328468.726,8.789,34.180,32.227,2.441,11.719,0
1580328468.730,10.254,35.156,35.645,4.883,69.824,0
1580328468.728,12.695,34.180,35.645,13.672,22.461,0
1580328468.732,13.184,34.668,37.598,16.113,5.859,0
1580328468.736,14.648,36.133,38.574,16.602,6.348,0
1580328468.740,15.137,34.180,34.180,13.672,5.371,0
1580328468.744,16.113,30.273,35.156,13.184,27.832,0
1580328468.748,20.996,30.762,36.133,18.066,21.484,0
1580328468.752,20.508,31.738,33.203,18.066,37.109,0
1580328468.755,20.508,36.133,35.156,19.043,37.109,0
1580328468.759,19.531,38.086,36.133,18.066,9.766,0
1580328468.763,15.625,32.715,31.738,11.719,8.301,0
1580328468.767,16.602,34.180,30.762,13.184,-1.953,0
1580328468.771,17.090,38.086,36.133,18.555,2.441,0
1580328468.786,15.137,37.109,38.574,19.531,25.879,0
1580328468.790,15.137,35.645,36.621,18.066,42.480,0
1580328468.794,16.113,36.133,37.109,19.531,68.359,0
1580328468.798,14.160,36.621,37.598,21.484,77.637,0
1580328468.802,13.672,35.645,35.156,17.578,39.551,0
1580328468.806,15.137,35.645,34.180,21.484,12.207,0
1580328468.810,14.648,37.109,34.180,18.066,4.395,0
1580328468.813,14.160,35.156,31.250,9.277,4.395,0
1580328468.817,9.766,31.738,28.809,12.695,29.785,0
1580328468.821,6.348,32.227,32.227,12.207,12.695,0
1580328468.825,10.254,33.691,35.645,12.207,13.184,0
1580328468.829,13.184,33.691,36.133,14.160,68.359,0
1580328468.827,15.625,32.715,37.109,13.184,62.500,0
1580328468.831,17.578,33.691,38.086,11.230,31.250,0
1580328468.835,18.066,35.645,38.086,12.695,-7.812,0
1580328468.839,16.602,35.156,36.621,11.719,23.926,0
1580328468.843,15.137,34.668,35.645,8.789,56.152,0
1580328468.847,18.555,38.574,34.180,8.301,-14.160,0
1580328468.851,17.578,40.039,31.738,9.766,29.785,0
1580328468.854,15.137,39.551,34.180,11.719,84.961,0
1580328468.858,18.555,41.504,34.668,14.648,-0.488,0
1580328468.862,24.414,40.527,33.203,17.090,6.348,0
1580328468.866,33.691,40.039,32.715,23.926,65.430,0
1580328468.870,27.832,37.109,36.621,28.320,43.945,0
1580328468.907,8.301,30.762,43.457,13.672,6.348,0
1580328468.911,-0.488,25.391,46.387,5.859,1.465,0
1580328468.915,2.441,22.949,45.898,7.324,-3.418,0
1580328468.919,3.418,22.461,46.875,8.301,-3.418,0
1580328468.923,-6.348,15.625,51.270,5.859,30.762,0
1580328468.927,-18.066,11.230,53.223,-2.441,43.945,0
1580328468.931,-19.531,9.766,53.223,-3.418,22.461,0
1580328468.934,-17.090,8.301,53.711,-1.465,20.996,0
1580328468.938,-18.066,8.789,53.223,-9.766,5.859,0
1580328468.942,-18.066,7.324,50.781,-9.766,19.043,0
1580328468.946,-14.648,5.859,51.270,0.000,84.961,0
1580328468.950,-9.277,8.789,54.199,3.418,37.109,0
1580328468.928,-7.324,11.230,52.246,8.301,5.371,0
1580328468.932,-2.930,11.230,49.316,13.184,30.273,0
1580328468.936,-0.977,11.719,50.781,14.648,-1.465,0
1580328468.940,2.930,12.207,47.363,15.137,18.066,0
1580328468.944,10.254,13.672,43.457,18.066,21.484,0
1580328468.948,13.672,16.113,44.922,20.020,20.508,0
1580328468.952,12.695,15.625,45.898,20.508,86.426,0
1580328468.955,14.648,17.578,45.410,20.508,34.668,0
1580328468.959,14.160,20.508,44.922,20.020,2.441,0
1580328468.963,10.254,18.555,40.527,20.508,39.062,0
1580328468.967,10.742,16.602,40.039,20.996,40.527,0
1580328468.971,8.789,18.555,41.016,20.508,0.488,0
1580328468.986,5.371,19.531,37.109,16.602,25.391,0
1580328468.990,3.418,18.066,33.691,15.137,75.684,0
1580328468.994,2.930,18.066,30.762,16.602,74.707,0
1580328468.998,5.371,20.020,29.297,15.137,58.594,0
1580328469.002,5.371,20.508,33.203,10.254,40.527,0
1580328469.006,6.836,22.461,33.691,10.742,28.320,0
1580328469.010,9.766,23.926,30.273,15.625,18.066,0
1580328469.013,7.324,24.902,30.762,14.160,5.371,0
1580328469.017,4.883,23.438,31.738,10.742,-28.320,0
1580328469.021,4.395,21.973,33.203,10.742,3.906,0
1580328469.025,5.371,23.438,34.180,9.766,25.879,0
1580328469.029,6.348,25.391,32.715,9.766,46.875,0
1580328469.006,8.301,24.414,33.691,10.254,80.078,0
1580328469.010,11.230,21.973,39.062,12.695,51.270,0
1580328469.014,12.695,20.508,38.086,15.625,45.410,0
1580328469.018,10.742,20.996,35.645,15.625,72.754,0
1580328469.022,11.230,23.926,33.203,15.137,39.062,0
1580328469.026,10.742,26.367,33.691,16.113,-8.301,0
1580328469.030,8.301,26.367,35.156,15.137,32.227,0
1580328469.033,10.254,29.785,35.156,15.137,74.219,0
1580328469.037,9.766,28.809,35.156,16.602,35.156,0
1580328469.041,9.766,28.809,36.133,14.648,-6.836,0
1580328469.045,10.742,33.203,33.203,12.695,60.059,0
1580328469.049,11.230,31.250,28.809,12.695,51.270,0
1580328469.087,14.160,31.250,28.320,14.160,21.484,0
1580328469.091,11.719,33.203,29.785,11.230,64.453,0
1580328469.095,6.836,31.250,28.809,11.230,38.574,0
1580328469.099,7.812,29.785,28.809,20.020,12.695,0
1580328469.103,8.789,28.320,30.762,19.043,62.988,0
1580328469.107,9.766,27.832,30.762,15.625,54.688,0
1580328469.111,9.277,27.344,29.297,10.254,25.879,0
1580328469.114,9.766,30.273,28.320,8.789,24.414,0
1580328469.118,10.254,31.738,30.273,10.254,40.527,0
1580328469.122,9.277,32.227,29.785,6.836,-20.996,0
1580328469.126,8.301,33.691,30.762,8.301,-56.152,0
1580328469.130,7.812,30.762,32.227,11.230,13.184,0
1580328469.106,10.254,27.832,29.297,9.277,37.598,0
1580328469.110,11.719,28.320,30.273,12.695,34.668,0
1580328469.114,9.277,30.273,32.715,14.160,36.133,0
1580328469.118,11.230,29.785,33.203,12.207,10.254,0
1580328469.122,15.625,28.320,35.156,15.625,16.602,0
1580328469.126,17.578,28.320,35.645,18.066,20.996,0
1580328469.130,20.996,30.762,34.668,14.160,38.086,0
1580328469.133,24.902,30.762,33.691,11.230,95.703,0
1580328469.137,27.344,29.297,28.809,14.160,67.871,0
1580328469.141,29.297,30.762,27.832,12.207,57.617,0
1580328469.145,29.785,31.250,33.203,11.230,0.977,0
1580328469.149,30.273,30.762,34.180,11.719,-46.875,0
1580328469.146,27.344,32.715,34.668,13.184,-7.324,0
1580328469.150,23.438,33.203,34.668,15.625,14.160,0
1580328469.154,21.484,32.227,32.715,12.207,-13.184,0
1580328469.158,16.113,30.762,32.715,9.277,23.926,0
1580328469.162,12.207,30.762,31.738,12.207,90.332,0
1580328469.166,12.695,32.227,32.715,14.648,52.246,0
1580328469.170,10.254,32.715,33.203,11.719,50.781,0
1580328469.173,12.695,32.715,32.227,10.254,24.414,0
1580328469.177,12.207,33.203,30.762,7.812,31.250,0
1580328469.181,8.789,31.250,30.273,8.301,40.527,0
1580328469.185,8.301,27.832,34.180,13.184,18.555,0
1580328469.189,7.812,27.832,36.621,17.090,22.949,0
1580328469.206,10.742,30.762,36.621,19.531,15.137,0
1580328469.210,16.602,33.691,36.621,20.996,26.367,0
1580328469.214,18.066,34.668,34.668,21.973,61.035,0
1580328469.218,17.578,35.645,33.203,19.531,70.312,0
1580328469.222,17.090,35.156,37.109,21.973,41.504,0
1580328469.226,17.090,32.227,42.969,22.949,15.625,0
1580328469.230,14.160,29.297,44.434,15.625,0.488,0
1580328469.233,15.137,29.297,42.969,17.578,16.113,0
1580328469.237,18.066,31.738,40.039,15.137,70.312,0
1580328469.241,18.066,32.227,38.086,13.672,87.891,0
1580328469.245,20.020,29.785,39.551,19.531,13.672,0
1580328469.249,19.043,28.809,38.086,15.625,-2.930,0
1580328469.246,21.973,32.227,34.180,17.578,32.715,0
1580328469.250,24.414,32.227,34.180,19.043,33.691,0
1580328469.254,22.949,30.762,36.133,16.602,38.574,0
1580328469.258,24.902,32.715,36.133,18.066,35.645,0
1580328469.262,21.973,34.668,32.227,16.113,24.414,0
1580328469.266,18.555,34.668,32.715,17.090,43.457,0
1580328469.270,22.461,33.203,34.180,19.531,67.383,0
1580328469.273,20.996,32.715,30.273,14.160,76.660,0
1580328469.277,20.020,31.738,31.250,13.672,45.410,0
1580328469.281,23.926,29.785,35.645,12.207,27.344,0
1580328469.285,23.926,30.762,35.645,10.742,8.301,0
1580328469.289,22.461,31.738,34.668,15.625,2.930,0
1580328469.287,25.391,32.227,35.156,20.020,-32.227,0
1580328469.291,23.926,31.250,34.668,18.066,-20.996,0
1580328469.295,20.996,29.785,32.227,15.625,38.086,0
1580328469.299,20.508,29.297,31.738,18.066,34.668,0
1580328469.303,20.508,31.738,33.691,15.137,77.637,0
1580328469.307,18.555,32.227,34.180,13.672,31.738,0
1580328469.311,15.625,29.297,32.227,13.184,3.418,0
1580328469.314,16.602,30.762,32.715,13.672,70.801,0
1580328469.318,17.578,32.715,36.621,16.602,24.414,0
1580328469.322,13.672,33.691,37.598,11.230,24.902,0
1580328469.326,10.742,32.715,34.668,9.277,19.531,0
1580328469.330,14.648,32.227,28.809,13.184,41.016,0
1580328469.347,18.066,33.203,32.227,11.230,43.945,0
1580328469.351,17.578,33.203,35.645,5.371,33.203,0
1580328469.355,21.973,33.691,33.691,9.766,64.941,0
1580328469.359,22.949,36.133,34.668,14.160,51.270,0
1580328469.363,22.949,36.133,36.621,15.625,38.574,0
1580328469.367,22.461,33.691,35.156,12.207,58.594,0
1580328469.371,20.508,30.762,33.691,7.812,56.641,0
1580328469.374,22.949,27.344,32.715,13.672,107.910,0
1580328469.378,25.879,23.926,32.715,18.066,81.543,0
1580328469.382,28.320,24.902,35.645,17.578,45.898,0
1580328469.386,29.785,29.785,35.645,21.973,37.109,0
1580328469.390,26.855,31.250,33.691,22.461,41.504,0
1580328469.407,23.926,28.320,31.250,16.113,30.273,0
1580328469.411,21.973,27.344,26.855,10.254,2.930,0
1580328469.415,19.043,26.367,28.320,12.207,25.879,0
1580328469.419,14.160,22.461,32.715,16.113,16.602,0
1580328469.423,13.672,22.461,34.180,12.695,0.488,0
1580328469.427,13.184,24.414,34.180,13.184,48.340,0
1580328469.431,10.742,23.926,34.668,17.090,41.504,0
1580328469.434,14.160,25.391,35.645,15.625,-20.020,0
1580328469.438,17.090,22.949,36.133,14.160,-9.277,0
1580328469.442,15.625,22.461,35.645,8.789,12.695,0
1580328469.446,10.742,22.949,33.691,4.883,-8.301,0
1580328469.450,13.184,22.461,34.180,9.766,-20.508,0
1580328469.427,12.695,23.926,35.645,10.742,-49.316,0
1580328469.431,9.277,24.414,37.109,10.254,-26.367,0
1580328469.435,9.766,23.926,36.621,9.766,40.039,0
1580328469.439,8.301,27.344,36.621,5.859,78.613,0
1580328469.443,8.301,27.344,36.621,6.348,47.852,0
1580328469.447,8.789,27.832,33.691,7.812,-39.062,0
1580328469.451,9.277,26.367,33.691,8.789,-17.090,0
1580328469.454,9.766,23.438,31.738,9.277,-3.906,0
1580328469.458,10.742,22.949,28.809,10.742,-46.387,0
1580328469.462,12.695,26.367,33.691,13.672,-39.551,0
1580328469.466,18.066,32.227,36.133,13.672,5.371,0
1580328469.470,20.508,30.762,34.180,12.207,76.660,0
1580328469.486,20.020,30.762,36.133,13.184,76.660,0
1580328469.490,19.043,33.691,35.156,11.719,69.824,0
1580328469.494,18.066,33.691,31.250,14.160,20.508,0
1580328469.498,16.113,34.668,34.180,17.090,20.508,0
1580328469.502,17.090,37.109,34.180,18.066,39.062,0
1580328469.506,19.043,39.062,33.203,16.113,51.758,0
1580328469.510,14.648,37.598,30.762,8.789,75.195,0
1580328469.513,11.719,36.133,28.320,6.836,76.660,0
1580328469.517,14.648,37.598,30.762,9.766,119.141,0
1580328469.521,15.625,39.551,27.344,11.719,59.570,0
1580328469.525,17.578,39.062,28.809,12.695,40.527,0
1580328469.529,20.020,39.551,35.156,18.555,83.008,0
1580328469.527,17.578,38.574,35.156,18.555,58.105,0
1580328469.531,18.066,37.109,38.574,15.137,9.766,0
1580328469.535,20.020,36.621,38.574,18.555,-23.926,0
1580328469.539,20.020,38.574,33.203,20.508,14.648,0
1580328469.543,20.020,36.133,33.691,16.113,-14.648,0
1580328469.547,18.066,37.109,37.598,16.113,0.977,0
1580328469.551,16.113,37.598,37.598,18.066,63.477,0
1580328469.554,17.578,32.715,37.598,18.066,90.820,0
1580328469.558,21.973,30.762,36.621,17.578,45.410,0
1580328469.562,20.996,30.762,35.156,15.625,-13.672,0
1580328469.566,15.625,30.273,35.156,15.137,3.418,0
1580328469.570,12.695,27.344,36.621,12.695,41.016,0
1580328469.567,13.672,28.320,36.621,15.625,86.426,0
1580328469.571,16.113,29.297,31.250,22.461,101.074,0
1580328469.575,16.602,27.344,30.762,19.531,65.430,0
1580328469.579,15.625,26.367,35.156,16.113,-16.602,0
1580328469.583,16.113,25.879,38.086,17.578,-10.742,0
1580328469.587,15.137,26.855,36.621,19.043,55.176,0
1580328469.591,16.602,27.832,32.715,28.320,26.855,0
1580328469.594,21.484,33.203,29.297,22.949,22.461,0
1580328469.598,14.648,39.062,25.391,4.395,78.613,0
1580328469.602,4.395,40.527,20.996,0.000,22.949,0
1580328469.606,8.789,41.016,19.531,5.371,-11.230,0
1580328469.610,11.230,41.016,16.602,2.441,11.230,0
1580328469.647,5.371,41.016,13.672,-7.324,-21.973,0
1580328469.651,10.742,43.457,14.160,-6.348,35.156,0
1580328469.655,8.789,41.504,13.184,-4.395,38.086,0
1580328469.659,5.859,40.527,15.137,-2.441,-12.695,0
1580328469.663,8.789,43.945,16.602,-5.371,65.918,0
1580328469.667,9.277,42.969,17.578,-10.742,35.156,0
1580328469.671,10.742,42.969,21.484,-7.812,4.395,0
1580328469.674,15.625,41.016,18.066,-0.488,46.875,0
1580328469.678,15.137,40.527,15.137,2.441,59.570,0
1580328469.682,12.695,41.016,19.043,2.930,17.578,0
1580328469.686,14.160,41.016,23.438,-1.953,18.555,0
1580328469.690,12.695,41.504,23.438,-4.883,30.762,0
1580328469.667,12.695,40.527,18.555,2.441,11.719,0
1580328469.671,11.719,38.086,20.020,6.836,35.156,0
1580328469.675,13.184,37.598,26.367,7.812,83.984,0
1580328469.679,19.043,37.598,24.902,10.254,78.613,0
1580328469.683,16.602,33.691,24.902,10.254,35.645,0
1580328469.687,13.184,32.227,24.902,10.254,74.219,0
1580328469.691,19.043,34.668,23.926,11.230,75.195,0
1580328469.694,18.066,34.668,24.414,5.371,14.648,0
1580328469.698,17.090,35.645,25.879,4.883,46.875,0
1580328469.702,18.066,37.598,23.438,7.324,45.410,0
1580328469.706,15.625,37.109,20.996,4.883,33.203,0
1580328469.710,17.090,35.156,26.367,10.742,1.953,0
1580328469.727,16.602,30.762,27.344,8.301,4.395,0
1580328469.731,18.555,30.273,27.832,8.789,34.180,0
1580328469.735,20.996,31.250,30.273,13.184,-11.230,0
1580328469.739,17.578,32.715,28.809,10.254,-24.902,0
1580328469.743,17.578,34.668,34.180,12.207,16.113,0
1580328469.747,21.484,36.621,33.691,17.090,26.367,0
1580328469.751,22.461,39.062,31.738,20.996,28.809,0
1580328469.754,19.531,38.574,35.156,18.066,41.992,0
1580328469.758,15.625,36.133,34.668,15.625,20.020,0
1580328469.762,12.695,37.109,35.156,17.090,-21.484,0
1580328469.766,10.254,36.133,35.645,11.719,-5.371,0
1580328469.770,10.742,35.156,35.156,9.277,41.016,0
1580328469.767,10.254,36.133,33.203,8.301,-16.602,0
1580328469.771,10.254,37.109,31.738,5.859,-30.273,0
1580328469.775,9.277,36.133,32.227,1.953,14.160,0
1580328469.779,8.301,33.203,30.273,-0.488,82.520,0
1580328469.783,10.254,33.203,30.273,7.324,73.730,0
1580328469.787,12.207,34.180,31.738,7.812,37.598,0
1580328469.791,10.254,32.227,30.762,1.465,88.867,0
1580328469.794,11.230,33.203,32.227,4.395,85.938,0
1580328469.798,13.672,37.109,32.715,3.906,81.055,0
1580328469.802,14.160,35.156,34.668,2.441,123.535,0
1580328469.806,14.160,34.668,34.180,3.418,79.590,0
1580328469.810,13.672,38.574,31.250,0.977,16.602,0
1580328469.806,13.184,36.621,35.645,1.465,15.137,0
1580328469.810,10.742,38.574,40.039,-1.953,-7.812,0
1580328469.814,0.977,43.457,42.480,-11.719,-36.621,0
1580328469.818,-6.836,41.504,44.434,-18.555,-43.457,0
1580328469.822,-18.066,39.551,43.945,-26.367,-22.461,0
1580328469.826,-29.297,42.480,46.875,-37.598,28.320,0
1580328469.830,-47.852,47.852,45.898,-62.012,46.387,0
1580328469.833,-71.777,47.363,43.457,-87.891,54.688,0
1580328469.837,-86.426,47.852,50.781,-102.051,39.062,0
1580328469.841,-100.098,48.340,53.711,-113.770,19.043,0
1580328469.845,-111.328,46.387,53.711,-124.512,30.273,0
1580328469.849,-114.258,50.781,56.152,-129.883,5.859,0
1580328469.866,-121.094,54.688,54.688,-138.184,2.930,0
1580328469.870,-125.000,58.105,45.898,-143.066,34.668,0
1580328469.874,-120.117,59.570,44.434,-141.602,-1.953,0
1580328469.878,-121.094,59.570,48.340,-135.742,-41.504,0
1580328469.882,-123.535,58.594,48.828,-130.859,32.715,0
1580328469.886,-122.070,56.152,50.293,-124.512,53.711,0
1580328469.890,-112.305,57.129,48.828,-116.211,17.090,0
1580328469.893,-104.492,61.523,43.457,-120.117,-44.922,0
1580328469.897,-96.680,62.500,39.062,-113.770,12.207,0
1580328469.901,-86.914,60.059,37.109,-96.680,38.574,0
1580328469.905,-86.914,55.664,39.551,-93.750,26.367,0
1580328469.909,-82.520,53.223,37.598,-90.332,64.941,0
1580328469.907,-70.312,50.781,34.668,-78.125,65.430,0
1580328469.911,-59.082,52.734,32.227,-65.918,73.242,0
1580328469.915,-48.340,54.199,29.297,-56.152,92.285,0
1580328469.919,-43.457,48.828,32.227,-51.758,125.977,0
1580328469.923,-36.133,47.852,34.668,-41.504,108.887,0
1580328469.927,-20.996,46.875,35.156,-24.902,16.113,0
1580328469.931,-10.742,43.945,34.180,-15.137,53.711,0
1580328469.934,-7.324,42.480,32.715,-12.695,119.141,0
1580328469.938,-0.488,39.551,29.297,-6.348,39.062,0
1580328469.942,9.766,34.668,27.344,5.859,-12.695,0
1580328469.946,15.625,33.203,27.832,12.695,23.438,0
1580328469.950,21.973,29.785,26.367,21.973,21.484,0
1580328469.947,33.691,25.879,24.902,36.133,0.977,0
1580328469.951,39.062,23.926,23.438,42.969,34.180,0
1580328469.955,40.039,21.973,23.926,48.828,23.926,0
1580328469.959,46.875,21.973,27.344,51.270,14.160,0
1580328469.963,55.176,20.020,28.809,57.129,21.484,0
1580328469.967,61.523,19.043,30.273,68.359,27.832,0
1580328469.971,62.988,19.531,26.367,69.824,12.207,0
1580328469.974,65.918,20.508,20.996,68.848,26.367,0
1580328469.978,68.359,20.020,23.438,70.312,48.340,0
1580328469.982,71.777,20.020,24.902,66.895,94.727,0
1580328469.986,74.219,18.555,20.020,68.359,77.148,0
1580328469.990,73.730,19.531,19.043,74.219,19.531,0
1580328470.007,73.730,20.996,23.438,77.637,88.379,0
1580328470.011,74.707,20.996,22.461,76.172,99.609,0
1580328470.015,73.242,21.484,20.020,72.754,28.809,0
1580328470.019,72.754,21.484,23.438,75.684,22.949,0
1580328470.023,74.707,20.996,25.879,79.102,58.105,0
1580328470.027,74.219,20.996,26.855,76.660,42.969,0
1580328470.031,76.172,20.996,25.391,76.172,-10.742,0
1580328470.034,74.219,21.973,23.926,71.777,-16.113,0
1580328470.038,69.336,20.020,26.367,69.336,-10.254,0
1580328470.042,71.289,20.508,26.855,73.242,-16.602,0
1580328470.046,73.242,22.949,25.879,74.707,-31.250,0
1580328470.050,76.660,25.879,27.832,72.266,23.926,0
1580328470.047,75.195,26.367,27.344,69.336,11.230,0
1580328470.051,74.219,27.344,27.344,69.824,0.488,0
1580328470.055,78.613,29.297,26.367,71.289,27.832,0
1580328470.059,75.684,28.320,25.879,67.871,13.184,0
1580328470.063,73.242,30.762,32.227,68.359,26.855,0
1580328470.067,72.266,32.227,36.133,70.312,24.902,0
1580328470.071,63.477,30.762,32.715,65.918,5.371,0
1580328470.074,61.523,30.273,30.273,66.895,3.418,0
1580328470.078,62.988,30.762,29.785,65.430,26.855,0
1580328470.082,58.594,31.250,29.297,59.570,36.621,0
1580328470.086,52.734,32.227,29.785,56.152,74.707,0
1580328470.090,53.711,31.250,31.738,60.059,64.453,0
1580328470.087,54.199,31.250,30.273,59.570,38.574,0
1580328470.091,48.828,30.762,26.367,51.758,53.223,0
1580328470.095,48.828,32.227,27.344,52.734,45.898,0
1580328470.099,47.363,33.691,29.785,50.293,80.566,0
1580328470.103,42.480,28.809,27.344,43.457,41.016,0
1580328470.107,45.410,29.785,20.020,43.457,9.277,0
1580328470.111,45.898,29.785,20.996,41.016,72.754,0
1580328470.114,44.434,29.297,23.926,40.527,79.102,0
1580328470.118,42.969,30.273,29.785,37.598,44.922,0
1580328470.122,39.551,30.273,33.691,34.668,22.461,0
1580328470.126,38.574,31.738,30.273,38.574,23.926,0
1580328470.130,37.598,30.762,28.320,37.598,-0.977,0
1580328470.148,33.203,29.785,28.320,34.180,-4.395,0
1580328470.152,31.250,28.320,28.320,33.203,7.324,0
1580328470.156,35.156,28.320,30.273,35.156,50.781,0
1580328470.160,38.086,28.809,29.297,38.574,57.617,0
1580328470.164,40.527,32.227,25.879,37.109,28.320,0
1580328470.168,44.922,32.715,27.344,33.691,33.203,0
1580328470.172,49.316,30.762,29.785,31.250,-11.230,0
1580328470.175,46.875,30.273,29.297,27.344,4.883,0
1580328470.179,42.480,29.297,25.391,24.902,47.363,0
1580328470.183,39.551,28.809,23.438,26.855,-6.836,0
1580328470.187,33.691,25.879,26.855,25.391,19.043,0
1580328470.191,31.738,27.832,31.738,26.855,61.523,0
1580328470.186,27.344,26.367,31.250,26.855,33.203,0
1580328470.190,23.438,23.438,29.785,24.902,16.113,0
1580328470.194,24.414,25.879,30.273,24.414,36.133,0
1580328470.198,23.438,26.855,30.762,24.902,14.160,0
1580328470.202,22.949,28.809,31.738,27.344,20.508,0
1580328470.206,20.996,30.273,30.762,27.832,0.488,0
1580328470.210,20.508,29.297,30.273,22.949,-16.602,0
1580328470.213,20.996,27.832,30.273,19.043,58.594,0
1580328470.217,20.020,28.809,29.297,20.020,53.223,0
1580328470.221,24.414,34.180,31.738,24.902,30.762,0
1580328470.225,30.762,38.086,33.691,23.438,24.902,0
1580328470.229,29.297,39.062,30.273,23.926,-3.418,0
1580328470.228,24.414,34.668,26.367,28.809,-20.508,0
1580328470.232,24.902,31.250,30.762,29.785,65.918,0
1580328470.236,24.414,32.227,35.156,27.832,64.453,0
1580328470.240,24.902,33.203,35.645,27.344,-11.230,0
1580328470.244,28.320,33.691,36.621,29.297,-21.484,0
1580328470.248,25.879,32.227,37.598,26.367,28.809,0
1580328470.252,22.461,29.785,36.133,21.973,5.371,0
1580328470.255,23.438,29.297,33.203,22.949,10.254,0
1580328470.259,22.461,31.250,35.156,24.902,67.383,0
1580328470.263,21.484,32.227,31.738,24.902,12.695,0
1580328470.267,21.973,32.715,29.297,23.926,12.695,0
1580328470.271,17.578,31.738,29.785,16.113,60.059,0
1580328470.287,15.625,29.785,27.832,11.230,33.203,0
1580328470.291,19.531,31.738,28.320,13.672,32.715,0
1580328470.295,24.902,34.180,30.273,17.578,43.945,0
1580328470.299,26.855,30.762,29.297,17.578,73.730,0
1580328470.303,28.809,31.250,29.785,19.531,61.523,0
1580328470.307,33.203,36.133,30.762,24.902,40.527,0
1580328470.311,30.762,36.621,28.809,21.973,43.945,0
1580328470.314,23.926,33.691,32.715,12.695,21.973,0
1580328470.318,24.902,32.227,30.273,15.625,41.992,0
1580328470.322,25.879,32.227,21.973,24.414,93.750,0
1580328470.326,23.926,30.273,25.391,20.996,41.992,0
1580328470.330,23.438,29.297,32.227,15.625,-19.043,0
1580328470.327,22.461,28.320,32.715,14.648,50.293,0
1580328470.331,20.020,26.367,32.715,10.742,5.371,0
1580328470.335,17.090,28.809,28.320,9.277,-24.414,0
1580328470.339,17.090,29.297,28.320,11.230,65.430,0
1580328470.343,20.508,27.344,31.738,15.625,71.289,0
1580328470.347,21.973,29.785,31.738,18.555,64.941,0
1580328470.351,22.461,30.762,34.180,17.578,76.660,0
1580328470.354,20.020,27.832,34.668,14.648,91.309,0
1580328470.358,14.648,28.809,34.180,7.812,29.785,0
1580328470.362,17.090,32.227,34.668,8.301,-44.922,0
1580328470.366,18.555,34.668,31.738,9.766,-27.344,0
1580328470.370,16.113,34.180,29.785,9.766,-22.461,0
1580328470.368,19.043,31.250,30.273,10.742,-21.973,0
1580328470.372,16.602,31.250,30.762,9.277,13.184,0
1580328470.376,15.137,30.762,27.832,10.254,41.016,0
1580328470.380,14.648,26.855,22.949,13.184,32.715,0
1580328470.384,15.137,28.320,24.902,15.137,22.949,0
1580328470.388,17.578,32.227,32.715,15.137,56.152,0
1580328470.392,16.602,30.762,35.645,13.672,59.082,0
1580328470.395,17.090,30.273,33.203,12.207,21.973,0
1580328470.399,19.043,32.227,34.668,16.113,19.043,0
1580328470.403,21.973,32.227,35.156,19.043,41.016,0
1580328470.407,24.414,32.715,33.691,19.531,29.785,0
1580328470.411,21.484,32.227,33.203,18.555,44.434,0
1580328470.427,19.043,32.227,29.785,17.090,88.867,0
1580328470.431,18.555,31.250,30.762,11.230,53.223,0
1580328470.435,16.602,27.832,31.250,8.789,-3.418,0
1580328470.439,13.672,26.855,29.297,7.324,6.836,0
1580328470.443,18.555,28.809,27.832,9.277,-0.488,0
1580328470.447,23.438,29.785,28.809,18.066,22.949,0
1580328470.451,23.438,28.809,32.715,18.555,40.527,0
1580328470.454,22.949,30.273,29.297,12.207,37.109,0
1580328470.458,21.484,30.273,29.297,13.672,60.059,0
1580328470.462,21.484,31.250,33.203,18.066,82.520,0
1580328470.466,22.949,32.227,30.273,20.508,48.340,0
1580328470.470,21.484,29.297,24.414,16.602,25.391,0
1580328470.468,18.555,28.320,23.438,10.254,17.090,0
1580328470.472,18.066,28.809,26.855,14.160,29.785,0
1580328470.476,17.090,27.832,27.344,14.648,15.625,0
1580328470.480,20.508,27.832,26.855,16.113,30.273,0
1580328470.484,22.949,28.320,27.832,22.461,38.574,0
1580328470.488,20.020,27.832,27.344,20.508,28.320,0
1580328470.492,20.020,26.367,30.762,21.973,95.215,0
1580328470.495,19.531,26.367,29.297,20.020,74.707,0
1580328470.499,17.578,26.367,26.367,16.602,-25.879,0
1580328470.503,18.555,28.320,27.832,14.648,-36.133,0
1580328470.507,16.113,28.320,24.902,13.184,-31.738,0
1580328470.511,14.160,27.832,23.926,17.578,-1.953,0
1580328470.506,16.602,28.809,24.902,19.043,34.668,0
1580328470.510,13.672,29.297,26.367,17.578,63.965,0
1580328470.514,11.230,28.320,31.250,16.602,75.195,0
1580328470.518,11.719,27.832,31.250,16.113,33.203,0
1580328470.522,7.812,28.809,28.809,10.742,26.367,0
1580328470.526,4.395,26.367,27.832,9.277,77.637,0
1580328470.530,3.418,22.949,28.809,10.742,24.902,0
1580328470.533,4.883,23.926,27.344,6.836,4.883,0
1580328470.537,9.277,29.297,26.855,1.465,47.852,0
1580328470.541,6.836,27.832,30.762,5.371,9.277,0
1580328470.545,5.859,25.391,31.250,15.137,6.348,0
1580328470.549,11.230,24.902,27.344,18.066,-18.066,0
1580328470.567,13.184,26.855,25.879,14.648,7.324,0
1580328470.571,12.695,28.320,26.367,11.230,46.875,0
1580328470.575,10.254,26.367,27.344,11.230,2.441,0
1580328470.579,9.766,27.832,26.367,10.254,-11.230,0
1580328470.583,13.672,31.250,24.902,12.695,29.297,0
1580328470.587,15.625,30.273,26.367,17.578,40.527,0
1580328470.591,11.230,29.297,28.320,13.184,29.785,0
1580328470.594,8.301,27.344,29.297,9.766,57.617,0
1580328470.598,7.812,26.367,29.785,12.207,17.090,0
1580328470.602,9.766,29.297,28.809,12.695,12.207,0
1580328470.606,10.742,28.809,29.297,12.207,48.828,0
1580328470.610,10.742,28.320,28.320,11.719,35.645,0
1580328470.607,9.277,27.832,28.320,8.301,39.062,0
1580328470.611,7.812,26.367,27.832,6.348,-0.977,0
1580328470.615,9.766,27.344,27.832,7.812,-39.551,0
1580328470.619,7.812,27.344,26.855,6.348,-44.922,0
1580328470.623,8.301,27.344,26.855,6.836,-37.598,0
1580328470.627,12.207,27.344,26.855,9.277,20.508,0
1580328470.631,12.207,27.344,25.879,8.301,73.242,0
1580328470.634,10.254,26.367,25.391,6.836,41.016,0
1580328470.638,11.719,25.391,24.414,8.789,-20.996,0
1580328470.642,9.766,24.902,25.879,2.441,32.227,0
1580328470.646,8.301,22.949,26.367,-0.977,53.711,0
1580328470.650,7.324,19.043,26.367,3.418,11.230,0
1580328470.647,6.836,20.020,23.926,5.859,60.059,0
1580328470.651,11.230,24.902,20.996,7.812,96.680,0
1580328470.655,10.742,26.367,21.973,5.371,57.129,0
1580328470.659,11.719,23.926,19.531,3.418,-17.090,0
1580328470.663,14.648,24.902,17.090,6.348,7.324,0
1580328470.667,15.625,26.367,19.043,4.883,32.227,0
1580328470.671,14.648,25.879,23.926,3.418,37.109,0
1580328470.674,14.648,27.344,27.344,1.953,56.152,0
1580328470.678,13.672,28.320,27.832,-1.465,58.594,0
1580328470.682,11.719,26.855,27.832,1.953,43.457,0
1580328470.686,15.137,29.297,29.785,7.324,74.707,0
1580328470.690,18.066,33.203,31.738,10.742,42.480,0
1580328470.707,18.555,32.227,29.297,11.719,20.996,0
1580328470.711,13.184,28.809,22.949,8.789,82.520,0
1580328470.715,14.160,30.273,22.461,10.742,68.848,0
1580328470.719,17.090,31.250,27.344,11.719,14.160,0
1580328470.723,14.160,30.762,28.809,10.254,8.301,0
1580328470.727,16.113,32.227,31.250,13.672,17.090,0
1580328470.731,15.625,30.762,31.250,7.812,32.227,0
1580328470.734,11.719,27.832,30.273,2.441,19.043,0
1580328470.738,13.672,28.320,27.832,8.301,23.438,0
1580328470.742,16.113,30.273,22.949,10.254,42.969,0
1580328470.746,14.160,31.250,24.414,9.277,52.246,0
1580328470.750,11.719,30.762,28.320,7.812,56.152,0
1580328470.747,10.742,28.809,26.855,8.789,59.570,0
1580328470.751,8.789,29.297,25.879,9.277,77.637,0
1580328470.755,8.789,31.250,29.785,8.789,40.039,0
1580328470.759,13.184,31.250,25.879,8.301,33.691,0
1580328470.763,13.672,31.250,21.973,5.859,27.832,0
1580328470.767,13.672,31.738,24.902,4.883,7.812,0
1580328470.771,18.555,31.250,22.949,9.766,18.555,0
1580328470.774,21.484,32.715,21.484,17.578,0.488,0
1580328470.778,10.742,28.320,29.297,9.766,49.805,0
1580328470.782,4.883,26.367,35.156,2.441,47.852,0
1580328470.786,6.836,26.367,35.156,4.883,61.523,0
1580328470.790,6.348,23.438,34.180,7.812,82.520,0
1580328470.787,3.906,24.414,34.668,2.930,16.602,0
1580328470.791,-2.441,22.461,36.621,-3.418,11.719,0
1580328470.795,0.488,22.461,38.574,6.836,66.406,0
1580328470.799,3.418,21.484,40.527,8.301,41.016,0
1580328470.803,5.371,21.484,40.527,4.883,18.555,0
1580328470.807,8.789,22.949,35.645,4.883,44.922,0
1580328470.811,7.324,20.508,35.645,2.930,26.367,0
1580328470.814,6.348,19.531,34.668,-2.441,67.871,0
1580328470.818,7.324,23.438,31.738,-4.395,39.551,0
1580328470.822,7.324,20.996,33.203,3.418,31.738,0
1580328470.826,10.742,20.508,35.645,10.742,51.758,0
1580328470.830,14.160,22.949,33.203,13.672,21.484,0
1580328470.847,13.672,25.391,31.738,11.230,38.086,0
1580328470.851,12.695,25.879,31.738,7.324,23.438,0
1580328470.855,12.207,24.414,30.762,4.395,-34.180,0
1580328470.859,9.277,25.391,29.297,0.977,-54.199,0
1580328470.863,9.277,25.391,23.926,4.395,-44.922,0
1580328470.867,11.230,27.832,26.367,7.324,-17.090,0
1580328470.871,10.742,28.320,28.320,5.371,13.184,0
1580328470.874,8.301,25.391,26.855,8.301,-3.418,0
1580328470.878,9.766,25.879,31.738,12.207,54.199,0
1580328470.882,14.648,25.879,31.738,10.742,69.824,0
1580328470.886,19.531,25.391,31.250,11.719,60.547,0
1580328470.890,17.578,25.391,34.180,9.766,83.984,0
1580328470.889,15.137,24.902,33.203,8.789,7.812,0
1580328470.893,18.555,24.902,33.203,9.277,5.859,0
1580328470.897,23.438,27.832,33.203,12.695,-5.859,0
1580328470.901,22.949,26.855,33.691,13.184,-24.414,0
1580328470.905,18.555,24.902,35.645,8.301,54.199,0
1580328470.909,20.996,25.391,34.180,12.207,4.395,0
1580328470.913,27.344,24.414,33.691,19.043,0.488,0
1580328470.916,28.320,28.809,32.227,20.020,67.871,0
1580328470.920,17.578,33.203,27.344,9.277,68.359,0
1580328470.924,7.324,37.598,24.902,-5.859,47.852,0
1580328470.928,5.859,41.016,21.484,-9.766,77.148,0
1580328470.932,3.906,41.504,17.578,-6.348,22.461,0
1580328470.927,0.000,41.992,15.137,-10.254,-67.383,0
1580328470.931,-1.465,42.969,13.184,-17.578,-14.648,0
1580328470.935,0.000,43.945,11.230,-18.066,46.875,0
1580328470.939,-1.953,41.992,10.254,-18.066,34.668,0
1580328470.943,-3.906,41.504,9.766,-18.066,-1.953,0
1580328470.947,-2.441,43.945,10.254,-15.625,12.207,0
1580328470.951,-2.930,38.574,12.207,-15.137,70.312,0
1580328470.954,1.953,37.109,12.695,-18.066,152.344,0
1580328470.958,9.766,42.480,12.695,-16.113,62.500,0
1580328470.962,10.254,39.062,13.184,-10.742,7.324,0
1580328470.966,13.184,40.039,15.625,-7.812,20.020,0
1580328470.970,13.672,41.992,15.625,-4.883,26.855,0
1580328470.988,10.254,38.086,16.113,-3.418,61.035,0
1580328470.992,9.277,37.109,16.113,-5.371,17.578,0
1580328470.996,5.371,35.645,15.137,-6.348,56.641,0
1580328471.000,2.930,34.668,16.602,-0.977,41.992,0
1580328471.004,1.953,34.668,19.043,5.371,-2.930,0
1580328471.008,-1.953,36.133,18.066,4.883,0.000,0
1580328471.012,-5.859,36.133,12.695,3.418,25.879,0
1580328471.015,-9.277,32.227,13.184,4.883,32.227,0
1580328471.019,-13.184,29.785,16.113,1.953,39.062,0
1580328471.023,-15.137,30.762,18.066,3.906,67.871,0
1580328471.027,-17.578,32.715,20.020,6.348,47.852,0
1580328471.031,-19.043,33.691,20.508,2.441,24.414,0
1580328471.027,-18.066,33.203,18.066,5.859,45.410,0
1580328471.031,-15.137,32.715,18.555,8.789,47.852,0
1580328471.035,-15.625,31.250,25.391,11.230,56.152,0
1580328471.039,-17.090,28.320,23.438,12.695,90.820,0
1580328471.043,-18.066,30.762,21.484,9.766,10.254,0
1580328471.047,-23.438,34.180,24.902,9.277,-34.668,0
1580328471.051,-26.855,32.715,26.855,9.277,50.293,0
1580328471.054,-28.809,30.762,25.879,5.371,39.062,0
1580328471.058,-32.227,27.832,25.391,4.883,40.039,0
1580328471.062,-33.691,29.785,25.391,3.418,82.520,0
1580328471.066,-29.297,33.203,25.391,2.441,85.449,0
1580328471.070,-25.391,33.691,26.855,8.789,60.547,0
1580328471.068,-21.484,34.668,27.344,14.648,30.273,0
1580328471.072,-20.508,34.180,28.320,19.043,20.020,0
1580328471.076,-25.879,33.203,30.273,16.602,48.340,0
1580328471.080,-28.320,33.203,29.785,16.602,27.832,0
1580328471.084,-27.832,34.668,30.273,16.113,0.488,0
1580328471.088,-26.855,35.156,29.297,14.160,-19.531,0
1580328471.092,-24.902,34.180,29.297,14.648,-62.988,0
1580328471.095,-26.367,32.715,31.738,12.695,-39.062,0
1580328471.099,-25.391,31.738,27.832,11.719,-27.344,0
1580328471.103,-19.531,30.273,25.391,11.719,7.812,0
1580328471.107,-19.043,27.832,28.320,12.207,49.805,0
1580328471.111,-17.578,25.879,31.250,15.625,1.953,0
1580328471.127,-13.672,25.879,34.668,14.648,19.043,0
1580328471.131,-12.695,29.297,32.715,15.137,58.105,0
1580328471.135,-9.766,29.297,29.297,17.090,56.152,0
1580328471.139,-7.812,28.809,32.715,16.602,1.953,0
1580328471.143,-5.371,30.273,33.691,19.531,-28.809,0
1580328471.147,-6.348,32.715,29.785,11.230,-19.043,0
1580328471.151,-9.766,31.738,25.391,1.465,-46.875,0
1580328471.154,-8.789,28.320,24.902,5.371,12.695,0
1580328471.158,-8.301,28.809,26.855,6.348,35.156,0
1580328471.162,-9.766,26.855,28.809,13.672,12.695,0
1580328471.166,-9.766,25.879,29.297,15.137,-5.859,0
1580328471.170,-7.812,27.832,26.855,10.742,14.160,0
1580328471.167,-10.742,28.809,28.809,12.695,-21.973,0
1580328471.171,-13.672,27.832,27.832,14.648,-99.609,0
1580328471.175,-12.207,26.855,23.438,18.555,-19.531,0
1580328471.179,-6.348,26.855,24.414,24.414,93.262,0
1580328471.183,-9.766,24.414,30.273,26.367,-6.348,0
1580328471.187,-20.996,20.996,34.180,18.066,-18.066,0
1580328471.191,-20.996,22.949,29.785,12.207,68.848,0
1580328471.194,-23.926,20.996,30.273,8.301,60.547,0
1580328471.198,-23.438,17.578,33.203,11.719,34.180,0
1580328471.202,-21.484,21.973,32.227,11.719,2.930,0
1580328471.206,-24.414,22.949,31.738,8.301,-1.953,0
1580328471.210,-22.949,21.484,34.180,12.207,25.879,0
1580328471.209,-20.996,21.484,33.691,16.602,46.875,0
1580328471.213,-18.066,20.020,34.668,18.555,38.086,0
1580328471.217,-13.672,20.996,34.180,20.508,10.742,0
1580328471.221,-10.742,23.438,33.691,23.926,64.453,0
1580328471.225,-9.277,25.879,35.645,23.926,120.117,0
1580328471.229,-11.230,26.367,35.156,21.973,117.188,0
1580328471.233,-10.742,25.391,34.180,21.973,102.051,0
1580328471.236,-7.324,27.344,34.180,19.531,28.809,0
1580328471.240,-9.277,25.879,34.180,19.043,-18.066,0
1580328471.244,-9.766,25.391,32.227,21.484,34.180,0
1580328471.248,-8.301,27.344,31.250,20.996,36.621,0
1580328471.252,-8.789,25.391,32.715,20.508,54.199,0
1580328471.307,-7.812,26.367,31.738,18.555,4.883,0
1580328471.311,-10.742,26.367,30.273,15.625,-39.062,0
1580328471.315,-11.230,25.391,32.227,15.625,64.941,0
1580328471.319,-10.254,24.902,35.645,15.625,40.039,0
1580328471.323,-13.672,20.508,35.156,8.789,-20.996,0
1580328471.327,-15.625,19.531,32.715,2.441,-18.555,0
1580328471.331,-15.137,21.484,28.809,-0.977,-34.180,0
1580328471.334,-15.625,20.020,25.879,3.418,20.020,0
1580328471.338,-14.160,20.020,29.297,6.348,65.430,0
1580328471.342,-12.695,23.438,32.227,6.348,26.855,0
1580328471.346,-12.695,24.902,29.297,8.789,35.645,0
1580328471.350,-13.184,24.902,27.832,8.789,59.082,0
1580328471.311,-12.207,26.367,27.832,11.719,4.883,0
1580328471.315,-5.859,27.344,27.344,15.625,29.785,0
1580328471.319,-5.859,25.391,27.344,14.648,46.387,0
1580328471.323,-17.090,20.508,31.250,8.301,22.461,0
1580328471.327,-23.438,18.066,31.738,6.348,83.008,0
1580328471.331,-20.996,20.508,32.715,5.859,49.316,0
1580328471.335,-21.973,21.973,36.133,3.906,5.371,0
1580328471.338,-22.949,21.484,35.156,3.418,25.879,0
1580328471.342,-17.090,21.973,34.668,4.883,-15.137,0
1580328471.346,-17.578,20.020,33.203,2.930,16.113,0
1580328471.350,-22.949,19.531,32.715,-0.488,51.758,0
1580328471.354,-19.043,19.043,32.227,1.465,-19.531,0
1580328471.367,-10.254,18.066,32.715,6.836,-28.809,0
1580328471.371,-7.324,20.996,32.715,8.789,58.594,0
1580328471.375,-6.348,25.879,29.785,8.301,99.121,0
1580328471.379,-5.859,26.367,32.227,10.742,61.035,0
1580328471.383,-5.371,26.855,35.645,12.695,33.691,0
1580328471.387,-0.488,27.344,33.691,13.184,29.785,0
1580328471.391,0.977,26.855,32.715,13.184,34.180,0
1580328471.394,0.977,26.855,34.668,9.766,109.375,0
1580328471.398,-1.953,24.414,34.668,4.395,114.258,0
1580328471.402,-0.977,24.902,33.203,8.789,55.664,0
1580328471.406,9.277,26.855,32.715,17.578,11.230,0
1580328471.410,7.812,25.879,33.691,18.066,42.969,0
1580328471.407,6.348,26.855,35.156,19.043,101.562,0
1580328471.411,10.254,28.320,37.598,24.414,74.219,0
1580328471.415,12.207,30.273,38.574,26.367,5.859,0
1580328471.419,12.695,33.691,38.086,24.902,20.508,0
1580328471.423,11.230,32.715,38.086,26.367,91.309,0
1580328471.427,9.766,31.250,40.527,29.297,119.629,0
1580328471.431,6.348,30.762,38.574,25.391,55.664,0
1580328471.434,5.371,30.273,38.086,23.438,36.133,0
1580328471.438,7.812,30.273,39.062,26.367,56.152,0
1580328471.442,4.883,27.832,33.203,26.855,9.277,0
1580328471.446,0.977,24.902,33.203,18.555,-14.648,0
1580328471.450,1.953,24.414,34.668,11.719,-6.348,0
1580328471.447,-1.465,27.344,33.203,14.160,5.371,0
1580328471.451,-5.371,29.785,32.715,13.184,11.230,0
1580328471.455,-2.930,30.762,33.691,16.113,17.578,0
1580328471.459,-1.465,32.715,31.738,14.648,50.293,0
1580328471.463,-0.977,33.203,29.785,13.184,80.566,0
1580328471.467,0.000,31.738,29.297,18.555,30.273,0
1580328471.471,2.441,29.297,26.855,19.043,-9.277,0
1580328471.474,1.465,26.855,29.297,17.578,-21.973,0
1580328471.478,2.930,30.273,35.156,14.648,5.859,0
1580328471.482,2.930,31.738,38.086,7.324,53.711,0
1580328471.486,1.465,29.785,35.645,12.207,47.852,0
1580328471.490,0.488,30.273,33.691,11.230,17.578,0
1580328471.506,0.000,31.250,34.668,5.371,2.930,0
1580328471.510,1.953,33.691,32.715,9.766,38.574,0
1580328471.514,1.953,33.203,30.762,10.742,10.742,0
1580328471.518,5.859,31.738,27.832,13.184,1.953,0
1580328471.522,10.742,29.785,25.879,19.531,-10.742,0
1580328471.526,8.301,29.297,29.297,20.508,6.836,0
1580328471.530,-0.977,28.809,33.691,12.695,83.496,0
1580328471.533,-9.277,25.879,36.133,6.836,10.254,0
1580328471.537,-6.836,23.926,36.133,9.277,-61.523,0
1580328471.541,-9.766,25.879,34.668,9.277,-11.230,0
1580328471.545,-15.625,25.391,32.227,5.859,-14.648,0
1580328471.549,-8.789,26.367,36.621,8.301,-28.320,0
1580328471.547,-7.812,28.809,39.062,7.812,19.531,0
1580328471.551,-7.812,27.832,37.109,10.742,60.547,0
1580328471.555,-0.977,27.832,37.598,16.602,28.320,0
1580328471.559,-0.488,32.227,35.156,16.602,18.555,0
1580328471.563,2.441,33.691,35.645,19.531,44.922,0
1580328471.567,4.395,32.715,39.062,19.531,10.254,0
1580328471.571,1.465,34.180,38.086,20.020,9.766,0
1580328471.574,2.441,34.180,33.691,19.043,13.672,0
1580328471.578,-0.977,29.785,32.227,12.207,3.418,0
1580328471.582,-0.488,30.762,33.203,14.648,17.578,0
1580328471.586,0.488,32.227,30.762,14.160,-0.488,0
1580328471.590,-4.883,30.273,28.809,9.766,-20.996,0
1580328471.587,-3.418,27.832,31.738,14.160,-15.137,0
1580328471.591,1.953,28.809,32.227,17.578,30.273,0
1580328471.595,3.906,32.715,34.668,20.508,17.090,0
1580328471.599,0.977,31.738,35.645,18.555,14.648,0
1580328471.603,-2.441,29.297,31.250,14.648,107.422,0
1580328471.607,1.465,30.762,32.715,17.090,95.215,0
1580328471.611,4.395,32.715,34.180,18.066,49.316,0
1580328471.614,3.418,30.762,28.809,16.602,58.594,0
1580328471.618,7.324,30.273,27.832,14.648,83.496,0
1580328471.622,8.789,30.762,30.762,16.113,47.363,0
1580328471.626,5.859,27.832,32.715,20.020,52.246,0
1580328471.630,7.324,26.855,32.715,18.555,55.176,0
1580328471.650,7.812,28.320,31.738,21.484,15.137,0
1580328471.654,8.789,29.785,33.691,27.344,-16.113,0
1580328471.658,8.789,31.738,33.691,29.297,29.297,0
1580328471.662,10.742,34.668,33.691,26.367,36.133,0
1580328471.666,12.207,33.691,34.668,22.949,-12.207,0
1580328471.670,10.742,30.762,34.668,21.484,49.805,0
1580328471.674,10.254,31.250,34.180,14.648,51.270,0
1580328471.677,6.348,31.738,34.180,11.719,11.719,0
1580328471.681,4.883,32.715,31.738,13.672,65.430,0
1580328471.685,5.371,31.250,30.273,10.742,56.641,0
1580328471.689,4.395,32.715,29.785,13.184,-28.320,0
1580328471.693,5.859,32.715,30.762,18.555,-25.879,0
1580328471.707,5.371,30.273,34.668,18.066,63.477,0
1580328471.711,6.836,31.738,35.645,19.531,66.895,0
1580328471.715,5.371,33.691,34.180,19.043,72.266,0
1580328471.719,3.418,32.715,34.180,15.137,34.180,0
1580328471.723,2.441,29.785,34.180,13.672,49.316,0
1580328471.727,2.441,28.809,35.156,14.648,71.289,0
1580328471.731,3.906,30.273,34.180,14.648,20.020,0
1580328471.734,2.441,32.227,34.180,12.695,44.434,0
1580328471.738,2.441,33.203,35.156,12.695,23.438,0
1580328471.742,5.859,30.762,34.668,18.066,-20.020,0
1580328471.746,7.812,29.785,32.227,15.137,-45.898,0
1580328471.750,10.254,26.367,33.691,14.648,-49.805,0
1580328471.727,14.160,27.832,31.738,21.973,37.109,0
1580328471.731,11.719,32.227,24.414,19.531,64.453,0
1580328471.735,6.348,33.203,23.438,15.137,4.883,0
1580328471.739,5.371,32.715,25.391,15.137,6.836,0
1580328471.743,6.836,30.273,25.879,17.090,33.203,0
1580328471.747,7.812,29.785,24.902,18.555,42.480,0
1580328471.751,8.789,31.738,25.391,14.160,82.520,0
1580328471.754,9.766,31.250,29.785,16.602,100.586,0
1580328471.758,9.766,32.227,33.691,20.020,64.941,0
1580328471.762,6.836,30.762,31.738,14.160,-15.137,0
1580328471.766,4.395,30.273,27.832,14.160,-16.602,0
1580328471.770,7.324,30.762,28.809,18.555,45.898,0
1580328471.787,7.324,29.297,28.809,18.066,23.926,0
1580328471.791,5.859,33.203,29.297,10.742,-56.641,0
1580328471.795,8.789,34.668,30.273,8.789,-57.617,0
1580328471.799,9.766,31.738,24.414,9.277,64.453,0
1580328471.803,10.254,30.762,24.414,12.695,47.363,0
1580328471.807,8.301,30.273,29.785,20.020,-17.090,0
1580328471.811,8.301,33.203,31.250,17.578,28.320,0
1580328471.814,10.254,36.133,30.273,16.602,88.379,0
1580328471.818,9.277,36.621,31.738,19.531,145.508,0
1580328471.822,8.789,35.645,32.715,20.508,89.844,0
1580328471.826,13.672,36.133,30.273,23.438,42.480,0
1580328471.830,16.113,38.086,29.785,22.949,50.293,0
1580328471.847,15.625,37.109,29.785,16.602,12.207,0
1580328471.851,16.602,36.133,28.320,15.137,23.438,0
1580328471.855,11.719,35.645,28.809,15.625,-10.254,0
1580328471.859,11.230,32.715,29.297,17.090,-29.297,0
1580328471.863,13.672,32.715,29.785,18.066,-2.441,0
1580328471.867,13.672,33.203,29.785,18.066,52.246,0
1580328471.871,11.719,29.297,29.785,18.066,12.207,0
1580328471.874,7.324,27.832,29.785,15.137,-3.418,0
1580328471.878,9.277,29.785,28.809,15.137,50.293,0
1580328471.882,10.742,30.762,29.785,13.184,42.969,0
1580328471.886,8.301,29.785,30.762,5.371,26.855,0
1580328471.890,6.348,29.297,29.297,8.301,78.613,0
1580328471.887,4.883,29.297,29.785,14.648,92.285,0
1580328471.891,3.906,27.832,30.762,16.113,59.570,0
1580328471.895,1.953,27.344,30.762,15.625,77.148,0
1580328471.899,1.953,29.297,28.809,13.184,43.457,0
1580328471.903,8.789,28.320,24.414,16.113,9.277,0
1580328471.907,16.113,27.832,23.438,20.508,53.223,0
1580328471.911,10.254,25.879,28.320,19.531,82.520,0
1580328471.914,0.977,22.461,34.180,16.113,79.102,0
1580328471.918,-1.953,18.555,35.156,13.672,39.062,0
1580328471.922,0.977,17.578,36.133,19.043,63.477,0
1580328471.926,3.906,20.020,37.598,19.043,72.266,0
1580328471.930,1.953,18.555,37.598,11.230,31.250,0
1580328471.947,1.465,13.184,39.551,12.695,20.508,0
1580328471.951,0.000,13.672,38.574,13.184,16.113,0
1580328471.955,0.000,17.090,37.598,12.695,20.508,0
1580328471.959,0.488,18.066,40.527,16.602,16.602,0
1580328471.963,3.906,20.508,40.527,21.484,4.883,0
1580328471.967,5.859,23.438,40.039,21.484,-2.930,0
1580328471.971,4.395,22.461,41.504,20.020,-10.742,0
1580328471.974,5.371,22.949,41.992,20.020,34.180,0
1580328471.978,9.277,23.926,40.527,20.996,46.875,0
1580328471.982,6.348,23.438,39.551,20.996,21.484,0
1580328471.986,6.348,23.926,37.598,20.996,27.832,0
1580328471.990,10.742,24.414,37.109,19.531,47.363,0
1580328471.967,8.301,29.785,36.621,16.113,46.387,0
1580328471.971,5.859,31.250,36.621,17.578,2.930,0
1580328471.975,4.395,27.832,40.039,20.508,29.785,0
1580328471.979,1.953,24.902,37.598,18.066,26.855,0
1580328471.983,-0.977,24.414,36.133,16.602,9.766,0
1580328471.987,-0.977,25.879,39.062,19.043,45.410,0
1580328471.991,0.488,26.367,36.133,16.602,67.383,0
1580328471.994,-0.488,25.879,31.250,12.695,41.992,0
1580328471.998,-1.953,26.367,33.203,13.184,-23.438,0
1580328472.002,-3.906,27.344,36.621,12.207,-53.711,0
1580328472.006,-2.930,24.414,35.645,14.648,-4.883,0
1580328472.010,-3.418,22.949,33.203,12.207,4.395,0
1580328472.027,-3.418,24.414,31.738,14.160,28.320,0
1580328472.031,-0.488,23.438,33.691,17.578,41.992,0
1580328472.035,3.418,24.902,33.203,16.113,51.270,0
1580328472.039,6.836,26.855,33.203,12.207,77.148,0
1580328472.043,7.324,25.879,32.227,7.812,73.730,0
1580328472.047,6.348,25.391,31.250,10.254,97.168,0
1580328472.051,6.836,26.855,31.738,13.672,25.879,0
1580328472.054,8.789,31.250,31.250,13.672,6.348,0
1580328472.058,9.277,33.691,32.715,13.672,29.785,0
1580328472.062,6.836,31.738,32.227,15.625,34.180,0
1580328472.066,8.301,33.691,32.227,16.113,58.105,0
1580328472.070,8.789,33.203,34.180,14.648,83.496,0
1580328472.067,9.277,33.691,34.668,16.113,74.219,0
1580328472.071,11.230,37.109,36.621,20.020,105.957,0
1580328472.075,9.766,37.109,33.691,21.973,89.844,0
1580328472.079,8.301,33.691,27.344,18.555,48.828,0
1580328472.083,6.836,33.203,27.344,15.137,50.781,0
1580328472.087,6.348,35.645,31.250,13.184,48.340,0
1580328472.091,7.324,35.156,27.832,14.160,78.125,0
1580328472.094,7.324,35.645,26.855,13.184,68.359,0
1580328472.098,7.812,36.621,30.762,6.836,42.969,0
1580328472.102,8.301,34.668,30.762,5.859,59.570,0
1580328472.106,4.883,33.203,31.250,8.301,48.828,0
1580328472.110,8.301,35.645,31.250,5.859,-31.738,0
1580328472.107,13.184,34.668,28.809,8.301,-3.418,0
1580328472.111,13.184,32.227,26.367,13.672,39.551,0
1580328472.115,10.742,33.203,26.855,10.742,28.320,0
1580328472.119,17.090,34.668,28.809,13.672,62.500,0
1580328472.123,16.113,36.133,26.367,12.695,39.551,0
1580328472.127,9.766,34.180,24.902,10.254,46.387,0
1580328472.131,9.766,32.227,26.855,11.230,82.520,0
1580328472.134,9.766,33.691,27.344,11.230,63.477,0
1580328472.138,14.648,34.180,27.344,15.137,32.227,0
1580328472.142,18.555,33.691,28.809,11.719,23.926,0
1580328472.146,16.113,34.668,29.785,5.859,34.180,0
1580328472.150,14.648,33.691,27.344,5.859,20.020,0
1580328472.147,20.020,33.203,25.879,4.883,65.430,0
1580328472.151,21.484,32.227,24.902,4.395,16.602,0
1580328472.155,22.949,33.203,24.414,2.930,-39.551,0
1580328472.159,19.531,34.180,26.367,0.488,-24.902,0
1580328472.163,11.719,34.668,25.879,4.395,-27.344,0
1580328472.167,10.254,37.598,22.461,6.836,-19.043,0
1580328472.171,5.371,38.574,24.414,1.465,16.602,0
1580328472.174,4.395,38.086,28.320,3.418,-37.598,0
1580328472.178,7.324,36.621,28.320,10.742,-39.551,0
1580328472.182,12.207,38.086,26.367,16.602,59.082,0
1580328472.186,13.184,41.504,27.344,13.672,75.195,0
1580328472.190,4.883,45.898,23.926,3.906,81.543,0
1580328472.207,0.488,47.852,21.973,0.000,38.086,0
1580328472.211,-1.465,43.945,24.902,-1.953,43.457,0
1580328472.215,-4.395,39.062,23.438,-3.906,22.949,0
1580328472.219,-3.906,37.109,21.973,-3.418,13.672,0
1580328472.223,1.953,36.621,24.902,1.465,16.113,0
1580328472.227,9.277,39.551,28.320,7.812,-0.977,0
1580328472.231,10.254,43.945,31.250,6.348,9.277,0
1580328472.234,9.277,41.504,29.785,8.301,3.906,0
1580328472.238,12.695,41.016,31.250,15.137,25.391,0
1580328472.242,13.672,40.527,30.762,16.602,30.762,0
1580328472.246,14.648,37.598,30.762,17.578,44.434,0
1580328472.250,19.043,36.133,32.715,18.555,14.648,0
1580328472.267,17.090,34.668,29.297,16.113,-3.906,0
1580328472.271,15.625,35.156,28.320,18.066,36.621,0
1580328472.275,17.578,35.645,29.785,17.090,62.988,0
1580328472.279,17.578,35.156,31.738,13.672,50.781,0
1580328472.283,18.066,37.109,32.227,15.625,43.945,0
1580328472.287,18.066,38.574,32.715,17.578,25.391,0
1580328472.291,14.160,35.156,33.203,17.578,-16.113,0
1580328472.294,13.184,33.691,28.809,14.160,26.855,0
1580328472.298,12.695,35.645,25.879,13.672,-5.859,0
1580328472.302,13.672,36.621,30.762,16.113,-41.504,0
1580328472.306,11.719,34.668,33.203,13.672,16.113,0
1580328472.310,8.789,31.738,33.203,15.137,8.789,0
1580328472.289,7.812,31.250,34.668,17.578,-16.113,0
1580328472.293,5.859,31.738,34.180,17.090,10.742,0
1580328472.297,8.789,31.250,35.645,16.602,19.531,0
1580328472.301,11.230,28.320,35.156,15.137,45.898,0
1580328472.305,11.230,28.320,31.738,16.113,49.805,0
1580328472.309,11.230,31.738,32.715,16.602,50.781,0
1580328472.313,13.184,33.203,32.715,17.578,43.457,0
1580328472.316,13.672,31.738,34.668,17.578,28.320,0
1580328472.320,11.719,32.715,35.156,20.996,48.828,0
1580328472.324,13.184,37.109,30.762,22.949,35.156,0
1580328472.328,13.672,37.109,32.715,23.438,13.672,0
1580328472.332,14.160,34.180,33.691,20.020,17.090,0
1580328472.367,18.555,33.691,33.203,12.207,26.367,0
1580328472.371,17.578,35.645,33.691,9.277,-6.348,0
1580328472.375,13.672,33.203,31.738,11.719,39.062,0
1580328472.379,14.160,32.715,32.227,11.719,86.426,0
1580328472.383,14.160,33.203,32.715,9.766,77.148,0
1580328472.387,11.719,34.668,35.645,11.230,47.852,0
1580328472.391,11.230,36.133,34.668,4.395,-27.832,0
1580328472.394,12.207,34.180,31.738,3.418,-19.531,0
1580328472.398,13.672,33.203,32.227,8.789,15.137,0
1580328472.402,10.742,32.715,30.762,6.348,32.227,0
1580328472.406,8.301,32.227,31.250,9.766,63.477,0
1580328472.410,10.254,32.715,30.762,8.789,78.613,0
1580328472.387,18.066,34.180,28.809,13.184,46.387,0
1580328472.391,24.902,33.691,31.738,22.949,22.949,0
1580328472.395,19.043,30.762,35.645,18.066,23.438,0
1580328472.399,14.160,28.809,39.062,15.625,22.949,0
1580328472.403,9.277,28.320,44.922,17.090,-13.672,0
1580328472.407,0.977,25.391,45.410,12.695,27.344,0
1580328472.411,5.371,21.973,43.457,14.160,65.430,0
1580328472.414,6.348,19.043,43.457,13.672,35.645,0
1580328472.418,7.324,20.020,47.363,14.648,10.742,0
1580328472.422,8.789,22.949,50.293,12.695,12.207,0
1580328472.426,-0.488,24.414,47.852,3.418,30.762,0
1580328472.430,0.488,26.855,43.457,4.883,44.434,0
1580328472.447,7.812,26.855,41.992,11.230,3.418,0
1580328472.451,8.789,26.855,45.410,15.137,25.391,0
1580328472.455,15.137,29.785,47.363,16.602,89.844,0
1580328472.459,17.578,27.832,45.410,15.137,59.082,0
1580328472.463,11.719,24.902,40.527,13.672,62.988,0
1580328472.467,12.695,28.809,37.598,16.602,36.621,0
1580328472.471,11.719,28.320,37.109,17.578,-12.695,0
1580328472.474,10.254,27.344,34.668,11.230,-19.043,0
1580328472.478,10.742,28.320,35.156,11.230,-2.930,0
1580328472.482,7.812,27.344,36.621,13.672,-5.859,0
1580328472.486,9.277,29.297,36.621,18.555,-31.250,0
1580328472.490,9.277,30.273,36.133,19.531,18.066,0
1580328472.486,4.883,27.344,34.668,15.137,37.109,0
1580328472.490,5.371,27.832,34.668,19.043,34.668,0
1580328472.494,10.742,29.297,36.133,24.414,61.035,0
1580328472.498,11.719,30.762,34.668,26.367,37.598,0
1580328472.502,13.184,31.738,31.738,24.902,37.109,0
1580328472.506,16.113,32.715,32.715,23.926,23.438,0
1580328472.510,16.113,34.668,33.203,23.438,9.277,0
1580328472.513,17.578,35.156,31.738,19.531,3.906,0
1580328472.517,17.090,34.180,31.738,19.043,20.996,0
1580328472.521,18.066,33.203,32.227,20.996,53.711,0
1580328472.525,20.508,36.621,33.203,23.926,-8.789,0
1580328472.529,19.043,36.621,34.180,21.484,-12.695,0
1580328472.526,18.555,34.180,33.691,21.484,51.270,0
1580328472.530,20.996,32.227,34.180,23.438,54.688,0
1580328472.534,21.973,31.738,35.645,24.902,31.250,0
1580328472.538,21.973,33.691,33.691,25.879,43.945,0
1580328472.542,23.438,33.203,34.180,21.484,56.152,0
1580328472.546,24.902,33.691,33.691,24.414,24.902,0
1580328472.550,20.996,34.668,29.785,23.926,20.020,0
1580328472.553,15.625,31.738,28.809,20.508,-1.953,0
1580328472.557,18.066,32.715,32.227,25.391,-12.207,0
1580328472.561,19.531,33.691,36.133,23.438,27.344,0
1580328472.565,14.160,29.785,34.180,18.066,23.438,0
1580328472.569,15.137,30.762,29.297,19.043,27.832,0
1580328472.567,16.602,32.227,29.785,18.555,54.688,0
1580328472.571,16.113,31.738,31.738,19.531,-14.160,0
1580328472.575,15.137,32.715,30.762,20.020,-6.348,0
1580328472.579,15.137,33.203,31.738,22.461,38.086,0
1580328472.583,16.113,32.227,34.180,22.949,45.410,0
1580328472.587,11.230,31.250,32.715,19.531,71.777,0
1580328472.591,11.230,30.273,31.250,17.578,51.270,0
1580328472.594,16.113,30.762,32.227,5.859,20.508,0
1580328472.598,12.695,31.738,31.738,7.812,12.695,0
1580328472.602,9.277,32.715,30.273,17.578,6.836,0
1580328472.606,9.766,34.180,27.344,15.625,16.602,0
1580328472.610,9.766,33.203,27.344,18.066,76.172,0
1580328472.627,9.766,30.762,30.762,17.090,81.543,0
1580328472.631,10.254,31.250,30.762,17.578,56.641,0
1580328472.635,9.277,32.227,33.203,21.973,33.691,0
1580328472.639,8.789,28.320,33.203,20.508,-7.324,0
1580328472.643,9.277,29.785,30.273,17.578,13.672,0
1580328472.647,9.277,33.203,31.250,12.207,41.504,0
1580328472.651,4.395,32.227,30.273,7.812,29.297,0
1580328472.654,1.465,29.785,27.344,10.742,37.598,0
1580328472.658,4.395,28.320,26.855,9.766,72.754,0
1580328472.662,1.953,29.297,27.344,8.301,71.289,0
1580328472.666,0.000,29.785,28.809,9.277,48.828,0
1580328472.670,3.906,28.809,28.320,9.766,57.617,0
1580328472.707,5.859,28.809,29.785,14.160,1.465,0
1580328472.711,6.836,29.785,31.738,16.602,-28.320,0
1580328472.715,7.812,30.273,32.715,16.602,69.824,0
1580328472.719,7.324,28.809,32.227,18.555,66.895,0
1580328472.723,6.348,27.832,30.273,17.578,-6.348,0
1580328472.727,6.348,27.832,28.809,19.531,20.996,0
1580328472.731,7.324,29.297,27.344,21.484,44.922,0
1580328472.734,7.324,31.738,27.344,18.066,37.109,0
1580328472.738,7.324,31.250,27.832,18.066,30.762,0
1580328472.742,6.836,31.738,28.809,22.461,21.973,0
1580328472.746,5.859,37.598,34.180,20.996,-0.977,0
1580328472.750,6.836,37.598,33.203,15.625,-6.348,0
1580328472.712,5.371,32.715,30.762,17.578,14.648,0
1580328472.716,4.395,34.180,31.250,17.578,12.207,0
1580328472.720,0.977,34.180,29.297,12.207,31.250,0
1580328472.724,-0.977,31.738,28.809,11.719,12.207,0
1580328472.728,0.977,33.203,30.273,14.648,-25.879,0
1580328472.732,-2.441,33.203,31.250,15.137,9.277,0
1580328472.736,-0.977,32.715,30.273,17.090,26.367,0
1580328472.739,6.348,34.668,30.273,16.602,1.465,0
1580328472.743,7.812,34.668,32.227,14.648,7.324,0
1580328472.747,8.301,33.691,32.227,16.113,36.621,0
1580328472.751,10.254,35.156,32.227,19.043,39.551,0
1580328472.755,15.137,38.086,32.227,20.996,33.691,0
1580328472.767,22.461,39.551,31.738,21.973,29.785,0
1580328472.771,15.137,34.668,34.668,15.625,45.410,0
1580328472.775,6.348,32.715,36.621,10.254,7.812,0
1580328472.779,4.395,32.227,36.133,7.324,39.551,0
1580328472.783,1.953,28.809,37.598,6.836,116.211,0
1580328472.787,0.977,30.273,37.598,4.395,70.312,0
1580328472.791,0.488,29.297,31.738,-5.371,45.410,0
1580328472.794,7.324,30.762,31.250,0.977,0.488,0
1580328472.798,7.324,32.227,37.598,8.301,-5.859,0
1580328472.802,9.277,32.227,39.062,14.648,37.109,0
1580328472.806,17.578,35.645,38.574,14.160,68.359,0
1580328472.810,19.531,37.109,39.551,7.324,66.895,0
1580328472.807,19.043,37.109,40.039,17.578,55.664,0
1580328472.811,13.672,37.598,40.527,18.555,56.641,0
1580328472.815,12.695,36.133,36.133,14.648,83.008,0
1580328472.819,14.160,35.645,37.109,16.602,104.980,0
1580328472.823,11.719,34.668,35.156,16.602,88.867,0
1580328472.827,10.254,33.203,33.203,15.137,34.668,0
1580328472.831,9.277,32.227,34.180,11.230,29.785,0
1580328472.834,8.789,30.762,30.273,11.719,73.242,0
1580328472.838,13.184,31.738,30.273,12.695,71.289,0
1580328472.842,13.672,30.762,32.227,5.859,26.855,0
1580328472.846,12.695,28.809,32.715,10.254,15.625,0
1580328472.850,16.113,31.250,31.738,18.555,-13.184,0
1580328472.867,16.113,33.203,29.297,19.043,-33.203,0
1580328472.871,16.602,34.668,31.738,17.090,-33.691,0
1580328472.875,12.207,35.645,31.250,14.160,26.367,0
1580328472.879,9.277,35.156,28.320,11.719,30.762,0
1580328472.883,11.719,37.109,29.785,7.812,-4.395,0
1580328472.887,10.742,37.109,29.785,4.395,54.199,0
1580328472.891,10.254,36.621,32.227,5.371,70.312,0
1580328472.894,10.254,34.668,31.738,5.859,75.684,0
1580328472.898,9.277,31.250,27.832,5.859,72.266,0
1580328472.902,12.207,32.715,27.344,11.719,25.391,0
1580328472.906,12.695,31.250,27.344,13.672,13.672,0
1580328472.910,11.719,27.344,29.297,10.742,45.898,0
1580328472.907,12.207,29.297,30.762,10.254,67.383,0
1580328472.911,9.277,28.320,34.668,12.207,18.555,0
1580328472.915,9.277,29.785,34.668,15.625,23.438,0
1580328472.919,7.324,32.715,33.691,14.648,11.230,0
1580328472.923,4.395,35.156,34.668,14.160,14.648,0
1580328472.927,7.812,35.645,28.320,12.207,51.758,0
1580328472.931,4.395,29.785,27.832,7.324,-0.977,0
1580328472.934,4.395,30.273,33.691,6.348,-7.812,0
1580328472.938,8.301,34.180,35.645,8.789,-1.465,0
1580328472.942,10.742,33.203,35.645,19.043,-8.789,0
1580328472.946,11.719,32.227,35.645,16.113,32.227,0
1580328472.950,9.766,31.738,34.180,5.859,78.125,0
1580328472.947,11.719,30.273,31.738,13.672,46.387,0
1580328472.951,15.625,29.297,31.250,14.648,42.969,0
1580328472.955,27.832,29.297,31.250,19.043,95.215,0
1580328472.959,33.203,37.109,27.832,32.715,26.367,0
1580328472.963,16.113,41.016,23.438,17.090,4.883,0
1580328472.967,11.719,44.922,20.508,6.836,22.949,0
1580328472.971,11.230,48.828,16.113,-0.488,26.855,0
1580328472.974,4.883,47.363,14.648,-7.324,64.941,0
1580328472.978,9.277,46.875,16.602,-3.418,35.156,0
1580328472.982,7.324,47.363,11.719,-7.812,3.906,0
1580328472.986,7.324,49.316,9.277,-7.812,-22.461,0
1580328472.990,1.953,46.387,12.207,-13.672,28.320,0
1580328473.007,-6.836,41.504,13.184,-17.090,54.199,0
1580328473.011,0.977,42.969,15.137,-8.301,-12.695,0
1580328473.015,4.883,38.574,14.648,-6.836,-11.230,0
1580328473.019,3.906,34.668,13.672,-4.395,-60.059,0
1580328473.023,3.418,35.156,14.160,-4.395,-13.672,0
1580328473.027,5.859,38.086,14.160,-2.441,68.848,0
1580328473.031,9.766,41.016,17.578,0.000,4.395,0
1580328473.034,9.766,40.039,21.973,0.000,-16.602,0
1580328473.038,11.719,38.574,21.973,6.836,17.578,0
1580328473.042,14.160,37.598,20.996,12.207,46.875,0
1580328473.046,14.648,36.621,24.902,15.625,12.695,0
1580328473.050,15.625,36.133,26.367,20.020,4.883,0
1580328473.047,20.020,37.109,24.414,21.484,40.527,0
1580328473.051,22.949,36.621,24.902,23.438,45.410,0
1580328473.055,20.020,35.156,24.902,20.508,62.012,0
1580328473.059,16.602,35.156,22.461,13.184,25.879,0
1580328473.063,17.578,34.668,23.926,12.695,-2.441,0
1580328473.067,19.043,35.645,24.902,13.672,-13.672,0
1580328473.071,14.160,36.621,23.926,12.695,-6.348,0
1580328473.074,13.184,36.621,25.879,16.602,60.547,0
1580328473.078,13.672,36.133,25.879,17.090,52.734,0
1580328473.082,12.207,33.691,23.438,15.137,23.438,0
1580328473.086,6.348,33.203,24.902,9.766,102.539,0
1580328473.090,5.859,33.691,25.391,8.301,90.332,0
1580328473.109,8.789,34.180,23.438,12.695,51.270,0
1580328473.113,7.324,33.691,25.391,11.230,83.008,0
1580328473.117,7.324,31.250,26.367,7.812,22.949,0
1580328473.121,7.324,31.738,25.391,6.836,14.160,0
1580328473.125,8.789,35.156,24.902,6.348,80.566,0
1580328473.129,11.719,35.645,31.250,10.742,63.477,0
1580328473.133,15.137,34.180,31.738,12.207,36.621,0
1580328473.136,16.113,35.156,28.320,15.625,28.809,0
1580328473.140,19.531,33.203,30.273,15.137,-8.301,0
1580328473.144,16.602,30.762,30.273,5.371,-28.320,0
1580328473.148,11.230,31.738,30.273,6.348,-26.367,0
1580328473.152,12.695,33.691,30.762,10.742,-3.418,0
1580328473.147,14.160,32.715,29.785,8.789,-0.977,0
1580328473.151,16.113,33.691,28.809,7.324,-5.371,0
1580328473.155,21.484,37.109,27.832,6.348,23.926,0
1580328473.159,22.949,36.621,28.320,7.812,33.691,0
1580328473.163,21.973,32.715,27.344,9.277,27.832,0
1580328473.167,24.414,34.668,28.320,10.742,52.734,0
1580328473.171,30.273,34.180,29.297,20.020,75.684,0
1580328473.174,32.227,34.180,29.785,28.320,55.664,0
1580328473.178,24.414,37.109,25.391,21.484,19.043,0
1580328473.182,14.160,38.574,20.508,6.836,43.945,0
1580328473.186,5.371,43.457,15.625,-8.789,14.160,0
1580328473.190,5.371,45.898,14.648,-8.301,-13.184,0
1580328473.189,8.301,45.410,15.137,-8.789,-17.090,0
1580328473.193,4.883,45.410,10.742,-16.602,-4.395,0
1580328473.197,-1.953,43.457,10.254,-18.555,25.879,0
1580328473.201,-0.977,43.945,7.324,-17.578,32.715,0
1580328473.205,3.906,46.387,6.348,-12.207,22.461,0
1580328473.209,0.000,43.457,9.766,-10.254,62.012,0
1580328473.213,-7.324,41.016,11.719,-13.672,58.105,0
1580328473.216,-5.371,42.480,10.742,-15.625,-2.930,0
1580328473.220,-1.953,40.527,9.766,-11.719,-0.488,0
1580328473.224,-0.488,40.527,12.207,-5.859,70.801,0
1580328473.228,1.465,39.551,13.672,-7.324,61.523,0
1580328473.232,1.953,36.621,13.672,-8.301,38.086,0
1580328473.227,4.395,38.086,14.160,0.977,23.926,0
1580328473.231,5.859,39.062,16.602,5.371,-33.691,0
1580328473.235,6.836,37.109,18.066,3.906,35.645,0
1580328473.239,8.789,36.621,20.508,5.371,80.078,0
1580328473.243,10.254,38.086,22.461,10.742,38.574,0
1580328473.247,10.254,38.574,22.461,13.672,2.930,0
1580328473.251,12.207,38.086,24.414,13.672,35.645,0
1580328473.254,15.625,38.086,26.855,13.672,23.926,0
1580328473.258,18.555,39.062,29.785,7.812,18.555,0
1580328473.262,15.137,37.598,26.855,2.930,30.762,0
1580328473.266,16.113,35.156,22.461,11.230,51.270,0
1580328473.270,21.484,37.109,26.855,20.020,34.180,0
1580328473.287,18.555,39.062,26.367,16.602,12.207,0
1580328473.291,18.555,37.598,24.414,16.113,25.391,0
1580328473.295,20.508,36.133,27.832,20.508,-41.016,0
1580328473.299,19.531,36.621,29.297,21.973,-24.902,0
1580328473.303,20.508,38.086,29.297,25.391,-22.461,0
1580328473.307,19.043,40.039,29.785,28.320,-46.875,0
1580328473.311,19.531,39.551,30.762,24.414,24.902,0
1580328473.314,22.461,37.109,29.785,23.926,33.203,0
1580328473.318,20.020,39.062,27.344,22.461,16.113,0
1580328473.322,18.066,41.504,28.809,20.020,21.484,0
1580328473.326,17.090,41.992,30.762,24.902,32.715,0
1580328473.330,13.184,40.039,29.785,27.344,50.781,0
1580328473.327,14.160,36.621,28.809,26.367,26.367,0
1580328473.331,17.090,37.109,30.762,25.879,33.691,0
1580328473.335,19.043,38.574,36.133,24.902,61.035,0
1580328473.339,20.996,37.598,35.645,24.902,76.660,0
1580328473.343,21.973,36.133,34.668,27.344,41.016,0
1580328473.347,20.508,34.668,37.109,26.367,32.715,0
1580328473.351,18.555,35.645,36.133,23.926,44.434,0
1580328473.354,19.531,38.086,31.738,21.973,23.926,0
1580328473.358,21.973,37.598,31.250,20.996,15.137,0
1580328473.362,24.414,36.621,31.738,19.043,12.695,0
1580328473.366,18.555,36.133,30.762,8.301,42.969,0
1580328473.370,11.719,33.691,27.344,3.906,41.504,0
1580328473.367,10.742,32.227,26.855,9.277,22.949,0
1580328473.371,11.230,33.203,25.879,11.230,3.418,0
1580328473.375,12.695,36.133,23.926,11.230,21.973,0
1580328473.379,17.090,36.621,23.926,14.648,41.016,0
1580328473.383,19.531,34.668,26.367,18.555,-7.812,0
1580328473.387,21.973,32.715,29.297,21.973,-44.922,0
1580328473.391,23.926,29.785,28.320,24.414,-38.574,0
1580328473.394,22.949,33.203,29.785,26.367,63.965,0
1580328473.398,20.020,33.203,30.762,21.484,106.934,0
1580328473.402,16.113,31.250,26.367,17.578,26.855,0
1580328473.406,13.184,30.273,26.367,19.043,14.648,0
1580328473.410,13.184,28.320,31.250,15.625,16.602,0
1580328473.427,10.254,28.320,32.715,16.602,35.645,0
1580328473.431,10.742,27.832,31.250,14.648,41.504,0
1580328473.435,12.207,27.344,29.297,9.766,14.648,0
1580328473.439,10.254,26.367,30.273,7.324,7.324,0
1580328473.443,14.648,27.832,30.762,6.348,9.277,0
1580328473.447,20.508,31.738,26.367,15.137,25.879,0
1580328473.451,28.809,35.156,25.879,22.949,64.941,0
1580328473.454,27.344,31.738,29.297,21.484,62.500,0
1580328473.458,11.719,26.855,31.738,16.602,40.039,0
1580328473.462,3.906,26.855,33.691,10.742,23.438,0
1580328473.466,5.371,25.391,32.227,9.277,3.418,0
1580328473.470,6.348,24.414,33.203,7.812,-34.668,0
1580328473.466,8.789,25.391,35.156,9.277,-11.230,0
1580328473.470,11.230,27.832,33.203,12.207,29.785,0
1580328473.474,11.230,26.855,31.738,13.672,5.371,0
1580328473.478,13.672,24.902,33.691,15.625,74.219,0
1580328473.482,11.230,24.414,34.180,16.113,59.570,0
1580328473.486,10.254,23.926,34.180,18.066,-0.488,0
1580328473.490,13.184,23.438,34.668,16.602,59.570,0
1580328473.493,12.207,23.926,30.762,14.648,90.820,0
1580328473.497,13.672,23.926,28.320,18.066,107.910,0
1580328473.501,18.555,23.438,31.250,17.578,66.895,0
1580328473.505,18.066,28.809,30.273,11.230,0.977,0
1580328473.509,16.113,30.273,26.367,14.648,-14.160,0
1580328473.506,16.113,31.250,27.344,17.090,25.391,0
1580328473.510,14.648,32.227,28.809,13.184,27.832,0
1580328473.514,11.230,30.273,28.809,12.695,3.906,0
1580328473.518,6.836,27.344,28.809,9.277,15.137,0
1580328473.522,6.348,23.926,26.855,5.859,74.707,0
1580328473.526,9.277,24.902,25.879,6.836,22.461,0
1580328473.530,9.766,25.391,24.902,6.348,-28.320,0
1580328473.533,9.277,23.438,26.855,5.371,53.711,0
1580328473.537,13.672,24.902,32.227,8.789,61.523,0
1580328473.541,18.555,25.391,31.738,13.672,25.391,0
1580328473.545,18.066,23.926,30.762,16.602,60.547,0
1580328473.549,13.672,22.949,30.273,15.137,43.945,0
1580328473.567,13.672,24.902,28.809,13.184,27.344,0
1580328473.571,16.113,24.902,29.297,13.184,58.105,0
1580328473.575,12.695,23.926,28.809,7.812,26.855,0
1580328473.579,9.766,27.344,28.809,3.906,16.602,0
1580328473.583,12.695,27.344,29.297,7.324,44.434,0
1580328473.587,10.254,25.391,28.320,6.348,71.289,0
1580328473.591,7.324,22.461,25.879,2.930,70.312,0
1580328473.594,7.812,21.973,27.344,4.883,28.320,0
1580328473.598,8.301,21.973,30.273,8.789,84.961,0
1580328473.602,8.789,22.461,28.320,6.836,88.867,0
1580328473.606,11.230,25.391,28.320,6.836,14.160,0
1580328473.610,12.207,28.809,28.809,8.789,-14.160,0
1580328473.607,12.695,28.320,27.832,10.742,9.277,0
1580328473.611,14.160,27.832,27.832,10.742,82.520,0
1580328473.615,11.719,30.762,31.250,8.301,91.797,0
1580328473.619,13.184,31.738,33.203,10.254,42.480,0
1580328473.623,13.184,30.273,29.297,7.324,-20.020,0
1580328473.627,10.742,30.762,30.273,6.836,-21.973,0
1580328473.631,10.254,27.832,31.738,9.277,0.977,0
1580328473.634,10.742,28.320,31.738,14.160,-5.371,0
1580328473.638,10.742,30.762,33.203,18.066,-58.105,0
1580328473.642,6.348,28.320,33.203,13.672,-31.738,0
1580328473.646,8.789,27.832,33.691,13.184,25.391,0
1580328473.650,15.137,28.320,31.250,13.672,2.930,0
1580328473.649,14.648,29.297,29.297,9.277,41.016,0
1580328473.653,14.160,32.715,29.785,9.766,60.547,0
1580328473.657,13.184,33.203,31.250,10.254,19.531,0
1580328473.661,11.230,32.227,31.738,6.348,-16.113,0
1580328473.665,12.207,32.715,29.785,3.906,24.902,0
1580328473.669,14.160,36.133,29.297,5.371,22.461,0
1580328473.673,10.742,35.645,27.832,4.883,33.691,0
1580328473.676,9.277,33.203,30.762,5.371,73.242,0
1580328473.680,11.230,33.691,34.180,9.277,11.230,0
1580328473.684,11.719,33.203,28.320,11.719,33.203,0
1580328473.688,10.742,35.156,24.902,3.906,50.781,0
1580328473.692,8.301,34.180,26.855,3.418,4.883,0
1580328473.707,6.836,31.738,32.227,10.254,6.348,0
1580328473.711,7.812,32.715,34.180,11.230,25.391,0
1580328473.715,11.719,34.668,30.273,13.672,65.430,0
1580328473.719,21.484,38.574,26.367,17.578,49.316,0
1580328473.723,22.949,37.598,29.297,19.531,13.672,0
1580328473.727,10.254,29.785,34.180,10.254,16.113,0
1580328473.731,5.371,25.391,34.180,-0.488,-1.953,0
1580328473.734,5.371,23.926,35.156,-3.418,17.578,0
1580328473.738,5.371,23.926,35.645,-0.488,65.918,0
1580328473.742,5.371,24.902,38.574,9.277,90.332,0
1580328473.746,4.395,23.438,40.039,12.695,102.539,0
1580328473.750,0.488,21.484,38.086,5.371,72.266,0
1580328473.747,5.859,24.414,36.133,6.348,58.105,0
1580328473.751,11.230,27.832,37.598,10.742,50.293,0
1580328473.755,8.789,27.832,35.645,9.277,50.293,0
1580328473.759,7.324,26.855,34.180,8.301,43.945,0
1580328473.763,8.789,29.297,35.645,7.812,26.855,0
1580328473.767,9.766,30.762,33.203,5.859,31.738,0
1580328473.771,11.230,29.297,34.180,5.859,42.969,0
1580328473.774,12.695,30.762,36.133,10.254,105.957,0
1580328473.778,12.695,30.273,33.691,12.695,89.355,0
1580328473.782,12.695,30.762,33.691,9.277,21.973,0
1580328473.786,8.789,29.785,32.227,3.906,20.508,0
1580328473.790,7.812,29.785,32.715,6.348,60.547,0
1580328473.787,11.230,32.715,35.156,12.207,76.660,0
1580328473.791,11.230,32.715,34.668,12.207,48.340,0
1580328473.795,9.766,32.227,34.668,9.766,9.277,0
1580328473.799,6.348,30.762,34.180,10.742,71.289,0
1580328473.803,8.789,33.691,33.691,14.160,87.402,0
1580328473.807,13.672,35.645,33.691,13.184,50.293,0
1580328473.811,17.578,38.574,34.180,15.137,41.992,0
1580328473.814,19.043,38.086,36.133,13.184,44.434,0
1580328473.818,18.555,38.086,36.621,8.789,2.930,0
1580328473.822,18.555,37.598,36.133,10.742,-45.410,0
1580328473.826,17.578,33.691,35.156,11.719,-36.133,0
1580328473.830,20.996,35.645,32.715,17.090,32.227,0
1580328473.847,19.531,37.109,31.738,15.625,62.988,0
1580328473.851,16.602,36.621,32.715,8.789,43.457,0
1580328473.855,16.113,37.598,27.344,9.277,38.574,0
1580328473.859,15.625,36.621,25.879,12.207,35.645,0
1580328473.863,16.113,34.668,26.367,9.277,18.555,0
1580328473.867,18.066,34.668,28.809,11.230,19.531,0
1580328473.871,20.508,36.133,32.715,15.625,33.691,0
1580328473.874,16.602,35.156,31.250,12.695,27.832,0
1580328473.878,11.719,33.691,28.320,11.230,13.184,0
1580328473.882,13.672,31.250,26.855,11.230,11.230,0
1580328473.886,11.230,32.227,30.762,8.789,2.930,0
1580328473.890,6.348,32.715,34.180,4.395,13.184,0
1580328473.887,3.906,28.809,32.227,0.488,30.273,0
1580328473.891,6.836,30.762,32.715,6.836,-5.371,0
1580328473.895,7.812,32.715,31.250,6.836,14.160,0
1580328473.899,4.883,32.715,28.320,1.953,104.004,0
1580328473.903,6.836,35.156,28.809,6.836,80.566,0
1580328473.907,11.719,33.691,29.785,7.812,24.414,0
1580328473.911,16.602,33.691,29.785,10.254,-9.766,0
1580328473.914,19.531,38.086,30.273,12.207,-9.277,0
1580328473.918,20.020,38.086,30.762,10.254,11.719,0
1580328473.922,22.461,38.086,32.227,10.254,-1.465,0
1580328473.926,22.461,37.598,29.785,7.324,36.621,0
1580328473.930,21.484,37.109,25.879,8.301,-1.465,0
1580328473.927,20.996,37.598,29.297,10.742,-30.273,0
1580328473.931,16.602,35.645,30.762,10.254,-6.348,0
1580328473.935,16.602,37.109,28.320,7.812,14.648,0
1580328473.939,16.602,40.039,29.785,4.395,-12.207,0
1580328473.943,14.160,38.086,30.273,7.324,2.441,0
1580328473.947,11.230,39.551,27.832,7.324,35.645,0
1580328473.951,10.742,39.062,27.344,4.395,76.172,0
1580328473.954,13.672,37.109,30.762,4.883,84.473,0
1580328473.958,15.137,40.039,31.738,8.789,6.348,0
1580328473.962,13.672,39.062,32.227,13.672,0.977,0
1580328473.966,10.742,38.086,32.227,11.230,5.859,0
1580328473.970,8.789,41.504,29.785,9.277,0.000,0
1580328473.987,10.742,40.527,28.809,9.766,20.020,0
1580328473.991,12.695,38.574,28.809,9.277,44.922,0
1580328473.995,14.648,40.527,28.809,10.742,94.238,0
1580328473.999,15.625,42.480,28.809,10.254,27.832,0
1580328474.003,15.137,43.457,32.227,12.207,16.113,0
1580328474.007,19.531,42.969,35.645,15.625,86.426,0
1580328474.011,20.508,41.504,33.691,11.230,39.062,0
1580328474.014,16.113,41.016,31.250,10.742,57.129,0
1580328474.018,12.695,40.527,32.227,13.672,77.148,0
1580328474.022,9.277,41.016,33.691,15.625,53.711,0
1580328474.026,9.766,41.992,31.250,17.090,65.430,0
1580328474.030,13.184,40.039,26.367,14.160,45.898,0
1580328474.027,14.160,39.062,27.344,17.578,20.020,0
1580328474.031,8.789,36.621,30.762,16.602,-11.230,0
1580328474.035,-1.465,34.668,33.691,7.324,-49.805,0
1580328474.039,-7.324,35.645,36.133,2.930,21.973,0
1580328474.043,1.953,37.598,39.551,7.324,40.527,0
1580328474.047,9.766,42.480,42.969,15.625,-31.738,0
1580328474.051,8.789,40.039,43.945,13.184,-8.789,0
1580328474.054,11.230,38.574,46.875,15.137,25.391,0
1580328474.058,12.695,42.969,52.246,20.996,21.484,0
1580328474.062,16.113,46.875,54.199,25.391,-13.672,0
1580328474.066,21.484,49.805,52.246,29.785,0.000,0
1580328474.070,26.855,52.246,48.828,32.715,-21.484,0
1580328474.067,28.809,52.734,51.758,34.668,-9.766,0
1580328474.071,30.273,55.664,54.688,36.133,114.746,0
1580328474.075,34.668,61.035,55.664,35.156,99.609,0
1580328474.079,35.156,60.547,54.688,34.180,17.090,0
1580328474.083,39.062,60.059,54.688,39.062,41.016,0
1580328474.087,42.969,61.523,56.152,41.016,27.832,0
1580328474.091,41.992,62.988,56.152,41.992,65.430,0
1580328474.094,42.969,65.918,62.500,37.598,97.656,0
1580328474.098,43.945,64.941,64.941,29.297,74.707,0
1580328474.102,48.340,66.406,63.477,31.250,-5.371,0
1580328474.106,51.758,69.824,65.430,33.203,-59.082,0
1580328474.110,48.828,70.312,63.965,30.762,-6.836,0
1580328474.127,46.387,72.754,65.918,36.133,-29.297,0
1580328474.131,48.340,74.219,67.383,42.480,-20.508,0
1580328474.135,46.875,73.730,66.406,40.527,24.414,0
1580328474.139,44.922,71.289,66.406,40.527,70.312,0
1580328474.143,44.434,69.336,63.965,40.527,70.801,0
1580328474.147,45.410,69.824,66.895,40.039,16.113,0
1580328474.151,42.969,66.895,67.871,41.016,33.203,0
1580328474.154,40.527,64.941,66.895,46.875,39.062,0
1580328474.158,40.527,66.406,68.359,47.852,16.113,0
1580328474.162,41.504,67.871,68.359,47.363,-41.992,0
1580328474.166,44.922,67.383,70.801,49.805,-0.488,0
1580328474.170,43.945,66.406,66.895,46.875,10.742,0
1580328474.167,43.945,65.430,61.523,42.969,-4.883,0
1580328474.171,44.922,63.477,64.453,40.039,21.973,0
1580328474.175,44.434,63.477,62.012,40.039,9.766,0
1580328474.179,50.293,67.871,60.059,39.062,19.531,0
1580328474.183,51.758,70.312,64.453,40.039,12.207,0
1580328474.187,49.316,69.336,62.988,41.016,18.555,0
1580328474.191,52.734,68.359,60.547,40.527,73.242,0
1580328474.194,53.223,67.871,61.035,40.039,39.062,0
1580328474.198,52.246,68.848,60.547,39.551,-1.465,0
1580328474.202,51.270,68.848,58.594,32.227,25.879,0
1580328474.206,50.781,66.406,57.617,29.297,48.828,0
1580328474.210,48.828,63.965,57.129,29.785,66.895,0
1580328474.207,45.410,62.988,55.664,29.785,41.992,0
1580328474.211,44.434,62.500,56.152,30.273,22.949,0
1580328474.215,46.387,62.988,58.105,28.809,31.250,0
1580328474.219,51.270,65.918,60.059,32.227,41.016,0
1580328474.223,54.199,66.895,60.547,34.180,34.668,0
1580328474.227,52.246,60.547,58.594,30.762,-0.488,0
1580328474.231,53.223,57.617,55.176,29.297,40.039,0
1580328474.234,60.547,64.453,58.105,32.715,62.012,0
1580328474.238,66.406,69.336,63.477,38.086,-21.973,0
1580328474.242,68.848,72.266,67.383,44.434,-28.320,0
1580328474.246,68.359,73.730,70.312,46.387,9.277,0
1580328474.250,69.336,72.266,66.406,46.875,-7.812,0
1580328474.268,75.684,71.289,65.430,55.176,0.000,0
1580328474.272,83.008,73.730,64.941,60.547,2.930,0
1580328474.276,80.078,81.055,61.523,53.711,31.250,0
1580328474.280,73.242,81.543,61.523,43.945,46.387,0
1580328474.284,61.523,79.590,55.664,29.785,63.477,0
1580328474.288,52.734,80.078,50.781,20.508,88.867,0
1580328474.292,58.594,79.102,53.223,26.855,26.367,0
1580328474.295,61.035,78.613,52.734,27.344,4.883,0
1580328474.299,57.617,80.566,45.898,18.555,8.789,0
1580328474.303,59.082,81.055,44.434,21.484,0.488,0
1580328474.307,60.547,78.125,44.434,25.879,26.855,0
1580328474.311,51.758,69.336,36.621,17.578,77.148,0
1580328474.307,43.945,59.082,31.250,11.719,76.660,0
1580328474.311,46.875,55.664,33.691,14.160,49.316,0
1580328474.315,55.176,59.082,38.086,24.902,42.969,0
1580328474.319,63.965,61.523,43.457,32.227,11.230,0
1580328474.323,66.406,63.477,46.387,32.715,2.441,0
1580328474.327,67.383,64.941,48.340,37.598,24.902,0
1580328474.331,68.848,64.453,52.246,39.062,26.855,0
1580328474.334,69.824,65.430,52.246,39.551,27.344,0
1580328474.338,71.777,67.383,52.246,39.551,64.453,0
1580328474.342,73.730,71.289,56.152,36.621,15.625,0
1580328474.346,75.195,72.754,58.105,35.156,28.320,0
1580328474.350,79.590,72.754,57.617,43.945,73.242,0
1580328474.366,81.543,74.707,59.570,49.805,20.508,0
1580328474.370,79.102,72.266,59.570,45.898,-5.859,0
1580328474.374,71.289,60.547,48.340,38.086,-9.277,0
1580328474.378,58.105,46.875,31.738,28.320,20.996,0
1580328474.382,48.340,42.480,26.855,20.996,21.484,0
1580328474.386,40.039,37.109,26.855,14.160,17.090,0
1580328474.390,33.203,28.320,21.484,9.766,50.293,0
1580328474.393,31.738,25.879,19.043,5.371,3.418,0
1580328474.397,26.855,26.367,17.578,0.488,40.527,0
1580328474.401,17.578,20.508,12.695,-3.418,55.176,0
1580328474.405,14.160,17.578,6.348,-9.277,-3.418,0
1580328474.409,14.648,16.113,2.441,-10.742,23.926,0
1580328474.406,9.277,10.742,-1.953,-12.695,39.062,0
1580328474.410,7.812,9.766,-5.371,-11.719,29.785,0
1580328474.414,16.113,14.160,0.000,-4.395,68.848,0
1580328474.418,19.531,20.508,7.324,-0.977,46.387,0
1580328474.422,21.973,26.367,12.207,4.395,11.230,0
1580328474.426,29.297,33.691,18.555,16.602,85.449,0
1580328474.430,30.273,37.598,21.973,13.672,58.105,0
1580328474.433,26.855,34.668,17.578,7.324,-7.324,0
1580328474.437,21.484,31.738,15.137,7.324,18.555,0
1580328474.441,13.672,25.391,10.742,0.977,126.465,0
1580328474.445,7.812,19.531,7.324,-10.254,102.539,0
1580328474.449,3.418,14.648,5.859,-14.160,-14.648,0
1580328474.446,-0.977,10.742,2.441,-10.742,-7.324,0
1580328474.450,-3.906,7.324,0.000,-15.625,12.207,0
1580328474.454,-4.883,4.395,-1.465,-20.508,-8.789,0
1580328474.458,-5.371,4.883,-1.465,-20.020,2.930,0
1580328474.462,-8.301,5.371,-2.441,-16.113,24.902,0
1580328474.466,-9.277,3.418,-2.441,-11.719,-3.906,0
1580328474.470,-8.301,0.977,-3.906,-14.160,14.648,0
1580328474.473,-8.301,0.977,-2.441,-15.625,71.289,0
1580328474.477,-8.301,1.953,-0.977,-18.555,32.227,0
1580328474.481,-11.230,1.953,-4.395,-22.949,-14.160,0
1580328474.485,-8.789,3.906,-3.906,-20.020,0.977,0
1580328474.489,-6.836,2.441,-2.930,-18.555,21.973,0
1580328474.489,-5.859,4.883,2.441,-16.113,1.465,0
1580328474.493,5.859,17.090,15.137,-4.883,16.113,0
1580328474.497,16.602,27.344,24.902,5.371,6.836,0
1580328474.501,23.438,36.621,33.691,15.625,-41.016,0
1580328474.505,33.203,48.340,42.480,25.391,18.066,0
1580328474.509,47.363,59.570,49.805,34.668,94.238,0
1580328474.513,57.617,68.848,61.523,44.434,22.461,0
1580328474.516,65.430,74.219,68.848,47.852,18.555,0
1580328474.520,69.336,77.637,68.848,50.293,72.266,0
1580328474.524,71.289,81.055,73.242,56.152,19.043,0
1580328474.528,74.707,85.938,80.566,64.453,44.434,0
1580328474.532,78.125,90.820,82.520,67.871,-28.809,0
1580328474.587,80.078,91.797,82.520,69.336,-71.777,0
1580328474.591,82.031,92.285,83.984,72.754,0.000,0
1580328474.595,83.496,93.262,87.891,71.777,-0.977,0
1580328474.599,81.543,91.797,88.867,71.289,12.695,0
1580328474.603,79.590,92.285,87.402,71.777,24.414,0
1580328474.607,80.078,95.703,87.402,68.848,60.547,0
1580328474.611,81.055,99.121,88.379,69.824,71.777,0
1580328474.614,79.590,97.168,86.914,69.824,46.387,0
1580328474.618,79.590,91.797,84.961,66.406,59.570,0
1580328474.622,83.008,91.797,84.473,66.406,40.039,0
1580328474.626,89.844,94.727,83.496,67.871,-15.137,0
1580328474.630,85.938,89.355,85.449,67.871,21.484,0
1580328474.590,70.801,81.055,88.867,60.547,16.602,0
1580328474.594,64.453,80.078,89.844,54.688,37.109,0
1580328474.598,62.012,79.102,87.402,54.199,89.355,0
1580328474.602,59.570,76.660,82.520,51.270,97.656,0
1580328474.606,62.012,79.102,80.566,51.270,67.383,0
1580328474.610,61.523,75.684,82.031,50.293,11.230,0
1580328474.614,56.641,72.754,79.102,43.945,39.062,0
1580328474.617,52.734,75.195,73.242,38.574,55.664,0
1580328474.621,55.176,75.195,73.730,42.480,56.641,0
1580328474.625,56.641,72.754,76.172,42.480,38.086,0
1580328474.629,55.176,72.266,75.195,37.598,32.227,0
1580328474.633,56.152,73.242,73.730,38.574,17.090,0
1580328474.647,53.711,69.336,71.289,36.133,30.762,0
1580328474.651,53.711,66.895,68.848,34.668,41.992,0
1580328474.655,55.664,67.871,67.871,41.016,0.977,0
1580328474.659,51.270,65.918,68.359,39.551,-9.766,0
1580328474.663,49.805,63.965,64.453,37.109,21.973,0
1580328474.667,47.852,62.988,63.965,36.621,79.102,0
1580328474.671,48.340,61.035,65.430,32.227,32.227,0
1580328474.674,50.293,60.547,63.965,26.855,1.953,0
1580328474.678,46.875,60.059,59.570,24.902,35.156,0
1580328474.682,46.387,57.617,54.688,27.832,-11.719,0
1580328474.686,47.852,56.641,51.270,29.297,36.621,0
1580328474.690,44.922,56.152,51.758,25.879,18.555,0
1580328474.687,39.062,51.270,50.781,21.973,-28.809,0
1580328474.691,38.086,48.340,49.316,22.461,49.805,0
1580328474.695,39.062,49.805,49.316,22.461,63.477,0
1580328474.699,37.109,44.434,42.969,19.531,67.871,0
1580328474.703,35.156,39.551,40.527,19.531,64.453,0
1580328474.707,31.250,40.527,40.039,14.648,62.988,0
1580328474.711,31.250,41.016,37.109,10.742,57.617,0
1580328474.714,34.668,43.945,36.621,11.719,19.043,0
1580328474.718,32.715,43.945,35.156,9.277,16.113,0
1580328474.722,29.785,44.434,33.691,5.859,19.043,0
1580328474.726,31.250,44.922,35.156,3.418,54.199,0
1580328474.730,30.762,43.945,33.691,4.395,32.715,0
1580328474.728,30.762,45.410,31.250,10.742,41.992,0
1580328474.732,30.762,45.410,32.227,15.625,48.828,0
1580328474.736,28.809,43.457,33.203,12.695,40.039,0
1580328474.740,26.367,43.945,34.668,11.230,45.898,0
1580328474.744,27.832,42.480,33.203,10.742,61.523,0
1580328474.748,29.785,42.480,32.715,10.254,25.391,0
1580328474.752,25.391,42.480,34.180,9.277,-6.348,0
1580328474.755,23.438,39.062,31.738,6.836,44.434,0
1580328474.759,20.508,37.109,30.273,2.930,-0.488,0
1580328474.763,14.160,31.738,27.832,-0.488,20.508,0
1580328474.767,11.230,24.902,26.855,-2.930,31.250,0
1580328474.771,6.836,20.508,23.438,-9.766,35.156,0
1580328474.788,8.789,21.484,20.996,-8.789,109.863,0
1580328474.792,15.625,26.367,27.344,-1.953,74.219,0
1580328474.796,18.066,29.297,30.762,1.465,64.941,0
1580328474.800,20.996,30.273,31.250,3.906,50.293,0
1580328474.804,27.832,30.762,31.738,6.836,26.367,0
1580328474.808,25.879,27.344,29.785,9.277,12.695,0
1580328474.812,22.461,27.344,29.297,10.254,9.277,0
1580328474.815,27.344,32.715,29.785,13.184,49.805,0
1580328474.819,32.227,37.598,32.715,16.602,68.848,0
1580328474.823,33.691,37.109,35.156,16.602,3.418,0
1580328474.827,36.621,36.133,34.668,17.090,7.324,0
1580328474.831,45.898,36.621,36.621,27.832,30.273,0
1580328474.827,36.133,33.691,41.504,24.902,-11.230,0
1580328474.831,19.043,30.762,43.457,11.719,16.113,0
1580328474.835,19.531,25.391,37.109,9.277,28.809,0
1580328474.839,16.113,21.484,36.133,9.766,40.527,0
1580328474.843,12.207,21.484,33.691,5.371,58.105,0
1580328474.847,13.184,23.926,30.762,-1.465,40.527,0
1580328474.851,7.812,21.484,30.273,-5.371,31.738,0
1580328474.854,6.836,12.695,20.996,-5.859,2.441,0
1580328474.858,4.395,8.789,19.043,-9.277,70.312,0
1580328474.862,-3.906,4.883,15.625,-18.066,113.770,0
1580328474.866,-2.441,4.395,12.695,-21.484,90.332,0
1580328474.870,6.348,14.160,23.438,-10.742,83.496,0
1580328474.908,8.789,16.602,24.902,-3.418,62.500,0
1580328474.912,9.766,16.602,20.020,-4.883,13.184,0
1580328474.916,10.742,15.625,20.996,-2.441,35.645,0
1580328474.920,13.672,15.625,20.508,1.465,39.551,0
1580328474.924,17.578,18.555,20.996,3.418,37.109,0
1580328474.928,21.484,19.531,21.973,3.906,50.293,0
1580328474.932,23.438,20.508,23.438,5.371,42.480,0
1580328474.935,21.484,20.508,23.926,6.348,61.523,0
1580328474.939,20.508,21.484,26.855,1.953,57.617,0
1580328474.943,18.066,23.438,25.391,-3.418,61.523,0
1580328474.947,17.578,26.855,24.902,-0.488,47.363,0
1580328474.951,18.066,27.344,26.367,0.488,14.648,0
1580328474.911,17.090,26.855,25.391,-2.441,19.531,0
1580328474.915,19.043,29.785,26.367,-0.977,-22.461,0
1580328474.919,21.484,32.715,26.855,-1.465,-2.930,0
1580328474.923,17.578,32.715,25.391,-3.906,34.180,0
1580328474.927,9.277,22.949,20.020,-9.277,21.484,0
1580328474.931,5.859,18.555,17.090,-9.277,47.852,0
1580328474.935,10.742,21.484,19.043,-1.953,12.695,0
1580328474.938,12.695,21.484,22.461,3.418,9.277,0
1580328474.942,14.648,25.391,26.367,10.254,-16.113,0
1580328474.946,19.043,28.809,27.832,12.207,40.039,0
1580328474.950,25.391,32.715,32.227,15.137,43.457,0
1580328474.954,27.344,38.574,38.086,16.602,28.320,0
1580328474.987,27.832,40.039,39.551,15.625,28.809,0
1580328474.991,32.715,40.527,42.480,19.531,24.902,0
1580328474.995,34.668,41.992,45.898,20.996,25.879,0
1580328474.999,35.645,44.434,45.410,22.461,8.301,0
1580328475.003,36.133,45.410,44.434,18.066,25.879,0
1580328475.007,35.645,42.969,45.410,10.742,4.883,0
1580328475.011,31.250,38.574,46.387,9.277,-3.906,0
1580328475.014,30.762,37.598,42.969,15.137,-20.508,0
1580328475.018,32.227,42.480,41.504,19.043,0.488,0
1580328475.022,30.762,42.969,44.434,20.020,20.508,0
1580328475.026,30.273,41.016,45.410,20.020,-3.906,0
1580328475.030,29.785,40.527,44.434,20.020,2.441,0
1580328475.027,27.832,37.598,39.062,18.066,-6.836,0
1580328475.031,21.484,33.203,34.668,12.207,43.945,0
1580328475.035,18.066,30.762,36.133,7.812,72.754,0
1580328475.039,18.555,28.320,37.598,5.859,80.566,0
1580328475.043,19.531,26.367,33.203,3.906,59.082,0
1580328475.047,14.648,25.879,27.344,0.977,2.441,0
1580328475.051,7.812,24.414,25.879,0.488,-13.672,0
1580328475.054,5.371,22.461,25.879,-0.488,-12.695,0
1580328475.058,4.883,20.996,24.902,-3.418,-27.344,0
1580328475.062,3.418,19.531,22.461,-4.395,3.418,0
1580328475.066,2.441,17.090,21.973,-2.441,-26.367,0
1580328475.070,2.441,13.184,19.531,-4.883,19.043,0
1580328475.067,1.953,11.230,17.578,-5.859,77.148,0
1580328475.071,0.488,12.695,19.043,-11.719,34.668,0
1580328475.075,-0.977,14.648,17.090,-14.648,34.180,0
1580328475.079,1.953,15.625,16.113,-5.859,50.781,0
1580328475.083,7.812,18.555,19.531,-1.465,48.340,0
1580328475.087,12.695,23.926,23.926,0.488,20.020,0
1580328475.091,19.531,28.809,28.809,6.836,54.199,0
1580328475.094,26.367,34.668,33.203,13.672,78.125,0
1580328475.098,32.715,41.504,35.156,15.137,3.418,0
1580328475.102,38.574,43.457,34.180,14.648,0.977,0
1580328475.106,39.551,44.434,38.574,17.578,15.137,0
1580328475.110,42.969,44.922,43.945,21.484,36.133,0
1580328475.127,50.293,45.410,43.457,22.461,86.914,0
1580328475.131,51.270,47.363,45.898,27.832,58.594,0
1580328475.135,49.805,45.898,44.434,30.762,18.555,0
1580328475.139,45.898,43.945,40.527,26.367,9.766,0
1580328475.143,48.828,47.363,42.480,25.879,-1.465,0
1580328475.147,51.270,47.852,43.945,28.809,4.883,0
1580328475.151,42.480,44.434,40.039,25.391,-17.090,0
1580328475.154,31.738,39.551,33.691,20.508,1.465,0
1580328475.158,31.250,38.086,37.109,24.902,-7.324,0
1580328475.162,35.156,44.434,44.434,24.414,15.137,0
1580328475.166,36.133,52.734,47.363,21.484,27.832,0
1580328475.170,32.715,51.758,43.945,24.414,14.160,0
1580328475.147,26.367,44.922,37.109,20.996,38.086,0
1580328475.151,20.996,37.109,31.250,14.160,-19.043,0
1580328475.155,10.254,30.273,26.855,7.812,-19.531,0
1580328475.159,5.371,25.879,22.949,1.465,30.273,0
1580328475.163,3.906,20.996,17.578,-1.953,22.461,0
1580328475.167,4.395,21.973,18.066,-3.418,35.645,0
1580328475.171,11.719,33.203,27.344,1.465,-37.598,0
1580328475.174,17.578,39.062,30.273,8.789,-19.043,0
1580328475.178,21.484,40.527,29.297,14.160,30.273,0
1580328475.182,23.438,44.434,32.715,18.066,14.160,0
1580328475.186,28.320,49.805,41.992,24.414,78.613,0
1580328475.190,40.039,60.059,52.734,38.086,103.516,0
1580328475.206,45.898,66.895,59.570,42.969,65.918,0
1580328475.210,49.805,71.289,64.453,40.527,9.277,0
1580328475.214,52.734,72.266,65.430,45.898,-0.488,0
1580328475.218,49.805,71.777,66.895,49.316,61.523,0
1580328475.222,51.270,76.660,72.266,51.270,41.504,0
1580328475.226,57.617,80.078,77.148,56.152,10.254,0
1580328475.230,65.430,83.008,79.102,61.523,58.594,0
1580328475.233,69.336,84.473,80.566,66.406,53.711,0
1580328475.237,62.012,81.543,85.938,62.012,19.531,0
1580328475.241,49.805,81.055,89.844,54.199,35.645,0
1580328475.245,51.758,82.031,89.844,58.594,14.648,0
1580328475.249,60.547,83.008,89.844,62.012,-1.953,0
1580328475.246,56.641,81.055,87.402,54.688,41.504,0
1580328475.250,48.340,72.266,83.984,48.828,76.660,0
1580328475.254,43.457,67.871,84.473,43.945,12.695,0
1580328475.258,32.715,57.129,72.754,31.250,-26.855,0
1580328475.262,23.926,44.922,56.641,19.531,8.301,0
1580328475.266,34.180,48.340,55.664,25.391,63.965,0
1580328475.270,27.832,45.898,48.340,21.973,74.707,0
1580328475.273,10.254,27.344,30.762,5.371,35.156,0
1580328475.277,0.000,11.230,18.066,-10.742,-20.996,0
1580328475.281,-7.324,6.836,13.184,-20.020,-22.949,0
1580328475.285,-9.766,5.859,13.672,-17.090,29.297,0
1580328475.289,-17.090,0.000,7.812,-19.043,57.129,0
1580328475.326,-22.949,-7.324,0.000,-24.902,42.969,0
1580328475.330,-5.859,4.883,11.719,-9.766,21.973,0
1580328475.334,23.926,31.738,42.969,20.020,38.086,0
1580328475.338,43.457,52.246,60.547,34.668,13.672,0
1580328475.342,50.293,62.012,68.848,44.434,23.438,0
1580328475.346,54.199,68.848,80.078,55.664,40.039,0
1580328475.350,62.012,77.148,88.379,66.895,31.738,0
1580328475.353,62.500,76.172,86.914,65.430,21.484,0
1580328475.357,42.969,58.594,65.430,40.527,44.922,0
1580328475.361,20.996,36.621,38.086,19.043,50.781,3
1580328475.365,5.859,20.020,21.973,7.324,62.500,0
1580328475.369,-5.859,9.277,10.742,-5.859,97.168,0
1580328475.346,-14.160,1.465,1.953,-14.648,45.898,0
1580328475.350,-22.949,-7.324,-4.883,-20.508,-36.621,0
1580328475.354,-27.832,-15.137,-8.789,-25.879,-14.160,0
1580328475.358,-29.785,-20.020,-16.113,-28.320,7.324,0
1580328475.362,-30.762,-20.508,-20.996,-27.832,-3.906,0
1580328475.366,-29.297,-19.531,-19.531,-22.949,65.430,0
1580328475.370,-33.203,-20.996,-19.043,-21.484,54.688,0
1580328475.373,-33.691,-21.973,-20.508,-25.879,43.945,0
1580328475.377,-30.762,-20.508,-20.996,-27.832,63.965,0
1580328475.381,-31.250,-22.461,-21.484,-30.762,52.246,0
1580328475.385,-33.203,-22.949,-21.484,-32.227,62.988,0
1580328475.389,-31.250,-19.531,-21.973,-33.691,37.598,0
1580328475.406,-28.809,-17.090,-22.461,-37.598,27.832,0
1580328475.410,-28.809,-18.555,-21.484,-35.645,9.277,0
1580328475.414,-28.809,-20.508,-20.020,-36.133,61.523,0
1580328475.418,-28.809,-20.996,-20.020,-35.645,54.688,0
1580328475.422,-28.320,-20.508,-18.066,-36.621,-21.973,0
1580328475.426,-27.344,-19.043,-15.137,-39.062,10.254,0
1580328475.430,-29.297,-19.043,-15.137,-36.133,27.344,0
1580328475.433,-30.762,-20.508,-16.602,-36.621,43.945,0
1580328475.437,-29.297,-19.043,-14.160,-31.738,111.328,0
1580328475.441,-29.297,-14.160,-8.789,-30.273,57.129,0
1580328475.445,-30.273,-14.160,-8.789,-32.227,-7.324,0
1580328475.449,-29.785,-16.602,-10.254,-27.344,32.715,0
1580328475.426,-28.809,-14.648,-10.254,-23.438,0.488,0
1580328475.430,-29.785,-13.672,-9.766,-24.414,22.949,0
1580328475.434,-29.785,-13.672,-6.836,-24.414,33.203,0
1580328475.438,-27.832,-11.230,-4.883,-25.879,33.691,0
1580328475.442,-25.391,-9.277,-3.418,-28.809,69.824,0
1580328475.446,-21.484,-5.371,-5.371,-23.438,86.914,0
1580328475.450,-17.578,-0.977,-6.836,-20.996,65.430,0
1580328475.453,-19.531,-0.488,-5.859,-20.020,13.184,0
1580328475.457,-20.508,-1.465,-4.883,-19.531,-6.836,0
1580328475.461,-19.531,-1.465,-2.441,-20.996,23.438,0
1580328475.465,-21.484,0.000,-2.441,-22.949,41.504,0
1580328475.469,-21.973,1.465,-2.930,-21.973,16.113,0
1580328475.486,-21.973,0.000,0.488,-26.855,8.301,0
1580328475.490,-24.414,0.977,1.465,-36.133,14.160,0
1580328475.494,-24.902,1.953,1.465,-32.227,2.441,0
1580328475.498,-18.555,2.930,4.395,-24.414,11.230,0
1580328475.502,-17.090,4.883,3.418,-19.043,14.160,0
1580328475.506,-15.625,5.371,4.883,-16.113,-2.930,0
1580328475.510,-13.184,7.324,10.254,-13.184,-20.020,0
1580328475.513,-13.184,6.836,6.836,-12.695,-27.832,0
1580328475.517,-7.324,8.789,7.812,-13.672,43.457,0
1580328475.521,-6.836,7.324,10.254,-14.160,93.750,0
1580328475.525,-9.277,6.836,9.766,-13.672,53.223,0
1580328475.529,-9.766,11.719,11.230,-18.066,28.809,0
1580328475.546,-10.254,14.160,11.719,-17.090,7.324,0
1580328475.550,-8.789,13.184,11.230,-13.184,28.320,0
1580328475.554,-5.371,14.160,10.254,-12.207,45.898,0
1580328475.558,-4.395,18.066,10.742,-8.301,50.293,0
1580328475.562,-3.418,18.555,11.719,-7.812,72.754,0
1580328475.566,-3.906,17.578,13.184,-7.812,19.043,0
1580328475.570,-3.906,18.066,15.137,-5.371,36.621,0
1580328475.573,-0.977,19.531,16.113,-4.395,79.102,0
1580328475.577,3.906,20.020,17.090,-3.418,2.930,0
1580328475.581,5.371,19.043,16.602,-7.812,13.672,0
1580328475.585,5.859,18.555,18.066,-7.324,27.832,0
1580328475.589,9.277,20.996,19.043,1.465,19.043,0
1580328475.566,10.742,20.996,18.066,0.488,47.852,0
1580328475.570,11.719,19.531,16.113,2.930,27.344,0
1580328475.574,13.184,20.020,16.602,5.859,-13.672,0
1580328475.578,10.254,19.043,18.066,3.906,-12.695,0
1580328475.582,8.301,20.508,18.555,3.418,15.137,0
1580328475.586,7.324,21.973,17.090,-1.953,25.391,0
1580328475.590,5.371,19.531,17.578,-3.906,52.246,0
1580328475.593,6.836,20.508,20.020,-2.930,10.742,0
1580328475.597,4.395,22.461,19.531,-6.836,21.973,0
1580328475.601,1.465,20.996,16.113,-7.324,60.547,0
1580328475.605,1.953,20.996,15.137,-10.254,45.898,0
1580328475.609,1.465,21.973,16.113,-12.207,0.488,0
1580328475.647,4.883,22.949,17.090,-12.207,-3.418,0
1580328475.651,3.418,23.926,17.090,-16.602,4.883,0
1580328475.655,0.488,21.973,17.090,-14.648,-16.113,0
1580328475.659,4.395,20.996,18.066,-9.277,23.438,0
1580328475.663,5.371,19.531,17.578,-6.836,46.875,0
1580328475.667,5.371,21.973,19.043,-6.348,70.312,0
1580328475.671,2.930,25.879,17.578,-5.371,51.758,0
1580328475.674,2.930,25.879,15.137,-3.418,21.973,0
1580328475.678,4.395,24.414,16.602,-4.395,28.320,0
1580328475.682,3.418,23.926,16.602,-4.395,16.113,0
1580328475.686,4.395,25.391,18.066,-2.441,17.090,0
1580328475.690,4.395,24.902,18.555,-4.395,38.574,0
1580328475.667,3.906,21.973,17.090,-8.789,33.203,0
1580328475.671,5.371,22.461,17.090,-9.277,63.965,0
1580328475.675,5.371,20.996,15.137,-8.789,44.922,0
1580328475.679,2.930,20.508,17.090,-9.277,20.996,0
1580328475.683,2.441,20.508,16.602,-7.812,5.859,0
1580328475.687,10.742,21.484,14.648,-0.488,9.766,0
1580328475.691,22.949,22.461,18.555,13.184,59.082,0
1580328475.694,14.160,19.043,25.879,15.625,11.230,0
1580328475.698,-1.953,19.043,30.762,3.418,4.395,0
1580328475.702,-4.395,18.066,31.250,-1.953,20.508,0
1580328475.706,0.000,16.113,32.227,1.465,-8.789,0
1580328475.710,1.953,13.184,31.250,-0.488,39.062,0
1580328475.727,-3.906,13.184,27.344,-5.859,76.172,0
1580328475.731,-7.812,16.113,29.297,-6.348,74.707,0
1580328475.735,-5.859,16.602,32.227,-11.230,83.008,0
1580328475.739,-5.371,17.090,28.320,-11.230,37.109,0
1580328475.743,-3.418,17.578,24.902,-3.418,-20.020,0
1580328475.747,1.465,18.066,24.414,-3.906,-36.133,0
1580328475.751,3.418,19.043,22.949,-6.836,18.555,0
1580328475.754,8.301,21.973,24.414,-4.883,56.152,0
1580328475.758,8.789,20.508,25.391,-2.441,-0.977,0
1580328475.762,6.348,16.602,23.438,0.977,3.418,0
1580328475.766,10.742,17.578,20.020,8.301,30.273,0
1580328475.770,10.742,17.578,22.949,11.719,-5.371,0
1580328475.767,10.254,18.066,28.320,0.000,17.090,0
1580328475.771,13.672,19.531,27.832,3.418,32.227,0
1580328475.775,12.695,20.996,26.367,11.719,-17.578,0
1580328475.779,11.719,22.949,28.809,10.254,-46.875,0
1580328475.783,10.254,24.902,29.297,8.789,4.395,0
1580328475.787,9.766,24.414,28.809,5.859,27.832,0
1580328475.791,12.207,24.902,28.809,5.859,15.625,0
1580328475.794,12.207,26.367,28.320,2.441,85.938,0
1580328475.798,10.742,24.902,30.762,2.441,103.516,0
1580328475.802,6.348,23.438,31.250,6.836,50.781,0
1580328475.806,9.277,24.414,28.809,4.395,20.508,0
1580328475.810,8.789,25.391,27.344,-3.906,-10.742,0
1580328475.807,4.883,24.902,24.902,-3.418,0.977,0
1580328475.811,4.883,25.879,25.391,1.953,46.875,0
1580328475.815,4.883,24.414,25.391,4.395,47.852,0
1580328475.819,4.883,21.484,24.414,1.953,60.059,0
1580328475.823,2.930,22.949,21.484,-3.906,89.844,0
1580328475.827,4.395,26.855,18.555,-3.418,64.453,0
1580328475.831,1.953,26.855,20.996,-3.906,46.875,0
1580328475.834,0.488,25.391,20.996,-7.324,55.176,0
1580328475.838,5.859,27.832,21.973,-4.883,51.758,0
1580328475.842,5.859,28.320,22.949,-6.348,77.148,0
1580328475.846,5.371,28.809,22.949,-8.789,84.961,0
1580328475.850,10.254,30.762,25.879,-2.441,18.555,0
1580328475.847,12.695,27.832,27.344,0.977,7.812,0
1580328475.851,12.695,23.926,26.855,0.488,38.574,0
1580328475.855,12.207,24.414,26.855,0.977,-2.441,0
1580328475.859,12.207,26.367,26.367,3.418,7.324,0
1580328475.863,10.254,28.320,26.855,6.348,67.383,0
1580328475.867,9.766,27.832,26.855,7.324,61.523,0
1580328475.871,12.695,26.367,25.879,-2.441,39.551,0
1580328475.874,12.207,27.344,25.391,-13.184,82.031,0
1580328475.878,5.371,25.879,24.414,-4.883,80.078,0
1580328475.882,4.395,22.949,22.461,0.977,106.934,0
1580328475.886,8.789,23.926,25.391,2.930,70.312,0
1580328475.890,10.742,25.879,30.762,5.859,-1.953,0
1580328475.907,8.301,24.414,29.297,3.418,49.316,0
1580328475.911,5.859,23.438,27.832,2.441,43.457,0
1580328475.915,3.906,25.879,26.855,1.465,-1.953,0
1580328475.919,6.348,29.297,27.832,0.000,1.953,0
1580328475.923,8.301,27.344,29.785,1.465,22.949,0
1580328475.927,5.859,26.855,24.902,-1.953,-6.836,0
1580328475.931,7.324,26.855,21.973,-4.395,16.602,0
1580328475.934,14.648,27.344,25.391,1.953,55.664,0
1580328475.938,12.695,31.738,22.949,1.953,14.160,0
1580328475.942,5.371,33.691,19.043,-5.859,-17.090,0
1580328475.946,4.395,34.180,20.508,-10.742,0.000,0
1580328475.950,3.418,32.715,20.508,-11.230,7.324,0
1580328475.947,5.371,30.762,19.531,-5.371,41.504,0
1580328475.951,7.324,30.762,20.020,-1.953,69.824,0
1580328475.955,5.859,28.320,20.020,-5.859,-8.301,0
1580328475.959,3.906,28.320,23.926,-4.395,-17.090,0
1580328475.963,8.301,30.273,25.879,2.930,24.902,0
1580328475.967,11.719,28.809,23.438,6.836,50.293,0
1580328475.971,10.742,27.832,21.484,3.906,44.922,0
1580328475.974,10.742,29.297,23.926,2.441,74.219,0
1580328475.978,12.207,30.273,27.344,-5.371,44.434,0
1580328475.982,11.719,30.762,26.367,-9.766,28.320,0
1580328475.986,12.207,31.738,23.926,-1.465,68.848,0
1580328475.990,13.672,32.715,24.414,1.953,-10.254,0
1580328476.007,15.137,32.227,25.391,4.395,3.418,0
1580328476.011,17.578,32.715,25.879,7.324,88.867,0
1580328476.015,18.066,28.809,26.855,6.836,23.926,0
1580328476.019,17.578,25.879,25.391,0.977,-20.996,0
1580328476.023,15.625,28.320,25.879,0.977,33.691,0
1580328476.027,15.625,28.809,29.785,5.859,46.387,0
1580328476.031,12.695,27.344,30.273,-9.277,42.969,0
1580328476.034,10.742,28.809,25.879,-17.090,60.059,0
1580328476.038,15.625,30.762,22.949,-2.441,99.609,0
1580328476.042,15.625,31.250,23.926,-1.953,18.555,0
1580328476.046,12.695,31.738,23.926,-5.859,41.016,0
1580328476.050,11.719,29.785,25.879,0.488,35.156,0
1580328476.067,11.719,27.344,28.320,1.953,-34.180,0
1580328476.071,12.207,27.832,28.809,2.930,31.738,0
1580328476.075,12.207,27.344,28.320,6.836,-12.207,0
1580328476.079,12.695,25.391,30.273,7.812,-23.438,0
1580328476.083,10.742,27.832,29.297,6.836,37.598,0
1580328476.087,7.324,28.320,29.297,2.930,97.168,0
1580328476.091,6.836,28.320,26.855,3.418,83.496,0
1580328476.094,8.301,30.273,25.879,6.348,12.695,0
1580328476.098,9.766,28.320,30.273,10.254,-1.465,0
1580328476.102,10.254,26.367,33.203,7.812,-55.176,0
1580328476.106,8.301,26.367,31.250,-4.395,-34.180,0
1580328476.110,5.371,26.367,27.344,-3.906,39.551,0
1580328476.087,4.395,27.832,28.320,-0.977,58.105,0
1580328476.091,5.859,28.320,29.297,1.465,36.621,0
1580328476.095,8.301,29.785,28.320,6.348,61.035,0
1580328476.099,13.672,32.715,29.297,7.324,39.551,0
1580328476.103,13.184,32.227,29.785,6.348,-3.906,0
1580328476.107,11.719,32.715,30.762,6.836,48.340,0
1580328476.111,16.602,35.156,29.785,10.254,56.641,0
1580328476.114,19.043,34.668,28.320,12.207,32.715,0
1580328476.118,23.926,35.156,31.738,15.137,71.289,0
1580328476.122,25.391,35.156,31.250,18.066,56.641,0
1580328476.126,21.484,32.715,27.832,16.602,12.695,0
1580328476.130,23.438,32.715,25.879,15.625,47.363,0
1580328476.147,26.855,31.250,26.367,15.137,103.027,0
1580328476.151,28.320,31.250,29.785,10.254,97.656,0
1580328476.155,29.785,29.785,32.227,6.836,65.918,0
1580328476.159,27.832,26.855,30.273,-0.977,48.340,0
1580328476.163,25.879,29.785,29.785,0.000,65.430,0
1580328476.167,20.508,33.691,30.762,18.066,-13.184,0
1580328476.171,15.137,31.738,34.180,16.113,-41.504,0
1580328476.174,14.160,30.273,33.691,9.766,51.270,0
1580328476.178,14.160,30.762,30.762,14.160,31.738,0
1580328476.182,12.695,29.785,28.320,13.184,53.711,0
1580328476.186,10.742,31.738,29.297,12.207,56.152,0
1580328476.190,12.207,33.691,33.203,15.625,17.090,0
1580328476.189,9.277,32.715,30.273,11.719,43.945,0
1580328476.193,3.418,30.762,27.344,6.836,19.043,0
1580328476.197,3.906,29.785,30.273,9.766,18.555,0
1580328476.201,4.883,29.785,30.273,13.672,23.926,0
1580328476.205,6.836,31.250,29.297,13.184,-4.883,0
1580328476.209,11.719,33.691,31.250,15.137,-8.301,0
1580328476.213,8.301,34.180,28.809,3.906,3.906,0
1580328476.216,7.324,34.180,25.391,-3.418,49.316,0
1580328476.220,8.301,33.691,25.879,10.254,34.180,0
1580328476.224,8.301,34.668,29.785,14.648,1.953,0
1580328476.228,9.766,36.133,29.297,12.695,22.461,0
1580328476.232,11.230,35.156,24.414,14.648,-2.441,0
1580328476.227,10.742,36.133,23.438,16.602,-5.859,0
1580328476.231,11.719,34.668,24.902,18.066,-37.109,0
1580328476.235,15.137,34.668,23.438,17.578,-34.668,0
1580328476.239,16.602,36.133,22.949,14.160,21.973,0
1580328476.243,16.602,36.133,24.414,15.625,17.090,0
1580328476.247,15.137,35.645,28.320,21.484,57.129,0
1580328476.251,16.602,36.621,26.855,21.484,22.949,0
1580328476.254,19.531,36.621,24.414,19.043,30.762,0
1580328476.258,19.043,34.180,29.297,15.137,68.359,0
1580328476.262,14.160,31.738,28.320,-0.488,18.066,0
1580328476.266,10.742,30.273,24.902,0.977,13.672,0
1580328476.270,11.719,30.273,24.414,15.625,25.879,0
1580328476.287,13.184,32.227,24.902,9.277,40.039,0
1580328476.291,14.160,31.738,28.809,7.324,84.473,0
1580328476.295,15.625,32.227,29.297,9.766,28.320,0
1580328476.299,15.625,36.133,29.785,9.277,27.832,0
1580328476.303,14.160,34.668,26.855,8.301,59.570,0
1580328476.307,14.648,31.738,25.391,8.301,-7.812,0
1580328476.311,14.160,32.715,25.879,6.836,-26.855,0
1580328476.314,13.184,33.203,23.438,3.418,17.578,0
1580328476.318,16.113,32.227,27.344,11.719,-1.953,0
1580328476.322,17.090,31.738,30.762,17.090,-33.691,0
1580328476.326,16.113,32.227,28.320,15.137,29.785,0
1580328476.330,17.578,32.227,30.273,14.648,5.371,0
1580328476.327,17.090,34.180,29.297,14.160,16.113,0
1580328476.331,18.066,34.668,31.250,18.066,78.613,0
1580328476.335,17.578,34.180,32.227,16.113,15.625,0
1580328476.339,15.625,35.156,27.344,10.742,21.484,0
1580328476.343,18.066,35.645,27.832,10.742,28.809,0
1580328476.347,20.996,36.621,31.250,12.695,-15.137,0
1580328476.351,20.020,36.133,31.738,12.207,20.508,0
1580328476.354,18.555,33.203,32.227,12.207,32.715,0
1580328476.358,16.602,32.227,30.273,10.742,4.883,0
1580328476.362,13.672,32.715,31.738,9.277,-11.230,0
1580328476.366,13.184,32.715,33.203,5.371,20.020,0
1580328476.370,14.648,32.715,31.250,6.836,58.594,0
1580328476.386,16.602,32.715,30.273,10.742,39.551,0
1580328476.390,15.625,31.738,31.250,5.859,32.715,0
1580328476.394,15.137,30.273,31.738,10.254,53.223,0
1580328476.398,15.625,32.715,31.250,4.395,50.293,0
1580328476.402,16.602,34.180,30.273,1.465,31.250,0
1580328476.406,21.973,33.691,31.250,17.090,63.965,0
1580328476.410,17.578,29.785,27.832,14.160,57.617,0
1580328476.413,12.695,26.367,25.391,4.883,43.945,0
1580328476.417,14.648,27.344,32.715,3.906,51.758,0
1580328476.421,12.207,27.832,33.203,4.883,38.086,0
1580328476.425,9.277,27.832,29.297,6.348,48.340,0
1580328476.429,8.789,26.855,31.250,7.324,33.203,0
1580328476.409,14.160,27.832,32.715,10.254,12.695,0
1580328476.413,18.555,29.785,33.203,12.695,14.160,0
1580328476.417,18.066,29.785,32.715,12.207,19.531,0
1580328476.421,17.578,26.367,28.320,10.742,17.090,0
1580328476.425,14.648,25.391,24.414,8.301,20.996,0
1580328476.429,15.625,31.250,26.855,7.812,36.621,0
1580328476.433,16.113,32.227,31.250,9.277,42.480,0
1580328476.436,10.742,25.879,28.809,8.301,34.668,0
1580328476.440,12.207,27.344,26.367,10.254,10.742,0
1580328476.444,15.625,31.738,25.879,14.160,-25.391,0
1580328476.448,11.719,31.250,24.902,13.672,33.203,0
1580328476.452,13.184,32.715,26.367,12.207,104.980,0
1580328476.466,14.648,32.715,27.344,7.812,55.664,0
1580328476.470,10.742,34.180,28.809,4.883,11.230,0
1580328476.474,10.254,38.086,29.785,4.883,46.387,0
1580328476.478,8.789,36.621,29.297,4.395,48.340,0
1580328476.482,13.184,37.109,29.297,4.395,55.664,3
1580328476.486,13.672,37.598,30.762,1.953,-1.465,0
1580328476.490,7.812,33.203,28.809,0.977,-46.875,0
1580328476.493,8.789,32.715,29.297,6.348,-5.371,0
1580328476.497,10.742,34.668,33.691,9.766,-29.297,0
1580328476.501,13.672,34.668,34.180,13.672,-52.246,0
1580328476.505,16.602,37.109,33.691,17.578,-41.504,0
1580328476.509,20.020,39.062,33.691,20.508,-14.648,0
1580328476.506,16.602,36.621,32.715,20.508,15.625,0
1580328476.510,11.719,33.691,32.227,19.043,28.809,0
1580328476.514,15.625,36.133,28.809,17.578,45.898,0
1580328476.518,16.602,35.156,26.367,13.672,38.574,0
1580328476.522,15.137,34.668,29.297,17.090,33.203,0
1580328476.526,12.207,34.668,32.227,18.066,9.766,0
1580328476.530,12.695,30.762,29.297,14.648,18.555,0
1580328476.533,13.184,32.227,28.320,16.602,65.918,0
1580328476.537,9.766,32.715,30.762,11.230,56.641,0
1580328476.541,6.836,29.785,29.785,3.418,11.230,0
1580328476.545,8.301,29.785,29.785,4.395,-14.160,0
1580328476.549,10.254,32.227,30.273,4.883,-2.441,0
1580328476.566,3.418,29.785,31.250,-1.465,23.926,0
1580328476.570,0.000,28.809,33.203,-6.836,9.766,0
1580328476.574,2.441,29.785,32.227,-5.859,-7.812,0
1580328476.578,0.488,28.809,28.320,-3.418,42.969,0
1580328476.582,-2.930,27.344,25.879,-2.930,90.332,0
1580328476.586,0.000,27.832,24.902,-1.465,75.684,0
1580328476.590,5.371,28.809,24.902,-2.441,64.941,0
1580328476.593,4.883,30.762,25.391,-2.930,19.043,0
1580328476.597,6.836,32.227,23.926,-1.465,24.414,0
1580328476.601,9.766,31.250,25.391,0.488,71.777,0
1580328476.605,4.883,30.762,27.344,1.465,91.309,0
1580328476.609,3.418,31.250,31.738,2.441,75.195,0
1580328476.607,5.371,33.203,33.203,4.395,24.414,0
1580328476.611,5.859,32.227,31.738,3.906,16.602,0
1580328476.615,9.277,32.227,35.156,4.395,25.879,0
1580328476.619,12.695,29.785,33.691,5.371,48.828,0
1580328476.623,13.672,30.273,31.738,6.348,90.820,0
1580328476.627,14.648,33.691,32.715,3.906,23.926,0
1580328476.631,16.113,34.668,31.250,3.906,20.508,0
1580328476.634,14.160,33.203,31.738,3.906,39.551,0
1580328476.638,11.719,31.738,34.668,3.906,62.988,0
1580328476.642,17.090,34.180,36.133,5.859,69.824,0
1580328476.646,14.648,33.691,34.180,4.883,52.734,0
1580328476.650,10.742,31.738,31.738,6.348,57.617,0
1580328476.646,11.719,33.691,26.855,4.395,14.160,0
1580328476.650,10.742,33.203,26.367,3.906,81.543,0
1580328476.654,12.695,31.250,30.762,8.301,89.844,0
1580328476.658,12.695,33.691,29.297,9.766,44.434,0
1580328476.662,13.672,35.156,25.879,9.766,51.270,0
1580328476.666,17.090,36.621,27.832,11.719,8.789,0
1580328476.670,18.066,37.598,30.762,11.230,-15.137,0
1580328476.673,18.555,34.180,34.668,10.254,24.902,0
1580328476.677,18.066,30.762,30.273,5.859,69.336,0
1580328476.681,20.020,33.203,27.344,7.812,49.316,0
1580328476.685,23.926,35.645,31.250,14.160,-11.230,0
1580328476.689,21.484,32.227,30.273,12.695,-26.855,0
1580328476.707,19.043,33.203,26.855,11.230,50.293,0
1580328476.711,20.996,35.156,25.879,12.207,54.199,0
1580328476.715,19.043,35.156,30.273,13.184,-14.648,0
1580328476.719,17.090,36.133,30.273,13.184,18.066,0
1580328476.723,17.578,37.598,32.715,13.672,39.551,0
1580328476.727,19.043,39.062,35.156,17.090,11.230,0
1580328476.731,18.066,35.645,31.738,14.648,6.836,0
1580328476.734,13.184,32.715,28.809,6.348,35.156,0
1580328476.738,13.184,33.203,23.926,6.348,38.574,0
1580328476.742,19.043,34.668,26.367,13.672,72.754,0
1580328476.746,20.020,35.156,33.691,13.184,68.359,0
1580328476.750,15.137,34.668,32.227,6.836,44.434,0
1580328476.747,12.207,33.203,28.320,5.859,100.098,0
1580328476.751,17.090,31.738,26.855,7.812,94.727,0
1580328476.755,18.555,30.762,26.855,7.324,27.832,0
1580328476.759,15.625,30.762,28.320,6.836,-44.434,0
1580328476.763,16.113,31.250,29.297,7.812,-35.645,0
1580328476.767,17.578,31.250,29.297,10.742,-23.438,0
1580328476.771,18.555,32.715,29.297,11.230,-15.625,0
1580328476.774,17.090,33.691,27.344,5.371,-15.137,0
1580328476.778,14.648,31.250,23.438,1.465,37.598,0
1580328476.782,12.207,30.762,25.391,-1.465,48.340,0
1580328476.786,10.742,32.227,26.367,-0.977,20.020,0
1580328476.790,13.184,33.691,23.926,1.953,48.828,0
1580328476.807,14.160,35.156,25.391,1.953,2.930,0
1580328476.811,15.625,34.180,27.344,2.930,-15.625,0
1580328476.815,22.461,34.180,29.785,7.812,11.719,0
1580328476.819,23.926,34.180,33.203,9.277,16.602,0
1580328476.823,21.973,34.668,31.738,8.789,15.137,0
1580328476.827,22.461,35.156,30.762,9.277,6.836,0
1580328476.831,19.043,34.180,32.227,8.789,23.926,0
1580328476.834,16.113,35.156,29.297,5.859,35.156,0
1580328476.838,13.184,34.180,29.785,0.977,13.672,0
1580328476.842,10.254,32.227,30.273,-3.418,-10.254,0
1580328476.846,8.301,30.273,27.832,-0.977,-27.344,0
1580328476.850,9.766,33.203,27.344,4.395,-28.320,0
1580328476.850,10.742,33.203,28.320,3.418,12.695,0
1580328476.854,11.230,31.250,30.273,5.371,9.277,0
1580328476.858,14.648,35.156,29.297,7.812,-3.418,0
1580328476.862,13.672,37.109,28.320,5.859,22.461,0
1580328476.866,12.695,38.574,27.344,3.418,-16.113,0
1580328476.870,15.137,37.598,30.273,1.953,-14.160,0
1580328476.874,15.625,35.156,31.250,1.465,51.270,0
1580328476.877,12.695,32.715,29.297,3.906,53.711,0
1580328476.881,10.254,31.250,30.273,4.395,20.508,0
1580328476.885,14.160,32.715,30.762,7.324,32.227,0
1580328476.889,16.602,32.227,27.344,11.230,17.090,0
1580328476.893,16.602,31.250,27.832,5.859,20.996,0
1580328476.887,18.555,33.203,30.762,1.953,42.969,0
1580328476.891,18.066,34.180,30.273,6.348,67.383,0
1580328476.895,15.137,32.715,32.227,10.254,44.434,0
1580328476.899,12.207,31.250,32.715,8.789,15.137,0
1580328476.903,15.137,29.297,31.738,3.418,54.688,0
1580328476.907,16.602,28.320,31.250,0.488,89.355,0
1580328476.911,15.625,30.273,33.203,1.465,101.562,0
1580328476.914,14.648,28.809,33.691,5.859,47.852,0
1580328476.918,13.184,27.832,33.203,5.859,30.762,0
1580328476.922,11.719,28.320,33.203,-0.977,41.504,0
1580328476.926,13.184,27.832,31.738,-2.930,52.734,0
1580328476.930,11.719,29.297,30.273,0.977,62.500,0
1580328476.927,8.301,31.250,32.715,3.906,59.570,0
1580328476.931,9.277,32.715,32.715,5.859,62.012,0
1580328476.935,12.695,34.180,31.250,8.789,62.500,0
1580328476.939,13.184,32.227,32.227,9.277,66.895,0
1580328476.943,15.625,29.785,32.715,11.230,15.625,0
1580328476.947,17.090,31.738,34.668,14.160,-25.391,0
1580328476.951,12.207,30.762,35.645,13.184,-1.465,0
1580328476.954,11.230,30.762,36.621,9.766,29.785,0
1580328476.958,9.766,33.203,32.227,4.883,80.078,0
1580328476.962,9.277,32.227,26.855,4.395,54.688,0
1580328476.966,10.254,31.738,28.320,5.371,37.109,0
1580328476.970,15.137,34.668,32.715,9.277,110.352,0
1580328476.987,23.438,33.691,36.133,17.578,81.543,0
1580328476.991,18.066,28.809,39.551,13.672,51.270,0
1580328476.995,12.207,29.297,41.992,6.348,33.203,0
1580328476.999,14.160,27.344,40.527,6.836,24.902,0
1580328477.003,16.113,25.879,35.645,7.812,15.137,0
1580328477.007,19.043,30.762,32.227,5.859,-31.250,0
1580328477.011,19.531,32.715,31.250,1.953,32.227,0
1580328477.014,22.461,34.180,29.785,3.418,58.594,0
1580328477.018,21.973,33.691,27.832,7.812,51.758,0
1580328477.022,19.531,31.738,28.809,8.789,64.941,0
1580328477.026,21.484,32.715,30.762,9.277,26.855,0
1580328477.030,20.996,31.250,30.273,9.766,28.809,0
1580328477.027,20.508,29.785,28.809,9.766,34.180,0
1580328477.031,18.555,30.273,30.762,10.254,45.898,0
1580328477.035,18.555,33.691,32.715,13.672,8.789,0
1580328477.039,19.043,34.668,31.738,11.719,25.879,0
1580328477.043,17.090,32.715,33.691,9.277,54.688,0
1580328477.047,15.625,32.227,32.715,9.766,34.668,0
1580328477.051,16.113,33.691,30.273,8.301,40.039,0
1580328477.054,15.625,33.203,30.273,8.789,40.039,0
1580328477.058,20.508,34.180,30.273,14.160,37.109,0
1580328477.062,24.414,35.645,29.297,8.789,31.738,0
1580328477.066,19.043,31.738,25.391,0.000,42.480,0
1580328477.070,11.719,29.297,24.902,5.371,41.992,0
1580328477.067,7.812,27.832,27.832,6.836,29.297,0
1580328477.071,9.277,28.809,32.227,3.906,-31.738,0
1580328477.075,10.742,28.809,31.250,4.883,-25.391,0
1580328477.079,13.672,30.273,28.809,7.812,29.785,0
1580328477.083,16.602,31.738,32.227,7.324,16.602,0
1580328477.087,18.066,31.250,29.785,1.465,-24.902,0
1580328477.091,20.020,30.762,23.926,-1.953,-35.645,0
1580328477.094,22.949,30.762,26.855,-7.324,53.711,0
1580328477.098,23.438,28.809,27.344,-10.742,50.781,0
1580328477.102,24.902,28.809,27.344,-4.395,27.344,0
1580328477.106,23.438,30.273,28.320,-0.977,30.762,0
