timestamps,TP9,AF7,AF8,TP10,Right AUX,Marker0
1579287258.050,44.922,-107.910,-490.234,20.996,64.453,0
1579287258.054,48.340,-101.562,-476.074,19.531,54.199,0
1579287258.058,41.016,-104.004,-448.242,13.184,67.871,0
1579287258.062,39.551,-113.281,-578.613,12.695,36.133,0
1579287258.066,41.992,-114.746,-620.605,17.578,-42.480,0
1579287258.070,40.527,-118.652,-749.512,16.602,45.410,0
1579287258.074,36.133,-119.141,-768.555,20.508,94.238,0
1579287258.077,23.926,-121.582,-688.477,19.531,29.297,0
1579287258.081,18.066,-127.930,-709.961,15.625,10.254,0
1579287258.085,14.160,-128.906,-723.145,16.113,23.926,0
1579287258.089,21.484,-135.742,-883.789,20.020,15.137,0
1579287258.093,31.738,-140.625,-872.070,20.996,-7.812,0
1579287258.090,20.996,-138.184,-600.098,17.090,10.254,0
1579287258.094,31.738,-129.883,-598.633,23.926,47.852,0
1579287258.098,41.504,-117.188,-724.609,30.762,17.578,0
1579287258.102,40.527,-115.234,-901.855,31.250,-15.137,0
1579287258.106,41.504,-113.281,-976.562,28.809,0.488,0
1579287258.110,30.273,-115.723,-962.402,21.973,-22.949,0
1579287258.114,21.484,-115.234,-968.750,27.832,12.695,0
1579287258.117,17.578,-111.816,-968.750,42.480,49.316,0
1579287258.121,9.277,-116.211,-968.750,46.387,65.430,0
1579287258.125,17.090,-111.328,-968.750,39.062,73.242,0
1579287258.129,32.715,-107.910,-968.750,38.086,15.625,0
1579287258.133,21.973,-114.258,-968.750,50.293,-3.418,0
1579287258.149,7.324,-113.281,-967.285,55.176,35.156,0
1579287258.153,11.230,-116.211,-963.867,53.223,26.367,0
1579287258.157,16.113,-115.723,-976.074,47.363,-17.578,0
1579287258.161,29.297,-108.887,-854.980,52.734,22.949,0
1579287258.165,28.809,-113.770,-717.285,49.805,20.996,0
1579287258.169,10.254,-115.234,-739.746,40.527,18.066,0
1579287258.173,7.812,-115.723,-834.961,42.480,57.129,0
1579287258.176,3.418,-119.629,-969.238,40.039,43.457,0
1579287258.180,17.090,-101.562,-842.773,60.547,50.781,0
1579287258.184,34.180,-77.637,-595.703,74.707,60.547,0
1579287258.188,47.363,-76.172,-486.328,79.102,46.875,0
1579287258.192,55.176,-81.055,-582.520,102.539,-7.324,0
1579287258.189,45.410,-75.195,-552.734,95.703,-5.371,0
1579287258.193,35.645,-64.453,-353.516,83.984,13.184,0
1579287258.197,50.781,-63.477,-348.633,83.984,36.621,0
1579287258.201,53.711,-62.988,-365.723,83.496,68.848,0
1579287258.205,48.340,-61.523,-412.109,73.242,43.457,0
1579287258.209,47.852,-59.082,-531.738,77.148,28.809,0
1579287258.213,48.828,-48.340,-504.883,81.055,9.277,0
1579287258.216,40.527,-42.969,-366.699,75.195,6.836,0
1579287258.220,41.992,-42.480,-289.062,81.055,8.789,0
1579287258.224,55.176,-39.062,-196.289,82.031,13.672,0
1579287258.228,52.734,-47.363,-456.055,76.660,43.945,0
1579287258.232,58.105,-48.828,-576.660,79.102,83.496,0
1579287258.229,59.570,-33.691,-220.703,85.938,70.801,0
1579287258.233,74.707,-30.273,-72.266,88.867,29.297,0
1579287258.237,78.613,-34.180,-85.938,82.031,-13.184,0
1579287258.241,70.801,-34.180,-117.676,78.125,56.641,0
1579287258.245,74.707,-28.809,-90.820,74.707,88.867,0
1579287258.249,62.988,-28.809,-166.016,71.777,38.574,0
1579287258.253,70.312,-24.902,-167.969,70.801,35.645,0
1579287258.256,88.867,2.930,23.926,93.750,-1.953,0
1579287258.260,101.562,12.695,-139.648,113.281,38.086,0
1579287258.264,103.027,1.465,-204.590,117.188,73.730,0
1579287258.268,98.633,1.465,145.996,122.070,-3.418,0
1579287258.272,89.844,-3.418,235.352,114.746,-25.391,0
1579287258.289,84.473,-8.789,244.141,102.051,10.742,0
1579287258.293,85.449,-18.066,127.441,107.422,-33.691,0
1579287258.297,86.426,-21.973,147.949,111.816,21.484,0
1579287258.301,88.379,-18.066,320.312,100.586,43.457,0
1579287258.305,87.891,-15.137,332.031,92.285,-8.789,0
1579287258.309,86.914,-12.207,266.113,102.051,-20.020,0
1579287258.313,71.777,-21.484,169.434,119.141,11.719,0
1579287258.316,84.473,-20.996,158.691,117.676,31.250,0
1579287258.320,86.426,-9.277,454.102,98.633,8.789,0
1579287258.324,70.801,-10.742,645.508,77.148,35.645,0
1579287258.328,77.637,-11.719,717.285,80.566,38.086,0
1579287258.332,83.496,-14.648,665.039,86.914,-3.906,0
1579287258.329,83.496,-5.371,707.520,77.637,44.434,0
1579287258.333,86.426,-4.395,866.699,66.895,72.754,0
1579287258.337,75.195,-14.160,861.816,62.500,-14.648,0
1579287258.341,72.266,-11.230,975.098,69.824,14.648,0
1579287258.345,75.684,-16.113,993.652,65.918,48.340,0
1579287258.349,66.895,-21.484,845.215,56.152,0.000,0
1579287258.353,57.617,-14.648,852.051,56.152,13.184,0
1579287258.356,62.500,-13.184,910.645,63.965,53.711,0
1579287258.360,77.148,-16.113,956.055,71.289,22.461,0
1579287258.364,68.848,-14.160,965.820,68.359,35.156,0
1579287258.368,63.965,-13.672,857.910,63.965,91.309,0
1579287258.372,74.707,-8.789,911.133,64.453,28.809,0
1579287258.369,84.961,-7.812,960.938,71.777,1.953,0
1579287258.373,87.891,-12.207,930.664,65.918,57.617,0
1579287258.377,81.055,-20.020,765.137,56.641,14.160,0
1579287258.381,77.637,-20.508,489.258,60.547,11.230,0
1579287258.385,82.520,-18.066,471.191,69.824,0.977,0
1579287258.389,82.520,-16.602,342.285,75.684,-37.598,0
1579287258.393,78.125,-12.207,155.273,73.242,-12.207,0
1579287258.396,75.195,-16.113,213.379,77.637,52.734,0
1579287258.400,71.777,-25.391,-20.020,80.078,46.875,0
1579287258.404,53.223,-29.297,-114.258,62.988,26.855,0
1579287258.408,43.457,-27.832,-38.086,63.965,54.199,0
1579287258.412,52.246,-24.414,-123.047,76.172,53.223,0
1579287258.429,53.711,-23.926,-96.680,70.801,75.195,0
1579287258.433,54.199,-32.715,-375.977,69.824,52.246,0
1579287258.437,50.293,-28.320,-519.531,62.500,33.691,0
1579287258.441,46.875,-18.066,-335.938,59.570,68.359,0
1579287258.445,57.129,-21.973,-345.215,68.848,87.402,0
1579287258.449,56.152,-27.344,-514.648,64.941,55.176,0
1579287258.453,57.129,-32.227,-844.238,57.129,-19.531,0
1579287258.456,73.730,-29.785,-897.461,61.523,-10.254,0
1579287258.460,66.895,-19.531,-681.641,71.777,23.926,0
1579287258.464,55.664,-20.020,-562.988,68.848,62.500,0
1579287258.468,61.035,-31.738,-679.199,64.941,47.852,0
1579287258.472,54.688,-35.645,-902.832,57.129,23.438,0
1579287258.469,37.598,-26.367,-812.012,56.641,72.266,0
1579287258.473,64.453,-30.762,-674.805,71.777,89.355,0
1579287258.477,78.125,-31.738,-701.172,65.430,75.684,0
1579287258.481,81.543,-25.391,-696.777,63.477,86.914,0
1579287258.485,91.309,-24.414,-817.383,65.430,52.734,0
1579287258.489,97.168,-24.902,-976.562,68.848,-43.457,0
1579287258.493,72.266,-21.973,-963.379,71.289,-71.289,0
1579287258.496,32.227,-18.555,-972.656,61.035,-58.594,0
1579287258.500,41.992,-16.113,-824.219,56.152,-11.719,0
1579287258.504,43.945,-20.020,-817.383,61.035,10.254,0
1579287258.508,45.898,-22.949,-910.645,62.988,0.000,0
1579287258.512,28.320,-21.973,-767.578,50.781,21.973,0
1579287258.509,17.090,-12.695,-719.727,60.059,35.645,0
1579287258.513,110.840,43.457,-776.367,141.113,35.645,0
1579287258.517,163.574,93.262,-881.348,197.754,30.762,0
1579287258.521,125.488,80.566,-962.891,162.598,-3.418,0
1579287258.525,124.023,56.641,-960.449,144.043,-11.719,0
1579287258.529,111.328,34.668,-958.984,138.184,6.348,0
1579287258.533,97.168,18.555,-971.191,129.395,31.250,0
1579287258.536,93.262,9.277,-967.773,123.047,27.344,0
1579287258.540,94.727,4.395,-968.750,124.512,13.184,0
1579287258.544,72.754,-16.113,-968.262,98.633,33.203,0
1579287258.548,131.836,57.129,-960.449,153.809,38.086,0
1579287258.552,355.469,262.207,-955.078,365.234,32.715,0
1579287258.569,378.418,287.598,-934.082,386.230,2.441,0
1579287258.573,272.461,192.871,-962.402,284.180,6.348,0
1579287258.577,225.098,140.625,-916.016,242.188,41.504,0
1579287258.581,179.688,103.027,-833.008,207.520,81.055,0
1579287258.585,146.973,73.242,-904.785,169.434,71.289,0
1579287258.589,127.930,50.781,-974.121,144.043,33.691,0
1579287258.593,121.582,27.832,-966.797,130.371,-24.902,0
1579287258.596,106.445,22.949,-967.285,113.281,-28.809,0
1579287258.600,102.051,20.996,-968.750,97.168,25.879,0
1579287258.604,102.539,8.789,-968.750,86.914,6.836,0
1579287258.608,83.984,5.859,-968.750,80.078,45.898,0
1579287258.612,72.754,-3.418,-968.262,77.637,6.348,0
1579287258.609,56.641,-12.207,-968.262,76.172,-41.504,0
1579287258.613,31.738,-16.113,-968.262,66.895,27.832,0
1579287258.617,34.668,-23.926,-968.262,64.453,36.133,0
1579287258.621,41.016,-25.879,-968.750,62.988,20.508,0
1579287258.625,44.922,-30.762,-968.750,59.082,27.832,0
1579287258.629,52.734,-39.551,-968.750,59.082,21.973,0
1579287258.633,47.363,-39.062,-968.750,53.223,-20.020,0
1579287258.636,45.898,-37.109,-968.750,49.316,-12.695,0
1579287258.640,50.293,-34.180,-968.750,53.223,22.461,0
1579287258.644,51.270,-41.504,-968.262,51.758,63.477,0
1579287258.648,40.039,-51.270,-968.262,42.969,51.758,0
1579287258.652,36.621,-44.434,-968.262,44.434,16.113,0
1579287258.651,40.527,-43.457,-968.262,53.223,-4.395,0
1579287258.655,50.781,-40.527,-968.750,59.082,11.230,0
1579287258.659,51.758,-37.598,-968.750,59.570,51.758,0
1579287258.663,46.387,-40.039,-968.750,58.105,43.457,0
1579287258.667,48.340,-38.574,-968.750,55.664,39.551,0
1579287258.671,48.340,-41.992,-968.262,45.898,41.504,0
1579287258.675,40.039,-42.480,-968.750,36.133,-6.836,0
1579287258.678,38.086,-38.574,-968.750,30.273,27.344,0
1579287258.682,41.504,-40.527,-968.750,26.855,63.477,0
1579287258.686,37.109,-33.203,-968.262,19.531,36.621,0
1579287258.690,36.621,-32.227,-968.750,16.602,-5.371,0
1579287258.694,24.414,-30.762,-968.262,12.207,12.695,0
1579287258.709,17.090,-29.297,-968.262,13.184,42.969,0
1579287258.713,26.855,-30.762,-968.262,19.043,36.133,0
1579287258.717,26.855,-25.879,-968.750,10.254,43.945,0
1579287258.721,17.090,-27.832,-968.750,-0.488,-27.344,0
1579287258.725,-6.836,-29.785,-968.750,-2.930,-25.391,0
1579287258.729,-12.207,-33.203,-968.750,-3.906,41.992,0
1579287258.733,-17.090,-32.715,-968.262,-18.555,-41.992,0
1579287258.736,-57.617,-31.738,-968.262,-57.617,-24.902,0
1579287258.740,-85.938,-32.227,-968.262,-82.520,2.441,0
1579287258.744,-89.355,-38.086,-968.262,-88.867,-1.953,0
1579287258.748,-100.098,-44.434,-968.750,-113.281,11.230,0
1579287258.752,-116.699,-45.410,-968.262,-133.789,12.207,0
1579287258.749,-128.418,-46.875,-968.750,-144.531,27.344,0
1579287258.753,-145.508,-47.852,-968.262,-159.180,48.828,0
1579287258.757,-156.738,-44.434,-968.262,-169.922,62.500,0
1579287258.761,-157.227,-41.504,-968.262,-171.387,13.184,0
1579287258.765,-159.668,-42.969,-968.262,-176.270,16.602,0
1579287258.769,-152.832,-41.504,-968.750,-176.270,61.523,0
1579287258.773,-139.648,-38.086,-968.262,-163.574,49.805,0
1579287258.776,-125.000,-34.180,-968.750,-156.738,23.438,0
1579287258.780,-111.328,-26.367,-968.750,-149.902,41.016,0
1579287258.784,-98.633,-31.738,-968.262,-132.812,102.051,0
1579287258.788,-83.984,-40.039,-968.262,-110.840,102.539,0
1579287258.792,-59.082,-32.227,-968.262,-82.031,63.477,0
1579287258.790,-32.227,-31.250,-968.750,-55.176,80.566,0
1579287258.794,-14.648,-37.109,-968.750,-34.668,68.359,0
1579287258.798,8.301,-35.156,-968.750,-8.301,66.895,0
1579287258.802,37.598,-33.203,-968.750,14.648,33.691,0
1579287258.806,60.059,-36.133,-968.262,27.832,10.254,0
1579287258.810,62.500,-35.156,-968.750,38.574,24.902,0
1579287258.814,90.820,-34.668,-963.867,59.082,43.945,0
1579287258.817,122.070,-33.691,-975.098,86.426,46.875,0
1579287258.821,125.977,-27.344,-924.316,94.238,63.965,0
1579287258.825,129.395,-20.020,-794.922,98.633,92.285,0
1579287258.829,129.395,-22.461,-689.941,109.375,106.445,0
1579287258.833,137.207,-21.484,-582.031,120.117,96.680,0
1579287258.849,142.090,-26.367,-681.641,126.465,37.109,0
1579287258.853,138.184,-29.785,-818.359,120.117,42.969,0
1579287258.857,132.324,-21.973,-619.629,116.211,56.152,0
1579287258.861,127.930,-18.555,-458.496,121.094,53.223,0
1579287258.865,125.488,-13.184,-407.227,119.141,49.316,0
1579287258.869,134.277,-10.742,-470.703,118.164,52.246,0
1579287258.873,139.160,-17.578,-794.434,116.211,34.668,0
1579287258.876,132.324,-8.301,-689.941,112.793,26.855,0
1579287258.880,131.348,-3.906,-263.672,115.234,36.133,0
1579287258.884,127.930,-16.113,-181.641,111.816,33.691,0
1579287258.888,117.188,-19.043,-175.293,108.398,80.078,0
1579287258.892,113.281,-19.531,-202.148,112.793,104.004,0
1579287258.889,118.164,-18.555,-146.973,115.234,61.035,0
1579287258.893,118.164,-19.531,-146.973,111.816,14.160,0
1579287258.897,118.164,-15.625,-163.086,102.051,14.160,0
1579287258.901,116.211,-11.230,-148.438,100.098,9.766,0
1579287258.905,126.465,-12.207,-160.156,107.910,27.344,0
1579287258.909,126.465,-15.137,-227.539,106.445,-2.930,0
1579287258.913,104.004,-18.555,-290.039,100.586,-14.160,0
1579287258.916,97.656,-14.160,-180.664,98.633,32.715,0
1579287258.920,98.145,-14.160,-20.020,94.727,13.672,0
1579287258.924,104.980,-28.809,-269.531,96.191,15.625,0
1579287258.928,111.328,-28.320,-437.988,95.215,0.977,0
1579287258.932,101.562,-15.137,-94.727,97.656,18.555,0
1579287258.930,101.562,-16.602,32.715,105.957,46.387,0
1579287258.934,106.445,-18.066,54.199,104.492,19.043,0
1579287258.938,106.934,-19.531,-63.965,100.586,0.977,0
1579287258.942,97.168,-12.207,-54.199,98.633,52.246,0
1579287258.946,95.215,-11.719,47.852,98.633,23.926,0
1579287258.950,100.098,-23.438,-92.285,92.773,-19.531,0
1579287258.954,90.332,-23.438,-13.672,80.078,45.410,0
1579287258.957,86.426,-25.391,-44.434,72.754,67.383,0
1579287258.961,82.520,-21.973,-110.352,69.336,25.879,0
1579287258.965,78.125,-13.672,138.672,66.895,-18.555,0
1579287258.969,73.730,-14.648,153.320,69.336,-23.438,0
1579287258.973,73.242,-13.672,129.395,71.289,6.836,0
1579287258.990,82.520,-13.672,23.438,75.195,48.340,0
1579287258.994,71.777,-15.137,-40.039,78.613,56.641,0
1579287258.998,59.082,-18.066,143.066,72.266,2.930,0
1579287259.002,62.012,-19.531,145.508,62.500,-34.180,0
1579287259.006,63.477,-15.137,186.523,63.965,15.625,0
1579287259.010,58.594,-21.973,95.703,62.500,52.246,0
1579287259.014,59.570,-25.879,-226.562,57.617,35.645,0
1579287259.017,69.336,-17.578,-83.496,56.152,29.785,0
1579287259.021,63.477,-13.672,202.637,53.711,53.223,0
1579287259.025,58.105,-11.719,270.996,62.012,78.125,0
1579287259.029,59.570,-17.090,218.750,64.941,61.035,0
1579287259.033,57.617,-18.555,128.418,60.547,38.574,0
1579287259.030,58.594,-15.137,217.285,56.152,72.266,0
1579287259.034,58.594,-18.555,191.895,58.594,52.246,0
1579287259.038,62.988,-15.137,210.449,63.965,35.156,0
1579287259.042,66.895,-17.578,119.141,62.500,27.344,0
1579287259.046,64.941,-20.020,-44.434,58.594,-2.441,0
1579287259.050,67.383,-19.531,-53.223,59.570,1.953,0
1579287259.054,67.871,-19.043,-109.375,67.383,-5.371,0
1579287259.057,66.406,-13.672,-99.609,69.336,-22.461,0
1579287259.061,58.594,-7.324,-21.973,63.965,-36.133,0
1579287259.065,57.617,-15.625,-305.176,57.617,22.949,0
1579287259.069,65.918,-14.648,-389.160,56.152,43.457,0
1579287259.073,70.801,-2.930,-75.195,59.570,21.973,0
1579287259.069,65.430,-4.395,-41.992,56.641,47.363,0
1579287259.073,65.918,-7.324,-79.590,51.270,68.359,0
1579287259.077,63.965,-6.836,-158.203,53.223,74.219,0
1579287259.081,62.988,-4.883,-174.316,56.152,29.297,0
1579287259.085,63.965,-2.930,-139.648,54.688,13.672,0
1579287259.089,53.223,-5.371,-333.008,51.270,5.371,0
1579287259.093,50.781,-5.859,-471.191,51.270,-53.223,0
1579287259.096,54.688,-10.254,-578.613,52.734,-35.645,0
1579287259.100,50.781,-7.324,-568.359,52.246,36.621,0
1579287259.104,51.270,0.977,-255.859,52.734,63.477,0
1579287259.108,52.734,0.488,-177.246,50.293,75.195,0
1579287259.112,55.176,1.465,-219.238,49.805,17.090,0
1579287259.129,60.059,0.977,-250.977,46.387,47.852,0
1579287259.133,53.223,-3.418,-272.461,38.086,74.707,0
1579287259.137,46.875,-0.977,-277.832,38.086,27.832,0
1579287259.141,50.781,4.395,-298.828,42.480,24.414,0
1579287259.145,49.316,1.953,-244.629,43.457,30.762,0
1579287259.149,46.875,-5.859,-444.824,44.922,66.895,0
1579287259.153,51.758,-11.230,-781.250,45.898,3.906,0
1579287259.156,55.664,-2.930,-541.016,47.363,0.977,0
1579287259.160,60.547,0.000,-319.336,49.805,43.945,0
1579287259.164,62.012,-3.906,-368.652,50.781,80.078,0
1579287259.168,61.523,-6.348,-503.906,46.875,83.496,0
1579287259.172,63.965,-7.812,-526.855,44.434,51.270,0
1579287259.170,55.664,-8.789,-394.043,50.293,70.312,0
1579287259.174,54.199,-10.254,-431.641,50.781,46.387,0
1579287259.178,57.129,-16.113,-589.355,46.387,-63.965,0
1579287259.182,54.688,-19.531,-687.012,50.293,-45.898,0
1579287259.186,61.523,-17.578,-685.547,58.105,-6.348,0
1579287259.190,60.059,-16.602,-690.918,60.547,-32.715,0
1579287259.194,50.293,-13.672,-701.172,51.270,46.875,0
1579287259.197,38.574,-10.742,-591.797,42.969,70.312,0
1579287259.201,43.457,-11.719,-526.855,45.898,101.074,0
1579287259.205,63.477,-11.230,-691.406,48.340,77.637,0
1579287259.209,47.852,-3.418,-653.320,43.457,28.809,0
1579287259.213,48.828,-6.348,-534.180,36.133,51.270,0
1579287259.209,61.035,-10.742,-604.004,37.109,38.574,0
1579287259.213,55.664,-10.742,-594.727,44.922,39.551,0
1579287259.217,58.594,-12.207,-663.086,44.434,43.945,0
1579287259.221,52.246,-8.789,-634.766,37.598,44.434,0
1579287259.225,45.410,-5.371,-547.852,37.598,20.020,0
1579287259.229,38.086,-9.277,-706.055,40.039,-28.809,0
1579287259.233,49.805,-9.766,-725.586,41.992,-1.953,0
1579287259.236,63.965,-16.113,-846.191,39.551,16.602,0
1579287259.240,48.340,-13.184,-901.855,35.156,15.625,0
1579287259.244,49.316,-2.930,-603.516,39.062,15.137,0
1579287259.248,44.922,-2.930,-456.055,44.434,18.066,0
1579287259.252,12.695,-5.371,-476.562,41.992,-4.395,0
1579287259.269,36.133,-11.719,-546.387,41.016,25.391,0
1579287259.273,68.848,-15.137,-480.957,41.992,64.941,0
1579287259.277,56.641,-19.531,-428.223,39.062,-0.488,0
1579287259.281,35.645,-17.090,-489.746,39.551,-7.324,0
1579287259.285,28.320,-13.184,-387.695,38.574,27.832,0
1579287259.289,42.480,-20.508,-553.223,38.574,21.973,0
1579287259.293,44.434,-17.578,-561.523,47.852,52.246,0
1579287259.296,41.016,-7.324,-135.742,48.828,114.746,0
1579287259.300,55.176,-5.859,-51.758,41.504,120.605,0
1579287259.304,48.828,-7.812,-11.230,43.457,97.168,0
1579287259.308,39.062,-10.742,-124.512,43.945,77.148,0
1579287259.312,42.480,-7.812,-220.703,43.457,32.715,0
1579287259.310,44.922,-6.836,-77.148,37.598,-9.766,0
1579287259.314,44.434,-12.695,-57.617,41.992,-4.883,0
1579287259.318,44.922,-12.207,22.949,58.105,18.555,0
1579287259.322,47.363,-5.859,9.766,55.176,15.625,0
1579287259.326,43.945,-7.324,13.184,49.316,39.551,0
1579287259.330,52.246,-11.719,-12.207,50.293,49.805,0
1579287259.334,54.199,-4.395,-79.102,49.805,69.824,0
1579287259.337,50.293,3.906,39.551,55.664,33.203,0
1579287259.341,72.266,-3.418,-59.570,61.035,-32.715,0
1579287259.345,67.383,-6.836,-238.281,53.711,-16.113,0
1579287259.349,57.129,0.488,-33.203,50.293,28.809,0
1579287259.353,61.523,0.977,104.492,53.711,39.062,0
1579287259.350,46.875,8.301,173.828,53.223,68.359,0
1579287259.354,41.992,2.441,65.430,53.711,46.875,0
1579287259.358,45.410,-8.301,-258.301,48.828,-15.137,0
1579287259.362,50.781,3.418,-117.676,45.410,21.973,0
1579287259.366,55.176,6.348,122.070,50.781,59.570,0
1579287259.370,52.246,0.488,-34.668,51.270,8.789,0
1579287259.374,54.688,1.953,0.000,52.246,45.410,0
1579287259.377,58.105,0.000,-74.219,44.434,109.863,0
1579287259.381,55.176,3.906,-119.629,42.969,29.297,0
1579287259.385,61.035,8.301,132.812,54.688,39.062,0
1579287259.389,61.035,7.324,194.336,50.293,86.914,0
1579287259.393,49.316,5.371,171.875,47.363,16.113,0
1579287259.409,34.180,7.324,163.574,45.898,-4.395,0
1579287259.413,41.992,9.766,210.449,36.621,-12.695,0
1579287259.417,45.410,4.883,217.285,37.109,-16.602,0
1579287259.421,49.316,3.418,249.512,54.688,32.715,0
1579287259.425,57.617,4.883,270.996,46.875,44.922,0
1579287259.429,49.805,2.930,116.211,34.668,37.109,0
1579287259.433,62.988,-4.395,-31.738,45.898,28.809,0
1579287259.436,58.594,-0.488,37.598,55.176,6.348,0
1579287259.440,48.828,3.906,141.113,45.898,11.230,0
1579287259.444,42.969,4.395,207.031,51.758,30.762,0
1579287259.448,42.480,0.977,-13.672,60.059,16.113,0
1579287259.452,57.129,-6.836,-154.785,54.199,71.777,0
1579287259.449,55.176,-4.395,-75.195,60.547,55.176,0
1579287259.453,52.246,2.441,-10.742,60.059,36.621,0
1579287259.457,47.363,0.000,65.430,52.246,70.801,0
1579287259.461,54.199,-9.277,-178.223,48.828,39.551,0
1579287259.465,56.641,-7.812,-322.266,52.246,-18.066,0
1579287259.469,56.641,-2.441,-264.160,69.824,-33.691,0
1579287259.473,58.594,-0.977,-311.523,70.312,-36.133,0
1579287259.476,52.246,5.371,-145.020,43.457,17.578,0
1579287259.480,59.082,-1.465,-270.996,53.711,65.430,0
1579287259.484,56.152,-10.742,-596.680,40.039,44.922,0
1579287259.488,43.457,-1.953,-403.809,18.066,68.848,0
1579287259.492,46.875,1.953,-270.996,61.035,79.102,0
1579287259.509,62.012,-3.418,-369.141,71.289,7.812,0
1579287259.513,63.477,0.000,-425.781,59.082,18.066,0
1579287259.517,58.105,1.465,-517.090,67.383,88.867,0
1579287259.521,66.406,1.465,-509.766,74.707,127.441,0
1579287259.525,61.523,-0.488,-572.754,47.363,48.828,0
1579287259.529,55.176,-2.441,-751.465,48.828,18.066,0
1579287259.533,41.504,0.000,-855.957,45.898,70.801,0
1579287259.536,34.180,-8.789,-960.938,34.180,29.785,0
1579287259.540,42.480,-1.953,-925.293,46.875,23.438,0
1579287259.544,49.316,11.230,-813.477,67.871,73.730,0
1579287259.548,34.180,9.766,-817.871,39.062,86.426,0
1579287259.552,28.809,5.859,-897.461,29.297,59.570,0
1579287259.549,41.992,0.977,-973.145,57.129,13.672,0
1579287259.553,32.227,5.859,-966.797,41.016,21.484,0
1579287259.557,20.996,5.859,-967.285,41.992,-9.766,0
1579287259.561,26.367,6.836,-969.238,45.410,40.039,0
1579287259.565,14.160,6.836,-968.750,33.691,69.336,0
1579287259.569,0.488,2.930,-968.262,23.438,40.039,0
1579287259.573,16.602,8.301,-968.750,29.297,76.172,0
1579287259.576,4.883,8.301,-968.750,18.555,18.066,0
1579287259.580,-14.648,6.836,-968.750,0.000,-23.438,0
1579287259.584,-5.859,14.648,-963.867,43.457,35.156,0
1579287259.588,3.906,6.348,-978.516,35.156,29.785,0
1579287259.592,6.836,6.348,-921.387,48.340,54.688,0
1579287259.589,9.277,17.090,-819.824,60.547,85.938,0
1579287259.593,6.836,13.184,-849.121,32.227,26.855,0
1579287259.597,6.348,16.602,-846.191,65.430,8.789,0
1579287259.601,8.301,16.113,-844.727,75.684,25.879,0
1579287259.605,7.324,10.742,-836.426,52.246,1.465,0
1579287259.609,0.977,7.812,-897.461,42.969,-5.371,0
1579287259.613,-8.301,6.348,-939.941,55.176,20.996,0
1579287259.616,-3.418,15.137,-710.938,51.758,61.035,0
1579287259.620,10.254,9.277,-782.227,57.129,89.844,0
1579287259.624,8.301,2.441,-951.660,76.172,110.840,0
1579287259.628,1.953,8.301,-839.355,69.336,66.406,0
1579287259.632,5.371,8.301,-818.359,74.219,21.973,0
1579287259.649,1.465,6.836,-875.488,69.336,22.461,0
1579287259.653,-6.836,1.465,-955.566,71.289,30.273,0
1579287259.657,-3.418,1.953,-969.727,85.938,44.922,0
1579287259.661,4.883,7.812,-971.191,82.031,13.184,0
1579287259.665,0.488,7.324,-916.992,54.199,24.414,0
1579287259.669,-5.859,5.859,-907.227,36.621,23.926,0
1579287259.673,-8.301,4.883,-984.863,50.781,3.906,0
1579287259.676,-12.207,5.859,-911.133,49.805,62.988,0
1579287259.680,-11.719,8.789,-738.770,34.668,62.988,0
1579287259.684,-12.207,4.395,-697.266,29.785,11.719,0
1579287259.688,-8.789,2.441,-637.207,42.480,23.926,0
1579287259.692,-0.488,3.906,-683.594,58.105,39.551,0
1579287259.689,3.418,5.371,-737.305,69.336,62.988,0
1579287259.693,5.371,9.766,-523.926,63.965,35.645,0
1579287259.697,8.301,11.230,-463.867,48.340,-1.953,0
1579287259.701,15.137,12.207,-479.980,52.734,17.090,0
1579287259.705,12.695,13.184,-487.305,62.988,36.133,0
1579287259.709,15.137,11.719,-632.324,51.758,20.020,0
1579287259.713,29.297,12.695,-678.711,48.828,35.156,0
1579287259.716,25.391,14.648,-645.996,44.922,44.922,0
1579287259.720,16.602,16.602,-558.594,41.992,51.270,0
1579287259.724,25.879,17.090,-470.703,47.363,62.500,0
1579287259.728,24.414,6.348,-774.414,54.688,27.832,0
1579287259.732,4.395,6.348,-905.273,57.129,-2.441,0
1579287259.729,-5.371,15.137,-690.430,52.246,-27.832,0
1579287259.733,1.953,16.113,-562.500,50.781,32.715,0
1579287259.737,14.648,12.695,-615.234,60.059,64.941,0
1579287259.741,22.949,11.230,-750.000,54.688,55.664,0
1579287259.745,24.414,11.719,-704.590,42.480,51.270,0
1579287259.749,29.785,8.789,-735.840,41.016,77.637,0
1579287259.753,32.227,5.859,-874.023,49.316,44.922,0
1579287259.756,31.250,10.742,-887.695,51.758,0.977,0
1579287259.760,35.645,8.301,-881.348,51.758,76.660,0
1579287259.764,30.273,4.395,-968.262,45.410,67.871,0
1579287259.768,26.367,13.184,-919.922,49.316,3.906,0
1579287259.772,33.203,18.066,-873.047,63.477,49.805,0
1579287259.789,41.504,17.090,-932.617,65.430,87.402,0
1579287259.793,43.945,13.184,-970.703,69.336,41.992,0
1579287259.797,40.039,14.160,-966.797,67.383,0.977,0
1579287259.801,41.992,16.602,-968.262,65.918,10.742,0
1579287259.805,42.480,13.184,-968.750,67.383,14.648,0
1579287259.809,45.898,9.766,-968.262,70.312,11.230,0
1579287259.813,45.410,5.371,-968.750,78.613,6.348,0
1579287259.816,44.434,7.812,-968.750,77.148,35.156,0
1579287259.820,45.898,16.113,-968.750,65.918,-0.977,0
1579287259.824,40.039,19.043,-968.750,65.430,-13.672,0
1579287259.828,42.969,18.066,-968.750,63.477,16.602,0
1579287259.832,49.316,13.184,-968.262,61.035,-22.949,0
1579287259.829,50.293,13.672,-968.750,60.547,-25.879,0
1579287259.833,51.270,20.508,-968.750,57.617,-13.184,0
1579287259.837,55.176,20.996,-968.750,55.176,2.441,0
1579287259.841,58.594,20.508,-968.750,60.059,-10.742,0
1579287259.845,57.617,16.113,-968.750,61.035,-56.152,0
1579287259.849,56.152,11.230,-968.262,59.570,-28.809,0
1579287259.853,63.965,20.020,-968.262,66.895,53.223,0
1579287259.856,66.406,23.438,-968.750,67.871,107.422,0
1579287259.860,60.547,20.020,-968.262,67.383,115.234,0
1579287259.864,55.664,14.160,-968.262,65.918,45.410,0
1579287259.868,49.805,9.277,-968.750,64.453,-19.531,0
1579287259.872,45.898,14.648,-968.262,69.336,-24.902,0
1579287259.870,49.316,20.508,-968.262,70.312,92.285,0
1579287259.874,50.293,17.090,-968.750,63.965,136.230,0
1579287259.878,43.457,10.742,-968.750,65.918,25.879,0
1579287259.882,42.969,7.324,-968.262,68.848,4.395,0
1579287259.886,44.922,10.254,-968.262,67.383,-0.977,0
1579287259.890,44.922,9.277,-968.750,63.477,-19.043,0
1579287259.894,50.293,9.766,-968.750,61.035,-11.230,0
1579287259.897,49.805,15.137,-968.750,66.895,0.000,0
1579287259.901,33.691,15.137,-968.750,58.105,77.637,0
1579287259.905,29.297,20.508,-968.262,51.270,91.309,0
1579287259.909,38.086,30.762,-968.262,57.129,71.777,0
1579287259.913,46.387,39.551,-969.727,65.918,101.074,0
1579287259.929,56.152,48.340,-961.914,79.102,74.707,0
1579287259.933,67.871,53.223,-958.008,87.891,23.438,0
1579287259.937,79.590,62.012,-980.469,94.238,-10.742,0
1579287259.941,102.539,84.961,-914.062,115.234,20.508,0
1579287259.945,117.676,102.539,-779.785,139.160,48.828,0
1579287259.949,121.582,105.469,-808.105,147.461,51.270,0
1579287259.953,133.301,104.492,-915.039,146.484,68.359,0
1579287259.956,134.277,102.051,-961.914,136.719,2.441,0
1579287259.960,127.930,106.445,-730.469,131.348,23.438,0
1579287259.964,133.789,113.281,-531.738,142.090,49.316,0
1579287259.968,152.832,126.465,-494.629,165.039,31.250,0
1579287259.972,170.898,138.672,-544.922,180.664,71.777,0
1579287259.969,191.406,156.250,-528.809,199.219,71.289,0
1579287259.973,223.145,177.246,-483.887,229.980,27.344,0
1579287259.977,253.906,198.242,-505.371,251.465,43.457,0
1579287259.981,281.250,222.656,-416.016,267.578,23.438,0
1579287259.985,312.988,248.535,-458.984,296.875,7.324,0
1579287259.989,333.984,269.531,-498.535,321.289,40.527,0
1579287259.993,361.816,297.852,-438.965,349.609,39.551,0
1579287259.996,397.461,339.355,-425.293,386.230,-6.836,0
1579287260.000,405.273,362.793,-273.926,403.809,-7.812,0
1579287260.004,404.297,365.234,-206.055,414.551,66.895,0
1579287260.008,375.000,336.914,-479.980,386.230,57.129,0
1579287260.012,309.570,285.645,-343.750,323.242,75.684,0
1579287260.010,255.859,229.004,-157.715,270.996,61.523,0
1579287260.014,219.238,186.523,-193.359,231.445,-8.789,0
1579287260.018,184.570,153.809,-116.699,198.242,91.797,0
1579287260.022,158.203,127.441,-123.047,167.480,128.418,0
1579287260.026,136.719,109.375,-187.012,145.508,40.527,0
1579287260.030,125.488,89.355,-297.852,136.230,8.301,0
1579287260.034,117.676,77.637,-238.770,121.582,29.785,0
1579287260.037,104.492,63.965,-276.855,104.980,-0.977,0
1579287260.041,89.355,50.293,-436.523,94.727,-31.250,0
1579287260.045,83.984,44.434,-319.824,83.496,-2.441,0
1579287260.049,77.637,32.715,-157.715,73.730,34.180,0
1579287260.053,59.570,18.555,-139.648,66.406,52.734,0
1579287260.070,49.316,8.301,-106.445,59.570,97.656,0
1579287260.074,48.828,-4.883,-342.285,48.340,93.262,0
1579287260.078,50.293,-6.836,-340.332,44.922,70.801,0
1579287260.082,50.293,-3.906,-125.000,46.875,37.598,0
1579287260.086,53.223,-7.324,-153.320,41.016,18.066,0
1579287260.090,65.430,-12.695,-253.906,47.363,33.691,0
1579287260.094,59.082,-29.297,-480.469,52.246,51.758,0
1579287260.097,34.180,-36.133,-578.613,33.203,8.301,0
1579287260.101,28.320,-29.297,-297.852,26.855,40.039,0
1579287260.105,31.250,-27.344,-156.738,30.762,83.496,0
1579287260.109,21.484,-27.344,-232.910,28.320,25.391,0
1579287260.113,12.207,-35.156,-366.211,30.762,-6.836,0
1579287260.110,5.859,-41.016,-389.160,24.902,20.508,0
1579287260.114,-0.977,-42.969,-378.906,14.648,17.578,0
1579287260.118,-2.441,-43.945,-421.875,13.672,30.762,0
1579287260.122,-4.883,-46.387,-421.875,13.184,20.996,0
1579287260.126,-9.766,-54.199,-532.227,14.648,0.488,0
1579287260.130,-18.066,-61.035,-698.730,12.207,-8.301,0
1579287260.134,-23.926,-60.059,-676.758,5.859,49.805,0
1579287260.137,-28.320,-59.082,-611.816,6.348,32.227,0
1579287260.141,-35.645,-58.594,-439.453,6.836,-4.395,0
1579287260.145,-45.410,-65.430,-478.516,0.000,65.918,0
1579287260.149,-57.617,-75.684,-673.828,-8.789,108.398,0
1579287260.153,-59.570,-70.312,-574.219,-10.742,51.758,0
1579287260.150,-51.270,-59.082,-443.359,-5.859,15.625,0
1579287260.154,-43.945,-47.363,-341.797,3.906,31.738,0
1579287260.158,-46.875,-50.293,-498.047,5.859,4.395,0
1579287260.162,-46.387,-50.781,-672.363,8.789,-16.113,0
1579287260.166,-46.387,-41.992,-471.191,16.113,-33.203,0
1579287260.170,-50.293,-47.852,-526.367,14.648,-25.879,0
1579287260.174,-59.082,-51.270,-591.309,4.395,1.953,0
1579287260.177,-68.848,-52.246,-526.367,1.953,-0.488,0
1579287260.181,-65.430,-62.012,-797.852,1.465,46.875,0
1579287260.185,-64.453,-58.594,-734.375,-2.930,54.688,0
1579287260.189,-71.777,-52.246,-425.781,-2.930,45.410,0
1579287260.193,-82.031,-58.105,-413.086,-4.883,65.918,0
1579287260.210,-88.867,-61.523,-409.668,-7.812,94.238,0
1579287260.214,-84.473,-62.500,-552.246,-8.301,70.801,0
1579287260.218,-82.520,-65.430,-631.836,-12.695,0.488,0
1579287260.222,-86.426,-65.918,-559.082,-17.090,1.465,0
1579287260.226,-81.543,-62.012,-528.320,-11.230,24.902,0
1579287260.230,-79.102,-63.965,-596.191,-5.371,36.621,0
1579287260.234,-75.684,-71.777,-843.262,-6.348,40.527,0
1579287260.237,-69.336,-68.848,-865.723,-9.277,-3.418,0
1579287260.241,-68.848,-62.988,-610.352,-7.324,1.465,0
1579287260.245,-68.848,-65.430,-506.348,-2.930,42.480,0
1579287260.249,-71.289,-66.895,-537.598,-7.324,17.578,0
1579287260.253,-75.195,-66.406,-677.734,-16.113,-3.418,0
1579287260.250,-72.754,-60.059,-656.250,-15.625,17.090,0
1579287260.254,-68.359,-56.641,-560.547,-11.230,32.715,0
1579287260.258,-62.012,-59.082,-504.883,-4.883,79.590,0
1579287260.262,-46.875,-56.152,-527.344,-2.441,59.570,0
1579287260.266,-36.133,-55.664,-722.168,-0.977,-0.488,0
1579287260.270,-32.715,-54.688,-779.785,2.441,42.969,0
1579287260.274,-32.227,-49.805,-692.871,0.488,97.656,0
1579287260.277,-34.668,-50.293,-677.734,-1.953,72.266,0
1579287260.281,-37.109,-50.293,-581.543,-6.836,47.852,0
1579287260.285,-41.504,-53.223,-750.000,-5.371,46.387,0
1579287260.289,-43.457,-51.758,-904.297,0.977,61.035,0
1579287260.293,-47.363,-44.434,-679.688,1.953,33.691,0
1579287260.290,-40.527,-41.016,-666.504,2.441,-36.133,0
1579287260.294,-32.715,-40.039,-705.566,3.418,-51.270,0
1579287260.298,-28.809,-43.945,-792.969,5.859,-67.383,0
1579287260.302,-28.320,-40.527,-775.879,6.348,-30.762,0
1579287260.306,-23.926,-39.551,-695.312,4.883,-17.578,0
1579287260.310,-14.648,-44.922,-866.211,8.789,-37.109,0
1579287260.314,-22.949,-41.504,-799.805,9.766,25.879,0
1579287260.317,-33.691,-44.434,-762.207,15.137,62.988,0
1579287260.321,-29.297,-46.875,-963.379,20.508,45.898,0
1579287260.325,-31.738,-33.203,-867.676,4.883,20.020,0
1579287260.329,-43.457,-33.203,-728.027,-8.789,31.250,0
1579287260.333,-37.109,-36.133,-668.945,-0.977,72.754,0
1579287260.350,-33.203,-41.016,-791.504,0.000,33.691,0
1579287260.354,-33.203,-42.480,-920.898,-11.230,17.578,0
1579287260.358,-30.762,-37.598,-845.703,-13.184,38.574,0
1579287260.362,-38.574,-39.062,-755.859,-6.348,96.191,0
1579287260.366,-44.922,-39.551,-749.512,-5.859,118.652,0
1579287260.370,-41.992,-44.922,-916.992,-7.324,26.367,0
1579287260.374,-48.340,-46.875,-992.676,-2.441,-9.766,0
1579287260.377,-55.664,-37.598,-895.996,3.906,34.668,0
1579287260.381,-52.734,-30.762,-804.688,5.859,30.762,0
1579287260.385,-51.270,-32.227,-807.617,0.000,-1.465,0
1579287260.389,-47.363,-34.180,-915.527,2.441,4.883,0
1579287260.393,-44.922,-35.156,-923.828,7.324,33.203,0
1579287260.390,-45.898,-31.738,-727.539,7.812,84.961,0
1579287260.394,-42.969,-31.250,-677.734,6.348,74.707,0
1579287260.398,-35.645,-31.250,-664.062,5.859,112.305,0
1579287260.402,-24.902,-33.691,-663.086,8.301,91.797,0
1579287260.406,-9.766,-36.621,-741.211,11.719,25.879,0
1579287260.410,-2.930,-32.715,-840.332,10.742,-8.301,0
1579287260.414,-1.953,-32.227,-897.949,8.301,-7.812,0
1579287260.417,4.395,-28.320,-812.988,13.184,5.371,0
1579287260.421,16.602,-20.020,-643.066,22.949,6.348,0
1579287260.425,29.785,-25.391,-773.926,24.902,63.965,0
1579287260.429,40.527,-25.879,-914.551,16.602,83.008,0
1579287260.433,49.805,-17.578,-709.473,15.625,54.688,0
1579287260.430,53.711,-18.555,-604.980,21.484,78.125,0
1579287260.434,55.176,-20.020,-646.973,24.902,86.426,0
1579287260.438,59.082,-24.414,-758.301,22.461,46.875,0
1579287260.442,61.523,-26.855,-724.609,20.508,51.270,0
1579287260.446,64.453,-21.973,-612.793,22.461,48.340,0
1579287260.450,75.195,-14.160,-732.910,33.691,11.230,0
1579287260.454,83.008,-5.371,-738.281,39.551,15.625,0
1579287260.457,86.914,-8.789,-765.137,38.574,-4.883,0
1579287260.461,89.355,-8.301,-902.344,44.434,-25.391,0
1579287260.465,92.773,2.441,-582.031,49.805,19.043,0
1579287260.469,93.262,3.906,-351.074,47.852,73.730,0
1579287260.473,86.914,1.953,-360.840,44.922,64.453,0
1579287260.490,79.102,-3.906,-460.938,41.504,38.574,0
1579287260.494,68.359,-5.859,-476.562,41.016,35.156,0
1579287260.498,61.035,-4.395,-292.480,38.574,83.008,0
1579287260.502,53.711,-12.207,-370.605,33.691,82.520,0
1579287260.506,41.992,-16.113,-507.324,28.320,4.395,0
1579287260.510,34.180,-20.508,-575.195,27.832,4.883,0
1579287260.514,32.227,-19.531,-613.770,32.227,41.992,0
1579287260.517,34.668,-12.207,-471.191,33.691,-20.508,0
1579287260.521,38.086,-13.184,-447.266,33.203,-36.621,0
1579287260.525,40.527,-9.766,-375.977,36.621,23.438,0
1579287260.529,42.480,-7.324,-372.070,41.992,37.598,0
1579287260.533,44.922,-10.742,-614.258,38.574,-0.488,0
1579287260.530,41.016,-2.441,-540.039,33.203,22.949,0
1579287260.534,35.645,0.488,-398.438,35.645,38.086,0
1579287260.538,39.551,-3.418,-417.969,41.504,-13.184,0
1579287260.542,35.645,-7.812,-444.824,39.062,-23.438,0
1579287260.546,23.438,-12.207,-508.789,32.227,32.715,0
1579287260.550,23.926,-9.766,-527.832,33.691,94.238,0
1579287260.554,24.902,-7.812,-584.473,36.621,101.074,0
1579287260.557,21.973,-5.859,-606.934,33.203,14.160,0
1579287260.561,24.414,-3.418,-449.219,31.738,11.230,0
1579287260.565,46.387,9.766,-721.680,53.711,8.301,0
1579287260.569,-1.465,-33.203,-847.656,5.859,5.371,0
1579287260.573,236.816,195.801,-506.836,232.910,3.418,0
1579287260.570,766.602,703.125,-345.703,748.535,-6.836,0
1579287260.574,814.453,770.020,-284.668,806.641,17.090,0
1579287260.578,624.023,592.285,-417.480,631.348,5.371,0
1579287260.582,494.629,464.844,-398.926,512.695,78.613,0
1579287260.586,378.418,352.051,-395.020,400.879,100.098,0
1579287260.590,289.551,260.742,-639.160,311.035,57.129,0
1579287260.594,229.492,195.801,-733.398,242.676,45.898,0
1579287260.597,186.523,145.996,-777.832,192.383,72.754,0
1579287260.601,146.973,113.281,-689.453,155.273,97.656,0
1579287260.605,118.652,85.938,-588.867,122.559,57.617,0
1579287260.609,98.145,56.641,-633.301,96.191,52.246,0
1579287260.613,78.613,42.480,-486.816,83.008,-16.602,0
1579287260.630,55.664,19.531,-553.711,69.336,-18.066,0
1579287260.634,40.039,0.000,-590.332,49.805,18.555,0
1579287260.638,35.645,-2.441,-319.336,38.086,37.598,0
1579287260.642,35.645,-10.254,-260.742,36.621,-9.766,0
1579287260.646,30.273,-18.555,-159.180,36.621,-13.672,0
1579287260.650,20.020,-32.715,-294.922,20.996,62.012,0
1579287260.654,17.090,-37.109,-409.668,3.906,98.633,0
1579287260.657,14.648,-33.691,-161.621,1.953,83.984,0
1579287260.661,6.348,-40.039,-156.250,-1.953,7.324,0
1579287260.665,-4.883,-41.016,-120.605,-8.301,16.602,0
1579287260.669,-15.625,-54.199,-234.863,-10.742,46.387,0
1579287260.673,-9.277,-62.012,-540.039,-4.883,19.043,0
1579287260.670,-3.418,-49.805,-458.008,-3.418,12.695,0
1579287260.674,-18.555,-50.781,-366.211,-21.973,14.160,0
1579287260.678,-22.461,-51.270,-294.922,-29.785,37.109,0
1579287260.682,-18.555,-55.176,-341.797,-26.855,43.457,0
1579287260.686,-15.137,-57.129,-472.168,-24.902,29.785,0
1579287260.690,-3.906,-44.434,-375.488,-12.207,59.570,0
1579287260.694,46.875,5.859,-312.012,36.133,113.281,0
1579287260.697,152.832,111.816,-245.117,140.137,76.172,0
1579287260.701,220.215,182.617,-60.059,216.797,51.758,0
1579287260.705,194.824,153.320,-301.758,197.266,39.551,0
1579287260.709,148.926,116.699,-349.121,148.926,6.836,0
1579287260.713,115.723,90.820,-41.992,110.840,53.223,0
1579287260.710,94.238,58.594,-76.172,87.402,45.898,0
1579287260.714,81.055,34.180,-122.559,73.242,54.688,0
1579287260.718,68.359,13.672,-252.930,57.129,36.621,0
1579287260.722,59.570,-1.465,-377.441,41.504,20.508,0
1579287260.726,62.500,-14.160,-445.801,30.273,30.273,0
1579287260.730,62.500,-21.973,-478.516,25.391,56.152,0
1579287260.734,57.129,-30.762,-571.289,19.043,35.156,0
1579287260.737,55.176,-41.504,-829.590,6.348,25.391,0
1579287260.741,76.660,-18.555,-872.070,23.926,63.965,0
1579287260.745,98.145,12.695,-627.930,54.199,37.598,0
1579287260.749,89.355,2.930,-618.652,47.363,0.488,0
1579287260.753,74.219,-8.789,-674.805,30.273,34.668,0
1579287260.770,68.848,-14.160,-819.336,26.855,88.867,0
1579287260.774,69.336,-15.137,-906.738,29.297,99.121,0
1579287260.778,69.824,-11.719,-895.996,31.250,87.891,0
1579287260.782,73.242,-11.719,-965.820,29.297,31.250,0
1579287260.786,80.566,-6.836,-970.703,33.203,18.555,0
1579287260.790,99.121,1.465,-966.309,47.363,54.199,0
1579287260.794,107.910,8.301,-969.238,56.641,38.086,0
1579287260.797,103.027,8.301,-968.750,51.270,-7.812,0
1579287260.801,102.539,2.930,-968.750,41.016,4.395,0
1579287260.805,104.004,1.953,-968.750,42.480,14.160,0
1579287260.809,90.332,-2.441,-968.750,50.293,17.578,0
1579287260.813,81.055,0.977,-968.750,52.734,-10.742,0
1579287260.810,83.008,11.230,-968.750,52.734,-6.348,0
1579287260.814,82.520,10.254,-968.262,51.270,-19.043,0
1579287260.818,77.637,6.836,-968.750,54.199,-22.461,0
1579287260.822,80.078,5.859,-968.750,56.152,47.363,0
1579287260.826,88.379,9.277,-968.262,49.805,48.340,0
1579287260.830,87.402,13.672,-968.750,50.781,38.086,0
1579287260.834,86.914,17.090,-968.750,57.617,65.918,0
1579287260.837,85.449,17.578,-968.750,56.641,-6.348,0
1579287260.841,82.520,9.766,-968.750,52.246,-60.059,0
1579287260.845,75.195,-0.977,-968.750,46.387,-53.711,0
1579287260.849,70.312,-1.465,-968.750,41.992,-40.527,0
1579287260.853,63.477,-5.859,-968.750,39.062,41.992,0
1579287260.857,49.805,-16.602,-968.262,29.297,30.762,0
1579287260.861,48.340,-24.414,-968.262,14.648,11.230,0
1579287260.865,48.828,-31.738,-971.191,6.836,16.602,0
1579287260.869,37.109,-32.715,-957.031,1.465,4.395,0
1579287260.873,29.297,-35.156,-956.543,-4.883,-25.391,0
1579287260.877,29.297,-42.480,-971.191,-6.836,27.344,0
1579287260.881,27.344,-47.363,-964.355,-7.812,114.258,0
1579287260.884,29.785,-57.129,-971.680,-8.789,98.145,0
1579287260.888,34.668,-55.176,-951.172,-5.371,43.945,0
1579287260.892,33.691,-47.852,-843.750,-4.395,61.035,0
1579287260.896,35.645,-50.781,-830.078,-3.906,59.570,0
1579287260.900,37.598,-49.805,-833.496,-5.859,50.781,0
1579287260.910,35.156,-52.246,-888.184,-9.277,73.730,0
1579287260.914,33.203,-52.734,-903.809,-12.695,66.406,0
1579287260.918,26.367,-51.270,-852.051,-22.461,63.965,0
1579287260.922,25.391,-51.758,-922.363,-22.461,-2.930,0
1579287260.926,27.344,-51.758,-914.062,-17.090,-52.734,0
1579287260.930,26.367,-55.176,-936.035,-17.090,-9.766,0
1579287260.934,27.832,-55.176,-974.609,-18.066,71.777,0
1579287260.937,30.273,-49.805,-894.531,-14.160,43.457,0
1579287260.941,31.250,-45.410,-759.277,-3.906,33.203,0
1579287260.945,30.273,-41.992,-601.074,-4.395,87.891,0
1579287260.949,29.785,-47.852,-778.809,-10.742,42.480,0
1579287260.953,39.551,-44.434,-895.996,-7.324,35.156,0
1579287260.950,41.992,-33.691,-591.797,-2.441,67.383,0
1579287260.954,30.762,-32.715,-431.152,-7.324,84.473,0
1579287260.958,29.785,-34.668,-418.945,-10.742,80.566,0
1579287260.962,28.320,-40.039,-588.867,-14.160,43.945,0
1579287260.966,22.949,-37.109,-579.102,-11.230,36.133,0
1579287260.970,19.043,-35.645,-586.426,-7.324,-30.762,0
1579287260.974,12.695,-34.668,-600.098,-14.160,-11.230,0
1579287260.977,11.719,-28.809,-350.098,-19.043,60.547,0
1579287260.981,13.184,-33.203,-409.180,-18.555,39.062,0
1579287260.985,16.602,-39.551,-662.109,-16.113,22.461,0
1579287260.989,15.137,-34.180,-447.266,-11.719,32.227,0
1579287260.993,16.113,-32.715,-264.160,-10.254,35.156,0
1579287261.010,24.902,-31.738,-271.484,-11.719,19.531,0
1579287261.014,29.785,-32.715,-278.320,-11.719,39.551,0
1579287261.018,33.203,-32.715,-273.926,-7.324,79.102,0
1579287261.022,37.598,-29.297,-223.145,-4.883,48.828,0
1579287261.026,40.527,-29.785,-282.715,-3.906,21.973,0
1579287261.030,37.598,-29.297,-431.641,0.000,-10.254,0
1579287261.034,33.203,-28.809,-475.586,6.348,-25.391,0
1579287261.037,31.738,-32.227,-600.586,7.812,12.207,0
1579287261.041,28.809,-27.344,-501.465,5.859,20.020,0
1579287261.045,25.879,-20.996,-189.453,6.348,49.805,0
1579287261.049,28.809,-24.414,-153.320,10.254,58.594,0
1579287261.053,32.715,-29.785,-201.660,17.578,60.547,0
1579287261.051,31.250,-31.738,-342.773,17.090,70.312,0
1579287261.055,30.762,-28.809,-422.852,17.090,4.395,0
1579287261.059,28.809,-30.273,-406.250,20.996,9.766,0
1579287261.063,31.738,-30.273,-403.320,19.531,63.965,0
1579287261.067,32.227,-29.297,-497.559,11.230,45.410,0
1579287261.071,27.344,-33.691,-790.527,2.930,-1.953,0
1579287261.075,26.855,-34.180,-880.371,-1.953,21.484,0
1579287261.078,29.297,-31.250,-724.121,-3.906,73.730,0
1579287261.082,30.762,-32.715,-836.914,-10.254,69.336,0
1579287261.086,27.344,-34.180,-970.703,-20.508,49.316,0
1579287261.090,34.180,-35.156,-970.215,-18.066,-14.160,0
1579287261.094,40.039,-31.738,-947.266,-10.254,9.277,0
1579287261.090,41.992,-24.414,-892.090,-4.883,38.086,0
1579287261.094,47.363,-22.461,-899.414,-3.418,15.137,0
1579287261.098,52.246,-20.020,-880.371,0.977,9.277,0
1579287261.102,57.129,-22.461,-916.016,10.254,-5.371,0
1579287261.106,52.734,-19.531,-895.508,12.695,9.277,0
1579287261.110,44.922,-20.996,-865.723,10.742,22.949,0
1579287261.114,46.387,-25.391,-970.703,7.812,-18.066,0
1579287261.117,45.410,-19.043,-774.902,6.348,-19.531,0
1579287261.121,43.945,-23.926,-725.586,11.719,13.672,0
1579287261.125,47.363,-32.715,-985.840,8.789,0.488,0
1579287261.129,44.922,-23.926,-728.516,7.324,39.551,0
1579287261.133,43.945,-19.043,-489.746,14.648,67.871,0
1579287261.150,44.922,-20.996,-424.316,16.602,94.238,0
1579287261.154,41.992,-21.484,-413.574,8.789,53.223,0
1579287261.158,38.086,-20.020,-479.980,2.930,-17.090,0
1579287261.162,37.598,-16.602,-271.484,7.812,72.754,0
1579287261.166,41.992,-16.602,-208.984,9.766,91.309,0
1579287261.170,45.898,-17.090,-344.238,10.254,49.805,0
1579287261.174,42.480,-21.484,-511.719,12.207,46.875,0
1579287261.177,45.898,-25.879,-676.758,13.672,71.777,0
1579287261.181,48.340,-19.043,-456.055,18.555,102.051,0
1579287261.185,41.504,-19.531,-273.926,20.020,45.898,0
1579287261.189,38.574,-20.996,-287.598,16.113,21.484,0
1579287261.193,39.062,-20.996,-320.801,18.555,28.809,0
1579287261.190,36.133,-19.531,-376.465,19.531,-4.883,0
1579287261.194,35.156,-13.184,-195.312,19.531,21.484,0
1579287261.198,38.574,-14.648,-199.707,23.438,66.406,0
1579287261.202,38.086,-14.648,-286.133,18.555,53.223,0
1579287261.206,39.551,-13.672,-170.898,15.625,63.965,0
1579287261.210,46.875,-18.066,-232.422,18.555,51.270,0
1579287261.214,50.293,-19.531,-302.734,16.602,26.367,0
1579287261.217,50.293,-15.625,-237.793,17.090,27.344,0
1579287261.221,46.387,-11.230,-111.328,23.926,29.785,0
1579287261.225,42.969,-11.230,54.688,30.273,67.871,0
1579287261.229,49.316,-19.043,-239.258,29.297,51.758,0
1579287261.233,51.270,-19.531,-321.289,23.926,87.402,0
1579287261.230,50.781,-10.742,5.371,25.391,92.285,0
1579287261.234,55.176,-10.254,74.707,33.203,72.266,0
1579287261.238,57.129,-12.695,97.168,35.156,70.312,0
1579287261.242,58.105,-14.648,25.391,36.133,87.891,0
1579287261.246,59.082,-14.160,-39.062,40.039,59.082,0
1579287261.250,61.523,-16.602,-168.945,43.945,-19.531,0
1579287261.254,58.594,-20.020,-241.211,43.945,5.371,0
1579287261.257,55.664,-19.043,-236.328,38.086,-21.484,0
1579287261.261,56.152,-23.438,-418.945,34.668,6.348,0
1579287261.265,55.176,-21.484,-490.234,35.645,48.340,0
1579287261.269,53.223,-11.719,-197.266,36.621,21.973,0
1579287261.273,52.734,-13.672,-146.484,33.203,-1.953,0
1579287261.290,54.688,-14.160,-180.664,31.250,33.203,0
1579287261.294,55.664,-15.137,-284.180,38.086,59.570,0
1579287261.298,56.641,-14.160,-422.852,42.480,-21.973,0
1579287261.302,55.664,-10.254,-397.461,37.109,-3.418,0
1579287261.306,55.176,-12.695,-531.250,23.926,-8.301,0
1579287261.310,58.105,-13.672,-731.934,14.648,32.715,0
1579287261.314,56.641,-17.578,-895.020,20.508,47.363,0
1579287261.317,56.152,-11.230,-927.246,27.344,30.273,0
1579287261.321,57.617,-4.883,-908.691,30.273,14.648,0
1579287261.325,52.734,-11.230,-971.680,33.203,-25.391,0
1579287261.329,44.434,-9.277,-969.238,31.250,7.324,0
1579287261.333,39.062,-11.230,-967.285,32.227,-7.324,0
1579287261.330,35.645,-14.160,-968.750,23.926,-8.789,0
1579287261.334,28.809,-7.324,-968.262,10.742,8.301,0
1579287261.338,26.367,-7.324,-968.262,17.578,-1.953,0
1579287261.342,26.855,-10.742,-968.262,22.461,21.973,0
1579287261.346,29.785,-12.695,-968.262,21.973,37.109,0
1579287261.350,29.297,-15.137,-968.262,25.391,10.742,0
1579287261.354,30.273,-11.719,-968.750,26.855,40.039,0
1579287261.357,31.738,-9.277,-968.750,33.691,23.438,0
1579287261.361,28.320,-9.277,-968.262,39.062,40.039,0
1579287261.365,33.203,-6.348,-968.750,39.062,27.832,0
1579287261.369,39.062,-9.277,-968.750,38.574,-13.672,0
1579287261.373,39.062,-4.883,-968.262,39.062,35.156,0
1579287261.370,36.621,1.465,-968.750,41.992,35.645,0
1579287261.374,39.062,-3.418,-968.750,38.574,-23.438,0
1579287261.378,45.410,-5.859,-968.262,33.691,1.953,0
1579287261.382,45.898,-6.836,-968.750,33.691,23.438,0
1579287261.386,46.875,-4.395,-968.262,34.180,35.156,0
1579287261.390,44.434,-9.766,-968.750,34.668,39.551,0
1579287261.394,44.434,-14.160,-968.750,37.109,-23.438,0
1579287261.397,46.387,-8.301,-968.262,47.363,-42.480,0
1579287261.401,45.898,-13.672,-968.262,48.828,13.672,0
1579287261.405,50.293,-15.625,-968.750,39.062,6.348,0
1579287261.409,51.270,-4.883,-968.262,34.180,40.527,0
1579287261.413,46.387,-6.348,-968.750,35.645,52.246,0
1579287261.430,41.016,-8.301,-968.750,37.598,-19.043,0
1579287261.434,35.645,-10.742,-968.750,33.203,32.715,0
1579287261.438,30.273,-13.184,-968.750,24.414,76.172,0
1579287261.442,28.809,-12.207,-968.750,23.438,1.465,0
1579287261.446,23.926,-11.719,-968.750,27.344,12.207,0
1579287261.450,24.902,-12.695,-968.262,31.738,72.754,0
1579287261.454,32.227,-16.602,-968.262,30.762,68.848,0
1579287261.457,44.922,-9.277,-968.750,38.574,41.016,0
1579287261.461,51.758,-5.371,-968.750,56.641,27.832,0
1579287261.465,34.668,-10.742,-968.262,47.363,23.438,0
1579287261.469,20.996,-10.254,-968.262,35.156,21.484,0
1579287261.473,27.344,-15.625,-968.750,41.504,67.383,0
1579287261.470,34.180,-18.555,-968.262,42.969,46.387,0
1579287261.474,37.598,-15.625,-968.262,44.922,-16.113,0
1579287261.478,35.645,-16.602,-968.750,45.898,6.348,0
1579287261.482,35.156,-16.113,-968.262,46.387,20.020,0
1579287261.486,40.527,-16.602,-968.262,52.734,43.945,0
1579287261.490,43.945,-19.531,-968.750,55.664,41.992,0
1579287261.494,46.387,-20.020,-968.262,55.176,14.160,0
1579287261.497,41.992,-17.090,-969.238,49.805,5.371,0
1579287261.501,39.062,-12.207,-968.262,46.387,52.246,0
1579287261.505,43.945,-17.090,-954.590,47.852,67.871,0
1579287261.509,45.898,-24.902,-971.191,48.828,11.230,0
1579287261.513,43.945,-17.578,-928.711,44.434,20.508,0
1579287261.510,44.922,-12.207,-800.781,45.410,51.270,0
1579287261.514,49.805,-12.695,-717.285,51.270,11.719,0
1579287261.518,52.246,-15.137,-725.098,53.223,-12.207,0
1579287261.522,51.758,-15.137,-687.012,52.246,53.711,0
1579287261.526,50.293,-14.648,-575.684,47.852,54.688,0
1579287261.530,50.781,-18.555,-600.098,44.434,87.891,0
1579287261.534,46.875,-15.137,-514.160,43.945,149.902,0
1579287261.537,42.480,-14.160,-396.484,38.086,104.492,0
1579287261.541,40.039,-26.855,-714.844,29.785,83.008,0
1579287261.545,40.527,-21.484,-759.766,34.180,40.527,0
1579287261.549,43.457,-9.277,-399.414,42.969,26.855,0
1579287261.553,44.922,-12.695,-309.570,46.875,48.828,0
1579287261.570,47.363,-16.113,-346.680,43.457,20.508,0
1579287261.574,51.270,-19.043,-447.266,42.480,-2.930,0
1579287261.578,55.176,-16.113,-424.805,47.363,-23.438,0
1579287261.582,51.758,-12.695,-260.254,44.922,60.547,0
1579287261.586,48.828,-15.625,-335.938,45.898,28.809,0
1579287261.590,46.387,-17.578,-479.980,46.875,25.879,0
1579287261.594,42.969,-20.996,-741.699,45.410,54.688,0
1579287261.597,43.457,-16.602,-829.102,46.387,-14.648,0
1579287261.601,42.969,-9.277,-529.297,50.781,-13.672,0
1579287261.605,45.898,-7.324,-480.957,49.805,-3.418,0
1579287261.609,49.805,-3.418,-557.617,52.734,29.785,0
1579287261.613,51.758,-2.930,-642.090,60.059,54.688,0
1579287261.610,47.363,-1.465,-541.504,59.082,89.844,0
1579287261.614,43.457,-2.930,-495.605,52.734,103.027,0
1579287261.618,44.434,-2.441,-616.699,51.758,49.316,0
1579287261.622,46.387,0.977,-654.297,49.316,5.371,0
1579287261.626,49.805,-0.488,-742.676,49.805,7.324,0
1579287261.630,50.781,-5.371,-924.805,48.828,-10.742,0
1579287261.634,52.246,-7.812,-958.984,43.945,-9.766,0
1579287261.637,56.641,-7.812,-874.023,46.875,15.137,0
1579287261.641,54.199,-1.465,-666.992,49.316,38.086,0
1579287261.645,52.734,-6.836,-728.516,42.969,57.617,0
1579287261.649,56.152,-14.160,-947.266,36.621,90.820,0
1579287261.653,60.547,-3.418,-790.527,43.945,55.664,0
1579287261.670,61.523,0.488,-604.492,51.270,29.785,0
1579287261.674,64.453,-1.465,-659.668,53.711,34.180,0
1579287261.678,64.453,-5.371,-807.129,54.688,61.523,0
1579287261.682,64.453,-4.395,-801.758,57.129,19.043,0
1579287261.686,68.359,1.465,-648.926,62.012,-25.391,0
1579287261.690,64.453,-2.930,-723.145,62.988,8.789,0
1579287261.694,59.082,-2.441,-761.230,59.082,25.879,0
1579287261.697,54.688,-2.441,-714.355,54.199,13.184,0
1579287261.701,54.199,-6.836,-857.910,56.641,-20.020,0
1579287261.705,51.270,-3.906,-715.332,53.711,11.719,0
1579287261.709,47.852,-3.418,-581.543,44.434,49.316,0
1579287261.713,50.781,-5.371,-572.754,40.039,75.684,0
1579287261.710,54.199,-5.371,-510.254,43.945,81.055,0
1579287261.714,53.223,-7.812,-749.023,47.363,43.457,0
1579287261.718,51.758,-4.883,-750.000,44.434,23.926,0
1579287261.722,55.664,-0.488,-532.227,45.410,8.301,0
1579287261.726,59.082,-3.418,-586.914,49.805,1.953,0
1579287261.730,58.105,-7.324,-640.137,52.246,20.996,0
1579287261.734,55.664,-8.301,-651.855,49.805,33.691,0
1579287261.737,51.270,-4.883,-566.406,45.898,20.020,0
1579287261.741,51.270,-3.906,-345.215,47.852,83.008,0
1579287261.745,56.641,-3.418,-296.387,50.293,63.965,0
1579287261.749,56.152,-0.977,-244.629,49.805,73.242,0
1579287261.753,56.152,-3.906,-402.344,46.875,112.305,0
1579287261.750,57.617,-1.953,-503.906,44.434,40.527,0
1579287261.754,51.758,1.953,-257.324,44.922,48.828,0
1579287261.758,49.316,-1.953,-223.145,44.434,21.484,0
1579287261.762,53.711,-2.930,-200.195,44.922,-34.180,0
1579287261.766,50.293,-8.301,-372.559,41.016,-10.254,0
1579287261.770,43.945,-10.254,-514.648,36.133,8.789,0
1579287261.774,40.527,-8.301,-312.500,33.203,-1.953,0
1579287261.777,43.457,-8.301,-296.387,31.250,-37.598,0
1579287261.781,44.434,-6.348,-233.887,29.297,-35.645,0
1579287261.785,44.922,-12.695,-285.156,23.438,-5.371,0
1579287261.789,47.363,-13.184,-422.852,23.926,-20.996,0
1579287261.793,46.387,-4.883,-116.211,29.297,22.949,0
1579287261.790,42.969,-9.277,-48.828,25.391,5.859,0
1579287261.794,40.527,-8.301,-16.113,28.809,20.996,0
1579287261.798,39.062,-13.184,-41.016,34.180,45.410,0
1579287261.802,39.062,-15.137,-43.945,35.645,43.457,0
1579287261.806,41.504,-9.277,82.031,41.992,29.785,0
1579287261.810,41.504,-12.695,-65.430,43.457,3.906,0
1579287261.814,38.574,-12.207,-43.457,45.898,56.641,0
1579287261.817,33.691,-12.207,24.902,43.945,75.684,0
1579287261.821,24.902,-19.043,-268.555,36.133,12.695,0
1579287261.825,17.090,-15.137,-151.367,32.227,13.184,0
1579287261.829,15.625,-14.160,18.066,34.668,30.762,0
1579287261.833,11.230,-17.578,-43.457,38.086,-13.184,0
1579287261.850,13.672,-16.602,-17.578,39.062,11.230,0
1579287261.854,19.043,-18.555,-68.848,40.039,64.941,0
1579287261.858,20.996,-14.648,-36.133,36.133,57.617,0
1579287261.862,26.855,-13.672,-67.871,33.691,11.230,0
1579287261.866,27.832,-12.695,-74.219,33.203,48.828,0
1579287261.870,24.414,-15.625,-264.160,26.855,54.688,0
1579287261.874,22.461,-20.020,-707.031,19.531,20.020,0
1579287261.877,25.391,-5.371,-713.867,16.602,26.855,0
1579287261.881,9.766,4.395,-509.766,-2.441,25.391,0
1579287261.885,-13.184,-2.930,-641.113,-22.949,13.184,0
1579287261.889,-20.508,-5.371,-858.398,-26.855,-9.766,0
1579287261.893,-39.062,-8.301,-972.168,-40.039,-32.715,0
1579287261.890,-61.035,-12.207,-964.844,-69.336,-29.297,0
1579287261.894,-76.660,-11.230,-966.309,-102.539,-21.973,0
1579287261.898,-96.191,-10.254,-969.238,-127.930,-0.977,0
1579287261.902,-120.605,-12.207,-968.262,-152.832,12.695,0
1579287261.906,-132.812,-18.066,-968.262,-164.551,4.395,0
1579287261.910,-138.672,-23.438,-968.750,-166.016,-2.441,0
1579287261.914,-139.160,-23.438,-968.750,-164.551,51.758,0
1579287261.917,-136.719,-19.531,-968.750,-154.785,91.309,0
1579287261.921,-131.348,-19.531,-968.262,-143.066,25.391,0
1579287261.925,-109.863,-23.438,-968.262,-125.488,-20.996,0
1579287261.929,-80.078,-18.555,-968.750,-105.957,-14.648,0
1579287261.933,-55.176,-12.695,-968.262,-83.496,19.531,0
1579287261.930,-33.203,-10.742,-968.750,-59.082,15.625,0
1579287261.934,-11.719,-7.812,-968.750,-41.504,63.477,0
1579287261.938,5.859,-17.578,-968.750,-25.391,46.387,0
1579287261.942,26.367,-18.555,-968.750,-7.812,22.461,0
1579287261.946,47.852,-10.742,-968.750,10.742,10.254,0
1579287261.950,64.453,-5.859,-969.238,37.109,24.414,0
1579287261.954,78.125,-2.930,-965.820,55.664,69.824,0
1579287261.957,78.613,-13.184,-967.773,52.246,44.434,0
1579287261.961,74.707,-15.625,-958.984,45.898,63.477,0
1579287261.965,85.938,-4.883,-821.777,51.758,79.102,0
1579287261.969,100.586,-4.395,-666.992,63.965,78.125,0
1579287261.973,105.957,-7.324,-637.695,61.523,43.945,0
1579287261.990,108.398,-9.277,-688.477,63.477,19.531,0
1579287261.994,114.258,-10.742,-654.785,73.242,1.953,0
1579287261.998,116.211,-10.742,-456.543,73.242,3.906,0
1579287262.002,119.141,-10.742,-363.770,73.730,21.484,0
1579287262.006,122.070,-8.301,-261.719,76.660,47.852,0
1579287262.010,116.211,-15.625,-284.668,81.055,71.777,0
1579287262.014,114.746,-23.438,-541.016,78.125,38.574,0
1579287262.017,115.234,-16.113,-419.434,74.219,41.016,0
1579287262.021,114.258,-11.230,-132.812,75.195,58.105,0
1579287262.025,111.816,-13.672,-18.066,74.707,59.570,0
1579287262.029,105.957,-18.555,19.043,70.801,76.660,0
1579287262.033,105.469,-23.926,-62.988,64.453,49.805,0
1579287262.030,104.004,-22.461,-52.734,60.059,6.348,0
1579287262.034,99.121,-22.949,-11.719,60.059,33.691,0
1579287262.038,97.168,-22.461,39.062,63.477,95.703,0
1579287262.042,88.867,-21.973,-19.531,67.383,90.820,0
1579287262.046,84.473,-22.461,-207.520,67.871,58.105,0
1579287262.050,88.379,-18.066,-306.152,74.707,39.062,0
1579287262.054,85.938,-19.043,-296.875,77.637,65.430,0
1579287262.057,85.449,-20.508,-198.730,67.871,103.516,0
1579287262.061,82.520,-18.066,-82.520,64.941,43.945,0
1579287262.065,82.520,-24.902,-366.699,63.965,12.207,0
1579287262.069,83.008,-25.391,-407.715,64.453,59.570,0
1579287262.073,76.172,-17.578,-29.297,73.242,23.438,0
1579287262.070,67.871,-17.090,52.734,71.289,16.113,0
1579287262.074,64.941,-18.555,83.496,62.988,43.945,0
1579287262.078,67.871,-19.043,52.246,63.965,41.992,0
1579287262.082,66.895,-17.090,95.215,66.406,28.320,0
1579287262.086,65.430,-16.602,218.262,64.453,73.242,0
1579287262.090,66.406,-22.949,22.949,59.570,75.684,0
1579287262.094,63.477,-21.973,-26.367,53.223,48.340,0
1579287262.097,58.594,-27.344,-124.023,46.387,35.156,0
1579287262.101,60.547,-29.785,-338.867,41.992,21.973,0
1579287262.105,55.176,-20.020,-106.934,37.109,39.062,0
1579287262.109,48.828,-19.043,-70.312,34.668,12.207,0
1579287262.113,53.711,-19.531,-68.848,39.551,25.879,0
1579287262.130,58.594,-24.414,-218.262,42.480,37.598,0
1579287262.134,56.152,-27.832,-440.430,41.992,-20.508,0
1579287262.138,57.617,-23.926,-362.305,44.922,-19.531,0
1579287262.142,53.223,-24.902,-299.805,47.852,45.410,0
1579287262.146,48.340,-25.879,-291.992,45.898,37.598,0
1579287262.150,55.664,-30.273,-496.582,41.992,54.688,0
1579287262.154,56.152,-32.715,-734.375,42.969,18.066,0
1579287262.157,50.781,-24.414,-500.488,43.457,-13.672,0
1579287262.161,46.875,-22.949,-297.852,42.480,14.648,0
1579287262.165,42.480,-25.391,-232.422,42.969,18.066,0
1579287262.169,44.922,-28.320,-269.531,41.504,59.570,0
1579287262.173,53.223,-29.785,-402.344,40.039,41.016,0
1579287262.173,51.270,-25.391,-205.078,38.574,9.766,0
1579287262.177,44.922,-26.367,-72.754,34.668,10.254,0
1579287262.181,41.016,-26.855,2.930,32.715,59.082,0
1579287262.185,41.504,-29.297,-50.781,36.621,53.223,0
1579287262.189,40.039,-33.691,-106.445,37.598,24.902,0
1579287262.193,43.945,-32.227,20.020,37.598,43.945,0
1579287262.197,52.734,-32.227,-7.324,37.109,45.898,0
1579287262.200,52.734,-29.785,26.855,34.668,40.039,0
1579287262.204,49.316,-27.344,210.938,39.062,44.434,0
1579287262.208,43.457,-33.691,38.574,40.527,92.773,0
1579287262.212,42.969,-31.250,-9.766,35.156,61.035,0
1579287262.216,44.434,-26.367,279.785,29.785,27.832,0
1579287262.210,42.969,-28.809,352.539,31.738,41.016,0
1579287262.214,38.574,-27.832,423.828,37.598,63.477,0
1579287262.218,34.668,-28.809,365.234,34.668,50.293,0
1579287262.222,33.691,-31.738,317.383,33.691,-18.555,0
1579287262.226,40.039,-31.738,416.504,45.898,15.625,0
1579287262.230,46.875,-24.902,374.023,53.711,62.500,0
1579287262.234,35.156,-23.438,324.707,39.551,33.203,0
1579287262.237,33.203,-33.203,176.758,24.902,51.270,0
1579287262.241,36.621,-32.227,127.930,23.438,33.691,0
1579287262.245,31.738,-23.438,466.309,25.391,-19.531,0
1579287262.249,24.414,-23.438,662.598,24.414,38.574,0
1579287262.253,19.043,-25.391,663.574,20.996,34.668,0
1579287262.270,22.461,-27.832,547.363,23.438,10.254,0
1579287262.274,24.414,-27.344,541.016,31.250,23.438,0
1579287262.278,27.832,-26.855,603.516,35.645,12.695,0
1579287262.282,35.156,-26.855,581.543,35.645,51.758,0
1579287262.286,32.715,-26.855,483.398,32.227,18.555,0
1579287262.290,26.367,-35.645,184.082,25.391,21.484,0
1579287262.294,26.855,-33.691,127.930,13.672,93.750,0
1579287262.297,32.227,-24.902,305.664,9.766,57.129,0
1579287262.301,36.621,-27.832,238.770,6.836,28.809,0
1579287262.305,38.574,-29.297,129.395,3.418,39.551,0
1579287262.309,47.363,-33.203,-119.141,14.160,57.617,0
1579287262.313,51.758,-33.203,-287.598,22.949,54.688,0
1579287262.310,50.781,-26.855,-254.395,25.879,-26.855,0
1579287262.314,48.828,-22.949,-265.137,35.645,17.578,0
1579287262.318,41.504,-25.879,-259.766,35.645,87.402,0
1579287262.322,32.715,-29.785,-416.504,25.879,55.664,0
1579287262.326,24.902,-28.320,-604.492,21.484,34.668,0
1579287262.330,24.414,-30.273,-778.809,15.625,34.668,0
1579287262.334,29.785,-30.273,-899.414,17.090,51.758,0
1579287262.337,33.203,-24.902,-902.832,25.391,19.043,0
1579287262.341,35.645,-27.344,-946.289,29.297,1.953,0
1579287262.345,37.598,-31.250,-969.727,30.273,27.832,0
1579287262.349,41.504,-24.414,-967.773,34.180,66.895,0
1579287262.353,41.992,-21.973,-968.262,34.668,79.102,0
1579287262.350,42.969,-20.996,-968.750,36.621,105.957,0
1579287262.354,47.852,-21.484,-968.750,42.480,81.055,0
1579287262.358,51.758,-22.461,-968.750,41.504,65.918,0
1579287262.362,48.340,-17.578,-968.750,42.480,83.008,0
1579287262.366,47.363,-16.113,-968.750,42.480,36.621,0
1579287262.370,49.805,-15.625,-967.773,42.480,-4.883,0
1579287262.374,44.922,-10.254,-966.797,40.039,31.250,0
1579287262.377,49.805,-5.371,-974.121,42.969,26.367,0
1579287262.381,63.965,-1.465,-926.270,51.270,32.715,0
1579287262.385,55.664,-7.324,-891.113,42.480,15.137,0
1579287262.389,47.852,-8.789,-897.461,38.086,5.371,0
1579287262.393,58.594,-6.348,-825.195,46.875,41.992,0
1579287262.410,61.035,-13.184,-887.695,49.805,56.152,0
1579287262.414,67.871,-2.930,-943.359,60.059,16.113,0
1579287262.418,76.172,7.324,-844.238,64.941,-6.836,0
1579287262.422,71.289,7.812,-821.777,62.988,25.391,0
1579287262.426,67.871,12.695,-664.062,64.453,12.207,0
1579287262.430,69.824,8.789,-743.164,59.082,55.176,0
1579287262.434,76.660,6.348,-846.191,57.617,56.152,0
1579287262.437,74.219,12.207,-544.434,50.781,22.461,0
1579287262.441,68.848,7.324,-354.004,48.340,103.027,0
1579287262.445,66.406,-1.465,-318.848,49.805,68.359,0
1579287262.449,63.477,-6.836,-476.562,43.457,-2.441,0
1579287262.453,62.500,-9.766,-475.098,40.039,14.648,0
1579287262.450,57.617,-10.254,-297.852,39.551,16.113,0
1579287262.454,51.270,-11.719,-212.891,33.203,28.320,0
1579287262.458,50.293,-13.184,-208.496,27.832,-20.508,0
1579287262.462,41.992,-15.625,-317.383,19.043,-36.621,0
1579287262.466,40.527,-14.160,-274.902,17.578,33.203,0
1579287262.470,44.922,-13.672,-275.879,25.391,11.230,0
1579287262.474,43.457,-15.137,-368.164,24.902,9.277,0
1579287262.477,45.410,-12.207,-192.871,24.902,70.312,0
1579287262.481,42.480,-20.508,-255.859,24.902,13.672,0
1579287262.485,42.480,-26.855,-526.855,23.926,11.230,0
1579287262.489,47.363,-18.555,-282.715,27.832,92.773,0
1579287262.493,44.922,-20.508,-161.133,27.832,23.438,0
1579287262.490,39.551,-21.973,-202.148,24.902,-3.418,0
1579287262.494,41.016,-20.020,-191.895,31.250,65.430,0
1579287262.498,43.457,-21.973,-297.852,34.668,41.992,0
1579287262.502,41.016,-19.043,-306.641,25.879,9.766,0
1579287262.506,39.551,-20.020,-369.629,21.484,13.184,0
1579287262.510,39.551,-21.484,-557.617,22.461,-10.254,0
1579287262.514,31.738,-19.043,-587.891,20.020,19.043,0
1579287262.517,29.785,-22.461,-769.531,13.184,52.734,0
1579287262.521,38.574,-20.020,-869.629,14.160,5.371,0
1579287262.525,37.598,-17.578,-743.164,22.461,-21.484,0
1579287262.529,27.832,-20.996,-754.883,24.902,-61.035,0
1579287262.533,26.855,-20.996,-718.262,30.762,-12.207,0
1579287262.550,34.180,-19.043,-795.410,35.156,77.148,0
1579287262.554,36.133,-16.602,-832.520,28.809,56.152,0
1579287262.558,38.086,-19.531,-844.727,29.297,-5.371,0
1579287262.562,41.504,-15.625,-822.754,31.250,26.855,0
1579287262.566,39.551,-14.160,-848.633,28.320,73.730,0
1579287262.570,34.180,-21.484,-950.195,29.297,53.711,0
1579287262.574,35.645,-21.973,-973.145,31.250,1.953,0
1579287262.577,36.133,-18.555,-964.844,27.344,3.906,0
1579287262.581,41.504,-17.578,-969.238,29.297,28.320,0
1579287262.585,44.922,-22.949,-968.750,35.156,25.391,0
1579287262.589,37.109,-28.320,-967.773,35.645,0.488,0
1579287262.593,29.785,-24.902,-964.844,32.715,26.855,0
1579287262.590,30.762,-22.949,-969.238,32.715,36.621,0
1579287262.594,31.738,-22.461,-910.645,37.109,55.664,0
1579287262.598,24.902,-27.832,-821.289,38.086,70.801,0
1579287262.602,32.715,-32.715,-894.043,39.551,43.457,0
1579287262.606,26.855,-29.297,-892.090,38.086,39.551,0
1579287262.610,16.113,-29.297,-795.898,30.762,42.480,0
1579287262.614,27.344,-26.855,-780.762,34.180,45.898,0
1579287262.617,32.227,-21.973,-555.176,36.621,-2.930,0
1579287262.621,31.250,-25.879,-490.723,37.598,22.461,0
1579287262.625,33.691,-27.832,-475.586,36.133,82.031,0
1579287262.629,33.203,-23.926,-213.867,31.738,40.039,0
1579287262.633,36.621,-22.461,-90.820,34.180,29.785,0
1579287262.650,38.086,-21.973,28.320,38.086,40.527,0
1579287262.654,41.992,-28.809,-97.168,39.062,-9.766,0
1579287262.658,46.387,-34.668,-334.961,32.715,-8.301,0
1579287262.662,44.434,-26.855,-152.344,32.715,-4.395,0
1579287262.666,45.410,-23.926,88.379,32.227,4.883,0
1579287262.670,45.410,-27.832,63.965,28.320,22.949,0
1579287262.674,41.992,-34.180,-35.156,25.879,41.992,0
1579287262.677,44.922,-37.598,-209.473,21.484,45.898,0
1579287262.681,47.363,-27.344,-7.812,22.949,25.879,0
1579287262.685,45.898,-24.902,269.531,26.855,12.207,0
1579287262.689,40.039,-28.809,269.531,21.484,-7.324,0
1579287262.693,36.621,-30.762,254.883,18.066,12.207,0
1579287262.690,37.598,-30.273,274.902,24.414,43.945,0
1579287262.694,39.551,-23.926,449.707,33.203,65.430,0
1579287262.698,46.387,-23.926,477.539,31.250,49.805,0
1579287262.702,48.828,-22.461,457.031,28.320,53.223,0
1579287262.706,46.875,-23.926,418.945,35.645,22.949,0
1579287262.710,45.410,-28.809,241.699,39.062,0.977,0
1579287262.714,46.387,-24.414,156.738,38.086,38.086,0
1579287262.717,44.922,-21.484,150.879,33.691,84.961,0
1579287262.721,38.574,-23.926,161.621,33.691,83.008,0
1579287262.725,40.527,-22.461,307.617,35.645,70.312,0
1579287262.729,44.434,-27.832,0.977,35.156,73.242,0
1579287262.733,45.410,-30.273,-253.418,33.203,20.996,0
1579287262.730,44.922,-23.926,31.250,34.668,27.832,0
1579287262.734,43.457,-22.461,131.348,42.480,87.402,0
1579287262.738,44.922,-24.414,80.566,39.551,59.082,0
1579287262.742,47.363,-29.297,-114.746,33.691,-10.742,0
1579287262.746,48.828,-28.320,-205.566,37.109,-54.688,0
1579287262.750,46.387,-28.809,-275.391,40.527,-45.898,0
1579287262.754,42.969,-28.320,-308.105,45.898,12.695,0
1579287262.757,42.480,-25.391,-161.133,45.410,39.062,0
1579287262.761,45.410,-32.227,-430.664,36.621,36.621,0
1579287262.765,48.828,-33.203,-679.688,38.086,15.137,0
1579287262.769,43.945,-23.926,-389.160,45.410,27.344,0
1579287262.773,42.969,-24.902,-361.816,45.410,34.668,0
1579287262.790,47.363,-26.855,-452.637,43.945,-32.227,0
1579287262.794,47.852,-24.414,-474.121,43.457,27.344,0
1579287262.798,44.434,-25.879,-453.613,46.387,92.285,0
1579287262.802,40.527,-26.367,-439.453,43.457,44.922,0
1579287262.806,43.945,-25.879,-513.672,41.016,51.270,0
1579287262.810,47.852,-30.762,-684.570,39.551,46.387,0
1579287262.814,40.039,-36.133,-865.234,33.691,-6.836,0
1579287262.817,38.574,-34.180,-954.102,34.668,-40.527,0
1579287262.821,38.574,-24.902,-830.566,30.273,2.441,0
1579287262.825,35.645,-24.902,-745.605,32.715,29.297,0
1579287262.829,39.062,-24.414,-706.055,41.504,50.293,0
1579287262.833,42.480,-23.926,-785.156,41.016,63.477,0
1579287262.830,41.992,-25.879,-872.559,39.062,67.383,0
1579287262.834,41.016,-22.949,-773.926,34.668,61.523,0
1579287262.838,39.062,-20.508,-752.441,33.691,65.918,0
1579287262.842,38.086,-17.090,-719.238,30.273,98.633,0
1579287262.846,40.039,-19.531,-803.223,28.320,77.148,0
1579287262.850,39.062,-24.902,-961.426,27.344,12.207,0
1579287262.854,35.645,-20.996,-978.027,25.879,12.695,0
1579287262.857,38.574,-16.602,-929.199,30.273,31.738,0
1579287262.861,42.969,-15.137,-867.188,34.668,50.293,0
1579287262.865,41.016,-17.090,-909.668,33.203,62.012,0
1579287262.869,41.504,-20.996,-969.727,35.156,40.039,0
1579287262.873,39.551,-19.531,-968.262,43.457,-20.508,0
1579287262.870,35.645,-19.531,-966.797,50.781,10.254,0
1579287262.874,36.133,-20.508,-968.750,46.387,51.758,0
1579287262.878,37.598,-24.902,-968.750,40.039,7.812,0
1579287262.882,37.598,-29.785,-968.262,38.574,-39.551,0
1579287262.886,37.109,-23.438,-968.750,40.527,19.043,0
1579287262.890,40.527,-22.461,-968.262,47.363,42.480,0
1579287262.894,40.527,-23.926,-968.262,43.457,-10.742,0
1579287262.897,39.551,-17.578,-968.750,46.387,-32.227,0
1579287262.901,43.457,-20.508,-968.750,52.734,-22.949,0
1579287262.905,48.340,-19.531,-968.262,45.898,-8.301,0
1579287262.909,50.781,-13.184,-968.262,44.434,31.738,0
1579287262.913,50.781,-17.090,-968.750,48.828,11.719,0
1579287262.930,48.828,-18.555,-968.750,48.828,6.348,0
1579287262.934,45.898,-20.020,-968.750,49.316,29.297,0
1579287262.938,41.992,-19.531,-966.309,46.875,1.465,0
1579287262.942,37.109,-19.531,-976.074,43.945,-47.852,0
1579287262.946,35.645,-20.996,-934.082,42.969,6.836,0
1579287262.950,33.691,-19.043,-929.199,40.039,48.340,0
1579287262.954,28.320,-23.926,-970.703,33.691,13.184,0
1579287262.957,35.156,-21.484,-975.586,29.785,-22.461,0
1579287262.961,41.504,-10.742,-886.719,30.762,4.883,0
1579287262.965,39.062,-8.789,-750.000,30.273,56.152,0
1579287262.969,40.039,-7.324,-721.191,29.785,33.691,0
1579287262.973,39.551,-10.254,-781.250,28.809,63.477,0
1579287262.970,41.992,-10.742,-771.484,30.762,81.055,0
1579287262.974,41.504,-10.254,-689.941,31.250,11.719,0
1579287262.978,37.109,-11.230,-653.809,30.273,39.551,0
1579287262.982,37.109,-9.766,-589.844,25.879,96.191,0
1579287262.986,35.156,-16.602,-701.172,21.973,31.738,0
1579287262.990,33.203,-20.996,-787.109,25.391,21.484,0
1579287262.994,37.598,-17.090,-691.895,28.320,72.754,0
1579287262.997,40.039,-17.578,-637.695,23.926,84.473,0
1579287263.001,43.945,-19.531,-606.934,19.043,39.062,0
1579287263.005,47.852,-19.043,-610.352,24.902,12.207,0
1579287263.009,45.898,-18.555,-650.391,28.320,55.176,0
1579287263.013,49.316,-15.137,-534.180,30.273,65.918,0
1579287263.010,49.316,-16.113,-501.465,27.832,35.156,0
1579287263.014,36.133,-16.602,-499.023,12.695,27.344,0
1579287263.018,37.598,-13.672,-511.719,14.648,6.836,0
1579287263.022,40.039,-17.090,-726.074,17.090,8.789,0
1579287263.026,37.109,-17.090,-681.152,12.207,40.039,0
1579287263.030,41.504,-16.113,-616.699,12.207,74.219,0
1579287263.034,39.062,-16.113,-643.555,10.742,35.645,0
1579287263.037,33.203,-16.602,-454.102,13.184,26.855,0
1579287263.041,34.180,-26.367,-716.797,15.137,32.227,0
1579287263.045,40.039,-23.438,-836.914,19.043,9.766,0
1579287263.049,42.969,-14.160,-477.539,25.391,49.316,0
1579287263.053,39.062,-15.137,-479.492,24.414,63.477,0
1579287263.070,40.527,-16.113,-549.316,17.090,-2.441,0
1579287263.074,41.992,-16.602,-607.910,16.602,-31.738,0
1579287263.078,39.062,-14.648,-540.039,20.996,40.039,0
1579287263.082,39.062,-15.625,-502.441,16.602,28.320,0
1579287263.086,31.250,-19.531,-607.422,11.719,-34.180,0
1579287263.090,28.809,-20.508,-673.828,17.578,9.766,0
1579287263.094,33.691,-25.391,-855.957,25.391,18.066,0
1579287263.097,30.762,-25.879,-842.285,28.809,-15.137,0
1579287263.101,31.738,-15.625,-553.223,29.785,10.254,0
1579287263.105,36.133,-13.672,-528.809,36.133,-17.090,0
1579287263.109,43.457,-13.184,-491.211,42.480,-10.254,0
1579287263.113,51.270,-12.695,-495.117,43.945,41.992,0
1579287263.110,50.293,-13.184,-465.332,41.504,57.129,0
1579287263.114,49.805,-13.672,-375.488,38.574,44.434,0
1579287263.118,51.758,-17.578,-540.527,38.086,-29.297,0
1579287263.122,50.781,-13.672,-429.688,37.598,-12.207,0
1579287263.126,53.223,-14.648,-316.895,42.480,70.801,0
1579287263.130,51.758,-18.555,-456.055,45.410,64.941,0
1579287263.134,48.828,-15.625,-462.891,45.410,61.035,0
1579287263.137,55.176,-14.160,-398.438,51.758,38.086,0
1579287263.141,59.570,-9.766,-239.258,57.617,-11.719,0
1579287263.145,56.641,-16.113,-284.180,54.688,13.672,0
1579287263.149,53.223,-21.484,-596.191,49.316,5.859,0
1579287263.153,52.246,-13.184,-373.535,48.340,43.945,0
1579287263.151,48.828,-11.230,-88.379,53.223,86.426,0
1579287263.155,42.969,-14.160,-71.289,52.246,81.055,0
1579287263.159,39.062,-20.020,-155.273,46.387,93.262,0
1579287263.163,39.551,-21.484,-250.000,46.387,57.617,0
1579287263.167,39.551,-20.508,-229.492,46.875,18.555,0
1579287263.171,35.156,-20.996,-302.246,42.969,49.805,0
1579287263.175,33.203,-17.578,-315.430,36.133,81.543,0
1579287263.178,34.180,-19.043,-332.520,33.203,62.500,0
1579287263.182,41.992,-24.414,-557.617,35.645,30.273,0
1579287263.186,44.922,-20.020,-465.820,33.203,0.488,0
1579287263.190,42.480,-16.113,-178.711,29.785,34.180,0
1579287263.194,45.898,-19.531,-220.215,31.250,61.523,0
1579287263.210,47.852,-23.438,-234.863,38.574,23.926,0
1579287263.214,49.316,-24.414,-270.996,46.875,15.625,0
1579287263.218,49.316,-21.973,-258.789,45.898,23.438,0
1579287263.222,49.316,-21.973,-286.133,41.992,-10.254,0
1579287263.226,53.711,-21.484,-303.223,47.363,-16.113,0
1579287263.230,56.641,-22.949,-362.305,49.316,32.227,0
1579287263.234,57.129,-23.438,-487.793,44.434,81.543,0
1579287263.237,54.688,-21.973,-479.004,41.504,75.195,0
1579287263.241,53.711,-22.949,-358.398,42.969,105.957,0
1579287263.245,54.688,-21.484,-235.840,41.992,125.488,0
1579287263.249,55.176,-18.066,-191.406,40.039,53.223,0
1579287263.253,51.270,-24.414,-510.254,34.180,5.371,0
1579287263.250,44.922,-20.996,-668.945,35.645,-13.184,0
1579287263.254,44.922,-9.766,-354.980,48.828,-27.832,0
1579287263.258,45.410,-13.672,-274.902,50.293,-10.254,0
1579287263.262,43.945,-17.090,-248.535,42.480,53.223,0
1579287263.266,44.434,-19.043,-367.188,42.969,61.523,0
1579287263.270,46.387,-17.578,-539.062,48.828,0.977,0
1579287263.274,52.246,-11.230,-513.184,54.199,20.996,0
1579287263.277,50.781,-13.184,-455.078,49.316,47.363,0
1579287263.281,41.504,-11.719,-348.145,42.480,21.484,0
1579287263.285,40.039,-14.648,-484.863,44.922,22.949,0
1579287263.289,47.363,-18.066,-739.258,50.293,46.387,0
1579287263.293,45.898,-9.277,-520.020,53.711,59.082,0
1579287263.290,39.551,-11.230,-414.062,49.805,28.809,0
1579287263.294,33.691,-12.695,-431.641,48.340,31.738,0
1579287263.298,29.785,-11.230,-478.027,53.223,54.688,0
1579287263.302,36.133,-8.789,-548.340,56.152,27.832,0
1579287263.306,40.527,-8.301,-478.027,53.711,37.109,0
1579287263.310,40.039,-15.137,-654.297,51.270,38.574,0
1579287263.314,41.992,-13.184,-662.109,54.199,35.156,0
1579287263.317,42.480,-14.648,-568.848,57.617,78.125,0
1579287263.321,44.434,-19.043,-756.836,56.152,28.320,0
1579287263.325,46.875,-15.137,-666.992,49.316,-17.578,0
1579287263.329,52.246,-15.137,-508.789,46.387,45.898,0
1579287263.333,53.711,-15.625,-434.082,47.852,87.402,0
1579287263.349,50.781,-18.555,-492.676,44.434,102.051,0
1579287263.353,49.316,-21.973,-796.387,36.133,53.711,0
1579287263.357,41.504,-15.625,-782.227,35.156,-0.488,0
1579287263.361,41.992,-11.719,-638.672,38.086,-1.465,0
1579287263.365,45.898,-14.648,-667.969,31.738,20.020,0
1579287263.369,37.109,-19.043,-854.492,26.367,18.066,0
1579287263.373,37.598,-21.484,-983.887,27.832,1.953,0
1579287263.376,42.969,-15.137,-947.266,27.832,-6.348,0
1579287263.380,40.039,-9.277,-844.727,26.367,31.738,0
1579287263.384,39.062,-12.207,-814.941,26.855,67.383,0
1579287263.388,38.574,-17.090,-906.738,24.414,20.020,0
1579287263.392,39.551,-18.066,-955.078,22.461,18.066,0
1579287263.390,40.039,-14.648,-968.262,22.461,-27.344,0
1579287263.394,38.574,-14.648,-965.820,20.508,-45.898,0
1579287263.398,39.551,-16.113,-974.609,20.020,28.809,0
1579287263.402,36.133,-16.113,-926.758,20.020,68.848,0
1579287263.406,35.156,-15.625,-924.805,22.461,83.984,0
1579287263.410,41.992,-15.137,-974.121,30.762,41.016,0
1579287263.414,43.945,-14.648,-964.844,31.738,9.277,0
1579287263.417,41.504,-17.090,-977.051,27.344,48.828,0
1579287263.421,30.762,-17.090,-915.039,21.484,24.414,0
1579287263.425,26.855,-22.461,-901.367,14.648,32.715,0
1579287263.429,29.785,-21.973,-973.633,8.789,60.547,0
1579287263.433,20.996,-20.996,-968.750,0.000,38.574,0
1579287263.430,8.301,-22.461,-966.797,-7.324,30.273,0
1579287263.434,-5.371,-17.578,-968.750,-17.090,30.762,0
1579287263.438,-30.762,-23.438,-968.750,-39.062,26.367,0
1579287263.442,-54.688,-23.438,-968.750,-59.082,4.395,0
1579287263.446,-83.008,-21.484,-968.750,-80.566,34.180,0
1579287263.450,-110.840,-28.320,-968.750,-107.910,102.539,0
1579287263.454,-122.559,-23.926,-968.750,-126.953,94.727,0
1579287263.457,-141.602,-21.973,-968.750,-148.438,65.430,0
1579287263.461,-164.551,-28.809,-968.262,-165.039,17.578,0
1579287263.465,-181.152,-24.902,-968.750,-175.293,35.156,0
1579287263.469,-185.059,-24.414,-968.750,-183.105,49.316,0
1579287263.473,-185.059,-23.926,-968.750,-193.848,40.039,0
1579287263.490,-182.617,-22.949,-968.750,-195.312,44.434,0
1579287263.494,-169.922,-18.555,-968.262,-182.129,13.672,0
1579287263.498,-161.621,-10.742,-968.750,-172.852,-62.012,0
1579287263.502,-156.250,-7.324,-968.750,-161.621,-6.348,0
1579287263.506,-133.789,-10.254,-968.750,-141.602,16.113,0
1579287263.510,-106.445,-15.137,-968.750,-107.910,8.789,0
1579287263.514,-84.473,-16.113,-963.867,-77.148,78.125,0
1579287263.517,-62.012,-13.184,-976.562,-60.547,17.578,0
1579287263.521,-34.180,-10.742,-930.664,-37.109,35.645,0
1579287263.525,2.441,-10.254,-820.312,-3.418,56.152,0
1579287263.529,33.691,-10.742,-863.281,21.484,21.484,0
1579287263.533,60.059,-8.789,-862.793,39.551,37.598,0
1579287263.530,83.496,-5.371,-728.027,55.664,7.324,0
1579287263.534,93.750,-2.930,-626.465,71.289,31.250,0
1579287263.538,100.098,-4.395,-558.105,84.961,48.340,0
1579287263.542,105.469,-5.859,-570.312,94.727,15.137,0
1579287263.546,110.840,-5.859,-691.895,102.539,-16.113,0
1579287263.550,117.188,-5.859,-717.773,111.328,30.273,0
1579287263.554,123.535,-5.859,-708.008,115.723,48.828,0
1579287263.557,133.789,-2.441,-658.691,116.211,39.551,0
1579287263.561,141.113,0.000,-535.645,118.164,51.270,0
1579287263.565,154.297,-2.441,-705.566,124.023,43.945,0
1579287263.569,162.598,-4.883,-738.281,128.418,29.297,0
1579287263.573,152.832,-4.395,-578.125,126.465,16.113,0
1579287263.570,141.602,-8.789,-609.375,119.141,51.758,0
1579287263.574,138.672,-11.719,-687.500,115.723,44.922,0
1579287263.578,138.184,-15.137,-873.535,116.699,-10.254,0
1579287263.582,140.137,-14.160,-832.031,114.746,8.789,0
1579287263.586,139.648,-8.789,-602.051,113.770,16.113,0
1579287263.590,136.719,-14.160,-734.863,111.328,42.969,0
1579287263.594,134.277,-16.113,-737.305,109.375,49.316,0
1579287263.597,132.324,-20.508,-757.812,110.840,11.719,0
1579287263.601,125.488,-21.484,-871.582,103.516,62.012,0
1579287263.605,124.023,-10.254,-622.559,94.727,56.152,0
1579287263.609,123.535,-9.766,-566.895,94.727,-14.160,0
1579287263.613,116.699,-12.207,-596.680,95.703,-33.691,0
1579287263.630,111.328,-11.719,-570.312,87.891,23.438,0
1579287263.634,105.469,-13.672,-579.590,76.660,57.129,0
1579287263.638,101.562,-13.184,-507.324,68.359,80.078,0
1579287263.642,102.051,-12.207,-514.648,68.359,81.055,0
1579287263.646,100.586,-14.160,-635.254,69.824,23.926,0
1579287263.650,93.262,-17.578,-809.082,62.012,14.648,0
1579287263.654,87.402,-21.973,-961.426,51.270,0.000,0
1579287263.657,84.473,-16.602,-793.457,60.059,16.113,0
1579287263.661,88.867,-15.137,-655.273,67.383,46.875,0
1579287263.665,89.844,-17.090,-664.062,61.523,68.359,0
1579287263.669,85.449,-18.555,-790.039,60.059,75.195,0
1579287263.673,88.379,-16.113,-883.301,67.383,84.473,0
1579287263.670,81.055,-13.184,-852.051,71.289,6.348,0
1579287263.674,74.219,-13.184,-861.816,70.801,-8.789,0
1579287263.678,77.148,-11.230,-881.836,67.871,32.715,0
1579287263.682,75.684,-12.695,-970.215,63.965,-49.805,0
1579287263.686,70.801,-12.207,-968.262,65.918,23.438,0
1579287263.690,62.988,-16.602,-964.844,65.918,54.199,0
1579287263.694,58.594,-21.973,-968.262,61.035,-16.113,0
1579287263.697,58.594,-20.020,-974.121,62.988,-30.762,0
1579287263.701,58.105,-16.113,-936.035,63.965,32.715,0
1579287263.705,57.129,-21.484,-958.984,61.523,23.926,0
1579287263.709,54.688,-18.066,-881.836,57.617,47.852,0
1579287263.713,53.711,-11.230,-693.359,56.152,112.305,0
1579287263.710,59.570,-16.113,-639.648,59.570,59.570,0
1579287263.714,62.500,-17.578,-565.918,61.523,39.062,0
1579287263.718,62.500,-19.531,-614.258,59.570,7.324,0
1579287263.722,63.477,-19.531,-608.398,60.547,-1.465,0
1579287263.726,70.312,-19.531,-520.020,71.777,20.508,0
1579287263.730,75.195,-22.461,-607.422,78.125,30.762,0
1579287263.734,68.848,-21.484,-577.148,72.754,-0.977,0
1579287263.737,65.918,-27.344,-667.480,64.941,33.691,0
1579287263.741,68.359,-27.832,-764.648,65.430,64.453,0
1579287263.745,63.477,-20.508,-525.391,69.824,30.762,0
1579287263.749,58.105,-22.461,-470.703,67.383,20.508,0
1579287263.753,53.711,-21.973,-386.719,63.965,10.254,0
1579287263.770,52.734,-21.973,-438.477,64.941,12.207,0
1579287263.774,56.152,-20.508,-401.367,66.406,53.711,0
1579287263.778,52.246,-21.484,-245.605,63.965,88.379,0
1579287263.782,52.734,-20.996,-259.277,66.406,70.312,0
1579287263.786,53.223,-21.484,-257.324,65.918,40.527,0
1579287263.790,48.828,-28.809,-433.594,67.383,62.500,0
1579287263.794,45.898,-28.809,-614.746,64.453,49.316,0
1579287263.797,37.598,-20.508,-337.891,53.223,30.273,0
1579287263.801,32.715,-18.555,-169.434,51.758,52.734,0
1579287263.805,31.250,-16.113,-115.234,49.316,82.520,0
1579287263.809,32.227,-18.066,-166.016,47.852,67.871,0
1579287263.813,34.180,-20.996,-181.641,42.480,51.758,0
1579287263.809,34.668,-22.461,-166.504,36.621,54.199,0
1579287263.813,31.738,-26.855,-303.711,39.551,-14.648,0
1579287263.817,34.668,-20.508,-188.965,46.875,-46.875,0
1579287263.821,42.480,-18.066,-127.930,51.270,23.438,0
1579287263.825,41.016,-22.949,-159.668,42.969,81.055,0
1579287263.829,42.969,-24.414,-208.984,43.457,53.711,0
1579287263.833,47.363,-24.414,-279.297,49.805,33.691,0
1579287263.836,48.340,-20.020,-189.941,49.316,48.340,0
1579287263.840,49.316,-16.113,-66.406,47.363,57.129,0
1579287263.844,43.945,-21.484,-312.988,45.410,68.359,0
1579287263.848,38.086,-18.555,-272.461,45.898,68.359,0
1579287263.852,38.574,-13.672,38.574,51.270,39.062,0
1579287263.849,40.527,-16.602,26.855,51.758,-4.395,0
1579287263.853,45.410,-19.531,6.836,54.688,27.344,0
1579287263.857,47.363,-24.902,-99.121,58.105,2.930,0
1579287263.861,42.480,-26.367,-122.070,57.617,-41.992,0
1579287263.865,41.504,-24.414,31.738,61.035,44.434,0
1579287263.869,42.480,-24.902,35.645,58.105,93.262,0
1579287263.873,45.410,-25.391,-48.828,56.641,50.293,0
1579287263.876,49.805,-25.879,-262.207,56.152,-11.230,0
1579287263.880,50.781,-16.602,-175.781,54.199,30.273,0
1579287263.884,44.434,-11.230,175.293,52.734,37.109,0
1579287263.888,38.574,-14.160,193.848,48.340,5.859,0
1579287263.892,41.504,-13.672,247.070,50.781,37.109,0
1579287263.909,48.828,-12.695,180.176,56.152,-0.488,0
1579287263.913,56.152,-9.277,208.496,61.035,32.715,0
1579287263.917,54.688,-12.695,259.277,59.082,47.363,0
1579287263.921,43.457,-16.113,208.008,47.363,1.465,0
1579287263.925,39.551,-14.160,302.734,44.434,45.410,0
1579287263.929,45.410,-19.531,98.633,47.852,76.660,0
1579287263.933,47.852,-17.090,-113.770,43.945,54.199,0
1579287263.936,47.852,-9.766,23.926,43.457,1.953,0
1579287263.940,47.852,-12.207,164.062,50.293,1.465,0
1579287263.944,44.922,-13.184,291.016,54.199,26.855,0
1579287263.948,44.434,-15.137,133.301,48.828,68.848,0
1579287263.952,48.340,-16.113,-8.301,48.340,65.918,0
1579287263.949,51.758,-10.742,145.508,55.176,-11.230,0
1579287263.953,53.711,-6.836,208.984,58.105,15.137,0
1579287263.957,53.223,-6.836,224.121,52.734,41.016,0
1579287263.961,53.223,-11.719,41.016,45.410,4.395,0
1579287263.965,48.828,-12.207,-31.250,45.410,-2.930,0
1579287263.969,43.945,-14.160,58.594,45.410,27.344,0
1579287263.973,45.410,-18.555,-17.578,42.480,56.152,0
1579287263.976,41.992,-16.602,37.109,40.527,72.754,0
1579287263.980,39.551,-17.578,30.273,45.410,50.781,0
1579287263.984,41.504,-21.484,-259.766,47.852,10.742,0
1579287263.988,45.410,-13.672,-119.629,51.758,-2.441,0
1579287263.992,47.852,-11.230,93.262,53.711,-4.883,0
1579287264.010,49.316,-11.230,103.027,51.758,10.742,0
1579287264.014,55.176,-7.812,115.723,60.059,48.340,0
1579287264.018,55.664,-8.789,100.586,62.500,85.938,0
1579287264.022,49.316,-11.230,135.742,53.223,38.086,0
1579287264.026,45.898,-11.230,130.859,46.875,27.344,0
1579287264.030,48.828,-11.230,21.484,48.828,33.691,0
1579287264.034,45.410,-10.254,51.758,43.457,53.711,0
1579287264.037,44.434,-16.113,-161.133,37.109,31.250,0
1579287264.041,44.922,-13.672,-207.520,36.621,0.977,0
1579287264.045,50.293,-3.418,170.898,44.922,54.199,0
1579287264.049,56.152,-5.859,212.402,50.293,46.875,0
1579287264.053,53.711,-11.230,109.375,47.852,13.184,0
1579287264.050,51.758,-10.742,59.082,44.434,61.523,0
1579287264.054,55.176,-5.371,98.145,49.805,45.410,0
1579287264.058,56.641,-3.906,128.906,58.105,-13.672,0
1579287264.062,55.664,-4.395,162.598,58.105,30.273,0
1579287264.066,49.805,-4.883,118.652,49.805,16.113,0
1579287264.070,44.434,-8.789,-60.059,43.945,2.441,0
1579287264.074,45.898,-8.301,-186.523,41.992,-28.320,0
1579287264.077,43.945,-3.418,-59.082,39.551,-31.250,0
1579287264.081,39.551,-3.906,34.180,38.086,37.598,0
1579287264.085,42.480,-4.395,98.145,38.574,108.887,0
1579287264.089,48.340,-14.648,-197.266,40.527,47.363,0
1579287264.093,50.293,-14.648,-428.223,43.945,4.395,0
1579287264.090,47.852,-0.977,-91.797,45.410,96.191,0
1579287264.094,44.922,-3.418,-57.129,46.875,94.727,0
1579287264.098,53.223,-6.348,-160.645,60.059,40.039,0
1579287264.102,57.617,-1.953,-316.895,69.336,-4.395,0
1579287264.106,51.758,1.953,-296.387,60.547,41.992,0
1579287264.110,42.480,-4.395,-365.234,51.270,69.824,0
1579287264.114,38.574,-4.395,-495.117,48.828,62.012,0
1579287264.117,41.016,2.930,-374.512,50.781,17.578,0
1579287264.121,42.969,-1.953,-511.230,49.805,-4.395,0
1579287264.125,40.039,-6.348,-787.109,38.086,29.297,0
1579287264.129,37.109,-2.441,-655.273,32.715,-5.859,0
1579287264.133,37.109,-3.418,-476.074,33.691,3.418,0
1579287264.150,40.527,-0.488,-403.320,32.715,67.871,0
1579287264.154,50.293,-0.488,-504.395,36.133,79.590,0
1579287264.158,51.270,-4.395,-684.082,36.133,5.371,0
1579287264.162,55.176,0.488,-568.848,41.016,30.273,0
1579287264.166,62.012,0.000,-482.422,49.805,98.633,0
1579287264.170,58.594,-5.371,-632.812,43.945,71.289,0
1579287264.174,58.105,-7.324,-825.684,38.086,51.758,0
1579287264.177,57.129,-9.277,-883.789,41.504,29.785,0
1579287264.181,46.875,-7.812,-733.887,47.363,-7.324,0
1579287264.185,38.574,-7.812,-654.297,54.688,-1.465,0
1579287264.189,38.086,-9.277,-646.484,57.617,52.246,0
1579287264.193,42.480,-9.766,-704.102,61.523,42.480,0
1579287264.190,45.898,-7.324,-871.582,63.477,62.988,0
1579287264.194,44.434,-5.371,-784.668,52.246,88.867,0
1579287264.198,45.898,-8.301,-688.477,41.504,65.430,0
1579287264.202,47.852,-4.883,-783.203,40.527,14.648,0
1579287264.206,42.969,-4.883,-802.734,41.992,-23.438,0
1579287264.210,44.434,-11.230,-852.539,41.016,32.227,0
1579287264.214,45.410,-15.137,-964.844,35.645,6.836,0
1579287264.217,39.062,-14.648,-882.812,27.344,-4.883,0
1579287264.221,36.133,-18.066,-808.105,26.855,62.012,0
1579287264.225,33.203,-19.043,-863.281,29.785,25.879,0
1579287264.229,29.785,-22.461,-911.133,30.273,22.461,0
1579287264.233,29.785,-22.461,-948.730,32.715,49.316,0
1579287264.230,29.297,-14.160,-868.164,42.969,7.812,0
1579287264.234,34.180,-11.719,-836.914,52.734,-42.480,0
1579287264.238,38.574,-9.277,-753.906,59.082,35.156,0
1579287264.242,42.480,-8.789,-833.984,61.035,49.805,0
1579287264.246,48.340,-8.301,-901.367,57.617,12.207,0
1579287264.250,46.387,-10.742,-897.461,53.711,28.320,0
1579287264.254,46.387,-10.742,-986.816,52.734,-20.020,0
1579287264.257,44.922,-6.348,-923.828,45.898,-23.438,0
1579287264.261,43.945,-11.719,-926.270,40.527,-11.719,0
1579287264.265,40.527,-17.090,-941.406,39.062,29.297,0
1579287264.269,29.297,-11.230,-765.137,37.598,69.824,0
1579287264.273,20.996,-14.648,-805.664,32.715,39.551,0
1579287264.290,18.555,-17.090,-886.230,31.250,43.457,0
1579287264.294,20.996,-15.625,-846.191,39.551,64.453,0
1579287264.298,27.832,-15.137,-869.629,45.898,-3.418,0
1579287264.302,32.227,-10.254,-780.762,45.410,-2.930,0
1579287264.306,39.551,-9.766,-776.855,46.875,35.645,0
1579287264.310,45.410,-10.254,-905.762,56.641,17.578,0
1579287264.314,44.434,-11.719,-958.496,58.105,-0.488,0
1579287264.317,47.852,-13.672,-963.867,50.781,-6.836,0
1579287264.321,45.410,-11.230,-825.195,48.828,49.805,0
1579287264.325,39.551,-12.207,-726.074,45.410,41.016,0
1579287264.329,39.062,-14.160,-698.242,45.898,10.254,0
1579287264.333,41.504,-13.672,-686.523,53.711,50.293,0
1579287264.330,38.086,-14.160,-761.719,48.828,31.250,0
1579287264.334,33.691,-10.742,-629.395,41.016,44.922,0
1579287264.338,35.645,-11.719,-662.598,43.945,37.598,0
1579287264.342,39.551,-9.766,-692.871,50.293,26.367,0
1579287264.346,40.527,-9.277,-585.449,45.898,74.219,0
1579287264.350,40.039,-10.254,-754.883,39.062,50.781,0
1579287264.354,40.527,-9.277,-842.773,44.434,-4.883,0
1579287264.357,45.898,-7.324,-689.453,46.387,-15.137,0
1579287264.361,45.898,-2.441,-529.785,40.527,60.059,0
1579287264.365,45.410,-5.859,-557.129,40.527,53.711,0
1579287264.369,49.805,-16.113,-855.957,44.922,18.066,0
1579287264.373,51.758,-12.695,-856.934,47.363,48.828,0
1579287264.370,49.316,-8.789,-602.539,45.898,49.316,0
1579287264.374,47.363,-13.672,-626.465,41.992,1.465,0
1579287264.378,48.340,-13.672,-671.387,37.109,-26.367,0
1579287264.382,48.340,-13.672,-710.449,35.645,-35.156,0
1579287264.386,41.504,-12.207,-612.793,30.762,16.602,0
1579287264.390,33.691,-15.625,-613.770,20.508,84.473,0
1579287264.394,37.109,-16.602,-767.090,19.043,35.156,0
1579287264.397,40.527,-12.207,-692.871,25.391,67.383,0
1579287264.401,39.551,-13.672,-779.297,30.273,41.992,0
1579287264.405,42.969,-10.742,-756.348,28.320,-17.090,0
1579287264.409,45.410,-10.742,-613.770,22.949,-62.012,0
1579287264.413,46.387,-10.742,-540.527,27.832,-2.930,0
1579287264.430,41.992,-6.348,-359.375,32.715,96.680,0
1579287264.434,41.016,-13.184,-585.938,31.250,40.527,0
1579287264.438,43.457,-14.160,-720.703,26.367,33.691,0
1579287264.442,40.527,-6.348,-516.602,23.926,53.223,0
1579287264.446,45.410,-5.371,-490.234,31.738,44.434,0
1579287264.450,49.316,-4.395,-571.777,35.645,4.883,0
1579287264.454,43.945,-8.789,-702.148,27.344,67.383,0
1579287264.457,45.410,-13.672,-851.074,23.438,115.234,0
1579287264.461,48.828,-9.277,-711.914,31.250,32.715,0
1579287264.465,49.805,-6.836,-441.895,33.203,37.109,0
1579287264.469,45.898,-8.301,-420.410,29.785,13.672,0
1579287264.473,35.156,-11.230,-559.570,32.227,52.734,0
1579287264.470,30.762,-11.719,-563.965,31.738,68.359,0
1579287264.474,28.320,-10.254,-467.285,30.273,6.836,0
1579287264.478,23.926,-10.254,-463.379,33.203,13.672,0
1579287264.482,26.855,-10.742,-424.316,27.344,66.895,0
1579287264.486,32.227,-15.137,-500.488,31.250,73.242,0
1579287264.490,36.621,-21.484,-660.156,37.598,39.062,0
1579287264.494,43.945,-15.625,-582.520,41.016,66.895,0
1579287264.497,45.898,-14.160,-589.844,43.457,55.664,0
1579287264.501,45.410,-16.113,-598.145,38.086,27.832,0
1579287264.505,41.016,-13.672,-578.125,41.504,3.906,0
1579287264.509,32.715,-13.672,-737.793,41.016,-13.672,0
1579287264.513,34.180,-10.254,-715.332,34.668,8.789,0
1579287264.510,35.645,-9.277,-616.211,32.227,28.320,0
1579287264.514,31.738,-10.254,-564.453,33.691,10.742,0
1579287264.518,29.297,-12.207,-542.480,41.504,25.391,0
1579287264.522,29.297,-15.625,-690.430,46.387,65.430,0
1579287264.526,29.297,-15.137,-670.410,42.480,66.895,0
1579287264.530,30.273,-14.160,-670.410,42.969,66.895,0
1579287264.534,41.992,-11.719,-753.906,49.316,19.043,0
1579287264.537,44.922,-8.301,-653.809,48.340,-10.742,0
1579287264.541,41.504,-20.020,-845.703,37.598,-2.930,0
1579287264.545,48.340,-19.043,-919.922,33.203,24.902,0
1579287264.549,51.758,-2.930,-651.367,39.551,65.918,0
1579287264.553,48.828,-4.395,-587.402,35.645,48.828,0
1579287264.570,43.945,-8.301,-625.488,27.344,33.203,0
1579287264.574,40.039,-13.184,-717.285,26.855,22.461,0
1579287264.578,41.504,-11.719,-779.297,29.785,7.324,0
1579287264.582,41.992,-6.348,-646.484,28.320,22.461,0
1579287264.586,39.551,-9.277,-596.680,26.855,6.348,0
1579287264.590,37.598,-12.695,-701.660,26.855,18.555,0
1579287264.594,33.203,-20.508,-881.836,25.391,51.270,0
1579287264.597,33.203,-18.066,-872.070,25.391,45.898,0
1579287264.601,30.273,-7.812,-581.055,22.949,60.059,0
1579287264.605,31.250,-10.742,-535.156,20.508,26.367,0
1579287264.609,32.227,-7.812,-535.645,22.949,-5.859,0
1579287264.613,31.738,-9.277,-531.738,23.438,40.039,0
1579287264.609,39.062,-10.254,-508.789,21.484,77.637,0
1579287264.613,36.133,-10.254,-474.609,14.160,44.434,0
1579287264.617,32.227,-11.230,-499.512,12.207,30.273,0
1579287264.621,25.391,-9.766,-426.758,14.160,54.688,0
1579287264.625,20.020,-13.184,-487.305,13.672,63.965,0
1579287264.629,23.438,-16.602,-661.133,18.555,28.320,0
1579287264.633,28.809,-13.184,-694.824,18.066,7.324,0
1579287264.636,30.273,-8.301,-600.098,18.066,35.156,0
1579287264.640,29.785,-7.324,-405.762,19.043,54.688,0
1579287264.644,28.320,-15.625,-461.426,14.648,72.754,0
1579287264.648,27.344,-26.855,-790.039,10.254,72.754,0
1579287264.652,23.438,-20.508,-664.062,14.648,35.156,0
1579287264.649,20.508,-16.602,-446.777,19.531,2.930,0
1579287264.653,23.926,-14.648,-379.883,19.531,69.336,0
1579287264.657,30.273,-15.625,-449.219,21.973,95.215,0
1579287264.661,35.645,-17.090,-547.852,27.832,54.199,0
1579287264.665,36.133,-10.742,-413.574,30.273,50.293,0
1579287264.669,38.086,-13.672,-533.203,33.691,24.902,0
1579287264.673,37.109,-15.625,-645.996,33.203,-7.324,0
1579287264.676,38.574,-15.137,-533.691,33.691,7.812,0
1579287264.680,43.945,-21.973,-764.160,40.039,8.301,0
1579287264.684,47.363,-18.555,-703.613,44.922,21.484,0
1579287264.688,58.594,-8.789,-387.695,51.758,47.363,0
1579287264.692,57.617,-4.395,-401.855,45.898,34.180,0
1579287264.709,44.434,-3.906,-395.508,32.715,43.945,0
1579287264.713,41.504,-3.906,-474.121,30.273,12.695,0
1579287264.717,39.551,-1.953,-455.078,26.855,9.766,0
1579287264.721,36.621,0.488,-406.250,20.508,34.668,0
1579287264.725,40.039,-0.977,-421.875,19.043,24.902,0
1579287264.729,41.016,-8.301,-494.141,16.602,18.555,0
1579287264.733,41.504,-12.207,-783.691,16.602,6.836,0
1579287264.736,42.480,-8.301,-823.242,17.090,3.418,0
1579287264.740,46.387,-1.953,-470.215,23.926,48.828,0
1579287264.744,55.176,-0.977,-324.707,37.109,70.312,0
1579287264.748,53.223,-5.371,-393.555,40.039,43.945,0
1579287264.752,51.270,-8.789,-541.992,37.598,26.367,0
1579287264.749,54.688,-5.859,-481.934,37.598,33.203,0
1579287264.753,51.758,-5.859,-401.855,39.551,10.254,0
1579287264.757,50.293,-6.836,-415.039,41.016,1.465,0
1579287264.761,46.875,-8.301,-419.922,38.086,12.207,0
1579287264.765,34.180,-12.695,-521.484,32.227,24.414,0
1579287264.769,33.691,-12.695,-593.750,33.203,58.105,0
1579287264.773,38.086,-11.719,-534.668,37.598,104.492,0
1579287264.776,36.133,-13.184,-563.965,33.691,48.340,0
1579287264.780,41.016,-7.812,-495.117,27.832,-13.672,0
1579287264.784,44.922,-9.277,-602.539,28.320,-14.648,0
1579287264.788,42.969,-11.230,-791.992,26.855,20.996,0
1579287264.792,45.410,1.465,-564.941,28.809,28.809,0
1579287264.789,50.293,8.301,-403.809,31.738,36.133,0
1579287264.793,48.828,2.441,-449.707,29.297,58.594,0
1579287264.797,44.434,-5.859,-558.105,33.203,54.199,0
1579287264.801,42.480,-4.395,-479.004,36.621,54.199,0
1579287264.805,41.504,-2.930,-360.352,36.133,45.410,0
1579287264.809,41.504,-9.277,-559.570,40.039,-3.418,0
1579287264.813,44.922,-5.859,-524.902,49.316,20.508,3
1579287264.816,48.340,-5.371,-346.191,58.594,89.355,0
1579287264.820,48.340,-14.648,-648.926,56.152,61.035,0
1579287264.824,47.852,-11.230,-610.840,54.199,21.484,0
1579287264.828,48.340,-5.859,-291.992,59.082,72.754,0
1579287264.832,47.363,-9.277,-292.480,57.129,23.926,0
1579287264.849,49.316,-8.789,-359.375,50.781,-3.418,0
1579287264.853,51.270,-5.371,-438.477,43.457,31.250,0
1579287264.857,48.340,-4.395,-354.004,44.922,49.316,0
1579287264.861,41.504,-4.883,-272.461,43.945,51.758,0
1579287264.865,39.551,-5.859,-355.957,33.203,21.484,0
1579287264.869,40.039,-9.766,-536.133,35.156,-5.859,0
1579287264.873,39.062,-8.789,-649.414,42.480,-1.953,0
1579287264.876,38.574,-1.953,-424.805,46.387,46.387,0
1579287264.880,36.621,-1.465,-239.258,48.828,52.246,0
1579287264.884,41.504,-3.906,-331.055,46.875,-9.277,0
1579287264.888,50.781,-1.953,-328.613,51.270,7.324,0
1579287264.892,54.199,-0.488,-435.547,58.105,77.148,0
1579287264.889,48.828,-1.953,-469.727,56.641,12.695,0
1579287264.893,49.805,0.488,-269.531,60.059,65.430,0
1579287264.897,53.223,1.465,-278.809,62.012,101.562,0
1579287264.901,48.340,-1.953,-340.820,58.594,7.324,0
1579287264.905,44.922,-5.859,-422.363,55.176,5.859,0
1579287264.909,41.504,-8.301,-552.734,51.270,7.812,0
1579287264.913,39.551,-3.906,-554.199,45.898,37.109,0
1579287264.916,44.434,-1.465,-552.246,44.922,78.613,0
1579287264.920,43.945,-0.977,-466.309,48.828,20.020,0
1579287264.924,42.480,-2.930,-584.473,47.852,-4.395,0
1579287264.928,40.039,-6.836,-782.715,42.480,32.715,0
1579287264.932,42.969,0.000,-556.152,40.039,18.066,0
1579287264.929,53.223,5.859,-411.133,45.898,30.762,0
1579287264.933,55.664,2.441,-407.715,44.434,19.531,0
1579287264.937,53.711,-0.977,-516.602,41.504,31.250,0
1579287264.941,52.734,-2.441,-585.449,42.969,32.715,0
1579287264.945,56.152,-1.465,-486.816,47.852,35.156,0
1579287264.949,49.805,-5.371,-633.301,49.805,4.395,0
1579287264.953,43.457,-6.348,-718.750,42.969,-11.230,0
1579287264.956,42.480,-8.301,-699.707,39.551,65.430,0
1579287264.960,38.574,-11.230,-891.113,41.504,44.922,0
1579287264.964,37.598,-4.395,-756.348,39.062,-26.855,0
1579287264.968,41.504,-3.418,-693.848,36.133,-29.297,0
1579287264.972,41.992,0.000,-697.754,32.227,2.441,0
1579287264.989,36.621,0.000,-700.684,29.785,-0.977,0
1579287264.993,32.227,-0.488,-763.672,31.250,-20.020,0
1579287264.997,34.180,3.418,-606.934,28.809,59.570,0
1579287265.001,37.598,0.488,-669.434,25.879,27.832,0
1579287265.005,38.574,2.441,-738.281,27.344,-17.578,0
1579287265.009,41.504,0.488,-811.035,31.738,11.719,0
1579287265.013,43.457,-2.930,-958.496,32.227,72.266,0
1579287265.016,41.504,2.930,-893.066,31.738,61.523,0
1579287265.020,43.945,3.418,-777.344,38.086,-16.113,0
1579287265.024,53.711,2.930,-727.539,50.293,-16.602,0
1579287265.028,65.430,7.812,-685.547,62.500,29.785,0
1579287265.032,54.688,8.301,-773.926,49.805,30.762,0
1579287265.029,38.574,5.371,-760.742,30.762,42.480,0
1579287265.033,38.574,2.441,-802.734,34.668,42.969,0
1579287265.037,38.086,3.906,-786.133,43.945,28.320,0
1579287265.041,36.621,6.348,-686.523,42.969,77.148,0
1579287265.045,38.086,0.488,-813.477,38.086,63.965,0
1579287265.049,34.180,-3.906,-949.707,30.762,-1.953,0
1579287265.053,31.250,-4.395,-948.730,28.320,19.043,0
1579287265.056,37.109,-2.441,-844.238,28.809,26.367,0
1579287265.060,42.969,1.465,-739.746,26.855,23.926,0
1579287265.064,39.551,-5.859,-853.516,30.273,74.707,0
1579287265.068,40.039,-8.301,-944.824,33.203,50.781,0
1579287265.072,46.387,-1.953,-802.734,35.645,2.930,0
1579287265.070,51.270,0.488,-719.727,35.156,42.480,0
1579287265.074,55.176,0.488,-706.543,38.086,75.684,0
1579287265.078,58.594,-3.418,-760.254,44.922,74.707,0
1579287265.082,56.152,-2.930,-757.324,41.016,63.477,0
1579287265.086,54.199,-4.395,-822.754,31.738,0.488,0
1579287265.090,61.523,-4.395,-963.379,30.762,-44.922,0
1579287265.094,57.617,-2.930,-963.379,34.668,-40.039,0
1579287265.097,48.828,-8.789,-975.586,34.668,-17.090,0
1579287265.101,49.805,-5.859,-906.250,34.668,34.668,0
1579287265.105,51.758,2.441,-766.602,35.156,40.039,0
1579287265.109,49.805,1.465,-752.441,34.668,26.367,0
1579287265.113,51.270,4.395,-691.895,37.598,21.973,0
1579287265.129,57.129,1.953,-763.184,41.016,64.453,0
1579287265.133,58.594,-0.977,-927.246,36.133,64.941,0
1579287265.137,49.316,0.977,-796.387,29.297,57.617,0
1579287265.141,49.316,-0.488,-710.449,32.227,52.734,0
1579287265.145,55.664,-1.953,-724.609,38.574,9.277,0
1579287265.149,50.293,-7.812,-848.633,37.598,44.922,0
1579287265.153,42.480,-10.254,-983.398,39.062,1.465,0
1579287265.156,37.109,-6.348,-935.059,48.340,-42.969,0
1579287265.160,32.715,-3.906,-729.004,52.734,77.637,0
1579287265.164,32.227,-2.930,-623.535,56.641,90.820,0
1579287265.168,30.762,-5.859,-721.191,59.082,67.871,0
1579287265.172,38.086,-11.719,-910.156,58.105,107.910,0
1579287265.170,35.156,-7.324,-831.543,58.594,63.965,0
1579287265.174,25.391,-6.348,-684.570,51.758,24.414,0
1579287265.178,28.320,-12.695,-691.406,41.992,36.621,0
1579287265.182,33.691,-11.230,-702.637,41.504,48.340,0
1579287265.186,35.156,-7.324,-760.742,40.039,16.113,0
1579287265.190,34.668,-6.348,-735.352,36.133,38.086,0
1579287265.194,38.086,-6.836,-819.336,34.180,14.160,0
1579287265.197,34.668,-5.859,-825.195,28.809,-18.555,0
1579287265.201,35.156,-2.441,-593.750,32.227,55.176,0
1579287265.205,37.109,-9.766,-764.160,39.551,74.707,0
1579287265.209,33.691,-8.301,-921.387,39.062,6.836,0
1579287265.213,36.133,-0.977,-659.668,33.691,28.809,0
1579287265.210,35.645,-3.418,-565.918,31.738,56.641,0
1579287265.214,28.320,-3.418,-525.879,30.273,53.223,0
1579287265.218,25.879,-4.395,-627.930,23.926,8.789,0
1579287265.222,26.367,-4.395,-654.297,22.949,-16.113,0
1579287265.226,30.273,-3.418,-524.902,28.809,32.227,0
1579287265.230,35.156,-9.766,-654.297,33.203,2.930,0
1579287265.234,39.551,-8.301,-640.625,33.691,-28.809,0
1579287265.237,41.992,-8.301,-729.492,31.738,-5.371,0
1579287265.241,44.434,-7.324,-849.609,29.785,24.902,0
1579287265.245,45.898,1.465,-545.898,35.645,-15.137,0
1579287265.249,46.387,2.441,-404.785,41.016,-0.488,0
1579287265.253,44.922,0.000,-399.414,35.645,31.250,0
1579287265.270,43.457,-2.441,-530.762,33.691,21.973,0
1579287265.274,41.016,-3.906,-568.359,34.668,36.133,0
1579287265.278,45.410,-3.906,-420.410,34.180,41.016,0
1579287265.282,49.805,-5.371,-396.484,34.180,48.340,0
1579287265.286,46.875,-6.836,-414.062,30.273,33.203,0
1579287265.290,49.316,-13.184,-650.391,31.250,10.254,0
1579287265.294,48.340,-12.695,-758.789,34.668,14.648,0
1579287265.297,41.016,-3.418,-497.070,34.180,13.184,0
1579287265.301,42.969,-1.465,-462.891,35.156,14.648,0
1579287265.305,45.410,2.930,-425.781,38.574,33.203,0
1579287265.309,40.527,0.488,-492.188,41.016,38.086,0
1579287265.313,44.922,-0.977,-589.844,35.156,52.246,0
1579287265.310,40.527,-0.977,-407.227,26.367,92.285,0
1579287265.314,34.180,-5.859,-434.082,26.855,33.691,0
1579287265.318,33.203,-3.906,-488.770,33.691,-50.781,0
1579287265.322,33.203,-6.836,-540.527,33.691,-17.578,0
1579287265.326,40.527,-8.301,-639.648,27.344,-16.602,0
1579287265.330,44.922,-5.859,-623.535,25.391,25.391,0
1579287265.334,41.016,-3.906,-607.422,26.855,57.617,0
1579287265.337,40.039,0.488,-457.031,27.344,27.832,0
1579287265.341,41.016,0.000,-428.223,28.809,31.250,0
1579287265.345,47.363,-2.930,-608.887,26.855,47.852,0
1579287265.349,48.828,0.977,-513.184,27.832,59.570,0
1579287265.353,46.875,1.465,-393.066,30.762,19.043,0
1579287265.350,48.828,2.441,-421.875,25.391,-8.789,0
1579287265.354,46.875,3.906,-425.781,17.578,22.461,0
1579287265.358,43.457,0.488,-613.281,19.531,11.719,0
1579287265.362,41.504,3.418,-607.422,23.438,-45.898,0
1579287265.366,38.086,1.465,-428.711,23.926,-21.973,0
1579287265.370,35.156,-4.395,-538.574,16.602,39.062,0
1579287265.374,32.715,-1.953,-649.902,10.254,-0.488,0
1579287265.377,30.273,-2.930,-779.785,12.207,6.348,0
1579287265.381,27.344,-4.395,-802.246,10.742,23.438,0
1579287265.385,26.367,3.906,-467.773,7.324,42.969,0
1579287265.389,24.414,2.441,-375.488,4.883,64.453,0
1579287265.393,27.344,-2.441,-416.992,10.254,18.555,0
1579287265.410,34.180,-4.883,-454.590,20.508,13.184,0
1579287265.414,33.691,-2.930,-425.293,19.531,58.594,0
1579287265.418,38.086,1.465,-410.645,19.531,41.504,0
1579287265.422,40.527,3.418,-409.668,22.949,60.547,0
1579287265.426,37.598,0.000,-327.148,22.461,72.754,0
1579287265.430,40.039,-10.254,-579.102,20.508,64.941,0
1579287265.434,43.457,-8.301,-740.723,16.602,54.688,0
1579287265.437,42.969,0.977,-459.961,20.996,72.754,0
1579287265.441,41.016,0.977,-381.836,25.879,75.684,0
1579287265.445,39.062,0.000,-425.293,21.973,63.965,0
1579287265.449,39.062,-8.789,-655.762,21.484,69.824,0
1579287265.453,38.574,-7.812,-706.543,22.949,52.246,0
1579287265.450,31.738,-3.418,-496.582,24.902,22.949,0
1579287265.454,25.391,-5.859,-474.609,23.926,9.766,0
1579287265.458,27.832,-1.953,-460.938,18.066,41.016,0
1579287265.462,34.180,-1.465,-554.688,17.090,63.965,0
1579287265.466,34.668,-1.953,-592.773,20.508,61.035,0
1579287265.470,37.598,-2.441,-589.355,22.461,54.199,0
1579287265.474,44.434,-2.441,-672.852,19.531,40.527,0
1579287265.477,42.969,3.906,-567.383,19.043,24.902,0
1579287265.481,34.180,0.977,-573.730,24.414,0.000,0
1579287265.485,34.180,-5.859,-813.477,25.879,15.625,0
1579287265.489,33.203,-2.441,-671.875,25.879,30.762,0
1579287265.493,28.320,-2.441,-430.176,21.973,67.871,0
1579287265.489,28.320,-8.301,-543.945,18.555,44.922,0
1579287265.493,30.762,-9.277,-626.465,23.926,-18.066,0
1579287265.497,32.227,-8.301,-563.965,23.438,29.785,0
1579287265.501,35.156,-4.883,-488.770,23.438,36.133,0
1579287265.505,43.457,-2.441,-440.918,27.832,64.453,0
1579287265.509,43.945,-8.789,-535.156,33.203,59.570,0
1579287265.513,46.875,-6.836,-615.723,39.062,31.738,0
1579287265.516,52.246,-9.277,-830.078,37.109,-8.301,0
1579287265.520,48.340,-8.301,-805.176,36.621,0.488,0
1579287265.524,46.387,-1.465,-493.652,37.598,26.855,0
1579287265.528,48.828,-1.953,-403.809,40.527,38.086,0
1579287265.532,40.527,-3.418,-360.352,40.527,87.402,0
1579287265.550,33.691,-7.812,-474.121,29.785,82.031,0
1579287265.554,35.156,-8.301,-478.027,25.879,59.570,0
1579287265.558,37.598,-7.812,-425.781,29.785,26.855,0
1579287265.562,39.551,-7.324,-537.109,33.203,-25.879,0
1579287265.566,40.039,-6.348,-476.562,33.203,35.156,0
1579287265.570,39.062,-6.836,-523.926,31.738,83.984,0
1579287265.574,38.574,-4.395,-609.375,38.574,56.641,0
1579287265.577,41.992,1.953,-432.129,44.434,65.918,0
1579287265.581,42.480,0.977,-395.996,38.574,40.527,0
1579287265.585,40.039,-2.930,-440.918,36.621,-27.344,0
1579287265.589,42.969,-5.371,-577.148,39.062,10.254,0
1579287265.593,47.363,-0.488,-572.266,40.039,63.965,0
1579287265.590,47.363,2.441,-386.719,36.133,48.828,0
1579287265.594,44.922,-0.977,-450.684,32.227,9.766,0
1579287265.598,46.875,0.977,-438.965,37.109,-20.020,0
1579287265.602,43.457,0.488,-521.973,37.109,20.508,0
1579287265.606,35.645,0.488,-557.617,29.785,78.613,0
1579287265.610,35.156,2.930,-537.598,26.855,50.781,0
1579287265.614,36.621,0.977,-668.945,24.414,12.695,0
1579287265.617,41.992,5.371,-504.883,27.832,41.992,0
1579287265.621,44.922,1.953,-469.727,31.738,57.617,0
1579287265.625,44.922,-5.371,-746.582,28.809,43.457,0
1579287265.629,46.387,1.953,-569.824,26.367,65.918,0
1579287265.633,50.293,2.441,-374.512,29.785,60.059,0
1579287265.650,49.805,2.930,-373.047,33.203,31.250,0
1579287265.654,49.316,5.859,-455.078,32.227,53.223,0
1579287265.658,50.293,3.906,-613.281,32.227,3.418,0
1579287265.662,41.992,1.465,-541.992,29.785,-18.066,0
1579287265.666,41.992,1.953,-484.863,35.156,11.719,0
1579287265.670,44.434,0.977,-605.957,39.062,24.902,0
1579287265.674,37.109,-2.441,-652.344,38.574,113.770,0
1579287265.677,29.785,-6.836,-840.820,41.016,115.723,0
1579287265.681,32.227,-3.906,-790.039,41.016,61.035,0
1579287265.685,35.156,-1.953,-665.527,41.016,7.812,0
1579287265.689,38.574,-0.488,-700.684,36.133,-17.090,0
1579287265.693,41.016,-1.465,-658.691,35.645,5.371,0
1579287265.690,43.945,-3.906,-682.129,43.457,44.922,0
1579287265.694,43.457,-1.465,-623.047,41.992,39.551,0
1579287265.698,39.062,-0.488,-593.750,33.691,56.152,0
1579287265.702,41.504,-1.953,-584.473,26.367,101.074,0
1579287265.706,36.133,-4.883,-635.742,25.391,24.902,0
1579287265.710,32.227,-6.836,-753.906,25.391,38.086,0
1579287265.714,29.785,-7.324,-809.082,17.090,47.852,0
1579287265.717,25.879,-6.348,-751.465,13.184,-2.441,0
1579287265.721,31.738,-5.371,-701.172,19.043,13.184,0
1579287265.725,35.156,-3.418,-611.816,24.414,41.992,0
1579287265.729,36.621,-8.301,-766.602,25.879,86.914,0
1579287265.733,42.480,-12.207,-991.699,27.832,60.059,0
1579287265.730,45.898,-6.348,-887.207,38.574,-11.719,0
1579287265.734,48.828,-1.465,-677.246,45.898,13.672,0
1579287265.738,52.246,0.488,-587.402,47.852,40.527,0
1579287265.742,52.246,-2.441,-704.590,39.062,25.879,0
1579287265.746,43.945,0.000,-731.445,26.855,28.320,0
1579287265.750,34.180,-2.441,-762.695,25.879,17.578,0
1579287265.754,32.227,-3.418,-783.691,24.902,20.996,0
1579287265.757,31.250,3.418,-643.066,17.578,4.395,0
1579287265.761,26.367,-2.930,-770.508,14.160,10.742,0
1579287265.765,27.344,-8.789,-944.336,17.578,20.996,0
1579287265.769,26.855,-0.977,-731.934,21.484,-9.766,0
1579287265.773,26.367,0.488,-617.676,22.949,-19.043,0
1579287265.790,30.762,-0.488,-630.371,23.438,-3.906,0
1579287265.794,33.203,0.000,-673.828,28.809,7.324,0
1579287265.798,35.156,-1.953,-745.117,37.598,11.719,0
1579287265.802,42.969,-2.930,-730.957,42.480,-11.719,0
1579287265.806,47.852,-2.441,-636.230,42.480,19.531,0
1579287265.810,43.945,-7.812,-654.297,41.504,64.453,0
1579287265.814,39.062,-15.137,-806.152,42.480,28.320,0
1579287265.817,37.598,-15.137,-852.539,41.504,-20.020,0
1579287265.821,37.109,-9.766,-671.875,33.203,-15.625,0
1579287265.825,35.645,-7.812,-562.500,28.809,47.852,0
1579287265.829,39.062,-4.883,-530.762,28.320,27.344,0
1579287265.833,38.574,-6.348,-560.547,27.344,37.109,0
1579287265.829,30.273,-10.742,-718.750,21.973,74.219,0
1579287265.833,22.949,-11.230,-669.922,19.531,20.020,0
1579287265.837,24.414,-8.301,-550.781,29.297,23.926,0
1579287265.841,30.762,-6.348,-511.719,38.086,37.109,0
1579287265.845,27.832,-9.277,-534.668,38.086,44.922,0
1579287265.849,27.344,-7.812,-718.750,34.180,55.664,0
1579287265.853,32.715,-4.395,-741.211,36.621,61.035,0
1579287265.856,33.203,-4.883,-657.227,38.574,75.684,0
1579287265.860,29.297,-3.906,-643.066,32.715,32.715,0
1579287265.864,30.762,1.465,-533.203,29.297,25.391,0
1579287265.868,33.203,-4.395,-759.277,25.879,79.102,0
1579287265.872,35.645,-2.930,-824.707,26.367,60.547,0
1579287265.869,45.410,4.395,-504.395,30.273,40.527,0
1579287265.873,48.828,1.953,-450.195,26.855,80.078,0
1579287265.877,47.852,0.000,-484.375,27.344,74.219,0
1579287265.881,44.434,-0.977,-542.969,31.250,61.523,0
1579287265.885,41.016,0.000,-516.602,32.715,50.293,0
1579287265.889,46.875,-0.488,-616.211,32.715,38.574,0
1579287265.893,49.316,0.000,-728.027,35.645,16.602,0
1579287265.896,46.875,3.906,-533.691,41.016,12.207,0
1579287265.900,51.270,0.977,-703.613,42.969,7.812,0
1579287265.904,52.734,1.953,-910.156,39.551,-8.301,0
1579287265.908,45.410,8.301,-617.676,36.133,31.738,0
1579287265.912,47.363,3.418,-481.934,41.016,70.801,0
1579287265.929,52.734,-0.488,-533.691,44.922,-23.438,0
1579287265.933,52.246,0.488,-644.043,39.062,-69.824,0
1579287265.937,45.898,0.000,-662.109,31.738,-36.133,0
1579287265.941,40.527,-3.906,-593.262,29.297,-39.551,0
1579287265.945,39.062,-4.883,-562.988,30.762,-22.461,0
1579287265.949,44.434,-0.488,-582.031,35.645,44.434,0
1579287265.953,49.316,-4.395,-792.969,40.039,44.922,0
1579287265.956,47.363,-3.418,-831.543,45.898,4.395,0
1579287265.960,42.969,2.441,-541.016,49.316,36.133,0
1579287265.964,39.062,-1.465,-517.578,45.410,-3.418,0
1579287265.968,41.016,0.488,-504.883,37.109,-1.465,0
1579287265.972,43.457,-3.906,-653.809,32.715,51.758,0
1579287265.969,46.387,-3.906,-834.473,38.574,29.785,0
1579287265.973,41.504,2.441,-584.473,40.039,22.949,0
1579287265.977,35.156,2.930,-483.398,35.156,44.434,0
1579287265.981,31.738,1.953,-557.129,28.320,1.953,0
1579287265.985,30.762,-1.953,-598.633,29.297,15.137,0
1579287265.989,35.156,-0.977,-632.812,39.062,96.680,0
1579287265.993,39.551,2.930,-683.105,42.969,40.039,0
1579287265.996,44.434,6.348,-649.414,42.480,-2.441,1
1579287266.000,50.293,5.859,-526.855,47.363,58.105,0
1579287266.004,56.641,5.371,-525.391,54.688,37.598,0
1579287266.008,58.594,3.906,-818.359,52.734,33.203,0
1579287266.012,53.223,6.348,-822.754,44.922,47.852,0
1579287266.010,51.270,12.695,-528.809,42.480,82.520,0
1579287266.014,48.340,13.672,-446.777,42.969,116.699,0
1579287266.018,47.363,10.254,-558.105,44.434,70.312,0
1579287266.022,49.316,5.859,-745.605,44.922,-25.391,0
1579287266.026,51.758,7.324,-694.336,46.875,-68.848,0
1579287266.030,60.059,6.348,-728.516,54.199,-24.902,0
1579287266.034,63.965,6.348,-665.039,56.641,66.406,0
1579287266.037,64.453,8.789,-527.344,57.617,56.152,0
1579287266.041,62.012,1.953,-749.023,52.734,0.000,0
1579287266.045,55.176,3.418,-750.000,51.758,20.020,0
1579287266.049,53.223,9.277,-575.195,58.105,-2.930,0
1579287266.053,55.176,10.742,-541.992,54.199,41.016,0
1579287266.069,48.828,9.277,-523.926,46.875,62.012,0
1579287266.073,42.969,0.977,-774.414,51.758,2.930,0
1579287266.077,44.434,4.395,-799.805,59.082,-1.953,0
1579287266.081,36.621,12.207,-556.641,59.082,30.273,0
1579287266.085,23.438,6.836,-546.387,56.641,66.406,0
1579287266.089,24.902,1.465,-623.535,57.129,89.844,0
1579287266.093,38.086,-2.930,-851.562,60.059,43.457,0
1579287266.096,44.922,-6.348,-940.430,59.570,17.090,0
1579287266.100,42.480,-1.953,-690.918,57.617,23.926,0
1579287266.104,44.922,2.441,-549.805,55.176,42.969,0
1579287266.108,47.363,2.930,-510.254,56.641,49.805,0
1579287266.112,45.898,5.371,-564.941,62.988,17.090,0
1579287266.109,46.875,6.348,-555.176,60.547,37.598,0
1579287266.113,41.992,3.418,-499.023,56.641,27.344,0
1579287266.117,34.180,3.906,-500.000,54.688,50.781,0
1579287266.121,31.250,4.883,-449.219,50.781,60.059,0
1579287266.125,30.762,-0.977,-571.289,49.316,14.648,0
1579287266.129,30.273,-2.930,-727.051,45.410,27.344,0
1579287266.133,33.203,0.977,-722.656,38.086,28.320,0
1579287266.136,38.574,2.441,-610.352,37.109,67.871,0
1579287266.140,39.062,4.395,-537.109,39.551,33.691,0
1579287266.144,37.598,2.930,-585.449,39.551,26.855,0
1579287266.148,42.480,1.465,-712.891,38.574,38.574,0
1579287266.152,40.527,5.371,-610.352,39.062,8.789,0
1579287266.149,37.109,5.371,-479.980,39.062,11.719,0
1579287266.153,34.668,5.371,-476.074,33.691,0.488,0
1579287266.157,27.344,2.930,-507.324,31.250,47.852,0
1579287266.161,26.367,0.977,-603.516,35.645,104.492,0
1579287266.165,35.645,6.836,-479.004,41.992,73.730,0
1579287266.169,41.992,3.418,-531.250,40.039,29.785,0
1579287266.173,46.875,2.441,-653.809,36.133,25.391,0
1579287266.176,51.758,6.836,-469.727,42.969,55.664,0
1579287266.180,42.480,-2.441,-728.027,50.781,48.340,0
1579287266.184,40.527,-3.418,-838.379,54.688,26.855,0
1579287266.188,52.734,8.301,-518.555,60.059,29.785,0
1579287266.192,44.922,5.859,-596.191,54.199,-26.367,0
1579287266.209,30.273,4.395,-555.176,46.387,-20.020,0
1579287266.213,35.156,5.371,-502.930,47.363,13.672,0
1579287266.217,36.621,6.348,-501.953,40.527,12.695,0
1579287266.221,31.738,6.348,-472.656,32.715,21.973,0
1579287266.225,31.250,3.906,-540.527,39.551,-46.875,0
1579287266.229,32.227,2.930,-541.016,46.387,0.000,0
1579287266.233,33.203,-3.906,-762.207,41.504,31.738,0
1579287266.236,34.180,-1.953,-821.289,36.133,19.043,0
1579287266.240,37.109,6.348,-468.750,42.969,61.035,0
1579287266.244,39.551,1.465,-385.254,50.781,15.625,0
1579287266.248,38.086,-0.977,-376.465,49.316,10.742,0
1579287266.252,35.156,-0.977,-447.266,42.969,61.523,0
1579287266.250,35.156,0.000,-493.652,39.551,47.363,0
1579287266.254,31.250,0.488,-482.422,36.621,24.414,0
1579287266.258,29.297,0.488,-503.418,34.180,71.777,0
1579287266.262,25.879,2.441,-431.152,28.809,79.102,0
1579287266.266,20.996,1.465,-502.441,22.949,80.566,0
1579287266.270,25.879,0.000,-626.953,26.855,71.777,0
1579287266.274,32.715,3.418,-675.293,31.250,4.883,0
1579287266.277,35.156,4.883,-640.625,31.738,14.160,0
1579287266.281,42.480,5.859,-516.113,34.668,5.859,0
1579287266.285,48.340,4.395,-622.070,41.016,-5.371,0
1579287266.289,46.387,-2.441,-672.363,43.945,42.969,0
1579287266.293,43.457,-0.488,-474.121,43.457,38.086,0
1579287266.289,41.504,0.977,-499.023,39.551,-0.488,0
1579287266.293,34.180,0.488,-452.637,39.062,30.762,0
1579287266.297,34.180,-0.488,-498.047,45.898,66.406,0
1579287266.301,41.504,1.465,-681.641,45.410,10.254,0
1579287266.305,41.992,4.395,-630.859,39.062,-16.602,0
1579287266.309,36.621,1.465,-638.672,38.086,40.527,0
1579287266.313,35.156,4.395,-618.652,40.039,53.223,0
1579287266.316,39.062,2.930,-604.492,39.062,16.602,0
1579287266.320,41.016,-5.859,-856.934,32.227,-5.371,0
1579287266.324,35.156,-1.465,-786.621,30.762,28.809,0
1579287266.328,35.645,4.883,-456.055,40.527,30.762,0
1579287266.332,40.039,3.906,-413.086,44.434,-14.160,0
1579287266.350,30.273,-0.488,-427.734,45.898,22.949,0
1579287266.354,23.926,-2.930,-546.875,44.922,16.602,0
1579287266.358,30.273,0.488,-482.910,44.434,27.832,0
1579287266.362,35.645,0.488,-419.922,50.293,9.766,0
1579287266.366,38.086,2.441,-383.301,48.828,56.641,0
1579287266.370,34.668,-1.953,-495.117,42.480,77.148,0
1579287266.374,31.738,-7.324,-811.523,42.969,29.297,0
1579287266.377,32.715,-3.418,-889.648,47.852,-37.598,0
1579287266.381,28.809,1.953,-595.215,48.828,5.371,0
1579287266.385,24.414,0.488,-456.055,44.434,32.227,0
1579287266.389,29.297,1.953,-454.102,46.875,25.391,0
1579287266.393,35.156,4.395,-479.004,48.340,60.547,0
1579287266.390,40.527,6.348,-473.633,41.992,40.039,0
1579287266.394,42.969,7.324,-448.730,36.621,21.973,0
1579287266.398,45.410,5.371,-468.750,37.109,31.738,0
1579287266.402,51.270,-0.977,-470.215,42.480,-14.648,0
1579287266.406,46.875,-1.953,-494.141,47.852,-3.418,0
1579287266.410,41.016,2.930,-554.199,47.363,58.105,0
1579287266.414,36.133,3.906,-617.676,43.945,51.270,0
1579287266.417,31.738,6.836,-587.402,44.434,32.227,0
1579287266.421,34.668,9.766,-408.691,44.922,28.320,0
1579287266.425,31.738,2.441,-530.273,39.062,37.109,0
1579287266.429,32.715,-1.465,-704.590,32.715,55.664,0
1579287266.433,34.180,0.000,-546.387,34.668,64.453,0
1579287266.430,36.621,4.395,-453.125,40.527,29.297,0
1579287266.434,42.480,5.859,-338.379,41.016,56.641,0
1579287266.438,44.922,-1.465,-519.043,41.016,74.707,0
1579287266.442,39.062,0.000,-733.887,42.480,42.480,0
1579287266.446,31.738,7.812,-514.160,32.715,11.230,0
1579287266.450,29.297,9.766,-585.938,32.227,-11.230,0
1579287266.454,22.461,12.695,-609.375,27.344,16.113,0
1579287266.457,14.648,5.859,-620.605,13.184,32.227,0
1579287266.461,11.719,0.977,-913.086,7.812,23.438,0
1579287266.465,6.348,8.301,-767.090,1.465,49.805,0
1579287266.469,-1.465,9.277,-600.098,-14.160,63.477,0
