timestamps,TP9,AF7,AF8,TP10,Right AUX,Marker0
1579286894.709,-121.094,46.387,-674.316,-133.301,17.578,0
1579286894.713,-111.816,42.969,-630.859,-112.793,44.922,0
1579286894.717,-106.934,36.621,-602.539,-108.398,63.477,0
1579286894.721,-103.027,8.789,-680.664,-95.703,41.504,0
1579286894.725,-50.293,-4.395,-748.535,-62.012,8.301,0
1579286894.729,-38.574,-24.902,-802.734,-38.086,7.324,0
1579286894.733,-33.203,-7.324,-748.047,-15.137,33.691,0
1579286894.736,0.977,37.109,-539.062,14.160,25.391,0
1579286894.740,14.648,-17.090,-619.629,37.109,-2.930,0
1579286894.744,41.992,-21.484,-666.504,46.387,-6.836,0
1579286894.748,65.430,72.754,-337.891,52.734,27.344,0
1579286894.752,81.543,56.152,-296.387,62.500,22.949,0
1579286894.769,111.816,40.527,-333.496,76.172,24.902,0
1579286894.773,133.301,20.508,-406.738,99.121,41.504,0
1579286894.777,118.164,24.902,-412.598,111.328,51.270,0
1579286894.781,123.047,38.086,-280.762,118.164,50.781,0
1579286894.785,143.066,6.836,-284.180,137.207,13.184,0
1579286894.789,149.414,-7.812,-349.121,149.902,-4.395,0
1579286894.793,153.320,-26.367,-481.934,140.137,13.184,0
1579286894.796,169.434,-0.977,-471.680,131.836,30.273,0
1579286894.800,134.277,66.895,-222.656,133.789,42.480,0
1579286894.804,102.539,41.504,-137.695,139.160,38.086,0
1579286894.808,123.535,50.293,5.859,140.625,63.965,0
1579286894.812,143.066,22.949,83.984,146.973,80.566,0
1579286894.809,147.461,-28.320,-77.148,147.949,25.391,0
1579286894.813,152.832,40.039,67.383,140.625,19.531,0
1579286894.817,149.902,40.039,150.879,140.137,35.156,0
1579286894.821,127.441,46.875,231.934,142.090,59.082,0
1579286894.825,114.746,36.133,323.730,134.766,77.148,0
1579286894.829,122.070,-10.254,229.492,120.605,49.316,0
1579286894.833,132.324,5.371,269.043,115.723,42.969,0
1579286894.836,125.977,41.504,500.977,110.840,92.285,0
1579286894.840,114.258,46.875,612.305,108.398,83.984,0
1579286894.844,109.863,19.531,593.262,107.910,46.875,0
1579286894.848,117.188,-53.223,279.785,111.328,25.391,0
1579286894.852,110.840,17.578,327.148,99.609,46.387,0
1579286894.849,93.750,65.430,616.211,94.238,78.613,0
1579286894.853,83.008,27.832,594.238,100.586,58.594,0
1579286894.857,72.754,46.387,724.121,99.121,49.805,0
1579286894.861,77.637,45.898,792.969,96.191,62.012,0
1579286894.865,102.539,64.453,844.238,95.703,73.242,0
1579286894.869,124.023,15.137,668.457,98.145,52.734,0
1579286894.873,92.773,6.348,535.645,87.402,41.504,0
1579286894.876,84.473,55.176,728.516,92.285,60.059,0
1579286894.880,93.262,-28.320,500.977,104.492,45.410,0
1579286894.884,84.961,-24.902,352.051,89.844,29.785,0
1579286894.888,93.262,63.965,641.113,80.566,48.340,0
1579286894.892,79.102,50.781,691.406,74.707,63.965,0
1579286894.909,83.008,32.715,678.223,75.195,66.406,0
1579286894.913,85.938,5.371,567.871,77.637,53.223,0
1579286894.917,71.289,20.508,555.664,62.012,60.059,0
1579286894.921,82.031,3.906,522.949,55.176,58.105,0
1579286894.925,70.801,-17.090,458.008,72.266,45.410,0
1579286894.929,61.035,1.953,504.395,68.848,26.367,0
1579286894.933,65.430,-33.203,396.484,48.340,38.086,0
1579286894.936,46.387,-34.668,371.582,41.992,35.156,0
1579286894.940,47.363,50.293,682.617,46.875,32.715,0
1579286894.944,55.176,62.500,888.672,52.734,59.570,0
1579286894.948,71.289,34.668,954.590,59.570,63.965,0
1579286894.952,71.777,-6.836,911.621,60.547,44.434,0
1579286894.948,47.363,15.625,938.477,63.477,50.293,0
1579286894.952,53.223,39.551,-986.816,63.477,60.547,0
1579286894.956,55.664,17.578,994.629,64.941,29.785,0
1579286894.960,56.641,26.367,999.512,61.523,16.602,0
1579286894.964,41.992,-2.441,999.512,59.570,0.488,0
1579286894.968,24.414,-10.742,999.512,55.176,22.461,0
1579286894.972,31.738,11.230,999.512,53.223,42.480,0
1579286894.975,41.992,11.719,999.512,53.711,21.484,0
1579286894.979,51.758,61.035,999.512,61.035,25.879,0
1579286894.983,47.852,43.945,999.512,73.242,47.363,0
1579286894.987,56.641,-12.207,999.512,63.477,54.688,0
1579286894.991,72.266,54.688,999.512,53.223,45.410,0
1579286894.989,80.566,83.984,999.512,63.965,37.109,0
1579286894.993,59.570,80.078,999.512,70.801,51.758,0
1579286894.997,37.598,62.500,999.512,67.871,75.195,0
1579286895.001,47.852,35.645,999.512,70.312,65.918,0
1579286895.005,51.758,51.758,999.512,72.754,48.340,0
1579286895.009,41.504,16.602,999.512,68.848,35.156,0
1579286895.013,62.012,29.297,999.512,71.289,55.176,0
1579286895.016,82.031,61.523,999.512,82.031,75.684,0
1579286895.020,50.293,15.625,999.512,69.824,31.250,0
1579286895.024,35.645,29.297,999.512,43.945,20.996,0
1579286895.028,47.852,62.500,999.512,44.922,45.898,0
1579286895.032,49.805,55.176,999.512,58.594,17.578,0
1579286895.048,45.898,61.035,999.512,57.617,21.484,0
1579286895.052,51.270,14.648,999.512,58.594,31.250,0
1579286895.056,67.383,33.691,999.512,65.918,21.484,0
1579286895.060,74.707,80.078,999.512,65.430,20.508,0
1579286895.064,86.914,47.852,999.512,69.336,0.488,0
1579286895.068,77.148,34.180,999.512,65.430,17.578,0
1579286895.072,55.176,-15.137,999.512,62.012,21.973,0
1579286895.075,61.035,13.184,999.512,58.594,7.812,0
1579286895.079,52.734,106.934,999.512,49.316,26.855,0
1579286895.083,49.316,93.750,999.512,54.688,30.762,0
1579286895.087,54.688,73.242,999.512,62.988,18.555,0
1579286895.091,84.961,62.500,999.512,56.152,24.414,0
1579286895.089,67.383,48.340,999.512,47.852,4.395,0
1579286895.093,26.855,61.523,999.512,49.805,-29.785,0
1579286895.097,36.621,81.543,999.512,51.758,-10.742,0
1579286895.101,46.387,87.402,999.512,56.152,10.254,0
1579286895.105,57.617,78.125,999.512,52.246,36.621,0
1579286895.109,29.297,49.316,999.512,47.852,35.156,0
1579286895.113,31.250,47.852,999.512,48.828,-2.441,0
1579286895.116,52.734,87.402,999.512,45.898,10.254,0
1579286895.120,38.086,108.398,999.512,40.039,28.809,0
1579286895.124,42.969,31.738,999.512,42.480,-12.695,0
1579286895.128,90.820,5.371,999.512,52.246,-45.898,0
1579286895.132,75.195,99.609,999.512,50.781,-18.066,0
1579286895.129,44.434,113.770,999.512,59.082,5.859,0
1579286895.133,76.660,117.676,999.512,62.012,19.043,0
1579286895.137,74.219,72.266,999.512,59.082,15.137,0
1579286895.141,50.781,56.152,999.512,62.500,11.719,0
1579286895.145,43.945,113.281,999.512,60.547,22.461,0
1579286895.149,62.012,83.496,999.512,66.895,23.926,0
1579286895.153,76.172,64.941,999.512,71.777,10.254,0
1579286895.156,65.918,54.688,999.512,61.523,-23.438,0
1579286895.160,56.152,25.391,999.512,48.340,-30.762,0
1579286895.164,59.082,87.891,999.512,40.039,-35.156,0
1579286895.168,62.500,123.535,999.512,36.133,-48.828,0
1579286895.172,52.246,105.957,999.512,38.086,-47.852,0
1579286895.189,41.992,104.492,999.512,46.387,-17.090,0
1579286895.193,46.875,94.727,999.512,54.688,-0.488,0
1579286895.197,58.105,110.840,999.512,49.316,-12.207,0
1579286895.201,70.312,112.305,999.512,51.270,-5.371,0
1579286895.205,54.688,99.609,999.512,59.082,-10.742,0
1579286895.209,35.156,85.938,999.512,62.988,4.883,0
1579286895.213,57.129,26.367,999.512,58.105,-0.488,0
1579286895.216,46.387,54.688,999.512,45.898,-42.480,0
1579286895.220,36.133,138.184,999.512,45.898,-32.227,0
1579286895.224,37.109,130.859,999.512,62.500,3.418,0
1579286895.228,57.129,113.281,999.512,57.129,3.906,0
1579286895.232,68.848,98.633,999.512,33.203,-15.137,0
1579286895.229,43.945,120.117,999.512,34.180,-11.719,0
1579286895.233,39.551,125.488,999.512,47.363,-3.906,0
1579286895.237,53.223,116.699,999.512,54.688,-0.977,0
1579286895.241,53.223,113.770,999.512,54.199,2.441,0
1579286895.245,39.062,77.637,999.512,51.758,-31.250,0
1579286895.249,17.090,65.430,999.512,55.664,-53.223,0
1579286895.253,30.273,87.891,999.512,57.617,-14.160,0
1579286895.256,30.762,104.492,999.512,56.152,-14.648,0
1579286895.260,32.227,119.141,999.512,57.617,-6.348,0
1579286895.264,47.363,38.086,999.512,62.988,-36.621,0
1579286895.268,50.293,51.270,999.512,52.734,-61.523,0
1579286895.272,35.156,131.836,999.512,55.176,-0.488,0
1579286895.269,43.945,107.422,999.512,60.059,2.441,0
1579286895.273,37.598,109.375,999.512,46.387,-5.371,0
1579286895.277,30.762,62.500,999.512,46.875,10.742,0
1579286895.281,50.293,37.598,999.512,35.645,0.000,0
1579286895.285,30.762,97.168,999.512,24.414,-30.273,0
1579286895.289,33.203,62.500,999.512,32.715,-50.293,0
1579286895.293,67.383,95.215,999.512,38.086,-14.160,0
1579286895.296,51.270,89.355,999.512,27.344,11.719,0
1579286895.300,13.184,26.855,999.512,25.391,-17.090,0
1579286895.304,16.113,91.309,999.512,34.668,-45.410,0
1579286895.308,33.691,125.000,999.512,37.598,-13.672,0
1579286895.312,42.969,103.516,999.512,38.574,3.418,0
1579286895.329,53.223,61.035,999.512,35.645,-15.625,0
1579286895.333,61.523,61.523,999.512,39.551,-36.621,0
1579286895.337,42.969,94.238,999.512,36.133,-32.715,0
1579286895.341,26.855,104.492,998.535,37.598,-3.906,0
1579286895.345,20.020,100.586,997.070,33.203,-3.906,0
1579286895.349,24.414,70.312,-989.746,27.344,0.000,0
1579286895.353,30.273,9.766,934.082,32.715,-31.738,0
1579286895.356,24.414,80.078,938.965,33.691,-51.270,0
1579286895.360,17.578,162.109,-988.281,46.387,-41.504,0
1579286895.364,36.621,150.391,996.094,67.871,-121.094,0
1579286895.368,54.199,169.922,999.023,71.289,-201.172,0
1579286895.372,33.691,193.359,999.512,49.805,-207.031,0
1579286895.369,55.176,216.797,999.512,37.598,-193.359,0
1579286895.373,50.781,195.312,999.512,41.992,-216.309,0
1579286895.377,-2.441,135.742,999.512,27.832,-228.516,0
1579286895.381,-11.719,92.285,999.512,24.414,-218.750,0
1579286895.385,-13.184,87.402,999.512,21.484,-204.102,0
1579286895.389,-3.418,67.871,999.512,17.578,-201.660,0
1579286895.393,3.418,72.266,999.512,14.160,-200.195,0
1579286895.396,12.695,99.121,999.512,-1.465,-178.711,0
1579286895.400,-5.859,106.934,999.512,3.418,-161.133,0
1579286895.404,-18.066,22.949,999.512,16.113,-176.270,0
1579286895.408,5.371,4.883,999.512,14.160,-195.801,0
1579286895.412,-6.836,97.168,999.512,11.719,-156.738,0
1579286895.410,-13.184,90.332,999.512,15.137,-124.023,0
1579286895.414,15.137,82.520,999.512,22.461,-100.098,0
1579286895.418,18.555,47.363,999.512,25.879,-113.770,0
1579286895.422,34.668,42.480,999.512,29.297,-125.000,0
1579286895.426,40.527,62.988,-998.535,25.391,-100.586,0
1579286895.430,35.156,19.043,983.398,29.785,-112.305,0
1579286895.434,29.297,29.297,-966.797,26.367,-118.164,0
1579286895.437,1.953,5.859,881.836,11.230,-112.305,0
1579286895.441,11.230,-11.230,640.137,13.672,-120.117,0
1579286895.445,17.090,88.867,866.211,15.137,-68.848,0
1579286895.449,36.621,91.309,976.562,22.461,-40.039,0
1579286895.453,50.781,63.477,871.094,24.414,-50.293,0
1579286895.469,39.062,30.273,684.082,24.414,-57.617,0
1579286895.473,32.715,37.109,606.934,30.762,-32.227,0
1579286895.477,30.273,65.918,660.645,30.273,-8.789,0
1579286895.481,33.691,53.223,588.379,30.273,-6.836,0
1579286895.485,38.086,47.852,542.969,30.273,-11.230,0
1579286895.489,37.109,-12.695,303.223,36.621,-41.016,0
1579286895.493,41.504,-11.719,149.414,35.156,-31.250,0
1579286895.496,67.871,59.570,340.332,35.645,-24.414,0
1579286895.500,71.289,30.273,291.016,49.316,-48.828,0
1579286895.504,37.598,33.691,262.695,36.133,-24.414,0
1579286895.508,17.090,48.828,348.145,26.855,3.418,0
1579286895.512,37.598,6.836,142.090,33.691,-12.695,0
1579286895.509,54.199,42.480,185.059,43.457,-12.207,0
1579286895.513,64.453,57.617,367.676,50.781,12.207,0
1579286895.517,53.711,42.480,405.762,50.293,15.137,0
1579286895.521,41.016,24.414,381.836,38.574,1.465,0
1579286895.525,43.457,-4.395,286.621,27.832,-12.695,0
1579286895.529,48.340,-5.371,232.910,37.598,-23.438,0
1579286895.533,64.453,3.418,232.422,39.551,-14.160,0
1579286895.536,71.289,37.109,368.164,34.180,27.344,0
1579286895.540,56.152,46.387,448.730,24.414,6.836,0
1579286895.544,38.086,-41.992,109.375,21.484,-28.320,0
1579286895.548,37.598,-28.809,18.555,20.020,-17.578,0
1579286895.552,33.203,34.668,254.395,29.297,-12.207,0
1579286895.549,36.133,23.438,269.531,31.738,0.000,0
1579286895.553,56.641,34.180,295.410,31.250,-0.488,0
1579286895.557,67.383,16.113,178.223,49.316,3.906,0
1579286895.561,20.508,16.602,67.383,48.340,20.020,0
1579286895.565,21.484,10.254,-39.551,39.551,14.648,0
1579286895.569,48.828,-18.555,-303.223,36.133,1.953,0
1579286895.573,46.875,0.000,-442.871,33.203,5.859,0
1579286895.576,52.734,-27.344,-616.699,42.969,17.578,0
1579286895.580,62.500,-39.062,-799.316,47.363,-1.465,0
1579286895.584,43.457,45.410,-629.883,33.203,-6.348,0
1579286895.588,17.090,74.219,-479.004,20.996,54.688,0
1579286895.592,29.785,50.293,-505.371,14.648,64.941,0
1579286895.609,54.199,15.625,-679.199,16.113,39.551,0
1579286895.613,42.480,24.414,-770.996,17.578,40.527,0
1579286895.617,22.461,33.203,-826.660,18.066,33.691,0
1579286895.621,27.344,39.551,-826.660,16.113,48.828,0
1579286895.625,22.949,51.758,-750.977,8.301,55.176,0
1579286895.629,9.277,-14.160,-872.070,7.812,47.363,0
1579286895.633,33.691,-17.578,-911.621,9.277,43.945,0
1579286895.636,55.176,57.129,-722.656,8.301,47.363,0
1579286895.640,59.570,33.691,-726.562,8.301,24.902,0
1579286895.644,25.879,45.898,-662.109,-2.930,40.527,0
1579286895.648,8.301,12.207,-666.992,-9.766,49.805,0
1579286895.652,21.973,-25.879,-858.887,-4.395,22.461,0
1579286895.649,-8.789,51.270,-683.105,-8.789,42.969,0
1579286895.653,-32.227,71.289,-442.383,-19.043,84.961,0
1579286895.657,-20.508,46.387,-433.105,-22.461,57.617,0
1579286895.661,-36.621,13.184,-549.805,-36.621,30.273,0
1579286895.665,-57.129,10.742,-592.285,-47.852,59.082,0
1579286895.669,-46.875,19.043,-630.371,-54.688,80.078,0
1579286895.673,-49.805,-16.113,-859.863,-66.406,57.617,0
1579286895.676,-84.473,-4.395,-943.848,-94.238,54.199,0
1579286895.680,-111.328,32.227,-743.164,-125.488,87.891,0
1579286895.684,-118.164,-30.762,-852.051,-131.348,71.289,0
1579286895.688,-132.324,4.395,-810.059,-152.344,67.383,0
1579286895.692,-163.574,65.430,-459.961,-184.082,77.637,0
1579286895.689,-156.250,45.898,-331.543,-177.734,68.359,0
1579286895.693,-146.973,45.410,-185.059,-169.434,77.148,0
1579286895.697,-169.434,23.926,-114.258,-172.363,68.359,0
1579286895.701,-145.020,46.875,52.246,-155.762,57.617,0
1579286895.705,-128.906,59.570,285.645,-136.230,65.430,0
1579286895.709,-105.469,22.461,337.402,-113.281,62.500,0
1579286895.713,-86.426,25.391,468.262,-92.773,63.477,0
1579286895.716,-62.500,2.441,541.016,-72.754,27.832,0
1579286895.720,-34.180,24.902,709.473,-48.340,18.555,0
1579286895.724,-11.230,94.727,-989.258,-20.020,68.848,0
1579286895.728,20.020,71.777,997.070,18.066,54.688,0
1579286895.732,56.641,58.594,996.582,45.898,29.297,0
1579286895.748,68.848,5.371,975.098,68.359,10.254,0
1579286895.752,77.148,21.484,978.516,78.613,32.227,0
1579286895.756,86.914,76.172,-995.605,100.586,27.344,0
1579286895.760,125.488,66.895,997.559,113.281,-2.930,0
1579286895.764,137.695,81.543,999.512,107.910,-26.367,0
1579286895.768,105.469,25.879,999.512,114.746,-45.898,0
1579286895.772,116.699,27.344,999.512,120.117,-39.062,0
1579286895.775,134.277,113.281,999.512,126.953,-41.016,0
1579286895.779,149.414,95.703,999.512,136.230,-77.148,0
1579286895.783,145.020,93.262,999.512,142.090,-71.289,0
1579286895.787,147.949,64.941,999.512,147.461,-62.988,0
1579286895.791,167.480,41.992,999.512,153.320,-85.938,0
1579286895.789,148.438,83.008,999.512,136.230,-78.613,0
1579286895.793,136.719,87.402,999.512,125.000,-60.547,0
1579286895.797,134.277,83.496,999.512,127.930,-47.852,0
1579286895.801,134.766,59.570,999.512,132.812,-27.832,0
1579286895.805,140.625,42.969,999.512,133.789,-40.527,0
1579286895.809,143.555,41.016,999.512,129.395,-75.684,0
1579286895.813,154.297,64.453,999.512,127.930,-61.035,0
1579286895.816,145.508,105.469,999.512,124.023,-44.434,0
1579286895.820,145.020,68.359,999.512,113.281,-59.082,0
1579286895.824,136.230,10.742,999.512,96.680,-81.055,0
1579286895.828,80.566,79.590,999.512,88.867,-94.727,0
1579286895.832,79.102,146.484,999.512,93.750,-24.902,0
1579286895.829,104.980,118.164,999.512,95.703,-17.090,0
1579286895.833,108.887,83.984,999.512,90.332,-53.711,0
1579286895.837,104.980,85.449,999.512,85.938,-30.762,0
1579286895.841,105.469,118.652,999.512,83.984,-22.461,0
1579286895.845,98.633,121.094,999.512,89.355,-30.273,0
1579286895.849,102.539,89.844,999.512,91.309,-48.340,0
1579286895.853,98.633,103.516,999.512,81.055,-58.594,0
1579286895.856,84.961,81.055,999.512,74.707,-66.895,0
1579286895.860,93.262,111.816,999.512,76.172,-63.965,0
1579286895.864,104.492,179.688,999.512,78.125,-60.059,0
1579286895.868,86.426,150.879,999.512,73.730,-109.863,0
1579286895.872,72.266,153.809,999.512,74.219,-122.559,0
1579286895.888,63.965,164.062,999.512,75.195,-86.426,0
1579286895.892,70.312,175.293,999.512,69.336,-98.633,0
1579286895.896,96.191,181.152,999.512,57.129,-111.816,0
1579286895.900,85.449,176.758,999.512,55.176,-113.770,0
1579286895.904,93.750,161.621,999.512,69.336,-103.516,0
1579286895.908,90.332,144.043,999.512,72.266,-91.309,0
1579286895.912,71.777,159.668,999.512,69.336,-103.516,0
1579286895.915,73.242,189.941,999.512,59.570,-100.098,0
1579286895.919,63.477,186.523,999.512,58.105,-81.543,0
1579286895.923,67.871,174.805,999.512,62.988,-104.980,0
1579286895.927,68.848,118.164,999.512,59.570,-136.719,0
1579286895.931,69.336,120.605,999.512,56.641,-120.117,0
1579286895.929,60.547,206.543,999.512,62.500,-78.613,0
1579286895.933,62.500,197.266,999.512,62.988,-69.336,0
1579286895.937,70.312,185.547,999.512,49.805,-80.566,0
1579286895.941,65.430,167.480,999.512,47.363,-105.469,0
1579286895.945,76.172,177.246,999.512,54.688,-102.051,0
1579286895.949,73.242,179.688,999.512,62.012,-78.613,0
1579286895.953,59.570,179.199,999.512,55.664,-67.383,0
1579286895.956,62.988,182.129,999.512,47.363,-84.473,0
1579286895.960,64.941,125.000,999.512,44.922,-105.957,0
1579286895.964,66.406,139.648,999.512,43.457,-81.543,0
1579286895.968,55.664,200.684,999.512,41.992,-46.875,0
1579286895.972,49.805,182.617,999.512,37.109,-45.898,0
1579286895.969,46.875,171.875,999.512,38.574,-63.477,0
1579286895.973,44.434,138.672,999.512,53.711,-60.547,0
1579286895.977,62.012,116.211,999.512,60.059,-56.641,0
1579286895.981,61.523,171.387,999.512,48.340,-42.480,0
1579286895.985,53.711,165.527,999.023,48.340,-27.344,0
1579286895.989,63.477,131.836,999.023,59.082,-20.020,0
1579286895.993,61.523,115.234,-997.070,62.012,-20.996,0
1579286895.996,35.156,76.660,974.609,54.199,-46.875,0
1579286896.000,30.762,128.418,979.492,38.574,-42.480,0
1579286896.004,27.344,182.129,-997.559,29.785,-8.301,0
1579286896.008,37.109,145.996,-1000.000,33.203,11.230,0
1579286896.012,48.828,118.652,995.117,42.969,-2.441,0
1579286896.028,56.641,125.000,964.355,35.645,-10.254,0
1579286896.032,42.480,142.578,937.500,31.738,1.953,0
1579286896.036,26.855,139.648,868.652,37.109,6.348,0
1579286896.040,51.270,131.836,776.855,32.715,10.254,0
1579286896.044,45.410,118.164,646.484,33.691,-4.883,0
1579286896.048,33.691,91.309,415.039,46.387,0.488,0
1579286896.052,39.062,93.262,246.582,54.199,8.789,0
1579286896.055,43.945,122.070,251.953,44.922,24.414,0
1579286896.059,41.992,112.305,115.234,29.297,20.020,0
1579286896.063,38.086,107.910,-16.113,25.879,17.090,0
1579286896.067,36.621,30.762,-420.410,33.203,-7.812,0
1579286896.071,36.133,33.203,-694.824,39.062,-18.555,0
1579286896.068,23.438,115.234,-488.281,35.645,14.648,0
1579286896.072,17.578,67.871,-640.625,31.738,4.883,0
1579286896.076,55.664,65.430,-729.004,35.645,29.297,0
1579286896.080,54.199,68.359,-762.695,34.180,29.785,0
1579286896.084,7.812,54.199,-867.676,35.645,2.441,0
1579286896.088,16.113,41.504,-925.781,43.945,17.578,0
1579286896.092,34.668,30.273,-974.609,42.969,6.348,0
1579286896.095,51.758,78.125,-965.332,42.480,18.555,0
1579286896.099,67.383,23.926,-968.750,40.039,29.785,0
1579286896.103,44.434,-25.391,-968.750,32.715,-11.719,0
1579286896.107,40.527,52.246,-968.750,30.273,-10.742,0
1579286896.111,59.082,61.523,-968.750,37.598,21.484,0
1579286896.109,56.641,53.223,-968.750,36.621,44.922,0
1579286896.113,41.016,18.555,-968.262,36.133,39.062,0
1579286896.117,45.898,6.348,-968.750,34.180,27.344,0
1579286896.121,41.016,28.320,-968.750,30.273,18.555,0
1579286896.125,21.484,16.113,-968.750,32.227,26.367,0
1579286896.129,47.363,10.742,-968.750,27.344,21.973,0
1579286896.133,39.551,-6.348,-968.750,26.855,12.695,0
1579286896.136,3.906,2.930,-968.750,25.879,26.367,0
1579286896.140,23.926,51.758,-968.750,28.809,48.828,0
1579286896.144,49.805,26.855,-968.262,33.203,23.926,0
1579286896.148,57.129,19.531,-968.750,24.902,2.930,0
1579286896.152,73.730,2.930,-968.750,26.855,5.371,0
1579286896.169,76.172,-17.578,-968.262,30.762,5.859,0
1579286896.173,32.227,33.203,-968.750,29.785,11.719,0
1579286896.177,14.648,52.734,-968.750,30.273,31.738,0
1579286896.181,13.672,48.340,-968.750,29.297,46.875,0
1579286896.185,9.766,32.227,-968.750,37.598,34.668,0
1579286896.189,25.391,2.441,-968.262,51.270,11.719,0
1579286896.193,31.250,38.574,-968.262,39.551,17.090,0
1579286896.196,25.879,53.223,-968.750,21.484,35.156,0
1579286896.200,35.645,44.922,-968.262,16.113,17.578,0
1579286896.204,69.336,54.688,-968.262,23.438,43.457,0
1579286896.208,54.199,14.648,-968.750,33.691,55.176,0
1579286896.212,32.715,13.672,-968.750,29.785,43.457,0
1579286896.209,33.203,39.062,-968.262,32.227,34.180,0
1579286896.213,32.227,41.504,-968.262,47.852,33.691,0
1579286896.217,52.734,44.434,-968.262,42.969,57.129,0
1579286896.221,48.340,0.488,-968.262,40.039,27.344,0
1579286896.225,6.836,16.113,-968.750,27.344,35.645,0
1579286896.229,20.996,14.648,-968.750,17.578,48.340,0
1579286896.233,48.340,3.906,-968.262,25.879,35.645,0
1579286896.236,48.340,42.480,-968.262,22.949,31.250,0
1579286896.240,34.180,5.859,-968.262,16.602,17.578,0
1579286896.244,3.418,8.301,-968.750,19.043,46.875,0
1579286896.248,12.207,33.691,-968.262,26.855,68.359,0
1579286896.252,38.086,23.926,-968.262,27.832,56.152,0
1579286896.269,68.848,27.832,-968.262,19.043,31.738,0
1579286896.273,54.199,-38.086,-968.750,13.184,-5.371,0
1579286896.277,2.930,-31.250,-968.262,25.879,24.902,0
1579286896.281,9.766,25.391,-963.867,40.527,51.758,0
1579286896.285,46.875,-21.973,-974.121,44.434,-0.977,0
1579286896.289,24.414,-39.551,-883.301,39.062,2.441,0
1579286896.293,-3.906,-65.918,-761.230,36.621,16.113,0
1579286896.296,23.438,-67.871,-685.547,42.969,-1.465,0
1579286896.300,25.879,0.000,-357.422,45.410,-28.320,0
1579286896.304,38.086,9.766,-37.109,51.758,-25.879,0
1579286896.308,45.410,13.184,215.820,41.504,-14.648,0
1579286896.312,41.992,7.324,405.273,30.762,-10.254,0
1579286896.309,50.293,-20.996,441.895,29.785,-38.086,0
1579286896.313,25.391,3.906,598.633,28.320,-67.871,0
1579286896.317,2.930,49.805,892.090,30.273,-45.898,0
1579286896.321,35.645,68.359,-989.258,34.668,-27.344,0
1579286896.325,56.152,40.039,989.746,46.875,-33.203,0
1579286896.329,55.664,6.836,999.512,37.598,-48.340,0
1579286896.333,38.574,37.598,-1000.000,35.645,-58.594,0
1579286896.336,30.273,77.148,998.535,45.898,-41.992,0
1579286896.340,30.762,76.660,996.582,36.621,-48.828,0
1579286896.344,30.762,62.012,-987.793,32.715,-55.176,0
1579286896.348,38.086,-4.883,922.363,36.621,-61.035,0
1579286896.352,35.156,31.250,927.246,26.367,-51.758,0
1579286896.349,31.738,103.027,-986.328,27.344,-2.930,0
1579286896.353,39.062,79.590,990.723,25.879,-5.859,0
1579286896.357,35.645,71.289,-989.258,19.043,-22.949,0
1579286896.361,41.992,43.945,919.922,20.508,-27.832,0
1579286896.365,49.316,57.617,845.215,22.949,6.348,0
1579286896.369,39.551,61.035,721.191,23.926,10.742,0
1579286896.373,28.320,37.598,502.930,27.832,-16.602,0
1579286896.376,-2.930,74.219,566.406,28.320,5.859,0
1579286896.380,15.625,39.551,347.656,31.738,3.906,0
1579286896.384,34.668,46.875,123.535,36.133,0.977,0
1579286896.388,27.832,107.422,211.914,38.086,-1.953,0
1579286896.392,32.227,92.285,47.852,40.039,13.672,0
1579286896.409,41.504,88.379,-123.047,42.480,58.594,0
1579286896.413,47.363,63.477,-355.469,38.574,70.801,0
1579286896.417,46.875,56.641,-503.906,27.832,58.105,0
1579286896.421,45.410,53.711,-602.051,31.250,22.949,0
1579286896.425,47.363,48.340,-768.066,37.109,30.273,0
1579286896.429,39.062,32.227,-929.688,34.180,47.852,0
1579286896.433,37.598,-13.672,-974.609,32.715,40.039,0
1579286896.436,56.641,3.906,-962.891,32.227,28.809,0
1579286896.440,49.805,80.566,-969.238,33.691,37.109,0
1579286896.444,42.969,79.102,-968.262,34.668,61.523,0
1579286896.448,36.621,59.082,-968.262,17.578,51.758,0
1579286896.452,60.059,13.672,-968.750,8.301,23.926,0
1579286896.449,67.383,9.277,-968.750,16.602,30.762,0
1579286896.453,23.926,34.668,-968.750,23.438,49.805,0
1579286896.457,36.133,31.738,-968.262,24.414,67.383,0
1579286896.461,29.785,33.203,-968.262,20.996,87.402,0
1579286896.465,21.973,-5.859,-968.750,17.090,77.148,0
1579286896.469,30.273,-37.109,-968.750,20.020,55.664,0
1579286896.473,43.457,-11.719,-968.750,18.066,50.781,0
1579286896.476,49.316,24.414,-968.262,10.742,73.242,0
1579286896.480,30.762,38.086,-968.262,17.578,75.684,0
1579286896.484,37.109,-7.324,-968.750,29.297,62.500,0
1579286896.488,32.715,-58.594,-968.262,22.949,58.594,0
1579286896.492,16.113,0.000,-968.750,19.043,67.383,0
1579286896.489,17.090,24.902,-968.750,23.438,78.613,0
1579286896.493,23.438,4.395,-968.750,29.297,65.918,0
1579286896.497,43.457,-9.766,-968.262,40.527,80.566,0
1579286896.501,39.551,-23.438,-968.262,40.527,75.195,0
1579286896.505,43.457,-17.578,-968.262,36.621,31.250,0
1579286896.509,36.621,-31.250,-968.750,33.203,41.504,0
1579286896.513,21.973,-24.902,-968.750,34.668,70.801,0
1579286896.516,38.086,2.930,-968.262,34.180,69.824,0
1579286896.520,46.387,-66.406,-968.750,31.738,14.648,0
1579286896.524,59.570,-32.715,-968.750,23.926,-1.953,0
1579286896.528,50.781,66.895,-968.262,23.926,88.379,0
1579286896.532,32.715,31.250,-968.262,26.367,82.520,0
1579286896.549,36.133,-15.137,-968.262,33.203,40.527,0
1579286896.553,45.410,-24.414,-968.750,59.082,27.832,0
1579286896.557,53.711,12.207,-967.285,49.805,27.344,0
1579286896.561,29.785,9.766,-971.680,25.391,31.738,0
1579286896.565,-2.441,3.906,-948.242,15.137,23.438,0
1579286896.569,9.766,3.906,-885.254,29.297,57.129,0
1579286896.573,31.250,-20.508,-890.625,37.598,56.641,0
1579286896.576,41.016,15.137,-726.074,17.090,40.527,0
1579286896.580,41.016,45.898,-461.914,8.789,42.480,0
1579286896.584,27.832,31.738,-378.418,-1.953,58.105,0
1579286896.588,9.766,38.086,-274.414,-8.789,54.688,0
1579286896.592,18.555,-8.301,-356.934,-2.441,41.016,0
1579286896.589,41.016,-4.883,-313.965,3.418,39.062,0
1579286896.593,38.574,59.082,17.578,-3.906,33.691,0
1579286896.597,37.109,50.293,140.137,-12.207,32.227,0
1579286896.601,46.875,41.016,193.848,0.977,54.199,0
1579286896.605,74.707,8.301,113.770,8.789,50.293,0
1579286896.609,85.449,-4.883,21.484,20.508,13.184,0
1579286896.613,30.762,15.137,76.660,38.574,31.250,0
1579286896.616,15.137,26.367,130.859,25.391,54.688,0
1579286896.620,47.852,60.059,289.551,11.230,86.914,0
1579286896.624,62.988,5.859,170.410,22.461,70.801,0
1579286896.628,55.664,-36.621,-66.895,8.301,17.578,0
1579286896.632,46.387,28.320,64.941,-0.977,26.855,0
1579286896.629,31.250,41.504,133.789,12.207,41.504,0
1579286896.633,32.715,36.133,103.027,17.578,34.180,0
1579286896.637,52.246,-4.395,-69.824,27.832,11.719,0
1579286896.641,62.988,-34.180,-336.914,31.738,-5.371,0
1579286896.645,37.598,36.133,-141.602,26.367,34.180,0
1579286896.649,29.297,15.625,-82.520,27.832,54.688,0
1579286896.653,58.105,-8.301,-294.434,24.414,15.137,0
1579286896.656,70.801,1.465,-326.660,23.438,-2.441,0
1579286896.660,19.531,-9.277,-400.879,28.809,16.113,0
1579286896.664,1.953,27.344,-313.477,18.066,33.691,0
1579286896.668,29.297,36.621,-170.410,17.578,65.430,0
1579286896.672,48.828,23.438,-201.172,25.391,63.477,0
1579286896.688,55.664,-1.953,-307.617,35.156,31.738,0
1579286896.692,46.387,-34.668,-555.664,32.227,7.812,0
1579286896.696,38.086,-5.371,-593.262,21.484,0.488,0
1579286896.700,36.621,13.672,-513.672,6.836,10.254,0
1579286896.704,64.941,2.930,-561.523,9.277,12.695,0
1579286896.708,73.730,-10.742,-666.016,36.133,22.461,0
1579286896.712,77.148,-59.082,-899.902,27.344,3.906,0
1579286896.715,76.172,-20.020,-901.855,19.043,5.859,0
1579286896.719,36.133,55.176,-711.914,25.879,41.016,0
1579286896.723,47.852,27.832,-767.090,25.879,34.668,0
1579286896.727,60.547,34.180,-755.859,30.762,48.340,0
1579286896.731,18.066,8.301,-852.051,40.527,-0.488,0
1579286896.729,17.090,5.371,-983.398,45.410,-36.621,0
1579286896.733,41.992,32.715,-930.664,42.969,13.184,0
1579286896.737,49.805,25.879,-919.434,45.898,31.738,0
1579286896.741,56.641,17.090,-962.402,43.457,9.766,0
1579286896.745,41.016,15.625,-971.680,52.734,18.555,0
1579286896.749,6.348,-2.930,-966.309,54.688,-4.395,0
1579286896.753,16.602,19.531,-969.238,41.504,25.391,0
1579286896.756,33.691,36.133,-968.750,37.598,49.805,0
1579286896.760,38.574,45.898,-968.262,38.086,13.672,0
1579286896.764,51.758,-0.488,-968.750,46.387,7.324,0
1579286896.768,50.781,2.441,-968.750,47.363,24.902,0
1579286896.772,46.875,60.547,-968.262,41.016,71.777,0
1579286896.769,46.387,3.418,-968.750,33.203,21.973,0
1579286896.773,47.852,31.738,-968.750,29.785,20.508,0
1579286896.777,69.824,14.160,-968.262,32.227,58.594,0
1579286896.781,51.270,-13.184,-968.750,43.457,53.223,0
1579286896.785,54.688,34.180,-968.750,37.109,42.969,0
1579286896.789,62.500,-6.836,-968.750,35.156,0.000,0
1579286896.793,15.137,4.883,-968.750,35.645,12.695,0
1579286896.796,23.438,10.742,-968.750,28.320,49.805,0
1579286896.800,36.133,-5.371,-968.262,29.785,56.641,0
1579286896.804,27.344,38.574,-968.262,31.250,52.734,0
1579286896.808,51.758,30.762,-968.750,38.574,54.688,0
1579286896.812,55.176,23.926,-968.750,41.016,57.129,0
1579286896.829,45.410,0.977,-968.750,43.945,55.664,0
1579286896.833,82.031,-45.898,-967.773,44.922,17.090,0
1579286896.837,31.738,7.324,-966.797,33.691,22.461,0
1579286896.841,-12.207,25.879,-978.027,34.180,47.363,0
1579286896.845,22.949,20.996,-907.715,42.480,63.965,0
1579286896.849,32.227,-0.977,-903.320,47.363,71.777,0
1579286896.853,46.387,-62.012,-996.094,48.340,25.391,0
1579286896.856,53.711,1.953,-879.883,45.410,34.668,0
1579286896.860,55.176,57.617,-713.867,48.340,56.152,0
1579286896.864,48.340,26.367,-678.711,45.410,29.297,0
1579286896.868,58.105,14.648,-664.062,33.691,24.414,0
1579286896.872,43.945,13.672,-626.465,39.062,57.617,0
1579286896.869,33.691,36.621,-496.582,44.434,89.844,0
1579286896.873,47.363,28.320,-452.148,40.039,64.453,0
1579286896.877,39.062,11.230,-500.488,43.457,14.648,0
1579286896.881,54.688,26.367,-439.453,48.828,8.301,0
1579286896.885,71.289,25.879,-379.883,47.852,32.715,0
1579286896.889,22.949,16.113,-387.207,37.598,46.875,0
1579286896.893,13.672,15.137,-346.680,31.738,61.523,0
1579286896.896,33.203,-1.953,-404.785,43.945,7.324,0
1579286896.900,23.438,24.414,-233.887,51.758,3.906,0
1579286896.904,31.738,-2.441,-205.566,43.457,33.691,0
1579286896.908,39.062,-1.465,-214.355,34.668,37.109,0
1579286896.912,47.363,35.645,-36.133,39.551,32.227,0
1579286896.909,68.848,25.391,-32.227,51.270,28.320,0
1579286896.913,58.105,38.574,51.270,53.711,42.969,0
1579286896.917,45.898,-28.320,-215.820,45.898,-5.371,0
1579286896.921,44.434,-30.762,-385.254,31.250,-27.832,0
1579286896.925,48.340,51.758,-94.727,29.785,17.090,0
1579286896.929,56.641,15.625,-163.574,41.504,43.457,0
1579286896.933,42.969,35.156,-184.570,44.922,55.176,0
1579286896.936,85.449,19.531,-223.145,45.898,48.340,0
1579286896.940,81.055,-44.434,-582.520,47.852,0.488,0
1579286896.944,14.648,43.945,-393.555,43.457,23.926,0
1579286896.948,20.508,62.988,-200.684,41.992,37.598,0
1579286896.952,28.320,30.762,-334.961,46.387,-13.672,0
1579286896.969,27.832,24.902,-398.438,41.992,11.719,0
1579286896.973,36.621,27.832,-391.602,38.574,51.270,0
1579286896.977,51.758,40.527,-342.285,41.504,37.109,0
1579286896.981,42.969,31.738,-390.137,42.480,15.625,0
1579286896.985,15.137,25.879,-453.125,44.434,-9.766,0
1579286896.989,55.664,-3.418,-571.777,49.805,1.953,0
1579286896.993,65.430,-29.785,-793.457,43.457,14.648,0
1579286896.996,29.785,32.715,-638.672,39.551,14.160,0
1579286897.000,35.156,63.477,-391.113,40.527,25.879,0
1579286897.004,25.879,56.641,-327.148,35.156,52.246,0
1579286897.008,33.203,30.762,-368.164,39.062,43.457,0
1579286897.012,36.133,-12.207,-582.031,36.621,15.137,0
1579286897.009,32.227,7.812,-628.418,25.391,6.348,0
1579286897.013,39.062,27.832,-563.477,24.902,-11.719,0
1579286897.017,56.641,36.133,-482.910,38.086,16.602,0
1579286897.021,76.172,27.344,-474.121,40.527,29.785,0
1579286897.025,56.152,1.465,-599.121,26.367,12.207,0
1579286897.029,37.598,5.859,-654.297,16.113,31.738,0
1579286897.033,37.598,9.766,-677.734,24.414,53.711,0
1579286897.036,44.922,16.113,-680.664,33.203,45.410,0
1579286897.040,34.180,33.203,-635.742,31.738,38.086,0
1579286897.044,39.062,-38.086,-817.871,37.109,11.230,0
1579286897.048,74.707,-42.969,-967.773,47.852,-19.531,0
1579286897.052,80.078,46.875,-791.016,45.898,44.434,0
1579286897.051,58.594,43.457,-698.242,40.527,64.453,0
1579286897.055,40.039,21.484,-728.516,31.738,32.227,0
1579286897.059,31.738,-2.930,-814.453,29.785,23.438,0
1579286897.063,24.414,13.672,-761.230,35.156,25.879,0
1579286897.067,19.043,38.574,-570.801,30.273,46.875,0
1579286897.071,23.438,4.883,-666.016,26.367,30.273,0
1579286897.075,48.828,7.812,-727.051,33.203,21.484,0
1579286897.078,55.176,-7.324,-809.082,43.457,15.625,0
1579286897.082,57.129,1.465,-854.980,27.344,6.836,0
1579286897.086,66.895,40.039,-705.566,6.348,5.859,0
1579286897.090,41.504,31.738,-646.484,12.207,21.973,0
1579286897.094,41.992,49.805,-516.602,24.414,54.688,0
1579286897.109,35.645,-1.465,-626.953,27.344,56.152,0
1579286897.113,3.906,-23.926,-786.133,11.719,31.250,0
1579286897.117,13.672,43.457,-578.613,6.836,30.273,0
1579286897.121,31.738,48.340,-472.168,19.043,45.898,0
1579286897.125,40.527,48.340,-416.016,22.949,56.152,0
1579286897.129,44.434,-8.789,-591.309,27.832,35.645,0
1579286897.133,57.129,-36.133,-881.348,30.762,-5.859,0
1579286897.136,62.988,57.129,-635.254,28.320,9.277,0
1579286897.140,55.176,76.660,-383.789,26.855,41.016,0
1579286897.144,40.039,65.430,-334.473,21.484,61.035,0
1579286897.148,19.043,24.414,-442.871,21.973,40.039,0
1579286897.152,11.719,14.648,-508.301,23.926,39.062,0
1579286897.149,31.738,47.363,-384.277,24.414,51.758,0
1579286897.153,35.156,30.762,-390.625,38.086,29.785,0
1579286897.157,65.430,33.691,-386.230,33.203,34.180,0
1579286897.161,78.125,14.648,-515.137,30.273,18.066,0
1579286897.165,36.133,8.789,-643.555,40.039,18.066,0
1579286897.169,29.297,15.137,-686.523,42.480,51.758,0
1579286897.173,41.992,14.648,-742.188,40.527,54.199,0
1579286897.176,43.457,31.738,-660.645,32.227,35.645,0
1579286897.180,42.969,8.789,-682.617,35.645,16.113,0
1579286897.184,54.688,-23.438,-876.953,43.945,18.066,0
1579286897.188,63.477,19.043,-819.824,39.062,17.578,0
1579286897.192,30.273,55.664,-637.695,29.785,3.418,0
1579286897.189,18.555,46.387,-603.516,36.621,19.531,0
1579286897.193,31.250,39.062,-566.895,41.992,40.039,0
1579286897.197,34.180,12.695,-689.453,41.504,13.672,0
1579286897.201,32.715,29.297,-697.754,44.434,-2.930,0
1579286897.205,46.875,43.457,-575.195,56.152,14.648,0
1579286897.209,61.523,19.043,-606.445,69.336,57.617,0
1579286897.213,73.730,33.691,-604.980,53.711,79.590,0
1579286897.216,39.551,-21.973,-784.668,34.668,22.461,0
1579286897.220,8.301,-26.367,-945.801,41.992,-7.324,0
1579286897.224,44.434,63.965,-777.344,40.039,34.668,0
1579286897.228,69.336,46.387,-735.352,45.898,56.152,0
1579286897.232,65.918,24.414,-793.945,48.340,50.781,0
1579286897.249,62.012,27.832,-783.203,44.434,53.711,0
1579286897.253,61.035,34.668,-695.801,45.898,45.410,0
1579286897.257,58.105,45.898,-543.945,48.828,67.383,0
1579286897.261,56.152,38.086,-474.121,52.734,104.492,0
1579286897.265,49.805,13.672,-562.500,48.828,50.781,0
1579286897.269,70.312,-35.645,-791.504,49.805,17.090,0
1579286897.273,67.383,-27.344,-851.562,53.223,33.203,0
1579286897.276,28.320,44.922,-569.336,53.711,48.828,0
1579286897.280,26.367,38.574,-468.262,41.016,61.523,0
1579286897.284,37.109,23.926,-481.445,36.621,39.551,0
1579286897.288,32.715,-11.230,-551.758,48.340,36.133,0
1579286897.292,30.762,-18.066,-576.660,45.898,54.199,0
1579286897.289,52.246,32.715,-418.945,32.227,26.367,0
1579286897.293,75.195,26.855,-379.883,29.785,14.648,0
1579286897.297,30.273,18.555,-380.859,39.062,26.855,0
1579286897.301,5.859,3.418,-393.066,53.223,22.949,0
1579286897.305,42.480,-7.324,-414.062,52.734,10.254,0
1579286897.309,40.527,-5.371,-439.453,42.480,-11.230,0
1579286897.313,16.113,-22.949,-529.297,45.410,-16.113,0
1579286897.316,35.645,13.184,-389.648,60.547,0.977,0
1579286897.320,41.504,30.273,-216.797,58.594,11.719,0
1579286897.324,29.785,-33.691,-489.258,32.715,-5.859,0
1579286897.328,37.598,16.602,-394.531,32.715,12.207,0
1579286897.332,54.199,74.219,-19.531,41.504,74.707,0
1579286897.329,54.199,53.223,-23.438,37.109,67.871,0
1579286897.333,62.988,28.320,-92.773,38.086,39.062,0
1579286897.337,55.176,3.418,-206.055,33.203,15.137,0
1579286897.341,41.992,36.133,-123.047,40.527,50.781,0
1579286897.345,54.688,30.273,-57.617,44.922,75.195,0
1579286897.349,54.688,-11.719,-220.703,41.992,35.156,0
1579286897.353,44.434,-7.812,-275.879,49.805,21.973,0
1579286897.356,47.852,-36.133,-466.309,56.641,9.277,0
1579286897.360,47.363,-11.230,-524.414,47.852,-2.930,0
1579286897.364,39.062,50.781,-257.324,35.156,20.508,0
1579286897.368,51.758,36.133,-223.145,39.551,39.551,0
1579286897.372,66.406,23.926,-273.438,52.246,30.762,0
1579286897.389,56.641,8.789,-363.770,65.918,17.090,0
1579286897.393,70.801,24.414,-295.410,56.152,38.574,0
1579286897.397,55.664,16.113,-250.488,36.133,21.973,0
1579286897.401,38.086,-1.465,-344.238,37.109,-20.508,0
1579286897.405,43.457,25.879,-212.891,38.086,24.902,0
1579286897.409,40.527,-44.434,-429.199,31.738,26.855,0
1579286897.413,45.898,-47.363,-585.938,31.250,-22.949,0
1579286897.416,19.043,30.762,-247.070,33.691,4.883,0
1579286897.420,17.578,22.461,-157.227,37.598,33.691,0
1579286897.424,40.527,39.062,-14.160,41.504,50.781,0
1579286897.428,29.297,-7.812,-151.855,41.504,-4.395,0
1579286897.432,15.625,-1.953,-241.211,38.086,-30.273,0
1579286897.429,25.391,36.621,-64.941,38.086,17.090,0
1579286897.433,33.691,16.113,-111.328,40.039,6.348,0
1579286897.437,55.176,28.320,-58.594,38.574,27.832,0
1579286897.441,72.754,10.742,-117.676,34.668,36.133,0
1579286897.445,61.523,4.395,-235.352,40.527,9.766,0
1579286897.449,44.922,10.742,-267.578,46.875,21.484,0
1579286897.453,36.621,1.465,-380.859,36.133,24.902,0
1579286897.456,43.457,51.270,-262.207,28.320,23.926,0
1579286897.460,30.273,27.344,-256.348,27.344,23.926,0
1579286897.464,18.555,-15.625,-504.395,34.180,21.973,0
1579286897.468,41.992,31.738,-436.523,38.574,26.855,0
1579286897.472,44.434,27.344,-433.594,30.762,3.906,0
1579286897.469,36.133,46.387,-384.277,30.273,7.324,0
1579286897.473,31.250,39.062,-329.590,33.691,23.926,0
1579286897.477,39.062,25.391,-359.375,32.227,43.945,0
1579286897.481,51.758,45.410,-301.270,43.945,31.250,0
1579286897.485,57.617,22.461,-372.559,44.922,-6.348,0
1579286897.489,48.340,5.859,-478.516,32.227,13.672,0
1579286897.493,42.969,11.719,-479.980,29.297,41.992,0
1579286897.496,41.016,8.789,-507.812,20.996,36.133,0
1579286897.500,33.691,33.691,-458.008,12.695,18.555,0
1579286897.504,35.645,45.410,-328.613,16.113,15.625,0
1579286897.508,27.344,34.668,-290.039,13.672,13.184,0
1579286897.512,19.043,25.391,-255.371,12.695,14.648,0
1579286897.529,9.277,-15.137,-440.430,9.766,1.465,0
1579286897.533,10.254,-9.766,-552.734,8.301,-22.461,0
1579286897.537,31.738,30.273,-383.301,17.090,6.348,0
1579286897.541,23.926,50.293,-260.742,18.555,19.531,0
1579286897.545,35.156,36.621,-266.113,21.484,4.883,0
1579286897.549,63.477,-7.812,-475.098,27.344,-8.301,0
1579286897.553,42.480,-4.883,-573.730,31.250,12.695,0
1579286897.556,29.297,41.504,-386.230,32.227,57.129,0
1579286897.560,38.574,42.969,-347.168,26.367,48.828,0
1579286897.564,63.477,33.203,-420.410,22.949,6.348,0
1579286897.568,75.684,-24.902,-682.129,25.391,-2.930,0
1579286897.572,66.895,-16.602,-760.742,26.367,34.180,0
1579286897.569,53.711,39.551,-532.715,23.926,31.738,0
1579286897.573,43.945,8.301,-597.656,26.855,-16.602,0
1579286897.577,54.688,20.996,-549.805,26.855,10.742,0
1579286897.581,61.523,13.184,-532.715,29.785,38.574,0
1579286897.585,42.969,-11.230,-641.602,45.410,17.090,0
1579286897.589,18.066,-16.602,-689.453,44.922,13.184,0
1579286897.593,14.648,2.441,-645.020,29.297,20.996,0
1579286897.596,35.156,49.316,-395.508,36.133,62.500,0
1579286897.600,32.715,-2.441,-475.098,39.551,61.035,0
1579286897.604,26.855,-16.602,-580.078,31.250,48.828,0
1579286897.608,23.926,35.645,-360.840,33.203,57.129,0
1579286897.612,14.648,18.555,-342.773,38.574,52.246,0
1579286897.629,18.066,26.855,-285.156,32.715,74.219,0
1579286897.633,18.066,-21.484,-435.059,32.227,63.477,0
1579286897.637,13.184,-50.781,-665.527,35.156,29.297,0
1579286897.641,28.320,13.672,-472.656,27.832,46.387,0
1579286897.645,48.340,9.766,-372.559,20.020,61.035,0
1579286897.649,28.320,-15.137,-445.801,17.578,62.500,0
1579286897.653,26.855,-29.785,-525.391,20.020,44.434,0
1579286897.656,45.898,-79.102,-823.242,21.484,-5.371,0
1579286897.660,40.039,-21.484,-739.258,23.926,1.953,0
1579286897.664,35.156,45.898,-389.648,18.066,52.734,0
1579286897.668,39.062,24.414,-400.391,10.742,55.664,0
1579286897.672,26.855,-0.488,-541.504,10.742,28.320,0
1579286897.669,33.691,-6.836,-614.258,18.555,40.039,0
1579286897.673,44.434,18.066,-496.094,34.180,62.012,0
1579286897.677,58.105,11.230,-452.148,30.762,56.152,0
1579286897.681,77.637,10.742,-429.688,21.484,53.223,0
1579286897.685,67.383,14.160,-374.512,22.461,63.477,0
1579286897.689,38.086,-18.066,-515.137,29.785,61.035,0
1579286897.693,32.715,-5.371,-577.148,31.738,53.223,0
1579286897.696,40.527,19.043,-473.633,29.785,34.180,0
1579286897.700,26.855,14.648,-438.965,28.320,26.855,0
1579286897.704,12.207,33.691,-283.203,28.320,73.242,0
1579286897.708,30.762,-40.039,-555.176,37.109,41.992,0
1579286897.712,40.527,-30.273,-707.520,43.945,6.348,0
1579286897.710,17.578,56.152,-313.965,47.363,45.898,0
1579286897.714,19.531,29.785,-274.902,45.410,29.785,0
1579286897.718,36.133,18.555,-305.176,37.598,24.902,0
1579286897.722,29.297,5.371,-392.090,23.926,23.438,0
1579286897.726,20.996,13.672,-392.090,19.043,23.438,0
1579286897.730,22.949,0.977,-389.160,28.320,40.527,0
1579286897.734,25.391,3.418,-400.879,33.691,43.457,0
1579286897.737,23.926,36.133,-225.586,24.902,46.875,0
1579286897.741,33.203,-19.043,-386.230,25.391,21.484,0
1579286897.745,54.688,-3.906,-401.855,30.273,30.762,0
1579286897.749,41.016,55.664,-101.074,31.250,69.824,0
1579286897.753,19.043,32.715,-101.562,35.156,51.758,0
1579286897.769,34.180,27.832,-142.090,39.551,20.996,0
1579286897.773,38.086,-16.113,-346.191,37.109,15.137,0
1579286897.777,42.480,1.465,-368.164,41.504,44.434,0
1579286897.781,49.805,60.059,-116.699,39.062,65.430,0
1579286897.785,33.203,27.344,-162.598,32.715,32.715,0
1579286897.789,26.367,11.719,-301.758,38.574,19.043,0
1579286897.793,53.711,2.441,-411.133,42.480,47.852,0
1579286897.796,59.082,5.371,-439.941,38.086,43.457,0
1579286897.800,62.012,43.457,-332.031,27.832,11.719,0
1579286897.804,63.965,47.852,-261.230,20.508,37.598,0
1579286897.808,44.434,61.523,-181.152,23.438,86.914,0
1579286897.812,33.691,19.043,-284.180,30.273,75.195,0
1579286897.809,53.223,-26.855,-588.867,25.391,30.273,0
1579286897.813,35.156,32.227,-542.969,10.742,12.695,0
1579286897.817,7.324,56.152,-379.883,20.020,27.344,0
1579286897.821,15.137,48.340,-334.961,27.832,52.734,0
1579286897.825,14.160,14.160,-454.590,25.879,48.828,0
1579286897.829,25.879,-4.395,-624.023,25.391,33.691,0
1579286897.833,25.879,15.625,-610.352,26.855,34.668,0
1579286897.836,35.156,29.297,-522.461,27.344,36.621,0
1579286897.840,46.387,43.457,-396.484,25.879,61.035,0
1579286897.844,41.504,7.812,-473.145,21.973,29.785,0
1579286897.848,45.898,-29.297,-700.195,13.672,-7.812,0
1579286897.852,53.223,10.254,-638.672,10.254,12.207,0
1579286897.849,49.316,29.297,-508.301,12.695,31.250,0
1579286897.853,28.809,20.508,-537.598,4.883,31.738,0
1579286897.857,24.414,17.578,-536.621,13.672,40.039,0
1579286897.861,36.621,-17.090,-748.047,32.715,23.438,0
1579286897.865,28.809,-1.465,-795.410,23.926,17.578,0
1579286897.869,22.949,4.395,-717.285,17.090,42.480,0
1579286897.873,27.832,-20.996,-847.168,18.066,19.531,0
1579286897.876,42.969,7.324,-761.230,17.578,16.113,0
1579286897.880,53.711,-24.902,-820.801,20.508,20.508,0
1579286897.884,49.805,-25.879,-870.605,24.414,18.066,0
1579286897.888,68.359,39.062,-609.863,25.879,14.160,0
1579286897.892,56.152,38.086,-482.910,19.531,47.363,0
1579286897.909,29.785,31.250,-433.105,20.996,49.316,0
1579286897.913,34.180,17.090,-461.426,23.926,28.809,0
1579286897.917,48.828,22.461,-392.578,21.973,47.852,0
1579286897.921,53.711,23.926,-295.410,20.020,38.086,0
1579286897.925,44.434,15.625,-245.117,27.832,37.598,0
1579286897.929,33.203,8.301,-242.676,32.227,49.805,0
1579286897.933,31.250,-25.391,-414.062,24.902,39.551,0
1579286897.936,40.527,-24.414,-537.598,22.949,11.719,0
1579286897.940,44.434,58.105,-237.305,24.414,30.762,0
1579286897.944,60.547,44.434,-104.492,32.227,51.758,0
1579286897.948,50.293,19.531,-151.367,27.344,44.434,0
1579286897.952,23.926,19.043,-186.035,17.578,28.320,0
1579286897.957,32.715,11.230,-238.770,26.367,18.555,0
1579286897.961,29.785,37.109,-121.582,37.598,53.711,0
1579286897.965,27.344,28.320,-117.676,37.598,69.824,0
1579286897.969,23.926,18.555,-153.320,29.297,45.898,0
1579286897.973,19.043,-5.859,-246.582,27.344,30.762,0
1579286897.977,21.973,-23.438,-376.465,36.133,35.645,0
1579286897.981,17.090,10.742,-331.543,45.410,66.895,0
1579286897.984,12.695,24.414,-259.277,37.598,69.336,0
1579286897.988,17.578,27.832,-229.004,25.391,47.363,0
1579286897.992,31.738,7.324,-259.277,24.902,55.176,0
1579286897.996,35.156,-45.410,-571.777,30.273,43.945,0
1579286898.000,34.180,8.301,-545.410,27.832,41.992,0
1579286897.988,41.016,24.414,-426.270,32.227,36.133,0
1579286897.992,38.574,10.254,-494.141,40.039,26.855,0
1579286897.996,29.785,25.391,-425.781,41.504,66.895,0
1579286898.000,20.020,7.324,-523.438,36.133,69.336,0
1579286898.004,34.180,14.648,-572.266,41.016,46.387,0
1579286898.008,53.223,-4.883,-663.086,60.059,57.129,0
1579286898.012,45.898,-13.672,-795.410,66.406,51.270,0
1579286898.015,30.273,15.137,-748.535,55.664,54.199,0
1579286898.019,33.691,-38.574,-865.723,46.875,24.414,0
1579286898.023,54.688,-19.531,-923.828,41.992,11.719,0
1579286898.027,37.598,51.270,-731.445,43.457,46.387,0
1579286898.031,34.668,28.809,-701.660,51.270,45.898,0
1579286898.049,58.105,28.809,-686.035,52.734,62.988,0
1579286898.053,43.457,18.555,-743.164,49.805,71.289,0
1579286898.057,28.809,23.438,-731.445,53.223,70.801,0
1579286898.061,39.062,16.602,-698.242,51.270,90.820,0
1579286898.065,46.387,-6.348,-767.578,48.828,79.590,0
1579286898.069,50.293,-6.348,-854.492,48.828,29.785,0
1579286898.073,71.289,-46.875,-966.797,55.176,-5.371,0
1579286898.076,65.430,-25.391,-891.602,58.594,17.090,0
1579286898.080,32.715,51.758,-655.273,55.176,67.871,0
1579286898.084,27.344,24.902,-614.258,42.969,50.293,0
1579286898.088,29.785,19.043,-590.820,33.203,56.641,0
1579286898.092,28.320,-7.324,-669.922,40.527,57.129,0
1579286898.089,29.785,-20.508,-732.422,42.480,44.922,0
1579286898.093,34.668,4.395,-627.930,46.875,66.895,0
1579286898.097,38.086,-2.930,-647.461,55.664,44.434,0
1579286898.101,32.227,6.348,-580.078,60.547,46.875,0
1579286898.105,51.758,-5.859,-555.176,61.523,82.520,0
1579286898.109,52.734,-32.715,-666.992,56.641,77.148,0
1579286898.113,55.176,-27.344,-716.309,54.688,44.922,0
1579286898.116,46.387,-12.207,-668.457,56.641,61.035,0
1579286898.120,36.133,1.465,-609.863,52.246,64.941,0
1579286898.124,47.852,-25.391,-665.039,50.781,35.156,0
1579286898.128,27.344,-62.012,-883.789,42.480,1.953,0
1579286898.132,21.484,9.277,-704.590,42.480,39.551,0
1579286898.129,61.523,25.879,-496.582,55.176,73.730,0
1579286898.133,66.895,11.719,-515.625,51.270,59.082,0
1579286898.137,35.156,-19.531,-615.234,55.664,51.270,0
1579286898.141,42.480,-32.227,-725.098,54.199,55.176,0
1579286898.145,40.039,2.441,-639.648,45.410,70.801,0
1579286898.149,33.203,-32.715,-765.625,48.828,60.059,0
1579286898.153,37.598,-40.039,-940.430,43.457,32.227,0
1579286898.156,26.367,-18.066,-930.176,38.574,9.277,0
1579286898.160,33.203,-71.289,-949.219,41.504,0.488,0
1579286898.164,45.898,-40.527,-927.734,46.387,8.789,0
1579286898.168,25.879,32.715,-694.336,55.664,44.434,0
1579286898.172,27.344,18.066,-574.707,54.199,48.828,0
1579286898.189,36.133,-1.953,-618.164,54.688,42.480,0
1579286898.193,36.133,-15.137,-706.543,54.688,44.922,0
1579286898.197,37.109,8.789,-664.062,45.410,58.594,0
1579286898.201,26.855,3.906,-644.531,39.062,46.875,0
1579286898.205,27.832,-9.766,-662.598,46.387,27.832,0
1579286898.209,56.641,-26.855,-674.316,51.270,39.551,0
1579286898.213,54.688,-36.621,-760.742,44.922,48.340,0
1579286898.216,18.066,16.113,-580.566,38.086,62.500,0
1579286898.220,29.785,26.855,-398.926,37.109,53.223,0
1579286898.224,50.781,6.348,-449.707,43.457,23.926,0
1579286898.228,59.082,17.578,-394.531,44.434,37.109,0
1579286898.232,62.500,-20.996,-586.426,45.410,32.227,0
1579286898.229,47.363,-16.113,-721.191,42.969,27.344,0
1579286898.233,39.551,30.273,-500.977,41.016,30.762,0
1579286898.237,40.039,38.574,-313.965,44.434,57.129,0
1579286898.241,41.504,28.809,-247.559,41.504,54.199,0
1579286898.245,38.574,-5.859,-386.230,37.598,14.160,0
1579286898.249,44.434,-6.836,-455.566,38.574,29.785,0
1579286898.253,51.758,15.137,-386.719,41.992,58.105,0
1579286898.256,45.898,27.832,-290.039,41.504,62.988,0
1579286898.260,31.738,38.086,-168.457,35.156,58.105,0
1579286898.264,34.180,-29.785,-371.582,38.574,25.391,0
1579286898.268,52.246,-57.129,-613.770,44.434,8.789,0
1579286898.272,49.316,34.180,-352.051,39.062,35.156,0
1579286898.269,39.551,37.598,-206.055,30.762,47.363,0
1579286898.273,36.621,20.020,-258.789,31.738,26.855,0
1579286898.277,41.504,0.000,-345.703,41.992,24.902,0
1579286898.281,33.691,-2.441,-370.117,44.434,60.547,0
1579286898.285,36.621,23.926,-229.004,45.410,65.918,0
1579286898.289,49.805,-11.230,-345.703,48.340,44.434,0
1579286898.293,36.621,13.184,-349.121,44.434,57.617,0
1579286898.296,39.551,16.113,-253.906,49.316,69.824,0
1579286898.300,38.574,-60.547,-621.094,53.223,12.207,0
1579286898.304,45.410,5.371,-542.480,38.086,3.906,0
1579286898.308,64.453,46.875,-228.027,41.016,60.059,0
1579286898.312,54.688,18.066,-252.441,55.176,66.895,0
1579286898.329,70.312,18.066,-238.281,56.641,81.543,0
1579286898.333,72.266,-2.930,-326.660,50.781,54.688,0
1579286898.337,38.086,9.766,-362.305,41.504,13.672,0
1579286898.341,46.875,31.738,-268.555,47.363,54.199,0
1579286898.345,52.246,30.273,-223.633,53.223,85.449,0
1579286898.349,59.082,-3.418,-371.582,44.434,56.152,0
1579286898.353,62.988,-51.758,-689.941,41.016,34.180,0
1579286898.356,34.668,-7.324,-647.461,46.875,27.832,0
1579286898.360,25.391,59.570,-297.363,49.805,56.641,0
1579286898.364,31.738,43.457,-250.000,40.039,64.941,0
1579286898.368,41.016,20.508,-318.359,32.715,44.922,0
1579286898.372,64.941,1.953,-405.762,43.457,38.574,0
1579286898.369,44.922,17.578,-388.184,46.387,37.109,0
1579286898.373,49.805,23.926,-346.680,49.316,41.992,0
1579286898.377,54.199,17.578,-382.324,47.852,44.434,0
1579286898.381,21.973,16.602,-382.812,39.062,54.688,0
1579286898.385,49.316,-3.418,-496.094,41.016,38.086,0
1579286898.389,55.664,-3.418,-604.980,44.434,27.832,0
1579286898.393,47.363,0.000,-636.719,43.457,22.949,0
1579286898.396,39.551,13.184,-601.562,33.203,14.160,0
1579286898.400,26.367,34.668,-458.496,31.250,33.691,0
1579286898.404,40.039,-33.203,-655.273,37.109,27.832,0
1579286898.408,48.340,-40.039,-821.289,32.715,-5.371,0
1579286898.412,55.664,43.457,-519.043,40.527,15.137,0
1579286898.409,65.918,42.969,-367.188,52.246,42.480,0
1579286898.413,45.898,22.949,-384.277,41.992,30.273,0
1579286898.417,18.555,3.906,-478.027,35.156,25.879,0
1579286898.421,20.996,11.719,-512.695,38.574,26.367,0
1579286898.425,26.855,30.273,-402.832,39.551,38.086,0
1579286898.429,40.039,8.789,-427.734,48.340,74.707,0
1579286898.433,50.781,9.277,-489.746,54.199,64.453,0
1579286898.436,48.340,-14.160,-602.051,53.711,18.555,0
1579286898.440,55.664,-16.113,-662.598,52.246,16.602,0
1579286898.444,69.336,38.574,-486.328,52.246,38.574,0
1579286898.448,67.871,37.598,-385.254,45.898,68.848,0
1579286898.452,31.738,-2.441,-516.602,40.039,31.738,0
1579286898.469,29.297,-47.363,-760.742,43.457,-13.184,0
1579286898.473,53.223,-12.207,-713.867,44.434,32.715,0
1579286898.477,38.086,44.922,-472.168,43.457,49.316,0
1579286898.481,22.949,33.691,-417.969,35.645,25.879,0
1579286898.485,30.273,26.855,-429.199,28.809,18.066,0
1579286898.489,39.062,9.766,-458.984,41.016,42.969,0
1579286898.493,41.016,-29.297,-656.250,53.223,55.176,0
1579286898.496,46.387,10.254,-578.613,44.434,24.414,0
1579286898.500,42.969,43.945,-363.770,41.016,14.648,0
1579286898.504,33.691,31.250,-347.656,36.621,19.043,0
1579286898.508,44.922,33.203,-282.227,43.457,59.570,0
1579286898.512,64.453,14.160,-338.379,49.805,56.641,0
1579286898.509,71.289,18.066,-375.000,40.039,15.625,0
1579286898.513,67.383,32.715,-290.527,40.039,36.133,0
1579286898.517,52.246,7.812,-352.539,46.387,44.434,0
1579286898.521,27.344,-3.906,-420.410,53.223,49.805,0
1579286898.525,25.391,3.906,-412.109,46.875,48.828,0
1579286898.529,24.902,-6.836,-516.113,37.109,30.273,0
1579286898.533,26.855,-6.836,-560.547,43.945,53.223,0
1579286898.536,56.152,-4.883,-592.285,49.316,57.129,0
1579286898.540,58.105,15.625,-495.117,36.621,47.363,0
1579286898.544,29.297,-20.996,-612.793,36.621,13.184,0
1579286898.548,49.805,-0.488,-606.934,49.805,18.555,0
1579286898.552,37.109,45.410,-333.496,49.805,69.824,0
1579286898.549,11.719,15.137,-379.395,39.062,55.176,0
1579286898.553,29.297,3.418,-441.895,34.180,20.508,0
1579286898.557,57.617,-38.086,-617.188,37.598,17.090,0
1579286898.561,59.082,-20.508,-644.043,38.574,26.855,0
1579286898.565,24.902,26.367,-403.320,28.809,56.641,0
1579286898.569,26.855,-20.020,-534.180,28.320,39.062,0
1579286898.573,36.133,-11.230,-618.164,34.180,20.996,0
1579286898.576,35.156,-30.273,-659.668,37.598,37.598,0
1579286898.580,29.785,-53.223,-837.402,30.273,11.719,0
1579286898.584,35.645,25.879,-598.633,17.578,10.254,0
1579286898.588,33.203,44.922,-348.633,23.438,44.434,0
1579286898.592,28.809,30.273,-319.336,35.645,52.734,0
1579286898.609,36.133,4.395,-392.090,35.645,56.641,0
1579286898.613,41.016,-5.371,-465.820,29.785,41.504,0
1579286898.617,47.852,2.930,-475.098,25.391,14.648,0
1579286898.621,40.527,4.883,-473.145,26.367,32.227,0
1579286898.625,26.367,4.883,-480.469,28.809,20.508,0
1579286898.629,17.090,-35.156,-625.488,29.297,22.949,0
1579286898.633,20.508,-57.129,-852.051,30.273,27.832,0
1579286898.636,22.461,24.414,-625.488,32.715,46.875,0
1579286898.640,46.387,26.855,-484.863,38.574,66.406,0
1579286898.644,62.012,2.441,-594.238,47.363,44.434,0
1579286898.648,30.273,-1.953,-632.324,42.480,13.672,0
1579286898.652,18.555,-2.930,-663.086,28.809,17.578,0
1579286898.649,35.645,33.691,-498.535,33.203,68.359,0
1579286898.653,45.898,22.949,-462.402,36.621,80.566,0
1579286898.657,43.457,15.137,-504.395,30.273,63.477,0
1579286898.661,44.922,-3.906,-583.984,30.273,44.434,0
1579286898.665,60.059,-28.320,-710.938,37.598,27.832,0
1579286898.669,37.109,-26.367,-784.180,48.828,25.879,0
1579286898.673,23.926,-26.367,-853.516,46.387,29.297,0
1579286898.676,45.410,-0.488,-830.566,39.551,23.438,0
1579286898.680,34.180,21.973,-677.246,41.992,55.664,0
1579286898.684,33.203,-9.766,-791.016,41.504,55.176,0
1579286898.688,49.805,8.789,-778.809,37.109,42.480,0
1579286898.692,38.574,16.113,-655.762,37.598,52.246,0
1579286898.689,37.598,10.742,-651.367,40.039,44.434,0
1579286898.693,30.273,9.766,-590.332,36.621,41.504,0
1579286898.697,32.715,-23.438,-757.324,34.180,48.828,0
1579286898.701,41.016,-6.348,-807.617,36.133,48.828,0
1579286898.705,40.527,13.672,-704.102,39.062,42.969,0
1579286898.709,61.035,-18.555,-790.039,48.340,52.734,0
1579286898.713,58.594,-8.789,-825.195,49.316,53.223,0
1579286898.716,21.484,-42.969,-865.723,49.805,22.461,0
1579286898.720,13.672,-51.758,-922.363,32.715,-0.977,0
1579286898.724,24.902,43.945,-699.219,21.973,37.109,0
1579286898.728,33.203,33.203,-611.328,41.992,56.152,0
1579286898.732,24.414,10.254,-669.434,41.504,66.406,0
1579286898.748,11.719,6.348,-745.117,29.297,50.293,0
1579286898.752,21.484,13.184,-687.988,24.902,55.176,0
1579286898.756,43.945,15.625,-610.352,44.922,63.477,0
1579286898.760,52.734,21.484,-585.449,49.805,44.434,0
1579286898.764,61.035,31.250,-481.445,29.785,33.691,0
1579286898.768,56.152,-34.180,-690.918,22.461,9.766,0
1579286898.772,45.410,-27.344,-815.430,30.273,29.297,0
1579286898.775,49.805,52.734,-542.480,32.715,37.109,0
1579286898.779,35.645,42.480,-456.055,27.832,12.695,0
1579286898.783,31.738,33.203,-433.105,34.668,24.902,0
1579286898.787,42.480,7.324,-482.422,46.387,29.785,0
1579286898.791,48.340,8.301,-474.121,47.363,50.293,0
1579286898.789,43.945,27.832,-370.117,40.527,43.457,0
1579286898.793,40.527,13.672,-395.020,39.551,7.812,0
1579286898.797,46.875,21.973,-345.703,42.480,17.578,0
1579286898.801,69.824,12.207,-368.164,44.922,33.691,0
1579286898.805,53.711,7.324,-390.625,41.992,46.875,0
1579286898.809,30.273,2.930,-434.082,32.715,23.438,0
1579286898.813,15.625,5.859,-454.590,31.250,38.574,0
1579286898.816,13.672,24.902,-369.141,44.922,60.547,0
1579286898.820,25.879,20.020,-290.527,48.340,45.410,0
1579286898.824,30.273,-39.062,-523.926,33.691,25.391,0
1579286898.828,31.250,-8.301,-545.898,35.645,12.207,0
1579286898.832,19.043,50.293,-222.656,51.758,44.434,0
1579286898.829,27.832,31.250,-197.266,59.082,48.340,0
1579286898.833,38.086,2.930,-288.574,49.316,14.648,0
1579286898.837,41.504,-14.648,-389.648,49.805,10.742,0
1579286898.841,44.434,24.414,-263.184,58.594,57.129,0
1579286898.845,37.598,19.531,-189.453,42.480,64.453,0
1579286898.849,42.969,-20.020,-366.211,40.527,47.852,0
1579286898.853,51.270,13.672,-319.824,46.875,59.570,0
1579286898.856,29.297,-29.297,-456.543,53.223,41.504,0
1579286898.860,29.297,-37.598,-573.730,56.152,24.902,0
1579286898.864,47.363,46.387,-238.281,43.457,44.434,0
1579286898.868,40.527,40.527,-144.043,38.574,56.152,0
1579286898.872,37.598,20.996,-182.129,34.668,38.574,0
1579286898.889,37.109,9.766,-222.168,30.273,44.922,0
1579286898.893,31.738,28.809,-134.277,24.414,73.242,0
1579286898.897,47.852,21.973,-81.543,30.273,42.969,0
1579286898.901,44.922,5.371,-138.184,32.227,-0.977,0
1579286898.905,20.996,24.902,-3.418,25.879,29.297,0
1579286898.909,36.621,-41.504,-187.012,38.574,28.809,0
1579286898.913,26.367,-38.086,-298.828,35.156,8.301,0
1579286898.916,20.020,36.621,-12.695,24.414,18.066,0
1579286898.920,45.898,31.738,57.617,30.762,36.133,0
1579286898.924,22.461,38.574,130.859,33.691,66.406,0
1579286898.928,10.742,-22.461,-118.164,28.320,19.531,0
1579286898.932,17.578,-28.320,-261.230,26.367,-9.766,0
1579286898.930,28.320,40.527,29.785,31.250,30.273,0
1579286898.934,37.109,31.738,120.605,34.180,50.781,0
1579286898.938,27.344,22.949,143.555,23.438,52.734,0
1579286898.942,16.113,1.953,57.617,18.066,34.180,0
1579286898.946,34.180,-3.418,0.488,23.438,10.254,0
1579286898.950,27.832,-2.441,14.648,35.645,2.441,0
1579286898.954,20.996,-13.184,-61.523,43.457,0.488,0
1579286898.957,41.504,28.809,41.992,30.762,16.113,0
1579286898.961,36.621,25.391,138.184,39.062,39.551,0
1579286898.965,34.180,-33.691,-119.629,46.875,22.461,0
1579286898.969,32.715,25.879,-21.484,34.668,20.020,0
1579286898.973,23.926,55.176,194.824,34.668,23.926,0
1579286898.969,36.133,35.156,174.316,35.156,9.766,0
1579286898.973,47.363,16.113,138.672,28.320,32.227,0
1579286898.977,27.832,7.324,80.078,33.203,46.387,0
1579286898.981,19.531,36.133,162.109,38.086,43.945,0
1579286898.985,33.203,11.230,56.641,28.809,-4.395,0
1579286898.989,49.805,-9.766,-137.695,29.297,-23.438,0
1579286898.993,53.711,0.488,-150.879,25.391,10.254,0
1579286898.996,42.480,-39.062,-356.445,25.879,0.977,0
1579286899.000,12.695,-13.184,-377.441,31.738,-7.812,0
1579286899.004,-2.441,56.152,-70.801,35.156,7.324,0
1579286899.008,24.414,44.434,-2.441,41.016,20.996,0
1579286899.012,38.574,21.484,-19.043,39.062,18.555,0
1579286899.029,34.668,-1.465,-122.559,38.574,6.348,0
1579286899.033,43.457,15.625,-122.070,35.645,15.625,0
1579286899.037,39.062,22.949,-86.914,40.527,34.180,0
1579286899.041,29.297,23.926,-103.516,35.156,36.133,0
1579286899.045,57.617,5.371,-152.344,28.809,35.156,0
1579286899.049,41.992,-33.691,-333.008,27.344,9.766,0
1579286899.053,28.320,-4.883,-311.035,29.785,19.043,0
1579286899.056,48.828,32.227,-114.258,40.527,42.969,0
1579286899.060,31.250,16.113,-117.676,40.527,4.395,0
1579286899.064,17.090,13.672,-109.863,34.668,-8.301,0
1579286899.068,37.598,-22.461,-257.324,36.133,-11.230,0
1579286899.072,46.387,-0.977,-256.836,38.086,5.859,0
1579286899.069,24.414,50.293,-1.953,38.086,27.344,0
1579286899.073,26.855,34.668,2.930,23.926,17.578,0
1579286899.077,36.621,40.039,52.246,16.113,21.484,0
1579286899.081,38.574,-2.441,-82.520,29.785,14.160,0
1579286899.085,50.781,-3.906,-155.273,35.645,6.348,0
1579286899.089,48.828,27.832,-41.992,24.902,14.648,0
1579286899.093,35.645,-2.441,-144.043,27.344,-9.277,0
1579286899.096,40.039,20.508,-77.148,38.574,7.324,0
1579286899.100,53.223,10.254,-49.805,47.363,37.598,0
1579286899.104,69.336,-16.113,-222.168,35.645,-3.418,0
1579286899.108,59.082,44.434,-23.926,19.043,-6.836,0
1579286899.112,36.133,61.523,202.148,24.414,29.297,0
1579286899.129,34.668,56.641,283.203,28.320,57.617,0
1579286899.133,36.133,15.137,184.082,32.227,30.273,0
1579286899.137,45.898,0.977,92.773,31.250,7.324,0
1579286899.141,60.547,40.039,239.746,31.250,34.180,0
1579286899.145,31.250,37.598,306.152,34.668,54.688,0
1579286899.149,20.996,6.348,167.480,41.504,25.391,0
1579286899.153,43.945,-20.020,-11.719,47.363,-0.977,0
1579286899.156,46.387,-5.371,-38.574,55.176,8.301,0
1579286899.160,48.340,52.734,180.176,61.035,34.668,0
1579286899.164,41.504,52.734,303.711,52.246,41.992,0
1579286899.168,38.574,16.602,214.844,44.922,21.484,0
1579286899.172,42.480,-15.625,57.617,43.945,0.000,0
1579286899.169,47.363,-5.371,-18.555,42.480,4.883,0
1579286899.173,43.945,57.129,208.008,44.922,60.547,0
1579286899.177,42.969,58.594,309.082,47.363,70.801,0
1579286899.181,39.551,34.668,199.707,42.969,31.250,0
1579286899.185,43.945,35.645,206.055,42.969,39.551,0
1579286899.189,43.457,6.836,89.355,48.828,49.805,0
1579286899.193,18.555,10.254,0.000,46.387,42.969,0
1579286899.196,26.367,32.715,67.871,38.086,28.809,0
1579286899.200,53.223,30.762,89.355,41.504,20.996,0
1579286899.204,59.570,34.668,140.137,49.316,30.762,0
1579286899.208,55.176,-41.504,-189.453,47.852,-2.930,0
1579286899.212,55.664,-26.855,-328.613,49.805,8.789,0
1579286899.209,50.293,53.223,-10.742,50.293,39.062,0
1579286899.213,45.410,20.508,-69.824,54.199,22.461,0
1579286899.217,51.758,37.598,-4.883,57.617,61.035,0
1579286899.221,51.758,28.809,-19.531,55.176,53.223,0
1579286899.225,40.527,9.766,-156.250,54.688,1.465,0
1579286899.229,44.922,17.578,-166.016,58.105,20.996,0
1579286899.233,42.480,26.367,-192.871,52.734,41.016,0
1579286899.236,57.617,60.059,-45.898,44.922,43.457,0
1579286899.240,58.594,-10.742,-241.699,46.875,3.418,0
1579286899.244,44.922,-33.203,-463.379,46.875,-1.465,0
1579286899.248,47.852,63.477,-125.000,43.457,60.059,0
1579286899.252,52.246,55.664,-22.949,47.363,53.711,0
1579286899.270,52.246,44.434,-23.438,47.363,45.410,0
1579286899.274,55.176,15.625,-128.906,37.109,24.414,0
1579286899.278,56.152,20.996,-134.766,38.086,31.738,0
1579286899.282,44.922,47.852,37.109,30.273,70.312,0
1579286899.286,44.434,14.160,-66.895,16.602,47.852,0
1579286899.290,47.852,7.812,-157.227,24.414,19.043,0
1579286899.294,47.852,-8.301,-222.168,36.133,15.625,0
1579286899.297,45.410,7.324,-209.473,41.016,22.461,0
1579286899.301,48.340,71.777,32.227,27.344,36.133,0
1579286899.305,28.809,61.523,86.914,25.879,39.551,0
1579286899.309,12.207,54.688,95.215,29.297,31.250,0
1579286899.313,37.109,20.508,39.062,21.973,27.832,0
1579286899.309,41.016,1.465,-83.496,17.090,44.434,0
1579286899.313,13.184,57.129,89.355,10.254,75.684,0
1579286899.317,19.043,61.523,210.449,8.301,81.055,0
1579286899.321,39.062,49.316,194.824,10.254,66.406,0
1579286899.325,47.363,16.602,103.027,16.602,29.297,0
1579286899.329,62.012,1.465,-26.855,15.137,20.508,0
1579286899.333,58.105,27.832,-9.277,9.766,46.875,0
1579286899.336,38.086,26.855,-7.812,11.230,37.109,0
1579286899.340,23.926,41.016,52.246,5.859,25.879,0
1579286899.344,27.832,48.340,154.785,0.000,24.414,0
1579286899.348,32.715,-36.621,-196.777,6.836,-10.254,0
1579286899.352,28.320,-18.555,-325.195,13.184,-1.465,0
1579286899.350,38.086,64.453,4.883,23.438,20.996,0
1579286899.354,37.598,51.758,61.035,28.320,7.324,0
1579286899.358,28.809,40.039,55.664,20.508,3.418,0
1579286899.362,34.668,21.973,-43.457,21.973,17.090,0
1579286899.366,43.457,36.133,-29.297,20.020,27.344,0
1579286899.370,34.180,24.902,-32.715,20.020,19.043,0
1579286899.374,28.320,20.996,-135.254,18.066,24.902,0
1579286899.377,44.922,59.570,12.207,11.719,40.039,0
1579286899.381,41.992,29.297,-41.504,34.180,46.875,0
1579286899.385,29.785,18.555,-96.680,31.738,35.156,0
1579286899.389,25.879,27.344,-29.297,18.066,20.996,0
1579286899.393,27.344,25.391,-40.527,28.809,14.648,0
1579286899.409,29.297,44.434,87.402,33.691,30.762,0
1579286899.413,25.879,-2.930,-67.383,34.180,35.156,0
1579286899.417,28.320,1.953,-150.879,31.738,30.273,0
1579286899.421,40.039,48.340,25.879,24.902,22.949,0
1579286899.425,53.711,25.391,-10.742,27.344,3.418,0
1579286899.429,57.617,17.578,-56.152,33.691,32.227,0
1579286899.433,76.660,-10.254,-179.199,37.598,48.828,0
1579286899.436,41.016,-40.039,-463.379,35.156,-14.160,0
1579286899.440,0.977,34.180,-316.406,29.297,-26.855,0
1579286899.444,25.391,62.012,-68.848,41.016,15.137,0
1579286899.448,44.922,35.645,-124.512,48.340,-2.930,0
1579286899.452,48.340,16.602,-222.656,49.316,-17.578,0
1579286899.470,50.293,6.348,-281.250,61.523,0.000,0
1579286899.474,48.340,34.180,-203.125,61.035,36.133,0
1579286899.478,39.062,50.293,-148.926,52.734,51.758,0
1579286899.482,41.992,41.504,-192.383,40.039,23.438,0
1579286899.486,53.711,8.789,-322.754,34.668,-6.348,0
1579286899.490,54.688,-14.648,-456.055,50.781,-9.766,0
1579286899.494,41.992,16.113,-389.160,54.688,18.066,0
1579286899.497,41.016,28.320,-317.871,50.293,6.348,0
1579286899.501,31.738,35.645,-283.203,36.621,-14.648,0
1579286899.505,23.926,27.832,-231.445,33.203,11.230,0
1579286899.509,31.738,-36.621,-504.395,42.480,1.953,0
1579286899.513,44.434,7.324,-471.680,44.434,-4.395,0
1579286899.489,54.688,53.223,-209.961,40.039,-3.906,0
1579286899.493,50.293,47.363,-153.320,40.039,16.602,0
1579286899.497,43.457,42.480,-99.609,45.410,43.945,0
1579286899.501,56.152,6.836,-233.398,47.852,36.133,0
1579286899.505,51.758,16.113,-243.652,44.434,33.691,0
1579286899.509,49.805,9.277,-276.367,46.875,0.488,0
1579286899.513,51.270,2.441,-336.426,45.898,-0.488,0
1579286899.516,58.594,25.391,-215.332,39.551,39.551,0
1579286899.520,68.848,24.902,-179.688,39.062,40.039,0
1579286899.524,27.344,21.973,-188.965,39.551,6.348,0
1579286899.528,16.602,37.598,-62.012,36.621,26.367,0
1579286899.532,34.180,33.691,-21.973,36.133,43.457,0
1579286899.549,27.832,37.109,12.207,38.086,26.367,0
1579286899.553,37.598,-19.043,-192.871,41.504,12.207,0
1579286899.557,56.641,-31.738,-376.953,44.434,-5.371,0
1579286899.561,47.852,59.570,-41.992,39.062,9.766,0
1579286899.565,35.645,63.965,182.129,37.109,48.828,0
1579286899.569,29.785,17.090,91.309,47.363,27.832,0
1579286899.573,24.902,-35.156,-141.113,45.898,4.883,0
1579286899.576,42.480,-4.883,-116.699,44.434,23.438,0
1579286899.580,49.316,71.777,213.379,50.293,41.504,0
1579286899.584,51.270,57.617,296.387,38.086,25.879,0
1579286899.588,53.223,32.227,260.254,29.785,4.395,0
1579286899.592,46.875,11.230,203.613,35.156,13.184,0
1579286899.590,37.598,28.809,285.645,36.621,35.645,0
1579286899.594,34.668,35.645,371.094,31.250,28.809,0
1579286899.598,67.383,20.020,295.410,30.273,5.859,0
1579286899.602,59.082,35.645,341.309,31.250,33.203,0
1579286899.606,32.715,3.906,238.770,32.715,35.645,0
1579286899.610,29.297,-17.090,93.262,23.926,37.109,0
1579286899.614,21.484,-6.348,50.293,19.043,22.461,0
1579286899.617,39.551,8.789,62.012,31.250,3.418,0
1579286899.621,46.387,51.270,267.578,42.969,29.297,0
1579286899.625,56.152,9.766,219.238,41.504,35.156,0
1579286899.629,73.730,-25.391,19.043,38.574,3.906,0
1579286899.633,51.270,35.156,159.180,35.156,-5.859,0
1579286899.629,27.832,41.992,259.277,36.133,15.137,0
1579286899.633,29.297,37.598,268.066,32.715,20.996,0
1579286899.637,35.156,3.418,199.707,43.945,0.488,0
1579286899.641,32.715,-17.578,68.359,53.711,-14.160,0
1579286899.645,31.738,48.828,296.387,50.293,29.785,0
1579286899.649,46.875,14.648,258.301,51.270,12.207,0
1579286899.653,47.852,12.695,169.434,40.039,-4.395,0
1579286899.656,46.875,60.059,385.254,33.203,28.809,0
1579286899.660,46.875,-17.578,116.699,25.391,17.090,0
1579286899.664,44.922,-2.930,20.020,23.926,11.719,0
1579286899.668,49.316,80.566,367.188,39.062,41.016,0
1579286899.672,53.711,66.406,393.555,42.969,41.504,0
1579286899.689,41.504,34.668,255.859,37.109,37.598,0
1579286899.693,39.551,36.133,223.633,39.062,61.035,0
1579286899.697,50.781,57.129,298.828,49.316,53.223,0
1579286899.701,37.598,44.922,285.645,51.758,35.156,0
1579286899.705,25.391,27.344,220.703,46.875,23.926,0
1579286899.709,17.090,17.090,154.297,51.758,32.227,0
1579286899.713,18.066,-20.996,-70.312,37.598,32.227,0
1579286899.716,25.391,-3.906,-169.922,28.320,-13.184,0
1579286899.720,27.344,82.031,173.828,40.527,19.531,0
1579286899.724,47.852,64.941,290.039,50.781,43.457,0
1579286899.728,62.500,38.086,224.121,51.758,5.859,0
1579286899.732,28.809,36.133,190.918,49.805,13.672,0
1579286899.729,32.227,42.480,180.176,47.363,20.996,0
1579286899.733,55.664,60.547,281.738,51.270,53.711,0
1579286899.737,36.133,41.504,271.973,42.480,61.523,0
1579286899.741,30.273,20.508,136.230,38.574,27.344,0
1579286899.745,37.598,11.230,35.156,37.598,11.230,0
1579286899.749,22.461,7.324,-0.977,25.879,17.090,0
1579286899.753,16.602,15.625,11.719,35.156,23.438,0
1579286899.756,29.297,30.273,98.633,39.062,42.969,0
1579286899.760,45.898,55.176,213.379,36.621,28.320,0
1579286899.764,56.152,12.207,114.258,50.781,20.020,0
1579286899.768,64.453,-25.391,-119.629,63.477,21.484,0
1579286899.772,72.754,50.293,77.148,62.012,33.203,0
1579286899.769,45.898,60.059,256.348,45.410,52.734,0
1579286899.773,29.297,43.945,272.461,28.809,47.852,0
1579286899.777,33.691,30.273,277.344,34.180,57.129,0
1579286899.781,31.738,22.461,265.137,46.387,48.340,0
1579286899.785,21.973,33.203,331.055,49.805,18.555,0
1579286899.789,32.715,2.441,179.688,51.270,-10.254,0
1579286899.793,46.387,20.508,154.297,52.246,9.766,0
1579286899.796,60.059,27.344,229.004,50.293,31.738,0
1579286899.800,54.688,-16.113,-15.625,41.016,-13.672,0
1579286899.804,30.762,41.504,71.289,33.691,-26.855,0
1579286899.808,41.992,89.355,366.211,37.109,12.207,0
1579286899.812,35.645,84.473,456.055,44.434,43.945,0
1579286899.829,39.551,55.664,430.664,41.504,38.086,0
1579286899.833,58.105,23.438,283.203,33.203,0.488,0
1579286899.837,37.109,49.805,343.750,38.574,6.348,0
1579286899.841,22.461,49.805,434.570,42.969,34.668,0
1579286899.845,41.992,40.527,448.242,42.480,37.598,0
1579286899.849,53.711,12.695,357.422,41.016,22.949,0
1579286899.853,53.711,-49.316,40.039,42.480,-13.184,0
1579286899.856,57.617,3.906,133.789,42.480,7.324,0
1579286899.860,52.734,69.336,536.133,35.156,74.219,0
1579286899.864,42.480,17.578,418.457,36.133,30.762,0
1579286899.868,23.926,19.531,380.371,34.180,1.465,0
1579286899.872,23.926,20.020,402.344,47.852,7.812,0
1579286899.869,48.828,32.715,475.586,59.082,30.273,0
1579286899.873,24.902,26.367,509.766,41.016,24.902,0
1579286899.877,2.930,12.695,404.297,34.668,-14.648,0
1579286899.881,29.297,30.762,473.145,35.156,10.254,0
1579286899.885,47.363,10.742,411.133,39.551,17.578,0
1579286899.889,28.809,1.465,307.129,48.340,18.555,0
1579286899.893,20.996,-6.348,219.238,36.133,11.719,0
1579286899.896,37.598,10.254,201.172,24.902,-1.953,0
1579286899.900,50.293,62.988,439.453,25.879,31.738,0
1579286899.904,48.340,-5.859,282.227,39.062,16.113,0
1579286899.908,53.711,-17.090,138.184,36.133,5.859,0
1579286899.912,47.852,59.082,441.406,20.508,24.414,0
1579286899.909,31.738,44.434,499.512,35.156,30.273,0
1579286899.913,28.320,51.758,537.598,41.016,48.828,0
1579286899.917,31.738,26.855,452.637,35.645,34.180,0
1579286899.921,27.832,16.602,314.941,42.969,-5.371,0
1579286899.925,30.762,41.016,367.676,47.363,2.441,0
1579286899.929,58.105,10.742,225.586,52.734,9.277,0
1579286899.933,54.199,36.621,291.016,43.457,22.461,0
1579286899.936,25.879,20.020,340.820,33.203,10.742,0
1579286899.940,31.738,-29.297,54.199,30.762,-22.461,0
1579286899.944,16.602,43.457,224.121,35.645,5.371,0
1579286899.948,21.484,57.617,431.641,46.875,20.996,0
1579286899.952,45.898,43.457,458.984,46.387,0.000,0
1579286899.969,30.762,31.738,535.156,41.016,18.066,0
1579286899.973,32.227,27.832,622.070,41.016,24.902,0
1579286899.977,43.457,36.133,710.938,34.180,15.137,0
1579286899.981,37.598,23.926,673.340,34.180,7.324,0
1579286899.985,44.434,47.363,726.562,40.527,-1.953,0
1579286899.989,46.387,4.883,593.750,29.297,-12.695,0
1579286899.993,27.832,-4.395,460.938,33.203,-3.906,0
1579286899.996,21.973,62.988,690.430,34.668,28.809,0
1579286900.000,29.785,56.152,763.184,25.391,12.695,0
1579286900.004,41.016,45.410,723.145,23.438,4.883,0
1579286900.008,66.895,37.598,675.781,30.762,-1.953,0
1579286900.012,62.988,15.137,474.121,39.551,-14.160,0
1579286900.009,37.109,43.457,482.422,36.133,-3.906,0
1579286900.013,19.531,57.617,592.285,36.621,13.184,0
1579286900.017,21.484,62.988,622.559,27.832,50.781,0
1579286900.021,23.438,52.246,590.820,18.555,47.363,0
1579286900.025,20.020,22.461,427.246,20.020,13.672,0
1579286900.029,30.273,18.555,333.008,27.832,-1.465,0
1579286900.033,36.133,41.016,414.062,40.527,14.648,0
1579286900.036,31.250,52.246,521.484,47.852,51.270,0
1579286900.040,56.641,64.941,600.586,41.992,23.438,0
1579286900.044,48.340,13.672,430.664,31.738,-15.137,0
1579286900.048,35.156,1.953,304.199,29.785,-23.926,0
1579286900.052,53.223,87.402,653.320,30.762,8.301,0
1579286900.049,33.691,83.008,776.855,20.020,20.508,0
1579286900.053,22.949,77.637,811.035,10.742,24.414,0
1579286900.057,22.949,51.270,747.559,10.742,16.113,0
1579286900.061,-4.395,42.969,683.594,16.113,-10.254,0
1579286900.065,-7.324,62.988,804.199,17.090,8.301,0
1579286900.069,4.883,29.297,712.891,14.648,8.301,0
1579286900.073,12.207,35.156,644.043,27.344,-1.465,0
1579286900.076,20.996,24.902,581.543,36.621,13.184,0
1579286900.080,16.602,-6.836,318.359,15.625,5.371,0
1579286900.084,17.090,64.941,428.711,1.465,16.113,0
1579286900.088,2.930,85.449,557.617,-12.695,45.410,0
1579286900.092,-15.625,64.453,463.867,-42.480,42.969,0
1579286900.109,-30.762,37.109,245.117,-47.363,37.109,0
1579286900.113,-42.969,19.043,-14.160,-65.430,34.668,0
1579286900.117,-60.547,24.902,-151.367,-95.703,30.762,0
1579286900.121,-95.215,18.066,-267.090,-102.051,36.133,0
1579286900.125,-115.234,28.320,-271.484,-125.977,53.711,0
1579286900.129,-127.930,-14.160,-526.367,-155.762,52.246,0
1579286900.133,-116.211,-27.832,-866.211,-159.180,34.180,0
1579286900.136,-123.535,37.598,-810.059,-167.480,49.316,0
1579286900.140,-137.695,36.621,-781.250,-175.293,63.477,0
1579286900.144,-125.977,37.109,-849.609,-177.246,61.523,0
1579286900.148,-139.160,15.137,-929.199,-187.988,52.246,0
1579286900.152,-159.668,-24.414,-972.168,-189.453,8.301,0
1579286900.149,-153.809,37.598,-965.820,-173.828,31.250,0
1579286900.153,-133.301,58.105,-968.262,-165.039,70.312,0
1579286900.157,-116.211,37.598,-968.750,-163.086,46.387,0
1579286900.161,-103.027,31.738,-968.750,-137.207,48.340,0
1579286900.165,-89.355,18.555,-968.262,-103.027,62.012,0
1579286900.169,-68.359,12.207,-968.750,-83.984,52.246,0
1579286900.173,-44.434,-2.441,-968.750,-72.754,38.574,0
1579286900.176,-21.973,11.719,-968.262,-52.246,44.922,0
1579286900.180,0.488,37.109,-968.750,-24.414,56.152,0
1579286900.184,25.391,-24.414,-968.750,2.930,53.711,0
1579286900.188,54.199,-9.277,-968.750,17.090,68.359,0
1579286900.192,74.219,37.109,-968.750,27.832,42.969,0
1579286900.189,65.430,17.578,-968.750,48.340,28.320,0
1579286900.193,98.145,25.879,-968.750,69.824,71.289,0
1579286900.197,123.535,8.301,-968.750,83.984,78.613,0
1579286900.201,113.281,12.695,-968.750,94.727,68.848,0
1579286900.205,117.676,14.160,-968.750,112.793,61.035,0
1579286900.209,121.582,-15.625,-968.750,127.930,51.758,0
1579286900.213,134.766,7.812,-968.750,124.512,71.289,0
1579286900.216,149.902,-2.441,-968.262,111.328,75.684,0
1579286900.220,140.625,-1.465,-968.750,111.816,49.805,0
1579286900.224,125.488,45.898,-968.750,125.000,73.242,0
1579286900.228,137.695,23.926,-968.750,135.254,75.195,0
1579286900.232,143.555,31.250,-968.750,137.207,72.266,0
1579286900.249,135.254,-24.902,-968.750,124.512,45.898,0
1579286900.253,136.719,-57.129,-968.750,114.746,-10.742,0
1579286900.257,161.621,31.250,-968.750,115.723,37.598,0
1579286900.261,150.391,26.367,-969.238,125.488,77.148,0
1579286900.265,116.699,11.719,-966.309,138.184,52.246,0
1579286900.269,143.066,-32.715,-961.426,139.160,48.340,0
1579286900.273,170.410,-60.547,-983.887,133.789,29.785,0
1579286900.276,147.949,27.344,-821.777,135.742,64.941,0
1579286900.280,120.117,39.551,-640.137,133.301,98.633,0
1579286900.284,104.980,23.438,-634.277,126.465,79.590,0
1579286900.288,108.887,-0.977,-695.801,133.301,67.383,0
1579286900.292,118.652,-10.742,-715.332,118.164,54.199,0
1579286900.290,102.051,19.043,-564.941,100.098,54.199,0
1579286900.294,98.145,11.230,-514.160,105.469,47.852,0
1579286900.298,104.004,13.672,-453.125,102.539,55.664,0
1579286900.302,119.629,-5.859,-479.980,108.398,46.875,0
1579286900.306,141.602,-22.461,-541.992,114.746,25.391,0
1579286900.310,87.891,-32.715,-614.258,111.816,-3.418,0
1579286900.314,44.434,-7.324,-551.758,107.910,29.785,0
1579286900.317,79.590,28.320,-299.316,112.793,71.777,0
1579286900.321,80.566,-12.695,-321.289,108.887,55.176,0
1579286900.325,65.918,-26.855,-397.949,88.379,40.527,0
1579286900.329,66.895,11.719,-212.891,78.125,19.043,0
1579286900.333,84.961,28.320,42.480,84.961,39.062,0
1579286900.329,97.168,33.203,216.309,79.590,71.777,0
1579286900.333,81.543,18.555,281.250,72.266,49.805,0
1579286900.337,75.684,-19.043,128.418,73.242,5.371,0
1579286900.341,74.707,16.602,232.910,77.637,9.766,0
1579286900.345,48.828,41.016,518.066,82.031,45.410,0
1579286900.349,75.684,0.000,459.473,76.172,48.828,0
1579286900.353,79.590,8.301,459.961,68.359,25.391,0
1579286900.356,39.551,4.395,415.039,69.336,-13.672,0
1579286900.360,60.059,28.809,504.395,78.613,3.906,0
1579286900.364,67.871,58.105,724.609,83.496,23.438,0
1579286900.368,63.477,33.203,664.551,64.941,-1.953,0
1579286900.372,57.129,28.320,602.051,52.734,-16.602,0
1579286900.389,52.734,-12.207,408.203,52.734,-22.461,0
1579286900.393,53.223,-3.906,349.121,51.758,-20.020,0
1579286900.397,38.086,57.129,594.727,51.270,-17.090,0
1579286900.401,38.574,51.270,677.246,49.316,-5.371,0
1579286900.405,22.949,48.828,733.887,55.176,-0.488,0
1579286900.409,19.531,-13.184,510.742,59.082,-21.973,0
1579286900.413,39.551,3.418,446.777,57.617,-13.184,0
1579286900.416,48.828,80.566,747.070,54.199,13.184,0
1579286900.420,37.598,61.523,764.648,54.199,8.789,0
1579286900.424,28.809,62.988,805.176,59.570,23.926,0
1579286900.428,4.395,15.137,679.199,61.035,26.855,0
1579286900.432,-22.461,0.488,507.812,50.781,-9.766,0
1579286900.429,-4.883,65.918,721.680,39.551,7.324,0
1579286900.433,14.648,52.734,786.133,39.062,25.879,0
1579286900.437,34.668,34.180,703.613,44.434,14.648,0
1579286900.441,52.246,27.344,616.699,44.434,0.977,0
1579286900.445,23.438,37.109,612.793,43.457,9.766,0
1579286900.449,16.113,48.340,618.652,44.922,26.367,0
1579286900.453,25.391,28.809,499.023,51.270,18.066,0
1579286900.456,-3.906,49.316,489.258,45.410,-13.672,0
1579286900.460,2.441,55.176,548.828,33.203,-11.719,0
1579286900.464,17.578,9.277,316.406,32.227,-7.812,0
1579286900.468,21.973,71.777,427.246,31.250,11.719,0
1579286900.472,33.691,101.562,666.016,32.715,30.762,0
1579286900.469,48.340,65.918,569.336,33.691,-0.488,0
1579286900.473,62.012,51.758,519.043,38.086,17.578,0
1579286900.477,66.406,50.781,499.023,39.062,66.406,0
1579286900.481,71.777,67.871,528.320,33.691,69.824,0
1579286900.485,93.750,48.340,450.195,29.785,31.738,0
1579286900.489,107.910,23.926,264.648,41.016,17.578,0
1579286900.493,93.750,23.438,147.949,39.551,19.531,0
1579286900.496,91.309,-9.766,-93.750,32.227,6.836,0
1579286900.500,103.516,23.926,-124.023,33.691,5.371,0
1579286900.504,91.797,78.613,106.445,36.621,18.555,0
1579286900.508,95.703,62.012,94.238,46.875,28.320,0
1579286900.512,118.164,58.105,55.176,48.828,46.875,0
1579286900.530,123.535,34.180,-106.445,41.016,39.062,0
1579286900.534,128.906,34.668,-216.309,30.273,29.785,0
1579286900.538,131.348,40.527,-220.215,20.508,48.340,0
1579286900.542,121.094,34.668,-270.508,19.043,54.688,0
1579286900.546,116.699,33.691,-310.059,23.438,48.828,0
1579286900.550,125.000,-15.137,-585.449,26.855,20.508,0
1579286900.554,135.742,-6.836,-719.238,24.414,21.973,0
1579286900.557,143.555,21.484,-618.652,26.855,45.410,0
1579286900.561,167.480,11.719,-665.039,28.320,42.969,0
1579286900.565,187.500,39.062,-601.074,27.344,33.691,0
1579286900.569,157.715,1.953,-727.051,28.809,41.504,0
1579286900.573,142.090,5.371,-774.902,32.715,60.547,0
1579286900.569,150.879,41.992,-582.031,28.809,63.965,0
1579286900.573,154.785,16.602,-626.953,24.414,26.367,0
1579286900.577,150.391,11.719,-663.086,23.438,0.977,0
1579286900.581,173.828,-9.277,-756.836,28.809,3.418,0
1579286900.585,192.871,-0.488,-732.422,38.574,35.156,0
1579286900.589,152.344,0.977,-676.758,38.574,62.988,0
1579286900.593,162.109,-28.320,-854.980,26.367,29.785,0
1579286900.596,170.410,15.137,-763.672,28.320,35.645,0
1579286900.600,166.504,-5.371,-723.145,38.574,56.152,0
1579286900.604,152.832,-51.270,-909.668,36.621,33.203,0
1579286900.608,120.605,-3.906,-818.359,26.855,36.621,0
1579286900.612,120.117,10.742,-708.984,24.414,46.387,0
1579286900.609,131.348,41.016,-506.348,25.879,87.402,0
1579286900.613,133.301,4.395,-509.277,23.926,78.125,0
1579286900.617,123.047,-13.184,-581.055,26.367,52.734,0
1579286900.621,126.465,28.320,-422.852,25.879,66.895,0
1579286900.625,148.438,12.695,-387.207,27.832,57.617,0
1579286900.629,149.902,-5.859,-444.336,27.344,55.664,0
1579286900.633,128.418,-11.719,-453.125,29.785,69.824,0
1579286900.636,141.113,-45.898,-666.504,41.992,36.621,0
1579286900.640,130.371,13.184,-529.785,43.457,47.852,0
1579286900.644,105.957,55.176,-187.988,40.527,80.078,0
1579286900.648,112.793,25.879,-174.805,44.434,59.570,0
1579286900.652,124.023,0.488,-255.371,48.828,25.879,0
1579286900.669,121.094,-11.230,-336.426,49.316,16.602,0
1579286900.673,115.234,4.883,-287.598,44.434,43.945,0
1579286900.677,124.023,2.441,-268.555,41.016,35.156,0
1579286900.681,127.930,12.695,-236.328,32.227,20.508,0
1579286900.685,135.254,12.207,-187.012,37.109,30.762,0
1579286900.689,123.047,-15.137,-275.879,44.922,40.527,0
1579286900.693,110.352,0.000,-292.480,41.016,61.035,0
1579286900.696,111.816,20.020,-208.008,41.504,31.738,0
1579286900.700,143.555,13.184,-210.938,44.922,-6.348,0
1579286900.704,122.559,28.320,-119.141,45.410,13.672,0
1579286900.708,86.914,-14.648,-284.180,38.086,33.203,0
1579286900.712,107.422,-13.672,-419.434,34.180,9.277,0
1579286900.709,115.234,55.664,-158.691,33.691,12.695,0
1579286900.713,118.652,51.758,-69.336,34.668,42.480,0
1579286900.717,110.352,32.227,-109.375,25.391,18.066,0
1579286900.721,77.637,19.531,-173.828,18.555,1.953,0
1579286900.725,86.914,17.090,-199.219,28.809,4.395,0
1579286900.729,105.469,12.695,-157.227,38.574,-2.441,0
1579286900.733,107.910,12.207,-77.148,31.738,19.531,0
1579286900.736,120.117,37.598,45.898,20.508,31.738,0
1579286900.740,76.172,-9.277,-124.512,35.156,20.508,0
1579286900.744,60.059,-50.781,-473.145,38.574,-14.648,0
1579286900.748,92.773,27.344,-293.457,16.602,-26.855,0
1579286900.752,86.914,56.641,11.230,18.555,13.672,0
1579286900.769,88.867,56.641,171.875,29.297,34.668,0
1579286900.773,88.379,32.715,83.008,26.855,14.160,0
1579286900.777,95.215,31.250,-3.906,33.203,14.648,0
1579286900.781,89.844,48.340,53.711,33.203,16.602,0
1579286900.785,89.355,32.227,30.273,24.902,-9.766,0
1579286900.789,97.656,20.508,2.930,22.461,-29.297,0
1579286900.793,101.074,12.695,35.645,21.973,-24.414,0
1579286900.796,105.469,8.301,24.902,18.555,-7.812,0
1579286900.800,106.445,67.871,226.562,20.020,1.953,0
1579286900.804,123.047,78.125,394.531,11.719,0.977,0
1579286900.808,138.184,62.012,402.832,18.066,9.277,0
1579286900.812,112.305,33.691,408.203,33.203,15.137,0
1579286900.809,79.102,13.184,365.723,38.086,-19.043,0
1579286900.813,93.750,59.082,587.891,41.016,-5.371,0
1579286900.817,98.633,51.270,716.797,36.621,-2.930,0
1579286900.821,86.426,48.828,781.250,34.668,-4.883,0
1579286900.825,99.609,44.922,847.656,32.227,19.531,0
1579286900.829,94.727,6.348,698.730,32.715,-13.184,0
1579286900.833,96.191,11.719,646.973,36.133,-30.762,0
1579286900.836,99.121,43.945,777.344,38.086,0.488,0
1579286900.840,85.449,68.359,945.312,41.504,41.016,0
1579286900.844,111.816,38.574,935.059,33.691,17.090,0
1579286900.848,112.793,-11.230,676.758,27.344,-28.320,0
1579286900.852,84.473,25.391,730.957,33.691,3.418,0
1579286900.849,106.934,62.988,939.941,42.969,21.484,0
1579286900.853,136.230,54.199,922.852,48.340,3.418,0
1579286900.857,124.512,50.781,954.590,47.363,6.836,0
1579286900.861,104.492,2.441,753.418,40.527,-2.930,0
1579286900.865,117.188,20.508,725.586,28.320,4.395,0
1579286900.869,126.465,45.898,848.145,28.809,21.973,0
1579286900.873,127.930,14.648,660.156,35.156,-9.766,0
1579286900.876,124.023,42.969,710.449,31.738,-11.719,0
1579286900.880,108.887,3.906,601.074,36.621,-1.953,0
1579286900.884,77.637,-10.742,451.172,33.691,4.395,0
1579286900.888,75.684,57.129,695.312,19.043,9.277,0
1579286900.892,114.258,50.293,778.320,26.367,6.348,0
1579286900.909,126.465,38.574,779.785,37.109,15.625,0
1579286900.913,109.863,17.090,658.203,28.320,13.184,0
1579286900.917,98.145,34.668,668.457,29.297,23.926,0
1579286900.921,89.355,50.781,744.141,28.320,24.902,0
1579286900.925,99.121,28.320,661.133,36.133,-2.441,0
1579286900.929,113.281,12.695,541.016,45.898,-7.812,0
1579286900.933,109.375,-13.184,329.102,39.551,-4.395,0
1579286900.936,102.051,5.859,265.625,33.691,-15.625,0
1579286900.940,126.465,62.988,415.039,32.715,-10.254,0
1579286900.944,123.535,57.129,437.988,34.668,22.461,0
1579286900.948,106.934,54.688,438.965,31.250,52.246,0
1579286900.952,111.328,-2.441,196.777,33.691,14.648,0
1579286900.949,110.840,-17.578,-35.156,34.668,2.441,0
1579286900.953,109.375,39.062,73.730,39.062,27.344,0
1579286900.957,84.473,27.344,45.410,36.133,17.578,0
1579286900.961,84.473,12.695,-81.543,19.043,19.043,0
1579286900.965,91.797,-22.949,-306.152,21.973,4.395,0
1579286900.969,85.449,-27.344,-435.059,29.297,15.625,0
1579286900.973,92.285,3.906,-407.227,18.555,37.109,0
1579286900.976,96.680,20.508,-335.449,8.301,39.062,0
1579286900.980,106.445,19.043,-309.570,17.090,29.297,0
1579286900.984,102.539,2.930,-338.379,24.902,12.695,0
1579286900.988,68.848,-57.129,-649.414,21.484,-17.578,0
1579286900.992,69.824,-10.254,-609.375,22.949,-17.578,0
1579286900.989,67.383,50.293,-208.496,23.926,8.789,0
1579286900.993,74.707,8.301,-162.598,28.320,-30.762,0
1579286900.997,99.121,5.371,-21.973,39.551,-18.066,0
1579286901.001,91.797,10.254,162.109,43.945,17.578,0
1579286901.005,88.379,16.113,329.590,40.527,-12.207,0
1579286901.009,97.168,3.418,430.176,45.898,-24.902,0
1579286901.013,101.562,5.371,525.879,53.711,-7.812,0
1579286901.016,99.609,32.715,766.113,52.246,23.438,0
1579286901.020,108.398,-20.508,667.480,46.875,-19.531,0
1579286901.024,115.234,0.977,703.613,42.969,-43.945,0
1579286901.028,104.492,81.543,-983.887,47.363,0.977,0
1579286901.032,101.562,69.824,-999.512,54.199,4.395,0
1579286901.049,96.191,60.547,991.699,51.758,-18.066,0
1579286901.053,102.539,36.621,-999.023,43.945,-56.152,0
1579286901.057,114.258,49.316,999.512,37.109,-41.992,0
1579286901.061,120.117,67.871,999.512,41.504,3.906,0
1579286901.065,98.633,56.641,999.512,45.410,17.090,0
1579286901.069,100.586,43.945,999.512,40.527,2.930,0
1579286901.073,132.324,16.113,999.512,41.016,-18.066,0
1579286901.076,119.141,59.570,999.512,47.852,10.742,0
1579286901.080,120.117,107.910,-1000.000,51.758,33.691,0
1579286901.084,149.414,68.359,997.070,46.875,10.254,0
1579286901.088,166.992,76.660,-994.141,45.410,11.719,0
1579286901.092,149.902,53.711,979.980,55.664,10.254,0
1579286901.089,108.398,47.363,964.844,55.664,17.578,0
1579286901.093,96.191,101.074,-997.070,44.434,28.809,0
1579286901.097,88.379,77.148,993.652,46.387,4.883,0
1579286901.101,74.707,82.031,-999.023,54.199,30.273,0
1579286901.105,83.496,64.453,967.285,57.129,65.918,0
1579286901.109,88.379,20.996,734.375,53.223,34.180,0
1579286901.113,87.891,25.879,477.539,51.758,-4.395,0
1579286901.116,100.586,54.199,419.434,49.805,21.484,0
1579286901.120,108.887,75.195,413.574,49.805,63.965,0
1579286901.124,104.492,29.785,145.020,45.898,43.945,0
1579286901.128,91.309,-26.855,-380.859,33.203,4.883,0
1579286901.132,93.262,41.504,-420.410,29.297,19.531,0
1579286901.129,99.609,50.781,-392.578,38.086,41.992,0
1579286901.133,103.516,42.480,-540.039,38.086,76.172,0
1579286901.137,102.051,36.621,-662.598,30.273,71.777,0
1579286901.141,104.980,6.836,-915.527,35.645,33.691,0
1579286901.145,124.512,38.574,-934.082,45.410,63.477,0
1579286901.149,121.094,11.719,-954.590,52.734,74.219,0
1579286901.153,103.516,-4.883,-974.121,42.969,36.133,0
1579286901.156,86.426,11.230,-966.309,28.809,17.090,0
1579286901.160,80.566,13.184,-969.238,36.133,44.434,0
1579286901.164,103.027,38.574,-968.262,43.945,89.355,0
1579286901.168,121.094,30.762,-968.262,45.410,94.727,0
1579286901.172,119.141,5.371,-968.750,53.223,54.688,0
1579286901.189,114.258,15.137,-968.750,55.176,69.336,0
1579286901.193,93.750,-18.066,-968.750,47.363,86.914,0
1579286901.197,83.008,-11.230,-968.262,50.293,56.152,0
1579286901.201,101.562,2.441,-968.262,57.129,41.992,0
1579286901.205,97.168,-3.906,-968.262,54.688,70.312,0
1579286901.209,51.758,14.160,-968.262,49.805,112.305,0
1579286901.213,44.922,-56.641,-968.750,43.457,73.730,0
1579286901.216,74.707,-53.711,-968.750,33.691,26.855,0
1579286901.220,63.477,27.832,-968.750,32.715,33.203,0
1579286901.224,49.316,23.926,-968.750,46.875,54.199,0
1579286901.228,69.336,15.137,-968.262,54.688,78.613,0
1579286901.232,77.148,-11.719,-968.262,58.105,49.316,0
1579286901.229,84.473,-11.230,-968.750,46.387,22.949,0
1579286901.233,56.152,7.324,-968.750,32.715,31.250,0
1579286901.237,56.152,10.742,-968.750,44.922,46.387,0
1579286901.241,94.727,20.996,-968.750,48.340,66.895,0
1579286901.245,82.031,-5.859,-968.262,30.762,48.828,0
1579286901.249,34.180,-25.879,-969.238,29.785,20.508,0
1579286901.253,53.223,1.465,-964.355,33.203,50.781,0
1579286901.256,70.801,-2.930,-978.027,28.809,52.734,0
1579286901.260,77.148,19.043,-942.871,32.227,26.367,0
1579286901.264,91.797,10.254,-892.578,35.156,35.156,0
1579286901.268,106.445,-29.297,-956.543,33.203,47.363,0
1579286901.272,77.637,32.227,-801.270,37.109,53.711,0
1579286901.269,49.316,63.477,-534.668,42.969,69.824,0
1579286901.273,77.148,37.109,-480.957,46.875,43.457,0
1579286901.277,75.195,12.695,-516.602,53.711,39.551,0
1579286901.281,62.988,20.020,-460.938,51.758,77.637,0
1579286901.285,69.336,29.785,-375.000,43.945,57.129,0
1579286901.289,69.336,-13.184,-536.621,41.992,22.461,0
1579286901.293,82.520,14.648,-487.305,39.062,57.129,0
1579286901.296,81.055,30.273,-316.406,44.922,78.613,0
1579286901.300,78.613,-42.969,-617.676,38.574,41.992,0
1579286901.304,82.520,-9.277,-672.852,27.344,22.949,0
1579286901.308,69.824,41.016,-400.391,39.551,31.250,0
1579286901.312,67.383,41.504,-278.809,51.758,55.664,0
1579286901.329,69.824,18.066,-315.430,50.293,52.734,0
1579286901.333,42.480,-8.301,-456.543,42.480,23.926,0
1579286901.337,32.715,24.414,-407.715,38.086,37.598,0
1579286901.341,51.270,30.762,-350.586,38.574,55.176,0
1579286901.345,47.852,10.742,-414.551,32.227,41.016,0
1579286901.349,41.504,-4.883,-497.070,28.809,46.387,0
1579286901.353,47.363,-56.641,-797.852,35.156,25.391,0
1579286901.356,52.246,-19.531,-817.383,38.574,6.348,0
1579286901.360,78.125,58.105,-489.258,35.156,47.852,0
1579286901.364,75.195,44.922,-508.789,24.902,59.570,0
1579286901.368,49.316,36.133,-600.098,30.273,61.035,0
1579286901.372,52.246,15.137,-747.559,30.273,56.641,0
1579286901.369,52.246,1.953,-921.875,26.855,31.738,0
1579286901.373,49.316,31.250,-830.078,28.809,59.082,0
1579286901.377,52.246,32.715,-790.527,20.996,61.523,0
1579286901.381,51.758,19.043,-863.281,31.250,29.785,0
1579286901.385,51.758,15.625,-895.020,41.016,43.457,0
1579286901.389,56.152,0.977,-963.867,41.016,40.527,0
1579286901.393,45.898,4.883,-976.562,40.527,20.996,0
1579286901.396,42.480,30.762,-932.129,42.480,24.414,0
1579286901.400,40.039,56.641,-767.090,43.457,65.430,0
1579286901.404,45.898,10.254,-829.590,37.598,79.590,0
1579286901.408,51.758,1.953,-929.688,37.598,50.781,0
1579286901.412,56.641,47.852,-779.297,43.945,37.598,0
1579286901.409,48.828,44.922,-663.086,44.922,70.801,0
1579286901.413,32.227,56.152,-543.457,45.898,101.562,0
1579286901.417,67.383,-3.906,-694.336,47.852,80.566,0
1579286901.421,62.988,-31.738,-888.672,34.180,40.039,0
1579286901.425,39.551,36.621,-681.152,28.320,46.387,0
1579286901.429,63.965,12.695,-675.781,33.203,63.965,0
1579286901.433,58.594,20.508,-662.598,28.809,62.012,0
1579286901.436,54.199,1.953,-650.391,34.668,26.855,0
1579286901.440,56.152,-37.109,-892.578,40.527,-9.766,0
1579286901.444,54.688,47.852,-667.480,39.062,34.180,0
1579286901.448,55.664,65.430,-422.363,43.457,58.594,0
1579286901.452,42.480,52.734,-390.625,42.969,59.570,0
1579286901.469,40.039,27.344,-419.922,40.527,60.059,0
1579286901.473,52.734,8.789,-494.629,44.922,38.086,0
1579286901.477,62.012,45.410,-332.031,43.457,66.406,0
1579286901.481,48.340,33.203,-254.395,39.551,78.613,0
1579286901.485,37.109,1.465,-335.938,37.598,23.926,0
1579286901.489,36.621,-15.625,-448.730,33.691,17.090,0
1579286901.493,34.180,-41.016,-683.105,34.180,58.594,0
1579286901.496,39.551,11.719,-601.562,32.227,72.266,0
1579286901.500,44.922,45.898,-377.930,34.180,58.105,0
1579286901.504,34.668,21.973,-420.898,41.992,42.480,0
1579286901.508,32.715,21.973,-425.293,44.434,54.688,0
1579286901.512,63.477,6.348,-516.113,41.504,53.223,0
1579286901.509,43.457,21.973,-501.953,41.992,64.941,0
1579286901.513,15.137,17.578,-512.695,40.039,60.059,0
1579286901.517,47.363,8.301,-576.660,46.875,51.270,0
1579286901.521,55.664,5.859,-588.867,44.434,59.082,0
1579286901.525,56.641,-13.184,-719.727,31.250,35.156,0
1579286901.529,62.500,-18.555,-818.848,33.691,32.227,0
1579286901.533,68.359,-16.113,-829.590,34.180,38.086,0
1579286901.536,63.965,18.555,-659.180,38.086,61.035,0
1579286901.540,41.992,12.695,-577.637,48.340,62.012,0
1579286901.544,26.367,-61.523,-859.863,46.387,15.625,0
1579286901.548,30.762,-30.273,-906.250,32.715,11.719,0
1579286901.552,45.898,50.781,-587.402,34.180,52.246,0
1579286901.549,40.039,36.133,-446.777,38.574,66.895,0
1579286901.553,41.992,19.531,-443.848,34.668,48.828,0
1579286901.557,68.359,6.836,-503.418,32.227,37.598,0
1579286901.561,74.219,27.344,-477.051,32.715,50.781,0
1579286901.565,67.871,42.969,-367.676,34.180,71.289,0
1579286901.569,61.035,0.000,-546.875,32.227,50.293,0
1579286901.573,55.176,12.695,-641.602,27.832,42.969,0
1579286901.576,37.109,4.395,-653.809,31.738,63.477,0
1579286901.580,31.250,-23.926,-830.566,37.598,35.156,0
1579286901.584,31.250,44.922,-627.930,36.133,41.016,0
1579286901.588,14.160,53.711,-451.660,38.086,53.711,0
1579286901.592,27.344,15.625,-540.039,47.852,44.922,0
1579286901.609,39.551,-16.602,-705.566,56.152,32.715,0
1579286901.613,41.992,4.395,-693.359,49.316,33.203,0
1579286901.617,40.039,28.320,-591.309,39.551,36.133,0
1579286901.621,41.016,19.043,-612.305,37.109,33.691,0
1579286901.625,57.129,19.043,-611.816,38.574,34.180,0
1579286901.629,66.406,-12.207,-700.195,38.086,51.270,0
1579286901.633,55.664,-19.043,-845.215,41.504,44.922,0
1579286901.636,42.969,44.922,-691.406,46.387,44.922,0
1579286901.640,47.852,45.410,-576.660,46.875,58.594,0
1579286901.644,57.129,32.227,-601.074,41.016,49.805,0
1579286901.648,58.105,15.137,-663.086,35.645,32.227,0
1579286901.652,14.160,-14.648,-860.352,35.645,-1.465,0
1579286901.649,19.531,26.855,-772.461,43.457,8.301,0
1579286901.653,28.809,52.734,-531.250,43.457,66.895,0
1579286901.657,24.902,23.926,-573.242,38.086,60.059,0
1579286901.661,49.805,9.277,-621.582,41.016,20.508,0
1579286901.665,43.457,8.789,-582.031,43.945,13.184,0
1579286901.669,44.922,20.996,-488.281,50.293,39.551,0
1579286901.673,43.945,21.973,-423.340,44.922,46.875,0
1579286901.676,39.551,29.785,-368.652,46.387,21.973,0
1579286901.680,77.148,56.641,-205.566,51.758,3.418,0
1579286901.684,43.945,-0.977,-393.066,52.246,3.906,0
1579286901.688,-21.484,-0.488,-478.027,57.129,19.043,0
1579286901.692,15.625,50.293,-253.906,51.758,5.859,0
1579286901.689,33.691,45.410,-191.406,41.992,-7.812,0
1579286901.693,22.461,51.758,-62.988,43.457,23.926,0
1579286901.697,40.039,28.809,-82.031,43.457,25.879,0
1579286901.701,42.969,26.855,-120.117,43.457,-4.883,0
1579286901.705,47.363,41.504,-45.410,45.898,-3.418,0
1579286901.709,45.410,28.320,-68.848,43.457,37.109,0
1579286901.713,51.758,30.273,-107.422,48.828,37.109,0
1579286901.716,58.105,-12.695,-311.523,46.387,-13.672,0
1579286901.720,46.387,-13.672,-429.688,38.086,-41.992,0
1579286901.724,51.758,70.801,-88.867,38.086,-8.301,0
1579286901.728,66.406,83.496,125.000,38.086,39.551,0
1579286901.732,63.477,64.941,123.047,35.156,32.715,0
1579286901.749,61.035,40.527,16.602,32.715,16.113,0
1579286901.753,65.918,48.828,-8.789,34.180,17.090,0
1579286901.757,55.176,62.012,60.547,38.086,20.020,0
1579286901.761,46.875,49.805,28.809,38.574,19.043,0
1579286901.765,39.551,48.340,-0.977,38.086,-1.953,0
1579286901.769,50.781,0.488,-176.270,42.969,0.000,0
1579286901.773,55.664,-17.578,-381.836,38.086,15.137,0
1579286901.776,54.688,68.359,-102.051,36.621,53.223,0
1579286901.780,80.078,60.547,-0.977,40.039,61.523,0
1579286901.784,36.133,32.715,-126.465,34.180,24.902,0
1579286901.788,4.395,27.832,-121.094,38.086,26.367,0
1579286901.792,13.184,15.625,-166.504,43.945,33.691,0
1579286901.789,13.672,33.203,-157.715,49.805,20.508,0
1579286901.793,41.016,36.133,-201.660,51.758,9.766,0
1579286901.797,54.688,45.898,-201.660,55.176,24.902,0
1579286901.801,48.828,25.879,-257.324,59.570,33.203,0
1579286901.805,59.570,14.648,-323.730,62.012,39.551,0
1579286901.809,63.477,10.742,-390.137,57.617,36.133,0
1579286901.813,57.617,7.812,-492.676,50.293,10.742,0
1579286901.816,93.262,51.758,-347.656,51.758,23.438,0
1579286901.820,76.660,59.082,-148.926,40.039,63.477,0
1579286901.824,29.297,-24.414,-456.055,35.645,22.949,0
1579286901.828,42.969,-4.395,-525.879,36.621,-12.207,0
1579286901.832,46.387,52.246,-231.445,42.480,7.812,0
1579286901.829,51.270,49.805,-105.957,49.316,29.785,0
1579286901.833,62.500,53.223,16.113,49.805,47.363,0
1579286901.837,73.730,22.461,-74.219,49.316,21.973,0
1579286901.841,73.730,34.180,-25.391,42.969,21.484,0
1579286901.845,51.758,44.922,120.117,40.527,40.039,0
1579286901.849,42.969,12.207,38.574,44.434,29.297,0
1579286901.853,52.246,25.879,80.078,33.691,33.691,0
1579286901.856,54.199,25.391,87.891,34.668,41.992,0
1579286901.860,48.340,27.344,108.398,39.551,51.270,0
1579286901.864,22.949,42.969,206.543,27.832,26.855,0
1579286901.868,12.207,34.180,168.457,25.391,10.742,0
1579286901.872,42.480,47.852,263.672,32.227,43.945,0
1579286901.889,59.570,-0.977,96.680,40.527,41.992,0
1579286901.893,36.621,-10.742,-42.969,41.992,15.137,0
1579286901.897,37.109,21.973,40.527,32.715,18.555,0
1579286901.901,57.617,19.043,16.602,34.668,7.812,0
1579286901.905,44.922,39.551,140.137,40.039,26.855,1
1579286901.909,42.480,-18.066,-35.645,42.480,37.598,0
1579286901.913,49.805,-41.992,-313.477,31.250,21.973,0
1579286901.916,41.992,42.969,-76.660,21.973,23.438,0
1579286901.920,41.992,54.688,102.051,23.926,15.625,0
1579286901.924,38.086,47.852,170.898,28.320,41.016,0
1579286901.928,42.969,20.020,141.602,35.645,54.688,0
1579286901.932,51.758,-3.418,11.230,26.855,9.766,0
1579286901.929,42.969,9.766,17.090,12.207,-23.926,0
1579286901.933,44.922,9.766,35.156,26.855,-16.602,0
1579286901.937,50.293,23.438,109.375,31.250,12.207,0
1579286901.941,46.875,5.371,57.129,24.902,25.879,0
1579286901.945,34.180,-5.859,-20.508,33.203,14.648,0
1579286901.949,49.316,10.254,-22.949,31.738,5.371,0
1579286901.953,55.176,20.996,-0.488,26.855,41.504,0
1579286901.956,50.293,33.203,76.660,30.762,58.105,0
1579286901.960,42.480,9.277,16.113,34.180,6.836,0
1579286901.964,15.137,-23.438,-198.730,30.273,-28.320,0
1579286901.968,23.926,42.969,-28.809,37.109,-3.418,0
1579286901.972,55.664,82.031,262.695,32.227,26.367,0
1579286901.969,42.969,58.105,242.188,16.602,18.555,0
1579286901.973,11.719,39.062,213.867,28.320,20.996,0
1579286901.977,32.715,20.020,125.000,35.645,14.160,0
1579286901.981,51.270,49.805,180.176,30.273,19.531,0
1579286901.985,46.387,45.898,208.496,25.391,18.555,0
1579286901.989,47.852,16.113,76.660,35.645,25.391,0
1579286901.993,47.363,26.367,48.340,49.805,41.016,0
1579286901.996,66.895,20.508,-34.668,54.688,43.945,0
1579286902.000,62.012,26.855,-86.426,52.246,29.297,0
1579286902.004,41.504,50.781,14.648,42.969,5.371,0
1579286902.008,43.457,53.711,54.688,36.133,26.367,0
1579286902.012,49.805,59.082,130.859,38.574,64.941,0
1579286902.029,63.965,-0.488,-145.996,39.062,34.668,0
1579286902.033,65.430,-4.395,-291.016,34.668,-0.488,0
1579286902.037,61.523,30.762,-122.070,34.180,3.906,0
1579286902.041,39.062,33.691,-79.590,32.227,33.203,0
1579286902.045,33.203,33.691,-51.270,33.691,41.016,0
1579286902.049,29.785,-19.531,-300.781,41.992,3.418,0
1579286902.053,26.367,-9.277,-422.852,39.062,-5.371,0
1579286902.056,34.180,49.316,-161.621,38.574,30.762,0
1579286902.060,48.828,42.969,-101.074,44.922,30.273,0
1579286902.064,49.805,43.457,-91.797,44.922,25.879,0
1579286902.068,67.871,-13.184,-295.898,46.875,18.066,0
1579286902.072,45.410,-15.137,-400.391,42.480,29.297,0
1579286902.069,6.836,39.551,-207.031,38.086,27.832,0
1579286902.073,42.969,29.297,-209.961,40.527,13.672,0
1579286902.077,46.387,33.691,-187.500,41.016,29.785,0
1579286902.081,23.926,18.066,-257.324,41.504,41.504,0
1579286902.085,29.297,20.508,-270.996,40.527,52.246,0
1579286902.089,48.340,9.277,-345.215,40.527,24.414,0
1579286902.093,42.969,-4.883,-498.047,39.551,-1.465,0
1579286902.096,24.902,41.504,-351.562,49.805,13.184,0
1579286902.100,32.227,21.973,-347.656,52.246,38.574,0
1579286902.104,43.457,-1.465,-482.422,32.715,44.922,0
1579286902.108,51.270,27.832,-430.664,28.320,14.648,0
1579286902.112,63.477,16.602,-453.613,38.574,5.371,0
1579286902.109,50.781,49.316,-320.312,44.434,45.410,0
1579286902.113,43.945,19.531,-352.539,41.016,51.270,0
1579286902.117,32.715,-24.902,-606.934,37.598,13.672,0
1579286902.121,36.621,33.691,-498.047,35.645,-1.953,0
1579286902.125,38.574,54.688,-309.570,45.410,35.156,0
1579286902.129,47.363,28.320,-344.238,45.898,67.871,0
1579286902.133,43.457,3.418,-452.637,36.621,39.062,0
1579286902.136,6.836,-32.715,-693.359,40.039,3.418,0
1579286902.140,28.809,20.508,-594.727,45.410,19.531,0
1579286902.144,55.664,73.730,-273.438,45.898,53.223,0
1579286902.148,26.855,54.199,-237.305,44.922,64.453,0
1579286902.152,29.785,24.902,-322.266,49.805,33.203,0
1579286902.169,39.062,20.996,-375.000,53.223,36.621,0
1579286902.173,39.551,43.945,-285.156,52.734,61.035,0
1579286902.177,54.688,24.414,-316.406,44.434,26.855,0
1579286902.181,49.316,21.973,-346.680,34.180,6.836,0
1579286902.185,28.809,22.461,-305.664,36.621,42.969,0
1579286902.189,20.508,-18.066,-499.023,40.527,33.203,0
1579286902.193,38.086,14.648,-477.051,39.062,24.414,0
1579286902.196,27.344,52.734,-237.305,38.086,45.410,0
1579286902.200,18.066,23.926,-279.297,36.133,14.160,0
1579286902.204,29.785,33.203,-227.051,35.156,25.391,0
1579286902.208,47.363,-11.230,-392.090,46.387,28.809,0
1579286902.212,71.289,-16.602,-532.227,43.457,-6.348,0
1579286902.209,32.227,41.016,-303.711,35.645,6.348,0
1579286902.213,13.672,36.133,-237.793,41.016,32.715,0
1579286902.217,37.598,29.785,-196.289,47.363,47.852,0
1579286902.221,46.387,13.672,-241.211,48.340,54.199,0
1579286902.225,56.641,-1.953,-346.680,39.062,14.160,0
1579286902.229,59.570,-12.695,-424.316,40.039,-0.488,0
1579286902.233,67.871,9.277,-381.348,40.039,36.621,0
1579286902.236,59.570,33.691,-275.879,32.227,36.133,0
1579286902.240,35.645,-17.090,-436.523,29.297,3.418,0
1579286902.244,49.805,-26.367,-586.426,34.180,-7.324,0
1579286902.248,50.293,56.152,-324.707,43.457,15.137,0
1579286902.252,36.133,67.383,-157.715,40.527,33.691,0
1579286902.269,28.320,51.270,-177.246,33.691,19.531,0
1579286902.273,27.832,22.461,-264.160,33.691,8.789,0
1579286902.277,45.898,16.113,-300.781,29.785,12.207,0
1579286902.281,50.293,49.316,-186.523,33.691,15.137,0
1579286902.285,46.875,47.363,-123.047,31.250,43.457,0
1579286902.289,59.570,20.996,-221.191,36.621,38.086,0
1579286902.293,79.590,-1.953,-341.797,35.645,16.602,0
1579286902.296,46.875,-21.973,-485.840,26.367,10.254,0
1579286902.300,2.930,41.504,-330.078,26.855,18.066,0
1579286902.304,27.344,67.871,-87.891,24.414,39.062,0
1579286902.308,42.480,33.203,-160.645,34.180,39.551,0
1579286902.312,40.039,27.344,-153.809,31.250,54.688,0
1579286902.309,40.527,15.137,-138.672,24.414,42.480,0
1579286902.313,36.133,32.227,-69.336,24.902,29.297,0
1579286902.317,27.832,36.133,-7.812,20.996,44.434,0
1579286902.321,14.160,31.250,-15.625,26.855,40.039,0
1579286902.325,26.855,22.949,-37.109,35.156,32.227,0
1579286902.329,43.457,-11.719,-208.496,31.250,10.254,0
1579286902.333,40.527,-2.930,-282.715,26.367,10.742,0
1579286902.336,46.875,25.391,-170.410,30.762,36.621,0
1579286902.340,51.758,35.645,-73.242,42.969,32.715,0
1579286902.344,57.129,38.574,-3.906,55.176,44.434,0
1579286902.348,62.012,-2.441,-232.910,47.852,16.113,0
1579286902.352,34.180,16.113,-290.527,36.133,-2.441,0
1579286902.349,21.973,41.992,-90.820,38.086,34.180,0
1579286902.353,37.598,6.348,-184.570,37.598,36.621,0
1579286902.357,48.340,19.043,-150.879,37.109,29.785,0
1579286902.361,34.180,-9.277,-245.117,44.434,31.738,0
1579286902.365,21.484,-9.766,-319.336,41.504,27.344,0
1579286902.369,29.297,23.926,-163.086,35.645,67.383,0
1579286902.373,30.273,3.906,-272.949,34.668,54.688,0
1579286902.376,37.598,42.480,-176.758,38.574,36.133,0
1579286902.380,53.223,1.465,-273.438,50.781,49.805,0
1579286902.384,50.781,-29.297,-510.254,48.828,23.926,0
1579286902.388,36.621,49.316,-270.996,28.809,33.691,0
1579286902.392,36.621,51.270,-154.297,22.949,57.129,0
1579286902.409,45.410,38.574,-158.691,28.320,65.430,0
1579286902.413,41.992,13.184,-294.922,25.879,47.852,0
1579286902.417,28.320,18.066,-340.332,20.508,46.387,0
1579286902.421,18.555,39.551,-209.961,19.531,75.195,0
1579286902.425,35.645,10.254,-312.500,25.879,67.871,0
1579286902.429,51.270,6.348,-422.852,32.227,41.016,0
1579286902.433,50.781,-20.508,-546.875,32.227,24.414,0
1579286902.436,46.875,-40.527,-770.996,28.809,-19.043,0
1579286902.440,49.316,53.711,-505.859,30.273,12.207,0
1579286902.444,53.223,79.102,-225.586,36.621,60.547,0
1579286902.448,52.246,66.406,-159.180,39.062,68.359,0
1579286902.452,63.965,32.227,-248.047,44.434,45.898,0
1579286902.449,54.688,20.996,-343.262,43.457,25.879,0
1579286902.453,39.551,58.105,-184.570,35.645,69.824,0
1579286902.457,60.059,45.898,-163.086,38.086,72.754,0
1579286902.461,39.551,42.480,-183.105,37.109,49.316,0
1579286902.465,10.742,21.973,-266.602,33.691,31.738,0
1579286902.469,46.875,0.000,-400.391,39.551,30.273,0
1579286902.473,36.133,7.812,-417.480,38.574,53.223,0
1579286902.476,28.320,16.113,-418.457,32.715,54.688,0
1579286902.480,48.340,43.945,-351.562,29.785,25.391,0
1579286902.484,44.434,42.480,-283.203,28.320,18.066,0
1579286902.488,45.410,-21.973,-539.062,30.762,32.227,0
1579286902.492,55.664,-2.441,-609.863,30.762,20.508,0
1579286902.490,59.082,43.945,-408.691,26.855,-5.371,0
1579286902.494,36.621,41.016,-387.207,17.090,-1.465,0
1579286902.498,20.996,45.898,-311.035,20.508,41.016,0
1579286902.502,30.273,18.555,-387.695,24.414,29.297,0
1579286902.506,36.621,36.133,-361.816,23.926,33.203,0
1579286902.510,41.992,20.508,-404.785,33.691,37.109,0
1579286902.514,39.551,5.371,-548.828,45.410,15.625,0
1579286902.517,53.711,52.246,-355.957,37.598,44.434,0
1579286902.521,65.918,-12.695,-545.898,25.879,19.043,0
1579286902.525,35.156,-32.715,-790.039,22.949,-34.180,0
1579286902.529,26.855,48.340,-507.812,26.855,10.254,0
1579286902.533,32.715,50.781,-405.762,30.273,35.156,0
1579286902.549,38.574,53.711,-336.914,32.715,32.715,0
1579286902.553,43.945,37.109,-400.879,34.668,29.785,0
1579286902.557,38.086,34.180,-475.098,30.273,9.766,0
1579286902.561,45.898,62.988,-330.078,42.480,50.781,0
1579286902.565,59.570,48.828,-317.383,39.551,61.035,0
1579286902.569,46.875,23.926,-438.477,27.832,30.762,0
1579286902.573,46.875,-15.137,-606.445,36.133,21.973,0
1579286902.576,47.363,-5.371,-640.625,39.062,22.461,0
1579286902.580,27.832,64.453,-346.680,31.738,23.438,0
1579286902.584,34.668,63.477,-205.566,26.367,11.719,0
1579286902.588,21.973,62.012,-150.391,15.625,35.156,0
1579286902.592,22.949,30.273,-242.188,25.391,19.531,0
1579286902.589,40.527,8.301,-331.055,32.227,15.137,0
1579286902.593,22.949,19.531,-270.020,20.508,22.949,0
1579286902.597,26.367,31.250,-190.430,16.602,1.465,0
1579286902.601,19.043,37.598,-86.426,27.344,12.695,0
1579286902.605,16.113,11.230,-98.633,44.922,32.715,0
1579286902.609,29.785,-21.484,-242.676,37.598,13.672,0
1579286902.613,37.598,-0.488,-256.836,30.762,-3.906,0
1579286902.616,37.109,28.320,-134.766,37.109,0.488,0
1579286902.620,38.574,50.781,32.715,40.527,18.555,0
1579286902.624,43.457,20.996,32.715,39.551,33.203,0
1579286902.628,39.551,-12.695,-116.211,30.762,17.090,0
1579286902.632,36.133,32.227,-29.785,25.879,0.977,0
1579286902.629,41.016,51.758,123.047,32.715,29.785,0
1579286902.633,46.875,49.316,187.500,40.039,52.246,0
1579286902.637,47.363,26.855,137.207,42.480,33.203,0
1579286902.641,45.410,-13.184,-133.789,37.109,2.441,0
1579286902.645,37.109,29.297,-84.961,35.156,4.395,0
1579286902.649,42.969,19.531,-45.410,41.016,-0.977,0
1579286902.653,44.922,9.277,-131.348,43.457,-15.137,0
1579286902.656,30.762,46.387,17.090,30.762,-12.207,0
1579286902.660,41.504,-20.996,-220.215,28.809,-6.836,0
1579286902.664,42.480,-1.465,-274.902,42.969,9.766,0
1579286902.668,37.109,71.289,41.504,37.598,30.762,0
1579286902.672,52.246,52.734,56.152,26.367,26.367,0
1579286902.689,71.777,43.457,28.320,30.762,22.949,0
1579286902.693,46.387,29.785,-41.504,41.992,27.832,0
1579286902.697,20.508,36.133,-54.199,43.945,34.180,0
1579286902.701,44.434,49.316,15.137,39.062,59.570,0
1579286902.705,32.715,24.902,-76.172,36.621,39.551,0
1579286902.709,22.461,-1.465,-230.957,31.250,16.602,0
1579286902.713,33.691,-24.902,-420.898,38.086,23.438,0
1579286902.716,50.781,0.000,-392.578,37.109,26.855,0
1579286902.720,60.547,47.852,-162.109,36.621,32.715,0
1579286902.724,56.152,44.434,-118.652,39.062,39.551,0
1579286902.728,44.434,50.293,-60.547,33.691,49.805,0
1579286902.732,29.785,-6.836,-283.203,33.691,16.113,0
1579286902.729,28.809,-1.953,-382.324,29.785,6.836,0
1579286902.733,40.527,50.293,-154.297,29.785,25.391,0
1579286902.737,36.621,28.320,-164.551,40.039,16.602,0
1579286902.741,41.992,41.016,-115.723,47.852,38.086,0
1579286902.745,54.688,12.695,-223.633,45.898,31.250,0
1579286902.749,60.059,-18.066,-423.340,51.270,-0.488,0
1579286902.753,52.734,7.324,-401.855,60.059,-1.465,0
1579286902.756,34.668,19.531,-364.746,51.758,17.578,0
1579286902.760,16.602,54.199,-205.566,39.551,34.668,0
1579286902.764,30.273,15.625,-246.094,43.457,31.250,0
1579286902.768,48.340,-25.879,-502.441,44.434,11.230,0
1579286902.772,57.617,45.898,-313.965,45.410,13.184,0
1579286902.769,53.711,59.082,-153.809,50.781,15.625,0
1579286902.773,56.641,46.387,-182.617,46.875,13.184,0
1579286902.777,53.223,24.902,-250.977,43.945,20.508,0
1579286902.781,28.809,31.738,-250.000,34.180,54.688,0
1579286902.785,20.508,49.805,-153.809,26.855,60.547,0
1579286902.789,21.973,-0.977,-356.934,28.809,17.578,0
1579286902.793,19.531,28.320,-384.766,33.203,30.273,0
1579286902.796,23.438,46.875,-241.211,39.062,62.012,0
1579286902.800,35.156,5.371,-377.930,40.039,50.781,0
1579286902.804,28.320,34.668,-353.027,28.809,37.109,0
1579286902.808,24.902,44.434,-248.047,31.250,47.363,0
1579286902.812,41.016,39.551,-207.520,38.086,72.754,0
1579286902.829,34.180,1.465,-338.379,32.227,55.664,0
1579286902.833,28.320,-25.391,-583.984,20.996,6.836,0
1579286902.837,38.574,27.344,-459.473,20.996,9.766,0
1579286902.841,47.363,56.641,-232.910,36.133,46.875,0
1579286902.845,43.945,43.945,-193.359,45.898,59.570,0
1579286902.849,57.617,20.508,-255.371,43.945,54.688,0
1579286902.853,64.941,-37.598,-560.059,44.434,28.809,0
1579286902.856,27.832,-30.273,-675.781,39.551,-12.695,0
1579286902.860,23.926,61.035,-312.988,35.645,12.695,0
1579286902.864,36.621,64.453,-157.227,34.180,43.457,0
1579286902.868,37.598,41.504,-197.754,29.785,21.973,0
1579286902.872,42.969,36.133,-241.699,33.203,27.344,0
1579286902.869,54.688,42.480,-221.680,37.598,44.434,0
1579286902.873,44.434,44.434,-161.133,37.598,47.363,0
1579286902.877,46.387,32.715,-162.109,32.227,49.316,0
1579286902.881,47.363,10.254,-273.926,36.133,25.391,0
1579286902.885,49.805,4.395,-363.770,46.387,-2.930,0
1579286902.889,41.504,17.578,-298.828,40.039,30.273,0
1579286902.893,32.715,8.789,-317.871,27.832,29.297,0
1579286902.896,42.480,8.789,-379.883,28.320,-9.766,0
1579286902.900,31.738,59.082,-152.832,38.574,33.691,0
1579286902.904,33.203,9.277,-248.535,34.180,32.227,0
1579286902.908,36.621,-9.766,-426.270,24.414,-5.371,0
1579286902.912,30.273,53.711,-191.406,30.273,22.461,0
1579286902.909,35.645,38.574,-141.602,27.832,41.992,0
1579286902.913,51.270,39.551,-97.656,31.738,50.781,0
1579286902.917,59.570,-2.441,-215.332,43.457,37.598,0
1579286902.921,35.645,-20.996,-389.160,37.598,8.301,0
1579286902.925,38.574,35.156,-216.797,33.203,8.301,0
1579286902.929,55.176,20.508,-218.750,40.039,34.180,0
1579286902.933,45.410,30.762,-222.656,41.016,54.688,0
1579286902.936,25.391,21.973,-200.684,39.551,38.086,1
1579286902.940,22.461,-2.930,-305.664,41.016,13.672,0
1579286902.944,31.738,46.387,-159.180,41.016,26.855,0
1579286902.948,25.879,43.945,-52.734,40.527,56.152,0
1579286902.952,35.156,27.344,-79.590,27.832,61.035,0
1579286902.969,43.457,2.930,-154.297,23.438,24.414,0
1579286902.973,21.484,-42.969,-406.250,32.715,-1.953,0
1579286902.977,24.902,10.742,-334.473,31.250,4.395,0
1579286902.981,41.016,50.293,-79.590,26.855,38.574,0
1579286902.985,36.621,33.691,-58.594,23.438,47.363,0
1579286902.989,26.367,6.348,-153.809,31.738,33.203,0
1579286902.993,44.922,-35.156,-437.500,39.551,24.902,0
1579286902.996,47.852,21.973,-361.328,35.645,33.203,0
1579286903.000,72.754,64.941,-92.285,31.738,24.902,0
1579286903.004,69.336,39.551,-141.602,37.109,17.090,0
1579286903.008,4.883,45.898,-113.281,28.320,45.898,0
1579286903.012,3.906,23.926,-221.191,21.484,27.344,0
1579286903.009,14.160,42.480,-189.453,18.555,43.945,0
1579286903.013,5.371,38.086,-113.770,6.348,47.852,0
1579286903.017,-7.812,20.020,-173.340,8.789,10.254,0
1579286903.021,-17.578,34.180,-117.188,11.230,36.133,0
1579286903.025,-16.113,7.324,-258.789,1.465,36.133,0
1579286903.029,-20.508,-23.926,-573.730,-19.531,-4.395,0
1579286903.033,-41.992,-15.137,-689.453,-37.109,12.207,0
1579286903.036,-50.781,-0.977,-671.387,-48.828,35.156,0
1579286903.040,-48.828,18.555,-625.000,-60.059,24.414,0
1579286903.044,-52.734,-24.902,-811.035,-76.172,7.324,0
1579286903.048,-60.547,-19.043,-904.785,-90.332,6.836,0
1579286903.052,-63.477,18.555,-723.633,-91.797,34.180,0
1579286903.049,-97.168,-5.371,-779.785,-102.539,30.762,0
1579286903.053,-126.953,10.254,-848.145,-120.117,34.180,0
1579286903.057,-120.117,-43.457,-913.574,-121.582,33.691,0
1579286903.061,-116.211,-55.664,-974.121,-115.723,2.441,0
1579286903.065,-108.398,3.418,-954.590,-112.305,6.348,0
1579286903.069,-103.027,-12.695,-950.684,-107.422,30.762,0
1579286903.073,-93.750,-9.277,-934.082,-103.027,13.184,0
1579286903.076,-82.031,-20.996,-898.926,-83.984,0.977,0
1579286903.080,-75.195,-43.945,-949.707,-67.871,33.203,0
1579286903.084,-73.242,20.508,-760.742,-65.918,46.387,0
1579286903.088,-68.848,43.945,-569.336,-54.688,33.691,0
1579286903.092,-34.180,24.414,-594.238,-43.457,12.207,0
1579286903.109,-18.066,2.441,-649.414,-25.879,22.461,0
1579286903.113,-20.996,12.695,-618.164,-10.254,44.922,0
1579286903.117,-3.418,17.090,-572.266,-5.371,38.574,0
1579286903.121,16.602,12.695,-586.426,10.254,33.203,0
1579286903.125,32.227,41.016,-460.449,26.855,28.809,0
1579286903.129,38.086,2.441,-544.922,41.504,18.555,0
1579286903.133,56.641,-40.039,-845.703,52.734,-1.465,0
1579286903.136,58.594,22.949,-735.840,58.105,0.488,0
1579286903.140,68.848,60.547,-463.867,70.312,31.738,0
1579286903.144,75.684,42.480,-429.688,81.543,39.062,0
1579286903.148,94.727,26.855,-449.219,90.820,31.250,0
1579286903.152,87.402,19.043,-475.586,78.613,42.969,0
1579286903.149,62.988,34.180,-435.547,75.195,38.574,0
1579286903.153,81.055,33.691,-398.926,83.984,42.969,0
1579286903.157,94.727,39.062,-339.355,83.496,73.242,0
1579286903.161,103.027,27.344,-355.957,83.008,70.801,0
1579286903.165,116.211,10.742,-452.148,84.473,54.199,0
1579286903.169,117.676,7.324,-502.930,88.867,61.523,0
1579286903.173,111.816,1.465,-553.711,92.285,54.688,0
1579286903.176,104.980,0.977,-623.047,91.309,18.555,0
1579286903.180,111.816,12.207,-612.305,91.309,7.324,0
1579286903.184,116.211,-22.949,-758.301,96.191,15.137,0
1579286903.188,109.863,-9.277,-802.734,91.797,12.207,0
1579286903.192,97.168,62.012,-469.238,91.309,46.387,0
1579286903.189,87.402,33.691,-458.496,92.773,39.062,0
1579286903.193,94.727,26.367,-506.348,96.191,37.598,0
1579286903.197,106.445,17.578,-513.672,103.516,79.590,0
1579286903.201,94.727,4.395,-576.172,88.867,61.523,0
1579286903.205,68.848,15.137,-534.668,67.383,44.434,0
1579286903.209,68.359,-3.906,-577.637,74.707,68.359,0
1579286903.213,97.168,2.930,-593.750,85.938,63.477,0
1579286903.216,70.312,-23.926,-669.434,79.590,39.062,0
1579286903.220,59.570,-50.293,-875.000,73.242,27.344,0
1579286903.224,70.312,30.762,-632.812,74.707,36.133,0
1579286903.228,59.570,41.016,-383.301,78.125,44.922,0
1579286903.232,70.801,20.020,-344.238,80.566,43.457,0
