timestamps,TP9,AF7,AF8,TP10,Right AUX,Marker0
1580492768.319,-19.531,51.758,57.129,-12.695,-49.316,0
1580492768.323,-31.738,55.664,62.988,-3.906,-77.148,0
1580492768.327,-40.039,59.082,61.035,-11.719,6.836,0
1580492768.331,-41.016,60.059,55.664,-40.039,-8.301,0
1580492768.335,-47.363,55.664,62.012,-48.828,-17.578,0
1580492768.339,-62.500,53.711,68.848,-35.645,39.551,0
1580492768.343,-63.965,55.176,66.895,-29.785,7.812,0
1580492768.346,-62.012,53.711,62.500,-45.898,-20.996,0
1580492768.350,-67.871,54.199,58.105,-66.895,27.832,0
1580492768.354,-69.824,57.129,54.688,-54.199,26.855,0
1580492768.358,-69.824,55.664,60.547,-38.086,10.742,0
1580492768.362,-65.430,53.711,62.988,-46.387,-5.371,0
1580492768.379,-59.082,55.176,56.641,-45.410,-13.184,0
1580492768.383,-58.105,55.664,50.781,-31.250,-5.859,0
1580492768.387,-46.387,58.594,45.898,-23.438,-15.137,0
1580492768.391,-38.574,51.758,49.316,-39.551,29.297,0
1580492768.395,-40.527,39.551,55.664,-64.453,57.617,0
1580492768.399,-33.691,41.992,54.688,-52.734,41.992,0
1580492768.403,-29.785,40.527,48.828,-20.020,28.320,0
1580492768.406,-22.461,33.203,40.039,-4.883,61.035,0
1580492768.410,0.488,30.762,38.086,-7.324,74.707,0
1580492768.414,17.578,31.250,32.715,-8.789,37.109,0
1580492768.418,25.391,28.320,25.879,8.789,-11.719,0
1580492768.422,36.133,23.438,26.855,20.508,32.227,0
1580492768.419,48.340,21.484,27.832,17.090,80.566,0
1580492768.423,57.617,20.996,23.926,17.090,16.602,0
1580492768.427,58.105,21.484,25.391,29.297,48.828,0
1580492768.431,56.152,23.926,26.367,49.316,63.477,0
1580492768.435,66.406,25.879,23.926,57.617,16.602,0
1580492768.439,77.637,24.414,24.414,60.059,8.301,0
1580492768.443,74.707,18.066,25.879,67.871,16.602,0
1580492768.446,70.312,16.113,34.668,81.543,8.789,0
1580492768.450,72.754,17.090,31.738,87.402,18.066,0
1580492768.454,77.637,18.066,21.484,75.195,-9.277,0
1580492768.458,76.660,17.578,26.855,75.684,-17.090,0
1580492768.462,77.148,20.508,11.230,92.285,52.246,0
1580492768.459,80.078,23.926,10.742,89.355,30.762,0
1580492768.463,82.031,22.461,47.852,77.148,42.480,0
1580492768.467,81.055,24.414,59.082,73.730,121.094,0
1580492768.471,78.613,30.273,32.227,81.055,121.582,0
1580492768.475,81.543,34.668,6.836,85.449,12.695,0
1580492768.479,76.660,30.762,18.555,66.406,-16.602,0
1580492768.483,65.918,25.879,43.457,52.246,35.645,0
1580492768.486,59.570,27.832,46.387,60.059,38.574,0
1580492768.490,61.035,35.156,0.977,76.172,36.133,0
1580492768.494,61.035,33.691,6.348,69.336,69.824,0
1580492768.498,55.664,23.926,66.895,55.176,122.559,0
1580492768.502,52.246,24.902,77.637,65.918,87.891,0
1580492768.519,50.781,25.391,62.012,81.543,77.148,0
1580492768.523,54.688,30.762,51.270,77.148,72.266,0
1580492768.527,64.941,39.062,49.805,65.918,43.945,0
1580492768.531,63.477,33.203,28.809,63.965,63.965,0
1580492768.535,51.758,28.809,19.043,67.383,68.848,0
1580492768.539,51.270,31.250,42.480,74.219,10.742,0
1580492768.543,56.152,31.738,41.016,66.406,22.461,0
1580492768.546,55.664,31.738,31.738,58.105,80.566,0
1580492768.550,55.664,31.738,35.645,70.312,34.180,0
1580492768.554,62.012,29.785,34.668,73.242,22.949,0
1580492768.558,63.477,26.367,39.551,58.594,56.641,0
1580492768.562,61.035,26.367,47.363,52.734,61.035,0
1580492768.559,60.547,28.809,41.016,60.059,56.152,0
1580492768.563,63.477,29.785,30.762,69.336,103.027,0
1580492768.567,65.430,32.715,28.320,65.918,82.031,0
1580492768.571,63.477,35.156,37.598,56.152,52.734,0
1580492768.575,55.176,33.203,43.457,61.035,17.578,0
1580492768.579,49.805,31.250,40.039,77.148,62.012,0
1580492768.583,56.152,33.691,31.738,75.195,81.055,0
1580492768.586,56.641,31.250,28.809,60.059,34.180,0
1580492768.590,47.363,31.250,35.645,59.082,73.730,0
1580492768.594,43.457,35.156,39.551,67.871,114.746,0
1580492768.598,44.434,35.156,41.504,64.453,66.406,0
1580492768.602,47.363,34.180,38.574,48.828,-8.789,0
1580492768.599,44.434,33.203,32.715,44.922,-9.766,0
1580492768.603,35.156,32.227,34.180,52.734,70.312,0
1580492768.607,32.715,31.738,36.133,58.594,85.938,0
1580492768.611,33.203,30.762,35.645,55.176,54.199,0
1580492768.615,35.645,31.738,32.227,47.852,55.176,0
1580492768.619,36.133,34.180,32.715,53.711,79.590,0
1580492768.623,36.621,34.180,34.668,68.359,83.008,0
1580492768.626,41.992,33.203,32.715,52.734,0.488,0
1580492768.630,43.945,34.180,28.809,20.996,-33.691,0
1580492768.634,42.969,34.668,25.879,31.738,-41.016,0
1580492768.638,41.504,36.621,28.320,53.711,-26.855,0
1580492768.642,43.457,39.062,28.320,51.270,-14.648,0
1580492768.659,50.293,37.598,25.879,36.621,21.484,0
1580492768.663,45.898,37.109,25.391,36.621,60.547,0
1580492768.667,35.645,37.598,24.414,53.223,-6.836,0
1580492768.671,29.297,35.156,26.855,55.176,1.465,0
1580492768.675,30.273,34.668,28.809,45.410,56.152,0
1580492768.679,26.367,37.109,30.762,36.133,36.133,0
1580492768.683,20.508,37.109,32.715,28.320,35.156,0
1580492768.686,26.367,37.109,31.738,37.109,16.602,0
1580492768.690,36.133,38.086,25.391,37.598,-15.137,0
1580492768.694,42.969,36.133,21.484,29.297,37.598,0
1580492768.698,40.039,37.109,31.250,40.527,44.922,0
1580492768.702,35.645,37.598,31.738,51.270,-4.883,0
1580492768.699,38.574,32.715,28.320,47.363,-9.766,0
1580492768.703,41.992,31.738,30.762,33.203,-9.766,0
1580492768.707,40.039,34.668,29.297,28.809,24.414,0
1580492768.711,31.250,35.645,29.297,47.852,54.688,0
1580492768.715,23.926,36.621,24.902,43.457,118.652,0
1580492768.719,31.250,37.109,20.020,26.367,121.094,0
1580492768.723,33.203,33.203,20.020,23.926,62.500,0
1580492768.726,23.438,32.715,20.020,33.203,53.223,0
1580492768.730,16.602,35.156,17.578,55.664,83.984,0
1580492768.734,19.531,34.180,12.695,45.898,58.105,0
1580492768.738,29.297,35.156,11.719,22.461,4.395,0
1580492768.742,29.297,38.574,0.977,27.344,12.207,0
1580492768.739,22.949,36.621,-3.906,33.691,4.395,0
1580492768.743,25.391,33.691,24.902,27.832,33.691,0
1580492768.747,31.738,34.180,39.551,19.531,21.973,0
1580492768.751,28.809,35.156,31.738,30.762,20.508,0
1580492768.755,22.461,36.133,27.344,42.969,53.711,0
1580492768.759,27.832,37.109,24.902,39.551,-33.203,0
1580492768.763,34.668,38.086,22.461,33.691,12.695,0
1580492768.766,35.645,38.574,18.066,34.180,64.453,0
1580492768.770,38.086,37.598,14.160,43.945,-38.574,0
1580492768.774,38.086,36.621,12.207,50.781,-12.695,0
1580492768.778,38.574,36.133,8.789,41.016,42.480,0
1580492768.782,35.645,36.621,8.301,30.762,16.113,0
1580492768.799,35.156,36.133,12.695,36.133,30.762,0
1580492768.803,39.551,38.574,11.230,40.039,48.828,0
1580492768.807,49.316,41.504,-2.441,28.320,9.277,0
1580492768.811,56.152,39.551,-0.488,20.996,16.602,0
1580492768.815,41.504,40.527,21.973,37.598,66.895,0
1580492768.819,24.902,41.016,29.785,48.340,77.148,0
1580492768.823,25.391,32.715,24.414,31.738,96.191,0
1580492768.826,26.855,26.855,27.832,18.555,118.164,0
1580492768.830,18.066,31.250,21.484,22.949,13.672,0
1580492768.834,9.277,36.133,11.719,39.551,-3.906,0
1580492768.838,6.348,36.133,20.996,33.691,6.836,0
1580492768.842,6.836,37.109,26.855,19.043,32.715,0
1580492768.839,2.930,32.227,30.762,26.855,80.566,0
1580492768.843,4.395,30.273,40.039,33.691,48.340,0
1580492768.847,11.230,36.133,38.086,31.250,109.375,0
1580492768.851,24.414,40.039,32.715,21.484,133.789,0
1580492768.855,30.762,44.434,28.809,16.113,64.941,0
1580492768.859,34.180,50.293,15.625,28.320,12.695,0
1580492768.863,38.574,47.363,10.254,39.062,8.301,0
1580492768.866,38.086,41.992,26.855,34.180,67.383,0
1580492768.870,48.828,39.062,28.809,25.391,58.594,0
1580492768.874,46.875,34.180,15.625,28.809,3.418,0
1580492768.878,34.668,34.668,20.020,43.457,54.688,0
1580492768.882,31.738,35.156,40.039,39.062,81.055,0
1580492768.879,23.438,39.551,45.898,26.367,70.801,0
1580492768.883,21.973,41.504,23.438,26.855,43.945,0
1580492768.887,23.438,41.504,36.133,41.504,14.160,0
1580492768.891,5.371,38.574,62.012,33.691,9.277,0
1580492768.895,4.395,33.691,62.500,11.719,-1.465,0
1580492768.899,-5.859,26.855,61.035,6.348,0.977,0
1580492768.903,-26.855,35.156,58.105,8.789,61.523,0
1580492768.906,-46.875,47.852,57.129,-4.395,80.078,0
1580492768.910,-66.895,35.645,55.176,-39.062,19.531,0
1580492768.914,-65.918,39.062,60.059,-58.105,3.906,0
1580492768.918,-66.406,61.035,61.035,-62.500,2.441,0
1580492768.922,-85.449,65.918,52.246,-68.848,-3.906,0
1580492768.939,-99.121,64.941,62.012,-81.543,22.461,0
1580492768.943,-78.125,61.035,80.078,-92.773,-7.324,0
1580492768.947,-90.820,58.594,82.031,-98.145,14.648,0
1580492768.951,-110.840,59.570,66.406,-94.238,28.809,0
1580492768.955,-93.262,74.219,34.180,-84.473,-14.160,0
1580492768.959,-82.031,58.105,22.949,-99.121,70.312,0
1580492768.963,-78.125,51.270,0.977,-95.703,107.422,0
1580492768.966,-101.074,86.426,50.781,-89.355,86.914,0
1580492768.970,-125.488,69.824,126.465,-124.512,114.258,0
1580492768.974,-102.051,21.484,119.141,-128.418,44.434,0
1580492768.978,-96.680,42.480,106.445,-114.258,18.066,0
1580492768.982,-100.586,94.238,98.145,-104.004,61.523,0
1580492768.979,-86.914,90.820,87.402,-87.891,73.730,0
1580492768.983,-70.312,81.055,81.543,-88.867,100.586,0
1580492768.987,-58.105,73.242,79.590,-75.195,69.824,0
1580492768.991,-53.711,64.453,81.055,-36.621,83.984,0
1580492768.995,-44.922,58.594,80.566,-13.672,62.988,0
1580492768.999,-30.762,53.223,77.637,-14.648,20.020,0
1580492769.003,-14.160,46.387,74.707,-28.320,53.223,0
1580492769.006,8.301,39.062,75.684,-13.672,34.180,0
1580492769.010,21.484,38.574,74.707,17.090,-23.438,0
1580492769.014,23.926,35.156,74.219,25.391,-8.789,0
1580492769.018,37.598,28.320,74.707,22.461,4.395,0
1580492769.022,50.293,29.297,74.707,38.086,20.020,0
1580492769.019,46.875,29.297,76.172,68.848,47.852,0
1580492769.023,46.875,23.438,77.637,81.543,27.832,0
1580492769.027,57.617,20.508,75.195,68.848,-36.133,0
1580492769.031,70.801,20.508,71.289,65.918,-25.391,0
1580492769.035,70.801,20.996,68.848,85.938,50.781,0
1580492769.039,56.641,22.461,62.988,98.633,47.363,0
1580492769.043,69.824,21.484,62.012,93.750,-37.598,0
1580492769.046,94.238,21.484,66.895,89.844,-34.180,0
1580492769.050,94.727,26.855,65.918,102.539,35.645,0
1580492769.054,82.520,28.320,61.523,112.793,38.086,0
1580492769.058,81.055,26.367,59.082,102.539,21.484,0
1580492769.062,89.844,28.320,57.617,90.332,-8.789,0
1580492769.079,88.379,28.809,57.617,91.797,15.625,0
1580492769.083,79.102,24.902,53.711,101.074,21.484,0
1580492769.087,74.707,23.438,45.898,102.051,36.621,0
1580492769.091,88.867,26.855,41.992,80.078,80.078,0
1580492769.095,89.355,28.809,40.039,69.336,67.383,0
1580492769.099,77.148,30.762,38.086,79.590,82.031,0
1580492769.103,76.172,31.250,34.668,83.496,91.797,0
1580492769.106,80.566,27.832,28.320,73.730,102.051,0
1580492769.110,89.844,27.832,19.043,68.848,74.707,0
1580492769.114,80.566,29.297,21.484,83.008,14.160,0
1580492769.118,60.059,29.785,33.203,85.938,10.254,0
1580492769.122,57.129,24.902,23.438,67.871,0.488,0
1580492769.119,57.129,23.926,8.301,57.129,5.371,0
1580492769.123,46.387,27.344,17.090,65.918,38.574,0
1580492769.127,40.527,24.902,23.926,79.590,73.242,0
1580492769.131,51.270,22.949,22.461,75.195,80.078,0
1580492769.135,63.965,23.926,19.043,57.617,58.105,0
1580492769.139,61.523,23.926,17.090,59.570,24.902,0
1580492769.143,53.711,27.344,22.461,78.613,39.551,0
1580492769.146,61.523,31.738,18.555,83.008,49.316,0
1580492769.150,76.172,31.250,14.160,65.918,62.500,0
1580492769.154,67.383,29.785,13.184,61.523,63.965,0
1580492769.158,53.711,32.227,8.301,72.266,71.777,0
1580492769.162,58.105,31.250,10.742,80.078,40.527,0
1580492769.179,68.359,28.320,12.207,75.684,17.090,0
1580492769.183,69.336,28.320,8.789,63.477,28.809,0
1580492769.187,57.129,31.250,16.602,68.848,65.430,0
1580492769.191,46.387,30.273,22.949,76.172,102.051,0
1580492769.195,57.617,27.832,19.531,62.500,87.891,0
1580492769.199,68.359,31.250,9.766,48.340,42.969,0
1580492769.203,56.641,35.156,3.418,50.293,40.039,0
1580492769.206,40.039,35.645,4.883,60.059,62.500,0
1580492769.210,47.363,32.715,9.766,55.664,78.613,0
1580492769.214,63.965,30.273,6.348,45.410,29.297,0
1580492769.218,62.012,28.809,12.207,48.828,-1.465,0
1580492769.222,45.898,32.227,23.926,61.523,-15.625,0
1580492769.219,43.945,31.738,19.043,54.199,-5.859,0
1580492769.223,49.316,30.762,14.648,39.551,32.227,0
1580492769.227,49.805,33.691,11.719,39.551,27.344,0
1580492769.231,39.062,33.203,10.254,49.805,49.316,0
1580492769.235,32.715,32.715,13.184,57.129,25.879,0
1580492769.239,42.480,33.203,13.672,47.363,-27.344,0
1580492769.243,45.898,31.738,8.301,33.203,-2.930,0
1580492769.246,39.062,31.738,7.324,44.434,42.480,0
1580492769.250,41.016,36.621,12.207,63.965,54.688,0
1580492769.254,55.664,36.133,14.160,65.430,25.879,0
1580492769.258,57.129,34.668,16.113,44.434,51.758,0
1580492769.262,50.293,36.621,19.531,40.527,21.973,0
1580492769.259,42.969,35.156,20.020,62.500,-35.156,0
1580492769.263,44.434,33.203,20.020,62.988,-25.879,0
1580492769.267,51.758,32.715,18.555,49.316,46.875,0
1580492769.271,51.758,36.133,16.602,44.434,77.637,0
1580492769.275,42.969,38.574,15.625,66.406,39.062,0
1580492769.279,43.457,38.086,17.090,82.520,51.270,0
1580492769.283,50.293,37.109,15.625,58.594,74.707,0
1580492769.286,36.133,36.621,13.672,33.203,75.195,0
1580492769.290,27.344,36.621,19.043,44.434,56.641,0
1580492769.294,29.785,36.621,20.020,49.316,51.758,0
1580492769.298,37.598,35.156,16.602,33.203,40.527,0
1580492769.302,35.156,40.039,16.113,27.344,-2.930,0
1580492769.319,28.809,43.457,11.719,36.621,-7.324,0
1580492769.323,35.645,41.504,8.301,50.293,43.945,0
1580492769.327,47.852,39.062,12.207,53.711,33.691,0
1580492769.331,59.570,36.621,12.207,45.898,50.781,0
1580492769.335,55.664,34.180,16.602,56.152,54.199,0
1580492769.339,46.875,33.203,22.461,80.078,18.555,0
1580492769.343,51.758,33.691,19.531,84.473,81.055,0
1580492769.346,57.617,33.691,18.066,62.500,80.566,0
1580492769.350,49.316,29.785,20.996,67.383,19.531,0
1580492769.354,54.688,27.832,26.367,110.840,21.973,0
1580492769.358,67.871,27.832,23.438,129.395,65.430,0
1580492769.362,62.500,25.391,20.508,124.512,104.004,0
1580492769.359,55.176,25.391,25.391,118.652,100.098,0
1580492769.363,48.340,26.367,22.461,120.605,51.270,0
1580492769.367,39.551,28.320,24.414,120.117,-5.859,0
1580492769.371,35.156,28.320,29.297,97.168,-10.254,0
1580492769.375,35.645,28.320,24.414,68.359,49.316,0
1580492769.379,26.367,31.250,25.879,57.617,37.598,0
1580492769.383,19.043,33.203,26.855,72.266,26.367,0
1580492769.386,24.902,35.156,20.996,49.316,57.129,0
1580492769.390,29.785,36.621,19.531,1.953,19.531,0
1580492769.394,26.367,36.621,16.113,-7.324,3.418,0
1580492769.398,18.555,35.645,16.602,13.184,43.945,0
1580492769.402,25.879,30.762,26.367,14.160,67.383,0
1580492769.399,36.621,33.203,30.762,-14.160,54.199,0
1580492769.403,27.832,38.574,29.297,-23.926,34.180,0
1580492769.407,18.555,39.551,30.762,-1.953,37.109,0
1580492769.411,15.625,41.504,31.250,7.324,83.496,0
1580492769.415,16.113,41.992,22.949,-10.742,125.000,0
1580492769.419,19.043,37.598,21.973,-18.555,33.691,0
1580492769.423,7.812,36.133,28.320,2.441,40.039,0
1580492769.426,6.836,38.086,31.738,17.090,68.848,0
1580492769.430,10.742,34.668,36.621,-7.324,41.504,0
1580492769.434,8.301,33.691,37.598,-34.180,52.246,0
1580492769.438,9.277,37.109,26.855,-22.461,7.812,0
1580492769.442,-4.883,38.086,23.438,1.465,3.906,0
1580492769.459,1.465,38.086,33.203,-3.906,-17.578,0
1580492769.463,23.926,36.621,34.668,-31.250,-11.230,0
1580492769.467,15.625,36.621,35.645,-32.715,23.438,0
1580492769.471,5.859,35.156,35.156,-4.883,26.367,0
1580492769.475,5.371,33.203,25.879,4.395,51.758,0
1580492769.479,7.812,30.762,26.367,-16.602,45.410,0
1580492769.483,3.906,28.809,38.574,-27.344,-4.395,0
1580492769.486,2.930,31.250,41.016,-7.812,0.488,0
1580492769.490,8.301,30.273,33.203,16.113,0.000,0
1580492769.494,14.648,31.738,30.762,8.789,47.363,0
1580492769.498,18.066,32.715,28.320,-8.301,68.359,0
1580492769.502,14.160,35.645,28.809,6.836,33.203,0
1580492769.499,14.648,37.109,30.762,24.414,51.270,0
1580492769.503,23.438,36.133,32.715,10.254,21.973,0
1580492769.507,28.809,40.039,30.762,-13.184,-6.836,0
1580492769.511,23.438,41.016,32.227,-4.883,29.297,0
1580492769.515,19.043,40.527,32.227,14.160,6.836,0
1580492769.519,25.391,41.504,27.832,9.766,29.785,0
1580492769.523,25.879,41.016,20.996,-0.488,36.621,0
1580492769.526,27.344,39.062,18.555,3.906,6.348,0
1580492769.530,23.926,35.645,26.367,20.996,23.438,0
1580492769.534,25.879,34.668,28.320,25.391,59.082,0
1580492769.538,30.762,35.156,25.879,-2.441,81.543,0
1580492769.542,12.695,36.133,27.832,-14.648,63.477,0
1580492769.539,0.977,35.156,29.785,17.090,77.148,0
1580492769.543,8.301,35.645,29.297,31.738,68.848,0
1580492769.547,14.160,36.133,29.297,11.230,-6.836,0
1580492769.551,9.766,34.180,26.367,-9.277,-14.160,0
1580492769.555,1.953,32.715,25.391,9.277,14.160,0
1580492769.559,3.906,33.691,29.297,36.621,-29.297,0
1580492769.563,15.625,31.738,31.738,24.414,-49.316,0
1580492769.566,13.184,26.367,33.691,3.418,9.277,0
1580492769.570,4.395,26.855,31.738,4.883,13.672,0
1580492769.574,6.348,30.273,29.297,30.273,-11.719,0
1580492769.578,12.207,31.250,27.344,34.668,25.879,0
1580492769.582,15.137,31.250,24.414,2.441,51.758,0
1580492769.599,11.719,32.715,27.344,-1.953,39.062,0
1580492769.603,8.789,33.691,29.785,26.367,50.781,0
1580492769.607,11.230,32.227,27.344,41.016,48.340,0
1580492769.611,21.484,32.715,24.902,19.531,48.340,0
1580492769.615,23.926,33.203,27.832,-4.395,47.852,0
1580492769.619,21.484,32.227,31.250,10.742,32.227,0
1580492769.623,16.602,33.691,33.203,36.621,25.879,0
1580492769.626,13.184,32.715,34.180,12.695,8.789,0
1580492769.630,15.625,32.227,29.785,-31.738,26.367,0
1580492769.634,11.719,33.691,26.367,-19.043,45.410,0
1580492769.638,14.648,33.203,21.484,17.090,45.410,0
1580492769.642,20.508,31.738,19.043,7.324,46.875,0
1580492769.639,27.832,29.297,22.949,-18.555,41.016,0
1580492769.643,17.090,27.344,25.879,-3.906,10.742,0
1580492769.647,17.090,27.832,25.391,38.574,28.809,0
1580492769.651,32.715,30.273,24.902,57.129,-1.953,0
1580492769.655,34.180,28.320,27.344,33.691,-22.461,0
1580492769.659,42.480,29.297,29.297,33.691,14.648,0
1580492769.663,43.945,33.203,29.785,62.988,7.324,0
1580492769.666,45.898,34.180,30.273,66.895,-13.184,0
1580492769.670,51.270,35.645,29.785,48.828,-54.688,0
1580492769.674,44.434,37.598,27.832,35.156,-46.387,0
1580492769.678,37.598,39.551,24.902,43.457,-9.277,0
1580492769.682,36.621,39.551,21.973,63.477,37.598,0
1580492769.679,38.086,36.133,22.461,51.270,37.109,0
1580492769.683,37.598,35.645,22.949,26.367,1.953,0
1580492769.687,33.203,39.551,23.438,32.715,24.414,0
1580492769.691,29.785,39.062,23.926,57.617,55.176,0
1580492769.695,20.996,29.785,23.926,49.316,62.500,0
1580492769.699,34.180,28.809,26.367,19.043,70.312,0
1580492769.703,37.109,34.180,28.320,22.949,52.734,0
1580492769.706,17.090,33.203,27.832,51.758,64.453,0
1580492769.710,23.438,31.738,29.785,56.641,86.426,0
1580492769.714,37.598,28.809,28.320,32.715,41.016,0
1580492769.718,22.461,25.391,23.438,24.414,-9.277,0
1580492769.722,7.324,27.832,25.391,44.434,12.695,0
1580492769.739,16.113,31.250,27.344,75.684,52.246,0
1580492769.743,31.738,30.762,24.414,61.035,56.152,0
1580492769.747,41.992,31.250,25.391,36.133,83.984,0
1580492769.751,34.180,32.227,31.250,59.570,99.121,0
1580492769.755,37.109,32.715,29.297,78.125,63.477,0
1580492769.759,45.898,34.668,29.297,65.918,49.316,0
1580492769.763,40.527,35.645,34.180,45.410,15.625,0
1580492769.766,39.551,33.691,33.203,48.828,15.625,0
1580492769.770,43.945,33.203,30.762,63.965,-13.672,0
1580492769.774,48.828,34.180,30.273,62.988,-16.113,0
1580492769.778,52.734,33.691,29.785,34.668,47.363,0
1580492769.782,46.875,35.645,29.785,22.949,94.238,0
1580492769.779,36.133,36.133,26.855,47.363,79.590,0
1580492769.783,37.109,35.645,25.879,59.570,61.523,0
1580492769.787,44.434,37.598,30.762,39.062,26.367,0
1580492769.791,48.828,42.480,31.250,26.855,44.922,0
1580492769.795,49.316,44.922,27.832,52.734,22.949,0
1580492769.799,47.852,41.016,25.879,68.359,22.949,0
1580492769.803,51.758,36.133,25.879,44.434,77.148,0
1580492769.806,50.293,32.715,26.855,27.832,53.223,0
1580492769.810,50.293,31.250,28.809,45.410,41.016,0
1580492769.814,50.293,32.715,33.203,75.684,60.059,0
1580492769.818,47.852,32.227,34.668,70.801,53.711,0
1580492769.822,52.246,30.273,28.809,49.805,62.012,0
1580492769.819,54.199,31.738,31.738,73.242,53.711,0
1580492769.823,59.082,35.156,31.738,117.188,28.320,0
1580492769.827,70.312,36.621,26.367,130.859,54.688,0
1580492769.831,72.754,36.133,27.832,101.074,59.082,0
1580492769.835,68.359,36.133,28.320,89.355,61.523,0
1580492769.839,57.129,36.133,28.320,120.117,73.730,0
1580492769.843,54.199,36.133,25.391,117.676,86.426,0
1580492769.846,56.152,35.156,22.461,75.684,78.125,0
1580492769.850,47.852,36.621,20.508,50.781,39.551,0
1580492769.854,44.434,39.551,17.578,63.477,29.785,0
1580492769.858,44.434,41.992,19.531,81.055,24.902,0
1580492769.862,46.387,40.039,19.043,55.664,5.859,0
1580492769.879,42.969,35.645,20.020,22.949,42.480,0
1580492769.883,28.320,33.203,22.461,24.414,105.469,0
1580492769.887,20.508,31.250,20.508,40.527,106.934,0
1580492769.891,20.508,31.250,21.484,35.645,53.711,0
1580492769.895,15.137,32.227,24.902,9.277,80.078,0
1580492769.899,14.648,31.738,29.297,4.395,90.332,0
1580492769.903,7.812,31.250,28.809,23.926,35.645,0
1580492769.906,5.371,28.809,26.367,26.367,16.113,0
1580492769.910,12.207,25.879,23.926,-5.371,33.691,0
1580492769.914,12.695,28.320,18.555,-16.602,69.824,0
1580492769.918,5.371,12.207,14.648,6.836,21.484,0
1580492769.922,2.930,-5.371,14.648,19.531,12.207,0
1580492769.919,6.348,5.371,16.113,-5.371,-0.488,0
1580492769.923,5.859,18.555,17.090,-28.809,-27.344,0
1580492769.927,10.254,24.902,15.625,-3.906,2.930,0
1580492769.931,14.648,30.273,16.602,31.250,59.570,0
1580492769.935,19.043,33.691,17.578,16.602,32.227,0
1580492769.939,24.902,35.645,15.137,-11.719,2.930,0
1580492769.943,20.020,40.039,18.066,-0.488,39.062,0
1580492769.946,18.555,41.992,21.973,32.227,29.297,0
1580492769.950,25.879,41.504,20.020,31.738,-1.465,0
1580492769.954,34.180,43.945,22.949,3.906,12.695,0
1580492769.958,30.273,46.387,25.879,0.488,61.035,0
1580492769.962,17.578,42.969,25.391,38.574,38.574,0
1580492769.959,14.160,35.645,27.344,57.129,40.527,0
1580492769.963,17.578,36.133,27.344,16.113,64.941,0
1580492769.967,14.160,37.598,25.879,-8.789,83.008,0
1580492769.971,12.207,36.621,23.438,11.719,36.133,0
1580492769.975,15.137,39.551,20.020,34.180,41.992,0
1580492769.979,25.879,36.621,20.996,15.625,64.941,0
1580492769.983,29.785,33.691,24.902,-11.230,36.621,0
1580492769.986,23.438,36.621,27.832,5.859,58.105,0
1580492769.990,25.391,36.133,30.762,30.273,69.824,0
1580492769.994,30.273,34.180,31.250,18.555,38.086,0
1580492769.998,27.344,36.621,30.273,-9.277,23.926,0
1580492770.002,19.043,37.598,31.738,0.488,48.828,0
1580492770.019,12.207,36.621,31.738,26.367,32.227,0
1580492770.023,17.090,40.527,27.832,20.996,-22.949,0
1580492770.027,22.949,43.457,23.926,-2.930,-46.875,0
1580492770.031,22.461,42.969,27.344,-0.977,-0.488,0
1580492770.035,22.461,41.992,31.250,31.738,55.176,0
1580492770.039,26.855,39.062,33.691,48.340,71.289,0
1580492770.043,25.391,38.086,34.180,25.391,58.594,0
1580492770.046,33.691,38.086,31.738,8.789,6.348,0
1580492770.050,38.574,39.551,29.785,33.691,6.836,0
1580492770.054,37.109,40.039,28.320,49.316,29.785,0
1580492770.058,41.016,40.039,26.855,8.301,46.387,0
1580492770.062,36.621,41.504,30.273,-17.578,26.367,0
1580492770.059,22.461,41.504,31.250,6.348,5.859,0
1580492770.063,17.090,38.574,25.391,27.832,51.270,0
1580492770.067,20.020,42.969,25.879,22.949,55.664,0
1580492770.071,20.020,12.695,27.832,0.000,65.918,0
1580492770.075,12.695,-19.531,31.250,6.348,67.871,0
1580492770.079,11.230,6.836,29.297,34.180,-10.254,0
1580492770.083,19.043,25.879,29.297,35.156,17.578,0
1580492770.086,29.785,31.738,33.203,8.301,65.918,0
1580492770.090,34.180,34.180,32.227,0.977,45.898,0
1580492770.094,28.809,34.668,31.738,31.250,75.195,0
1580492770.098,32.715,40.039,29.297,46.387,97.656,0
1580492770.102,40.039,42.969,26.367,18.066,77.637,0
1580492770.099,34.180,41.992,27.344,2.930,66.895,0
1580492770.103,27.344,41.504,28.320,22.949,66.895,0
1580492770.107,32.715,42.969,29.297,39.062,6.348,0
1580492770.111,35.645,41.504,32.715,22.461,-34.668,0
1580492770.115,31.738,41.504,29.785,2.441,14.160,0
1580492770.119,22.949,42.969,26.367,17.090,104.004,0
1580492770.123,15.137,39.551,30.762,39.551,96.680,0
1580492770.126,20.508,40.039,33.203,32.715,-7.324,0
1580492770.130,12.207,41.016,32.227,0.977,12.207,0
1580492770.134,-2.930,37.109,35.156,1.953,48.828,0
1580492770.138,4.395,36.621,38.086,28.809,48.340,0
1580492770.142,20.508,36.133,35.156,29.785,41.992,0
1580492770.159,25.391,36.621,33.203,1.465,-23.438,0
1580492770.163,17.090,38.086,34.668,-9.277,-41.016,0
1580492770.167,14.648,37.598,38.574,21.973,18.555,0
1580492770.171,17.578,37.109,37.598,41.016,36.621,0
1580492770.175,20.020,39.551,35.156,18.555,25.879,0
1580492770.179,15.625,38.086,34.668,-5.859,31.250,0
1580492770.183,5.371,37.109,30.273,-1.465,14.160,0
1580492770.186,9.766,35.156,31.250,17.578,47.363,0
1580492770.190,15.137,26.855,33.691,6.348,70.801,0
1580492770.194,6.836,25.879,33.691,-20.020,50.293,0
1580492770.198,6.836,31.738,37.109,-0.977,-9.766,0
1580492770.202,12.207,32.227,38.574,28.809,6.836,0
1580492770.200,13.184,29.785,35.645,28.320,94.238,0
1580492770.204,15.625,25.879,34.668,-4.395,70.312,0
1580492770.208,15.137,27.344,36.621,-25.879,1.465,0
1580492770.212,9.277,31.738,39.062,-8.789,17.578,0
1580492770.216,11.719,33.203,37.598,-3.418,22.949,0
1580492770.220,20.020,33.691,33.691,-19.043,12.207,0
1580492770.224,19.043,37.109,24.414,-28.320,-20.996,0
1580492770.227,16.113,36.133,26.855,-7.324,19.531,0
1580492770.231,16.113,30.273,33.691,6.836,21.484,0
1580492770.235,12.695,28.320,32.715,-18.066,16.113,0
1580492770.239,14.648,28.320,39.551,-48.340,32.227,0
1580492770.243,23.438,31.738,38.574,-32.715,-74.707,0
1580492770.239,24.414,31.738,30.762,1.465,-58.105,0
1580492770.243,23.926,28.320,36.133,-14.160,4.883,0
1580492770.247,20.020,30.273,38.086,-42.969,21.973,0
1580492770.251,6.348,29.297,32.715,-31.250,3.906,0
1580492770.255,4.395,28.809,34.180,1.465,-14.160,0
1580492770.259,7.812,33.203,39.062,-0.488,-9.766,0
1580492770.263,10.742,34.180,36.621,-23.926,-27.832,0
1580492770.266,16.602,34.180,36.133,-22.461,-22.949,0
1580492770.270,10.742,34.180,39.062,3.418,-11.230,0
1580492770.274,14.160,32.227,39.062,17.090,13.672,0
1580492770.278,31.738,31.738,37.109,9.277,40.039,0
1580492770.282,29.785,29.297,30.273,9.277,6.348,0
1580492770.299,24.902,26.855,38.086,33.203,-14.160,0
1580492770.303,25.879,30.273,47.363,51.758,48.828,0
1580492770.307,36.133,34.668,42.969,41.992,57.129,0
1580492770.311,42.480,36.621,43.945,33.203,8.301,0
1580492770.315,31.738,35.645,44.434,47.852,35.645,0
1580492770.319,32.227,33.691,38.574,69.824,60.547,0
1580492770.323,45.410,34.668,31.250,65.918,40.527,0
1580492770.326,46.875,33.203,35.156,43.945,5.371,0
1580492770.330,32.227,31.738,43.945,38.574,17.090,0
1580492770.334,22.949,31.250,48.340,58.594,11.230,0
1580492770.338,32.715,30.273,52.734,62.500,-36.133,0
1580492770.342,42.969,28.809,47.852,37.109,23.438,0
1580492770.339,41.016,30.762,45.410,34.180,44.922,0
1580492770.343,32.227,33.203,45.898,61.035,10.254,0
1580492770.347,33.691,33.691,42.480,72.266,34.668,0
1580492770.351,39.062,34.668,41.504,50.781,14.160,0
1580492770.355,36.621,38.574,38.086,36.621,17.090,0
1580492770.359,37.598,41.016,44.434,56.641,40.527,0
1580492770.363,42.969,41.016,51.758,69.824,60.059,0
1580492770.366,46.875,40.527,51.758,50.293,67.871,0
1580492770.370,47.852,36.133,47.363,33.691,44.434,0
1580492770.374,39.551,38.086,44.434,40.527,18.066,0
1580492770.378,40.527,41.016,45.410,63.477,48.340,0
1580492770.382,49.805,41.504,44.434,72.266,48.828,0
1580492770.379,50.781,39.062,41.016,49.316,3.906,0
1580492770.383,44.922,36.621,41.016,51.758,20.508,0
1580492770.387,43.945,38.086,35.156,82.031,64.941,0
1580492770.391,52.246,38.086,31.250,82.031,38.574,0
1580492770.395,47.363,38.574,35.645,57.129,43.945,0
1580492770.399,38.574,38.574,35.156,53.223,59.570,0
1580492770.403,48.828,38.086,34.180,80.566,15.625,0
1580492770.406,57.617,39.062,34.180,97.168,11.230,0
1580492770.410,55.176,38.574,35.156,82.520,69.336,0
1580492770.414,63.477,38.574,29.297,73.730,25.879,0
1580492770.418,67.871,39.062,18.555,95.703,4.395,0
1580492770.422,74.219,37.598,28.809,125.488,57.617,0
1580492770.439,76.172,34.668,33.203,111.816,41.992,0
1580492770.443,54.199,31.250,30.273,82.031,31.250,0
1580492770.447,53.711,33.691,34.668,84.473,9.766,0
1580492770.451,67.871,32.227,36.621,101.562,62.012,0
1580492770.455,57.129,28.320,41.504,93.750,76.660,0
1580492770.459,52.734,28.809,40.527,63.477,23.926,0
1580492770.463,47.363,27.832,35.156,53.223,27.344,0
1580492770.466,40.039,-3.906,32.227,74.707,3.906,0
1580492770.470,33.203,-44.434,29.297,79.590,4.395,0
1580492770.474,22.461,-36.133,24.414,48.340,43.945,0
1580492770.478,30.762,-15.625,27.344,34.180,22.949,0
1580492770.482,26.855,-10.254,28.809,47.363,47.363,0
1580492770.479,21.484,-4.883,27.832,49.805,43.457,0
1580492770.483,28.809,-0.488,23.926,30.762,69.336,0
1580492770.487,22.949,3.906,22.949,9.766,52.734,0
1580492770.491,8.789,10.742,24.414,16.602,44.434,0
1580492770.495,5.859,13.672,16.113,33.203,84.473,0
1580492770.499,15.625,16.113,16.113,19.531,32.227,0
1580492770.503,18.066,17.090,21.484,-5.859,12.207,0
1580492770.506,8.789,11.719,29.785,0.000,39.551,0
1580492770.510,-7.812,14.648,36.133,19.043,44.922,0
1580492770.514,-12.695,17.578,32.715,15.625,32.227,0
1580492770.518,2.441,20.020,28.809,0.977,-25.879,0
1580492770.522,0.488,27.832,38.086,1.953,-34.180,0
1580492770.519,-2.930,31.250,43.945,20.020,2.930,0
1580492770.523,3.418,32.715,41.504,29.785,62.500,0
1580492770.527,3.906,33.203,42.480,4.883,95.703,0
1580492770.531,1.465,32.227,36.133,-12.207,56.152,0
1580492770.535,4.395,34.668,32.715,10.254,40.039,0
1580492770.539,7.324,37.598,41.016,31.250,61.035,0
1580492770.543,20.020,36.621,44.922,25.879,35.645,0
1580492770.546,27.832,39.062,41.992,2.930,5.371,0
1580492770.550,13.184,40.527,40.039,9.766,77.148,0
1580492770.554,12.695,41.992,37.598,37.109,89.844,0
1580492770.558,16.602,41.504,34.668,28.809,41.016,0
1580492770.562,13.672,39.062,36.133,6.836,42.969,0
1580492770.579,17.090,39.062,32.715,13.184,50.781,0
1580492770.583,11.230,39.062,23.438,34.180,69.824,0
1580492770.587,13.184,39.062,27.832,30.273,78.613,0
1580492770.591,21.973,40.527,46.387,2.441,23.438,0
1580492770.595,11.230,38.574,53.223,-2.930,-14.648,0
1580492770.599,13.184,37.109,49.805,16.113,-13.672,0
1580492770.603,20.508,38.086,45.898,24.902,23.926,0
1580492770.606,15.137,38.086,41.992,6.348,36.133,0
1580492770.610,11.230,39.062,40.527,-11.719,-23.926,0
1580492770.614,19.043,40.039,40.527,8.301,-25.879,0
1580492770.618,16.113,39.062,39.551,30.273,33.203,0
1580492770.622,22.461,40.527,39.551,16.602,45.898,0
1580492770.619,24.414,41.016,40.527,-8.789,36.621,0
1580492770.623,23.926,40.527,39.551,1.953,74.219,0
1580492770.627,31.738,42.969,39.062,31.250,23.926,0
1580492770.631,15.137,42.969,41.016,26.855,13.184,0
1580492770.635,9.766,40.527,37.598,0.977,85.449,0
1580492770.639,14.160,42.969,34.668,-1.465,54.688,0
1580492770.643,15.137,44.922,38.086,13.184,15.137,0
1580492770.646,11.230,39.062,41.992,27.344,40.527,0
1580492770.650,11.719,37.598,41.992,17.090,80.078,0
1580492770.654,21.973,39.062,39.062,-13.184,38.574,0
1580492770.658,13.672,38.574,38.574,-6.348,-32.715,0
1580492770.662,15.625,39.062,40.039,4.395,-25.879,0
1580492770.679,23.438,38.574,40.039,-11.719,-7.812,0
1580492770.683,20.996,40.039,38.574,-29.785,-25.879,0
1580492770.687,14.160,39.551,38.086,-30.762,-44.922,0
1580492770.691,6.348,41.504,36.133,-11.230,-7.324,0
1580492770.695,15.625,40.039,36.621,-12.207,19.043,0
1580492770.699,24.414,36.133,36.133,-33.203,-27.832,0
1580492770.703,17.578,38.574,33.691,-31.738,11.230,0
1580492770.706,17.578,37.598,36.621,-10.742,16.602,0
1580492770.710,21.973,35.645,34.668,-8.789,-54.688,0
1580492770.714,26.855,33.203,30.273,-26.855,39.062,0
1580492770.718,26.855,30.762,28.320,-22.949,86.426,0
1580492770.722,17.578,31.738,30.273,1.465,34.668,0
1580492770.719,25.879,32.715,29.785,5.371,-1.465,0
1580492770.723,30.762,31.738,22.461,-12.695,-5.859,0
1580492770.727,26.855,31.738,24.414,-6.836,1.465,0
1580492770.731,16.113,31.738,32.227,16.602,-2.930,0
1580492770.735,18.555,31.250,31.738,31.250,5.859,0
1580492770.739,40.039,28.809,30.273,31.738,-40.039,0
1580492770.743,37.598,26.855,31.250,21.484,20.020,0
1580492770.746,35.645,33.203,30.762,25.391,65.918,0
1580492770.750,35.156,38.086,27.832,42.480,19.043,0
1580492770.754,32.227,36.621,27.832,43.457,90.332,0
1580492770.758,27.344,37.598,28.320,31.250,130.371,0
1580492770.762,13.184,39.062,28.809,32.227,66.895,0
1580492770.759,0.977,37.598,30.273,47.852,21.973,0
1580492770.763,21.484,38.086,28.320,47.852,46.387,0
1580492770.767,40.527,35.645,28.320,29.297,18.066,0
1580492770.771,31.738,37.598,29.297,25.879,38.574,0
1580492770.775,34.180,41.992,29.297,45.898,55.664,0
1580492770.779,37.598,39.551,29.297,43.457,-4.395,0
1580492770.783,39.551,38.086,31.738,30.762,47.363,0
1580492770.786,39.062,37.109,31.738,18.555,42.480,0
1580492770.790,32.715,37.109,28.809,20.508,-27.344,0
1580492770.794,26.367,37.109,29.785,38.086,-18.555,0
1580492770.798,42.480,37.598,27.832,32.715,50.293,0
1580492770.802,53.223,38.086,25.879,13.672,50.293,0
1580492770.819,40.527,39.551,24.902,17.578,39.062,0
1580492770.823,35.645,41.504,29.785,41.992,32.227,0
1580492770.827,43.945,41.504,33.203,37.598,54.199,0
1580492770.831,50.781,39.551,30.273,14.648,19.043,0
1580492770.835,46.875,35.156,33.203,24.902,-2.930,0
1580492770.839,30.273,37.598,35.156,40.039,20.996,0
1580492770.843,30.273,42.480,34.668,43.457,30.273,0
1580492770.846,48.828,38.574,33.691,22.949,69.336,0
1580492770.850,41.992,34.180,32.227,6.836,55.664,0
1580492770.854,25.879,34.180,31.250,26.367,101.562,0
1580492770.858,32.715,34.180,31.738,39.062,48.828,0
1580492770.862,39.062,31.250,32.227,29.785,-10.254,0
1580492770.859,48.340,28.320,33.691,14.160,-0.977,0
1580492770.863,36.621,28.809,33.691,24.414,-30.273,0
1580492770.867,24.902,28.809,35.156,40.527,22.949,0
1580492770.871,36.133,28.320,36.621,35.156,33.691,0
1580492770.875,32.227,26.367,39.062,25.879,30.273,0
1580492770.879,14.160,27.832,42.969,29.785,28.809,0
1580492770.883,11.230,29.785,41.504,44.922,0.977,0
1580492770.886,26.367,31.738,35.645,48.828,20.996,0
1580492770.890,40.527,31.738,36.621,31.250,3.418,0
1580492770.894,38.574,34.180,38.574,35.645,1.465,0
1580492770.898,20.996,37.598,39.551,50.781,7.324,0
1580492770.902,29.297,37.598,38.086,40.527,26.367,0
1580492770.899,54.199,34.668,36.133,29.297,47.852,0
1580492770.903,45.898,35.156,37.598,25.391,-24.414,0
1580492770.907,28.809,37.598,36.133,41.504,-37.598,0
1580492770.911,24.414,35.645,35.645,56.152,44.922,0
1580492770.915,37.109,35.156,33.203,36.621,16.602,0
1580492770.919,49.805,38.574,36.133,10.254,14.648,0
1580492770.923,35.645,39.551,41.016,18.066,79.102,0
1580492770.926,19.531,37.598,40.527,32.227,77.148,0
1580492770.930,26.855,36.621,39.551,21.484,27.344,0
1580492770.934,43.457,36.133,39.551,4.883,-44.922,0
1580492770.938,30.762,37.109,37.109,13.184,-1.465,0
1580492770.942,9.277,41.016,39.062,29.785,19.043,0
1580492770.959,16.602,37.598,38.086,31.250,-40.527,0
1580492770.963,34.668,33.691,33.691,18.066,19.043,0
1580492770.967,27.832,35.156,35.156,13.672,67.383,0
1580492770.971,10.254,35.645,37.109,31.250,60.547,0
1580492770.975,13.672,32.227,36.621,41.992,63.477,0
1580492770.979,31.738,30.762,38.086,32.227,34.668,0
1580492770.983,33.203,32.715,38.574,14.648,13.184,0
1580492770.986,20.020,32.227,39.062,22.949,10.742,0
1580492770.990,11.230,33.691,40.039,44.922,47.363,0
1580492770.994,15.137,36.621,39.062,39.551,80.078,0
1580492770.998,19.531,39.062,42.969,16.602,31.738,0
1580492771.002,12.695,41.992,45.898,12.207,-49.316,0
1580492770.999,1.953,41.016,45.410,29.785,-68.359,0
1580492771.003,3.418,41.504,45.410,27.344,-35.156,0
1580492771.007,-0.488,42.969,50.781,-1.953,-51.270,0
1580492771.011,-14.648,41.504,54.688,-18.066,-7.324,0
1580492771.015,-28.320,38.574,60.059,2.441,65.430,0
1580492771.019,-33.691,37.109,61.035,0.488,28.320,0
1580492771.023,-17.578,46.387,53.223,-24.902,29.785,0
1580492771.026,-9.766,50.781,59.082,-26.855,42.480,0
1580492771.030,-39.062,45.410,69.824,-23.438,25.391,0
1580492771.034,-48.340,46.875,69.336,-23.438,41.504,0
1580492771.038,-39.062,47.363,70.312,-43.945,70.801,0
1580492771.042,-40.039,54.199,66.895,-61.523,96.191,0
1580492771.039,-52.734,59.570,65.430,-61.523,72.754,0
1580492771.043,-76.172,61.035,67.383,-71.777,19.531,0
1580492771.047,-69.336,63.477,67.383,-87.402,16.602,0
1580492771.051,-62.988,58.594,68.848,-112.305,59.570,0
1580492771.055,-80.566,57.617,69.824,-111.816,57.617,0
1580492771.059,-86.914,62.500,69.336,-97.168,69.824,0
1580492771.063,-76.172,63.477,67.871,-98.633,79.102,0
1580492771.066,-71.777,62.012,63.477,-108.398,59.570,0
1580492771.070,-87.402,58.105,62.012,-112.793,35.645,0
1580492771.074,-95.215,59.570,61.523,-92.285,23.438,0
1580492771.078,-98.145,59.082,57.617,-76.172,75.195,0
1580492771.082,-83.984,55.664,53.223,-83.984,103.516,0
1580492771.099,-71.777,54.199,51.270,-86.914,108.398,0
1580492771.103,-83.984,52.734,53.223,-61.523,92.773,0
1580492771.107,-81.055,50.781,51.758,-37.598,65.918,0
1580492771.111,-48.828,50.293,45.410,-40.039,50.781,0
1580492771.115,-32.227,45.410,44.922,-35.156,41.992,0
1580492771.119,-27.832,41.992,41.504,-2.930,45.898,0
1580492771.123,-15.137,44.434,32.715,6.348,48.340,0
1580492771.126,7.812,38.086,32.715,-3.418,25.391,0
1580492771.130,28.320,34.180,32.227,1.465,8.789,0
1580492771.134,37.109,36.621,24.414,25.879,17.090,0
1580492771.138,39.551,34.180,24.902,59.082,22.461,0
1580492771.142,51.270,29.785,26.855,70.312,38.086,0
1580492771.139,71.777,26.855,22.461,55.664,18.555,0
1580492771.143,82.031,28.809,22.461,54.688,2.441,0
1580492771.147,81.543,30.762,22.461,73.730,22.461,0
1580492771.151,79.590,26.855,18.555,73.730,7.324,0
1580492771.155,87.891,22.949,16.602,60.547,21.484,0
1580492771.159,93.262,23.438,15.137,59.570,3.906,0
1580492771.163,85.938,23.438,16.113,73.730,5.371,0
1580492771.166,77.148,22.461,20.996,83.008,57.617,0
1580492771.170,88.867,21.484,21.973,77.148,134.766,0
1580492771.174,97.656,21.973,20.508,80.078,109.863,0
1580492771.178,80.078,24.414,18.555,83.496,14.648,0
1580492771.182,67.871,24.414,18.066,81.055,39.551,0
1580492771.179,81.055,24.902,18.555,82.520,39.062,0
1580492771.183,86.914,27.344,16.113,70.312,9.766,0
1580492771.187,76.660,29.785,16.602,72.266,84.961,0
1580492771.191,62.988,29.297,17.578,81.543,118.652,0
1580492771.195,58.594,22.949,20.508,82.031,59.570,0
1580492771.199,74.219,19.043,20.508,72.754,35.645,0
1580492771.203,69.336,19.531,20.508,62.500,33.691,0
1580492771.206,54.199,22.461,21.973,83.984,27.344,0
1580492771.210,62.012,23.438,22.949,79.102,-4.883,0
1580492771.214,74.219,20.020,21.973,63.477,19.531,0
1580492771.218,78.125,23.438,21.484,79.102,6.836,0
1580492771.222,67.871,27.344,23.438,83.008,-23.926,0
1580492771.239,62.500,28.809,22.461,78.125,24.414,0
1580492771.243,77.637,26.855,18.555,59.570,38.086,0
1580492771.247,77.148,24.414,18.066,43.457,-2.441,0
1580492771.251,59.082,28.320,22.949,54.199,-16.113,0
1580492771.255,49.316,29.297,20.508,64.941,-4.883,0
1580492771.259,55.664,26.855,18.066,62.012,-49.805,0
1580492771.263,66.406,28.809,20.020,54.688,-22.461,0
1580492771.266,63.477,30.273,20.996,55.176,24.902,0
1580492771.270,51.758,27.344,23.926,71.289,11.719,0
1580492771.274,56.641,26.367,22.461,72.266,36.621,0
1580492771.278,71.777,24.902,22.461,54.688,103.516,0
1580492771.282,69.336,27.344,25.879,51.270,51.270,0
1580492771.279,57.617,32.715,26.855,66.895,46.875,0
1580492771.283,56.641,33.691,26.367,78.125,60.547,0
1580492771.287,71.777,26.367,23.926,66.895,-30.762,0
1580492771.291,75.684,23.438,20.996,55.176,36.621,0
1580492771.295,54.688,25.391,23.438,65.430,104.004,0
1580492771.299,45.410,26.855,22.949,82.031,21.484,0
1580492771.303,51.758,24.902,17.090,64.453,7.324,0
1580492771.306,57.129,21.484,8.789,34.180,10.742,0
1580492771.310,60.547,27.344,7.324,34.180,16.113,0
1580492771.314,61.035,31.250,16.113,46.875,57.129,0
1580492771.318,58.594,27.344,21.973,36.621,18.555,0
1580492771.322,63.477,21.973,24.414,25.879,7.324,0
1580492771.319,59.082,21.973,26.367,33.203,19.531,0
1580492771.323,40.039,24.414,30.273,43.457,2.441,0
1580492771.327,44.922,26.855,32.227,42.969,26.855,0
1580492771.331,61.035,26.855,28.320,25.391,31.738,0
1580492771.335,55.176,26.855,21.973,20.508,6.348,0
1580492771.339,30.273,29.785,26.367,33.691,7.324,0
1580492771.343,20.508,30.273,33.691,37.109,17.090,0
1580492771.346,37.109,29.785,33.691,24.414,5.859,0
1580492771.350,37.598,30.273,30.762,7.812,-38.086,0
1580492771.354,24.414,30.273,27.344,15.137,-28.809,0
1580492771.358,22.949,36.133,23.438,28.809,9.766,0
1580492771.362,33.203,40.039,20.020,19.043,-0.488,0
1580492771.379,40.527,37.598,18.066,10.742,41.504,0
1580492771.383,34.180,38.574,16.602,24.414,62.012,0
1580492771.387,24.902,38.574,17.090,34.668,49.805,0
1580492771.391,28.320,35.156,23.438,32.715,29.297,0
1580492771.395,44.922,36.621,25.391,23.438,16.602,0
1580492771.399,46.387,39.062,29.297,36.133,41.992,0
1580492771.403,38.086,37.109,37.598,51.758,1.465,0
1580492771.406,35.645,30.273,36.621,50.293,-14.648,0
1580492771.410,40.527,28.320,30.273,42.969,-3.418,0
1580492771.414,46.387,30.273,27.344,31.250,13.184,0
1580492771.418,38.574,29.785,30.762,34.180,55.176,0
1580492771.422,27.832,32.227,30.762,36.621,47.852,0
1580492771.419,35.156,33.203,28.320,23.438,53.223,0
1580492771.423,45.410,34.668,25.879,11.230,71.289,0
1580492771.427,36.621,36.621,26.367,23.926,116.699,0
1580492771.431,28.809,38.086,25.391,33.203,93.750,0
1580492771.435,39.551,35.156,22.949,18.066,32.227,0
1580492771.439,48.340,30.762,21.973,9.277,4.883,0
1580492771.443,43.457,33.691,21.973,20.508,-12.207,0
1580492771.446,34.180,38.574,26.367,29.785,24.414,0
1580492771.450,40.527,37.598,23.926,31.738,3.906,0
1580492771.454,45.898,34.668,14.648,31.738,-12.695,0
1580492771.458,38.574,31.738,24.414,30.273,17.090,0
1580492771.462,26.855,33.691,39.062,44.922,49.805,0
1580492771.459,21.484,38.086,37.598,39.551,43.457,0
1580492771.463,29.297,33.203,36.133,13.184,35.156,0
1580492771.467,32.227,27.832,38.574,5.371,26.855,0
1580492771.471,15.625,31.250,37.598,9.277,25.879,0
1580492771.475,7.812,32.227,37.598,12.207,34.668,0
1580492771.479,24.414,31.250,38.574,10.254,19.531,0
1580492771.483,41.016,35.645,38.086,7.812,78.613,0
1580492771.486,30.273,36.133,38.086,21.973,98.145,0
1580492771.490,19.043,36.621,39.062,35.645,-32.227,0
1580492771.494,21.484,34.180,36.621,30.273,-60.547,0
1580492771.498,35.645,32.715,36.133,24.414,65.918,0
1580492771.502,45.410,40.039,39.062,29.297,63.477,0
1580492771.519,33.691,43.945,38.574,41.016,-9.766,0
1580492771.523,35.156,44.434,34.180,41.016,-8.301,0
1580492771.527,44.922,41.504,29.785,24.902,5.859,0
1580492771.531,43.457,41.016,29.785,21.973,8.789,0
1580492771.535,37.109,44.434,26.855,36.133,62.500,0
1580492771.539,40.527,44.922,23.438,44.922,104.492,0
1580492771.543,54.199,41.992,20.508,23.926,97.168,0
1580492771.546,48.828,40.039,18.555,11.719,30.762,0
1580492771.550,32.227,38.086,21.484,32.227,17.090,0
1580492771.554,37.598,35.156,23.438,43.457,37.598,0
1580492771.558,50.293,36.133,20.996,29.297,54.688,0
1580492771.562,49.805,37.109,20.020,3.418,18.555,0
1580492771.559,34.180,38.086,20.996,-0.488,33.203,0
1580492771.563,26.855,39.551,23.926,12.207,65.918,0
1580492771.567,31.250,38.086,27.344,17.090,7.324,0
1580492771.571,33.691,38.086,28.320,5.371,12.695,0
1580492771.575,30.273,37.598,28.320,-7.324,20.020,0
1580492771.579,18.555,35.645,27.344,6.348,28.809,0
1580492771.583,17.578,35.156,27.344,20.996,74.219,0
1580492771.586,30.762,33.203,28.320,14.648,88.867,0
1580492771.590,34.668,33.691,34.180,22.949,25.391,0
1580492771.594,27.344,38.086,36.133,36.133,-15.137,0
1580492771.598,30.273,38.086,35.645,36.621,3.906,0
1580492771.602,44.434,35.645,37.598,29.785,7.812,0
1580492771.600,50.781,37.598,36.621,25.391,30.273,0
1580492771.604,44.434,41.016,34.668,45.898,12.207,0
1580492771.608,38.574,38.574,36.133,65.430,22.949,0
1580492771.612,47.852,37.109,33.691,55.664,37.109,0
1580492771.616,52.246,37.109,28.809,29.785,65.918,0
1580492771.620,46.387,41.504,27.344,29.785,75.684,0
1580492771.624,35.156,41.992,31.738,45.410,30.762,0
1580492771.627,28.320,35.156,29.297,39.551,19.531,0
1580492771.631,30.762,32.227,24.902,25.391,-3.418,0
1580492771.635,24.902,35.156,29.785,24.414,28.809,0
1580492771.639,12.207,39.062,36.133,33.203,81.055,0
1580492771.643,13.184,37.109,32.715,35.156,46.875,0
1580492771.662,26.855,35.156,29.785,17.578,35.645,0
1580492771.666,24.902,36.133,33.691,10.254,25.391,0
1580492771.670,12.207,35.645,35.645,21.973,52.734,0
1580492771.674,8.301,32.715,37.109,32.227,64.941,0
1580492771.678,19.531,31.250,37.598,30.762,32.715,0
1580492771.682,33.691,31.738,38.574,22.461,0.488,0
1580492771.686,26.367,29.785,41.016,34.180,-17.090,0
1580492771.689,11.230,27.832,41.016,48.340,1.953,0
1580492771.693,20.508,28.809,40.527,35.645,-5.859,0
1580492771.697,33.203,28.809,35.645,17.090,41.016,0
1580492771.701,27.344,30.762,33.203,18.066,34.668,0
1580492771.705,13.672,29.297,35.156,43.945,45.410,0
1580492771.699,15.625,27.832,34.668,43.457,51.758,0
1580492771.703,30.762,31.738,31.738,18.555,69.336,0
1580492771.707,35.645,30.762,31.250,23.438,76.660,0
1580492771.711,25.879,32.715,36.133,38.574,56.641,0
1580492771.715,29.785,38.086,35.645,38.574,37.109,0
1580492771.719,43.457,37.598,34.180,29.297,1.465,0
1580492771.723,45.898,34.180,35.156,24.414,-15.625,0
1580492771.726,34.180,34.668,33.691,31.250,-12.695,0
1580492771.730,21.484,37.109,31.250,29.785,-19.531,0
1580492771.734,32.715,36.621,31.738,23.438,-16.602,0
1580492771.738,42.480,35.645,33.691,17.090,46.387,0
1580492771.742,29.297,34.180,38.086,21.484,59.082,0
1580492771.740,21.484,32.715,37.598,39.551,36.133,0
1580492771.744,27.344,32.715,35.645,32.715,49.316,0
1580492771.748,31.738,31.738,36.133,18.555,22.461,0
1580492771.752,21.973,31.250,35.645,18.555,41.992,0
1580492771.756,9.277,35.645,36.133,28.320,31.250,0
1580492771.760,15.137,37.109,36.133,26.367,2.930,0
1580492771.764,29.297,36.133,30.273,12.695,29.297,0
1580492771.767,30.762,36.621,25.391,13.672,2.441,0
1580492771.771,18.066,39.062,28.809,21.484,-23.438,0
1580492771.775,11.719,40.039,29.785,26.367,15.625,0
1580492771.779,20.996,40.039,28.320,16.602,53.223,0
1580492771.783,24.414,38.574,27.832,12.207,37.598,0
1580492771.799,14.648,35.645,27.832,21.973,50.293,0
1580492771.803,10.254,36.133,31.250,28.320,39.551,0
1580492771.807,20.996,35.156,30.762,22.949,21.973,0
1580492771.811,30.762,32.227,27.832,16.113,22.461,0
1580492771.815,21.484,31.738,30.273,30.273,43.945,0
1580492771.819,7.324,29.785,35.645,41.992,19.043,0
1580492771.823,19.043,28.320,32.715,30.273,44.434,0
1580492771.826,35.156,27.344,30.273,3.906,87.402,0
1580492771.830,36.133,28.320,35.156,5.859,81.543,0
1580492771.834,24.414,32.715,39.062,30.762,70.801,0
1580492771.838,20.996,34.668,38.086,34.668,101.562,0
1580492771.842,37.109,33.203,34.668,20.020,99.609,0
1580492771.840,40.039,35.156,34.180,8.301,16.113,0
1580492771.844,25.391,39.551,33.691,18.066,-40.527,0
1580492771.848,22.949,39.062,31.250,28.320,-21.484,0
1580492771.852,36.621,35.156,30.762,19.531,45.898,0
1580492771.856,40.527,36.133,31.250,15.625,57.617,0
1580492771.860,30.762,36.621,36.621,24.902,30.273,0
1580492771.864,24.902,36.133,38.574,34.180,8.301,0
1580492771.867,37.598,36.621,32.715,29.297,20.020,0
1580492771.871,48.340,38.574,29.785,20.020,69.336,0
1580492771.875,36.133,38.086,33.203,26.367,48.828,0
1580492771.879,25.879,40.527,33.691,44.434,-30.762,0
1580492771.883,34.668,40.527,32.715,51.758,8.789,0
1580492771.880,33.691,30.762,42.480,40.039,68.359,0
1580492771.884,20.996,28.809,52.734,34.668,20.508,0
1580492771.888,3.418,28.809,54.688,41.504,-3.418,0
1580492771.892,-5.371,23.926,52.246,39.062,42.480,0
1580492771.896,7.812,20.020,53.223,34.180,24.902,0
1580492771.900,6.836,18.066,56.641,21.973,52.246,0
1580492771.904,-6.836,19.043,59.082,18.555,55.176,0
1580492771.907,-6.348,17.578,62.012,24.902,19.043,0
1580492771.911,1.953,13.184,62.500,18.066,48.828,0
1580492771.915,10.254,9.277,65.430,11.230,48.828,0
1580492771.919,7.324,9.766,72.266,25.879,25.879,0
1580492771.923,-1.953,8.301,73.730,43.945,34.180,0
1580492771.939,1.953,6.348,72.266,42.969,34.668,0
1580492771.943,16.602,8.301,70.312,36.621,6.836,0
1580492771.947,16.113,9.277,71.777,41.992,52.246,0
1580492771.951,7.324,12.207,70.801,54.688,46.875,0
1580492771.955,17.090,15.625,66.895,60.059,36.133,0
1580492771.959,28.809,16.602,64.453,36.621,66.406,0
1580492771.963,20.996,15.625,62.988,33.203,-44.922,0
1580492771.966,8.789,18.555,62.012,51.758,0.977,0
1580492771.970,16.602,20.020,58.105,54.199,60.547,0
1580492771.974,30.762,20.020,56.152,42.480,-22.949,0
1580492771.978,30.762,21.973,54.199,27.832,11.230,0
1580492771.982,20.020,22.949,55.176,36.133,31.738,0
1580492771.984,12.207,24.414,54.199,47.363,45.898,0
1580492771.988,20.020,24.414,45.410,32.715,65.918,0
1580492771.992,28.320,27.344,39.551,19.043,7.324,0
1580492771.996,20.996,30.273,39.551,28.809,11.719,0
1580492772.000,9.766,31.250,38.086,37.598,65.918,0
1580492772.004,20.996,34.180,34.668,38.574,20.020,0
1580492772.008,39.062,30.273,37.598,35.645,35.156,0
1580492772.011,35.645,28.809,42.969,32.227,8.789,0
1580492772.015,28.320,34.180,42.969,45.898,17.090,0
1580492772.019,31.738,32.715,43.457,46.387,36.621,0
1580492772.023,38.574,28.809,42.969,28.320,37.109,0
1580492772.027,35.156,29.297,40.527,28.320,89.355,0
1580492772.019,22.461,29.785,40.527,44.922,47.363,0
1580492772.023,20.996,28.320,38.574,47.852,13.184,0
1580492772.027,36.621,29.297,33.691,25.879,36.621,0
1580492772.031,43.945,26.367,32.227,14.160,29.297,0
1580492772.035,37.598,26.855,34.180,33.691,6.348,0
1580492772.039,32.715,32.227,34.180,47.852,-20.996,0
1580492772.043,37.598,28.809,33.203,45.410,0.488,0
1580492772.046,44.434,25.391,32.715,33.691,41.504,0
1580492772.050,38.086,25.879,33.203,31.738,58.594,0
1580492772.054,31.738,27.344,36.133,50.293,57.617,0
1580492772.058,41.504,28.809,34.668,53.223,72.266,0
1580492772.062,47.363,29.297,30.273,41.992,21.484,0
1580492772.079,39.062,32.227,31.738,43.457,-15.137,0
1580492772.083,30.762,32.227,33.691,49.805,28.320,0
1580492772.087,32.715,29.785,32.227,45.410,49.316,0
1580492772.091,41.992,27.344,26.367,31.250,65.430,0
1580492772.095,37.598,25.879,27.344,29.785,32.227,0
1580492772.099,24.414,29.297,34.668,34.668,41.016,0
1580492772.103,22.949,28.809,34.180,34.668,23.438,0
1580492772.106,32.227,25.879,30.273,23.438,22.949,0
1580492772.110,38.574,26.855,30.762,5.859,12.695,0
1580492772.114,31.250,30.273,36.621,21.973,19.043,0
1580492772.118,28.320,29.297,37.109,44.434,36.133,0
1580492772.122,30.273,26.855,32.715,32.227,-24.902,0
1580492772.119,29.785,27.344,29.297,12.695,42.480,0
1580492772.123,20.020,29.297,28.320,19.531,129.395,0
1580492772.127,15.625,29.785,28.809,35.645,68.848,0
1580492772.131,25.879,29.297,28.809,35.645,0.977,0
1580492772.135,31.738,26.855,29.785,23.438,3.906,0
1580492772.139,27.344,26.855,35.645,16.113,11.230,0
1580492772.143,18.066,27.832,38.574,26.367,9.277,0
1580492772.146,17.090,25.879,36.133,28.809,85.449,0
1580492772.150,27.344,25.879,36.621,8.789,62.012,0
1580492772.154,27.344,26.367,36.133,9.277,-19.043,0
1580492772.158,19.043,29.297,32.715,33.203,73.242,0
1580492772.162,20.996,32.715,32.227,41.016,74.219,0
1580492772.159,29.785,33.203,30.762,21.973,81.055,0
1580492772.163,34.668,36.621,26.367,10.254,89.355,0
1580492772.167,23.926,38.574,23.926,28.809,69.336,0
1580492772.171,16.602,38.086,23.926,44.434,57.129,0
1580492772.175,20.996,37.109,28.809,31.250,24.902,0
1580492772.179,23.438,35.156,27.832,18.066,36.621,0
1580492772.183,24.414,36.133,21.973,23.438,60.547,0
1580492772.186,18.555,38.574,21.484,31.738,55.176,0
1580492772.190,19.531,40.039,24.902,30.762,-10.254,0
1580492772.194,27.832,41.504,21.973,16.113,-44.922,0
1580492772.198,24.902,41.992,19.043,12.207,8.789,0
1580492772.202,12.695,43.457,17.578,23.926,60.059,0
1580492772.219,12.207,43.457,14.648,26.855,40.039,0
1580492772.223,22.461,41.016,12.695,17.090,25.391,0
1580492772.227,22.949,43.457,13.184,6.836,51.270,0
1580492772.231,12.695,46.387,14.648,15.137,55.176,0
1580492772.235,7.324,44.434,16.602,28.809,60.059,0
1580492772.239,20.996,42.969,15.625,19.043,41.016,0
1580492772.243,29.785,39.551,13.672,10.742,59.082,0
1580492772.246,24.902,41.016,15.137,21.973,52.246,0
1580492772.250,21.484,43.945,18.555,32.227,56.641,0
1580492772.254,28.809,41.992,21.484,27.832,44.922,0
1580492772.258,41.504,43.945,20.996,4.883,19.531,0
1580492772.262,35.156,44.922,21.973,2.930,30.273,0
1580492772.259,22.461,44.922,23.438,28.809,28.809,0
1580492772.263,27.344,42.969,22.461,38.086,60.059,0
1580492772.267,37.598,40.039,17.578,15.625,61.523,0
1580492772.271,29.297,39.551,17.578,2.441,38.574,0
1580492772.275,22.949,41.992,22.461,23.926,1.953,0
1580492772.279,29.785,40.039,24.414,41.504,-42.480,0
1580492772.283,33.691,36.133,23.438,26.367,4.883,0
1580492772.286,39.062,37.109,20.508,12.695,24.902,0
1580492772.290,37.598,39.062,25.879,26.367,35.645,0
1580492772.294,31.250,39.551,32.715,38.574,-2.441,0
1580492772.298,29.297,34.668,32.715,29.785,7.324,0
1580492772.302,31.738,32.715,31.250,18.066,63.965,0
1580492772.319,25.879,31.250,33.691,23.438,-2.441,0
1580492772.323,16.113,31.738,39.062,38.086,14.648,0
1580492772.327,23.438,32.715,37.109,36.621,37.109,0
1580492772.331,34.180,32.227,36.621,13.672,-14.648,0
1580492772.335,31.738,35.156,36.621,15.625,-31.250,0
1580492772.339,26.367,36.133,36.133,47.363,5.859,0
1580492772.343,28.320,35.645,35.645,50.781,25.391,0
1580492772.346,34.180,33.691,36.133,21.973,43.945,0
1580492772.350,37.109,32.227,36.621,13.184,3.418,0
1580492772.354,33.691,38.574,37.598,29.785,10.254,0
1580492772.358,30.273,41.992,36.621,34.180,54.688,0
1580492772.362,36.621,40.527,33.203,19.043,61.035,0
1580492772.360,39.062,38.574,32.227,7.324,91.797,0
1580492772.364,31.250,40.039,33.203,22.949,75.195,0
1580492772.368,27.832,42.480,35.156,39.551,82.031,0
1580492772.372,34.180,41.504,36.621,34.180,81.055,0
1580492772.376,42.480,42.480,36.133,20.508,41.504,0
1580492772.380,39.551,46.875,33.691,20.020,31.250,0
1580492772.384,30.273,47.363,31.250,40.527,35.156,0
1580492772.387,31.250,42.480,26.855,40.527,-24.902,0
1580492772.391,38.574,39.062,28.809,18.555,-5.371,0
1580492772.395,36.133,38.086,35.156,12.695,35.645,0
1580492772.399,23.926,40.039,41.016,24.902,16.602,0
1580492772.403,23.438,40.039,39.062,30.273,31.738,0
1580492772.399,39.551,37.598,32.715,23.926,4.883,0
1580492772.403,40.527,34.180,31.738,14.648,7.812,0
1580492772.407,28.320,32.715,35.156,27.344,10.742,0
1580492772.411,26.367,36.621,35.645,41.016,7.324,0
1580492772.415,37.598,39.062,32.227,27.344,56.152,0
1580492772.419,44.434,41.504,30.762,17.090,79.590,0
1580492772.423,29.297,41.992,28.320,28.809,77.637,0
1580492772.426,17.090,39.062,31.738,37.109,20.996,0
1580492772.430,27.832,37.109,36.133,26.855,0.488,0
1580492772.434,37.598,38.086,33.691,11.719,52.246,0
1580492772.438,32.227,39.551,31.250,23.438,41.992,0
1580492772.442,27.344,42.480,34.180,50.781,62.500,0
1580492772.459,32.227,42.969,36.133,51.270,34.668,0
1580492772.463,45.898,41.992,33.203,30.273,38.086,0
1580492772.467,44.434,41.504,33.691,25.391,50.781,0
1580492772.471,27.344,41.992,39.551,41.504,14.648,0
1580492772.475,21.973,39.551,38.086,47.363,33.691,0
1580492772.479,33.691,38.574,30.762,29.297,84.473,0
1580492772.483,37.598,39.062,28.809,19.531,51.270,0
1580492772.486,23.438,37.109,34.668,32.227,-14.160,0
1580492772.490,18.066,32.715,40.039,39.062,-49.805,0
1580492772.494,28.320,33.691,40.527,27.344,-23.438,0
1580492772.498,41.992,35.645,38.574,20.996,1.465,0
1580492772.502,39.551,38.574,40.039,32.227,5.371,0
1580492772.499,20.508,39.551,43.945,41.504,15.625,0
1580492772.503,23.438,39.062,41.504,38.086,-13.184,0
1580492772.507,35.645,36.133,39.551,20.020,5.371,0
1580492772.511,32.227,35.156,41.504,20.508,57.617,0
1580492772.515,28.320,39.062,39.551,41.504,45.898,0
1580492772.519,30.762,39.551,37.109,42.969,25.879,0
1580492772.523,37.109,34.180,37.109,23.926,64.453,0
1580492772.526,32.715,32.227,35.645,13.672,79.102,0
1580492772.530,19.043,34.668,38.086,26.855,60.059,0
1580492772.534,21.484,38.574,39.551,40.527,-6.348,0
1580492772.538,32.715,38.086,39.551,18.066,14.648,0
1580492772.542,32.715,32.715,35.645,2.930,55.176,0
1580492772.539,22.461,34.668,37.598,23.438,30.273,0
1580492772.543,17.090,35.156,41.504,38.086,25.391,0
1580492772.547,23.926,31.250,40.039,32.715,22.949,0
1580492772.551,31.250,32.715,40.039,19.043,46.387,0
1580492772.555,25.391,36.621,42.969,24.902,25.391,0
1580492772.559,20.508,39.062,41.992,41.016,4.395,0
1580492772.563,25.391,37.109,38.574,35.156,39.551,0
1580492772.566,31.738,34.668,37.109,15.137,76.172,0
1580492772.570,25.879,37.598,38.574,9.766,32.715,0
1580492772.574,11.719,39.062,36.621,25.391,43.945,0
1580492772.578,15.137,36.621,33.203,33.203,28.809,0
1580492772.582,28.809,33.691,32.227,17.578,-44.434,0
1580492772.600,22.461,31.250,35.156,12.695,-1.953,0
1580492772.604,10.254,30.762,41.016,34.668,81.543,0
1580492772.608,12.695,34.180,41.504,44.922,101.074,0
1580492772.612,25.391,34.180,38.574,25.879,41.016,0
1580492772.616,28.320,33.691,36.133,20.508,8.301,0
1580492772.620,16.602,37.598,38.086,31.738,63.965,0
1580492772.624,6.836,39.062,37.598,35.156,9.277,0
1580492772.627,17.090,37.598,35.156,26.855,34.180,0
1580492772.631,26.855,37.109,36.133,15.137,40.039,0
1580492772.635,20.508,36.133,39.062,26.367,13.672,0
1580492772.639,13.672,34.668,42.480,39.062,64.453,0
1580492772.643,21.973,35.645,41.992,34.668,10.742,0
1580492772.640,36.621,37.109,40.527,18.555,32.715,0
1580492772.644,37.598,39.551,39.551,7.812,68.359,0
1580492772.648,24.902,39.062,39.062,22.461,24.902,0
1580492772.652,24.414,37.109,38.086,28.320,39.551,0
1580492772.656,36.133,38.574,32.715,16.113,73.730,0
1580492772.660,32.715,40.039,34.180,11.719,62.012,0
1580492772.664,22.461,39.551,41.016,21.484,-8.301,0
1580492772.667,23.926,39.551,42.480,38.574,11.230,0
1580492772.671,34.668,38.086,40.039,32.227,31.738,0
1580492772.675,34.180,37.598,40.527,15.625,-13.184,0
1580492772.679,18.555,38.574,39.062,22.949,-2.441,0
1580492772.683,8.301,37.598,35.645,34.180,40.039,0
1580492772.679,13.672,38.086,41.016,31.250,26.855,0
1580492772.683,23.438,41.504,42.969,21.484,11.230,0
1580492772.687,22.949,43.945,39.551,23.438,38.086,0
1580492772.691,13.672,42.969,34.668,42.969,58.105,0
1580492772.695,18.555,41.504,34.180,43.945,40.527,0
1580492772.699,33.691,43.945,38.086,27.832,44.434,0
1580492772.703,30.762,39.551,41.504,20.020,8.789,0
1580492772.706,20.508,36.621,44.434,35.156,15.137,0
1580492772.710,20.020,37.598,42.969,40.527,30.273,0
1580492772.714,30.762,34.180,40.527,23.438,10.742,0
1580492772.718,36.133,35.645,40.039,20.020,55.664,0
1580492772.722,23.926,38.086,40.527,25.879,56.641,0
1580492772.739,10.742,35.645,41.016,29.785,5.859,0
1580492772.743,17.578,32.715,39.062,21.973,-13.672,0
1580492772.747,31.250,32.227,36.621,9.766,12.695,0
1580492772.751,28.809,37.598,37.109,19.043,31.738,0
1580492772.755,19.043,39.062,37.109,29.297,72.266,0
1580492772.759,17.578,35.645,39.062,20.508,40.039,0
1580492772.763,26.367,32.715,43.457,8.301,51.758,0
1580492772.766,20.996,31.738,46.875,11.230,38.086,0
1580492772.770,7.324,33.203,49.805,27.344,-12.695,0
1580492772.774,13.184,31.738,51.758,23.438,21.973,0
1580492772.778,27.832,28.809,52.246,16.113,106.445,0
1580492772.782,20.996,26.367,55.664,16.602,65.918,0
1580492772.779,2.930,20.508,57.129,20.996,41.016,0
1580492772.783,3.418,19.531,53.711,26.855,93.750,0
1580492772.787,21.973,21.973,53.223,14.160,23.438,0
1580492772.791,32.227,23.926,52.734,9.277,9.766,0
1580492772.795,20.996,27.344,48.828,19.043,29.785,0
1580492772.799,11.719,26.367,45.898,23.438,31.250,0
1580492772.803,22.461,25.879,46.875,18.066,31.250,0
1580492772.806,32.715,27.344,45.898,9.766,0.977,0
1580492772.810,20.996,26.367,43.457,17.090,56.641,0
1580492772.814,8.789,28.809,43.457,38.086,83.008,0
1580492772.818,16.602,32.227,41.504,37.598,66.406,0
1580492772.822,26.855,30.762,40.039,25.391,90.332,0
1580492772.819,24.902,33.203,42.480,25.879,50.293,0
1580492772.823,13.672,36.133,45.898,39.062,55.176,0
1580492772.827,12.695,31.738,45.410,40.039,86.914,0
1580492772.831,25.391,28.320,44.434,25.391,67.871,0
1580492772.835,28.320,27.832,40.527,21.484,59.082,0
1580492772.839,17.090,27.832,40.039,30.762,6.836,0
1580492772.843,13.184,26.367,44.434,39.551,-39.062,0
1580492772.846,22.949,23.438,40.039,34.668,-32.227,0
1580492772.850,32.715,23.438,37.598,18.066,-19.043,0
1580492772.854,24.414,27.832,36.621,22.461,9.277,0
1580492772.858,17.578,29.785,34.668,37.598,62.012,0
1580492772.862,33.203,29.785,34.668,34.668,93.750,0
1580492772.879,46.875,31.738,35.645,26.367,11.230,0
1580492772.883,35.156,31.250,35.645,28.809,-48.828,0
1580492772.887,23.438,29.785,34.668,41.504,12.207,0
1580492772.891,32.227,30.762,36.133,35.156,43.457,0
1580492772.895,39.551,25.879,37.109,28.809,8.301,0
1580492772.899,33.691,23.438,37.109,35.645,-19.531,0
1580492772.903,25.879,30.762,39.551,44.922,-9.277,0
1580492772.906,30.273,32.227,38.574,42.969,29.297,0
1580492772.910,43.945,30.273,33.203,28.809,-8.301,0
1580492772.914,47.852,33.691,28.809,26.367,21.973,0
1580492772.918,36.133,36.133,32.715,40.039,85.449,0
1580492772.922,26.855,36.621,38.086,47.852,69.336,0
1580492772.919,34.180,32.227,33.691,32.227,82.520,0
1580492772.923,44.434,31.250,30.273,27.344,101.562,0
1580492772.927,36.133,35.156,32.227,38.574,58.105,0
1580492772.931,23.438,34.180,34.180,50.781,38.574,0
1580492772.935,31.738,35.156,34.180,39.551,38.086,0
1580492772.939,41.504,34.668,35.645,19.043,54.199,0
1580492772.943,31.738,33.691,38.574,22.949,43.457,0
1580492772.946,22.461,34.180,35.645,33.203,33.691,0
1580492772.950,25.391,33.691,34.668,29.785,27.832,0
1580492772.954,40.039,36.621,34.668,15.137,29.785,0
1580492772.958,38.086,39.062,33.203,5.859,53.223,0
1580492772.962,20.508,36.621,32.715,22.949,5.859,0
1580492772.959,16.113,32.715,31.738,34.668,21.973,0
1580492772.963,27.832,31.250,30.762,21.973,32.227,0
1580492772.967,27.832,30.762,32.715,11.230,23.926,0
1580492772.971,12.207,29.297,31.738,13.672,70.312,0
1580492772.975,7.812,28.320,33.203,21.973,19.531,0
1580492772.979,24.902,29.297,34.668,19.531,-38.086,0
1580492772.983,35.645,30.273,38.086,11.719,-0.488,0
1580492772.986,21.484,31.738,41.992,27.344,36.621,0
1580492772.990,12.207,33.691,39.551,45.898,-7.324,0
1580492772.994,20.508,30.273,41.016,40.039,13.672,0
1580492772.998,32.227,28.809,38.086,20.996,41.504,0
1580492773.002,28.809,32.227,34.668,21.973,70.801,0
1580492773.019,17.090,34.668,42.969,40.039,89.355,0
1580492773.023,17.090,32.227,45.898,43.457,87.402,0
1580492773.027,29.785,28.809,40.527,36.133,65.918,0
1580492773.031,30.762,29.297,39.551,23.926,64.453,0
1580492773.035,18.555,31.250,38.574,25.879,64.453,0
1580492773.039,14.648,33.203,40.039,30.273,32.715,0
1580492773.043,20.996,34.180,41.504,16.602,24.414,0
1580492773.046,28.809,33.691,38.574,9.277,27.832,0
1580492773.050,15.137,31.738,40.039,20.996,39.551,0
1580492773.054,7.812,32.227,41.504,38.574,29.785,0
1580492773.058,24.902,34.668,38.574,36.133,11.230,0
1580492773.062,35.645,34.668,37.109,19.531,20.508,0
1580492773.059,31.250,33.691,39.062,29.297,49.805,0
1580492773.063,20.020,35.645,38.574,40.039,29.785,0
1580492773.067,22.949,34.668,39.551,30.273,-19.531,0
1580492773.071,36.133,32.715,41.992,25.879,12.695,0
1580492773.075,33.203,33.691,42.480,25.879,90.820,0
1580492773.079,22.949,35.156,41.016,31.250,86.426,0
1580492773.083,23.438,36.133,41.992,41.504,19.043,0
1580492773.086,34.180,32.227,41.016,33.203,-19.043,0
1580492773.090,32.715,30.273,40.527,21.973,-11.719,0
1580492773.094,20.996,32.227,43.457,25.879,7.812,0
1580492773.098,21.484,36.621,38.086,24.902,33.691,0
1580492773.102,31.250,36.133,34.668,16.602,34.180,0
1580492773.099,37.598,36.133,36.621,13.184,31.738,0
1580492773.103,21.484,39.062,40.039,24.902,61.035,0
1580492773.107,8.789,38.086,42.480,33.691,36.133,0
1580492773.111,27.832,35.645,41.504,23.438,-25.391,0
1580492773.115,41.504,40.527,37.598,7.324,-7.324,0
1580492773.119,31.738,45.898,36.133,11.719,31.250,0
1580492773.123,17.578,49.805,36.133,25.879,33.203,0
1580492773.126,17.578,51.758,32.227,19.043,7.324,0
1580492773.130,32.715,49.316,29.297,0.488,38.574,0
1580492773.134,32.715,50.293,24.902,0.488,80.078,0
1580492773.138,19.043,53.711,23.438,15.625,82.520,0
1580492773.142,18.066,51.270,26.367,20.996,45.898,0
1580492773.159,37.598,48.340,24.414,13.672,16.113,0
1580492773.163,41.016,45.898,25.879,6.836,45.898,0
1580492773.167,18.555,42.480,31.250,18.555,32.227,0
1580492773.171,10.254,41.992,29.785,24.414,31.250,0
1580492773.175,26.855,40.039,26.855,13.184,56.641,0
1580492773.179,38.086,39.551,29.297,15.625,29.297,0
1580492773.183,28.320,41.992,31.250,22.461,50.781,0
1580492773.186,13.672,41.992,32.715,30.762,46.875,0
1580492773.190,24.902,41.504,30.762,29.297,12.695,0
1580492773.194,42.480,41.992,26.367,14.160,-5.371,0
1580492773.198,36.133,41.992,26.367,11.230,27.344,0
1580492773.202,19.043,40.527,32.715,18.555,17.090,0
1580492773.199,20.020,39.062,35.156,19.043,19.531,0
1580492773.203,33.691,37.109,31.250,13.184,64.941,0
1580492773.207,29.785,38.086,32.715,11.230,34.180,0
1580492773.211,21.973,39.551,37.109,20.996,33.691,0
1580492773.215,22.461,39.551,37.109,25.391,47.363,0
1580492773.219,31.250,38.086,37.109,19.531,12.695,0
1580492773.223,33.691,38.574,34.180,15.625,-9.766,0
1580492773.226,17.578,40.039,30.762,18.066,-7.324,0
1580492773.230,10.254,39.062,32.715,17.090,21.973,0
1580492773.234,21.973,39.062,33.691,5.859,58.105,0
1580492773.238,28.809,37.598,31.250,1.953,16.113,0
1580492773.242,15.137,34.668,30.762,10.742,-50.293,0
1580492773.240,1.465,31.250,31.738,17.090,16.113,0
1580492773.244,13.184,29.785,31.738,20.996,25.879,0
1580492773.248,32.715,32.715,29.785,22.949,7.812,0
1580492773.252,30.762,32.227,33.691,28.320,85.449,0
1580492773.256,12.695,34.180,39.062,31.250,80.566,0
1580492773.260,15.625,35.645,39.062,28.809,-14.160,0
1580492773.264,33.203,38.574,40.527,25.879,-14.648,0
1580492773.267,37.109,37.598,40.039,21.973,-12.695,0
1580492773.271,15.625,33.691,41.016,22.461,-34.180,0
1580492773.275,10.254,32.715,43.457,23.926,11.719,0
1580492773.279,31.738,33.203,36.621,20.996,23.926,0
1580492773.283,34.180,35.156,36.621,15.625,27.832,0
1580492773.299,20.020,36.621,42.969,15.137,70.801,0
1580492773.303,12.695,40.039,41.504,17.090,32.227,0
1580492773.307,20.020,37.598,36.621,7.324,61.523,0
1580492773.311,24.902,33.203,36.621,-0.488,65.430,0
1580492773.315,22.461,35.645,35.645,9.766,17.090,0
1580492773.319,14.160,39.062,38.086,24.414,24.414,0
1580492773.323,21.484,37.109,39.062,20.508,11.230,0
1580492773.326,40.039,35.156,38.086,20.020,44.434,0
1580492773.330,32.227,34.668,41.016,29.785,5.371,0
1580492773.334,12.695,32.715,41.992,29.297,-26.367,0
1580492773.338,18.555,33.691,39.062,31.250,8.301,0
1580492773.342,37.598,36.621,33.203,20.996,24.902,0
1580492773.339,38.574,37.109,31.738,7.324,32.715,0
1580492773.343,18.555,36.621,33.203,10.742,33.691,0
1580492773.347,13.672,37.109,29.785,20.508,20.020,0
1580492773.351,29.297,31.738,33.203,22.949,6.836,0
1580492773.355,34.668,31.738,36.133,24.902,29.297,0
1580492773.359,30.273,38.574,31.738,31.250,33.691,0
1580492773.363,23.926,37.109,35.156,25.391,74.219,0
1580492773.366,28.809,34.668,40.039,10.742,76.660,0
1580492773.370,39.551,35.156,39.062,11.230,0.488,0
1580492773.374,31.250,38.086,38.086,10.254,20.508,0
1580492773.378,10.254,39.062,37.109,9.277,20.508,0
1580492773.382,10.254,36.133,36.133,16.113,21.973,0
1580492773.379,32.227,33.203,32.715,15.625,57.129,0
1580492773.383,30.762,32.227,34.180,19.531,57.129,0
1580492773.387,8.789,33.691,35.156,26.367,47.363,0
1580492773.391,6.348,32.227,33.203,34.668,60.059,0
1580492773.395,28.809,31.738,34.180,34.180,78.613,0
1580492773.399,39.062,34.668,33.203,29.785,9.277,0
1580492773.403,30.273,39.551,30.762,38.086,3.906,0
1580492773.406,22.949,39.062,34.668,39.062,33.203,0
1580492773.410,37.109,36.133,36.133,32.227,30.273,0
1580492773.414,51.270,37.109,33.691,30.762,22.949,0
1580492773.418,37.109,37.109,32.715,32.715,23.438,0
1580492773.422,20.020,34.180,36.621,36.133,33.691,0
1580492773.439,28.809,32.227,38.086,27.832,53.223,0
1580492773.443,50.781,32.715,33.203,20.020,66.406,0
1580492773.447,48.828,36.621,34.180,27.832,20.996,0
1580492773.451,25.391,40.527,38.086,33.203,43.457,0
1580492773.455,23.926,39.062,40.527,23.438,19.043,0
1580492773.459,41.016,40.039,37.109,21.484,-2.930,0
1580492773.463,33.203,40.039,35.645,20.020,25.391,0
1580492773.466,7.324,38.086,38.574,21.484,3.906,0
1580492773.470,5.371,36.621,43.457,29.785,-27.832,0
1580492773.474,21.484,33.203,43.457,26.855,-0.488,0
1580492773.478,26.855,32.227,43.457,26.855,-15.137,0
1580492773.482,17.090,33.203,44.922,36.133,-18.066,0
1580492773.479,7.812,36.133,41.016,37.598,34.180,0
1580492773.483,19.043,37.109,40.527,34.180,24.414,0
1580492773.487,36.133,37.598,38.574,33.691,-2.930,0
1580492773.491,30.762,41.504,39.062,34.180,29.785,0
1580492773.495,17.090,41.992,41.504,35.645,60.059,0
1580492773.499,29.785,43.457,40.527,41.016,26.855,0
1580492773.503,45.410,43.457,39.062,39.551,-11.719,0
1580492773.506,35.645,41.016,37.109,41.992,14.648,0
1580492773.510,19.531,41.504,39.551,50.293,63.965,0
1580492773.514,19.531,42.480,41.504,43.457,55.176,0
1580492773.518,39.551,39.551,36.621,30.273,61.035,0
1580492773.522,41.504,38.086,34.668,33.691,119.629,0
1580492773.519,19.043,39.551,35.645,38.574,132.812,0
1580492773.523,15.137,38.086,40.527,31.250,69.336,0
1580492773.527,31.738,37.598,42.969,21.484,48.828,0
1580492773.531,41.504,37.598,40.039,26.367,39.551,0
1580492773.535,31.250,40.039,41.016,36.621,20.508,0
1580492773.539,16.602,41.016,41.016,38.086,9.277,0
1580492773.543,25.879,38.086,38.574,34.668,-4.883,0
1580492773.546,36.621,37.109,38.086,20.508,-3.418,0
1580492773.550,30.762,38.574,37.598,14.160,-17.090,0
1580492773.554,21.973,42.480,38.086,20.020,45.410,0
1580492773.558,26.367,41.992,37.598,18.066,65.918,0
1580492773.562,38.574,39.062,35.645,14.648,28.320,0
1580492773.579,31.738,38.086,37.109,16.113,52.246,0
1580492773.583,14.160,36.621,40.527,15.137,34.668,0
1580492773.587,12.695,35.645,39.551,18.555,8.789,0
1580492773.591,32.715,34.668,34.668,23.438,28.320,0
1580492773.595,38.086,34.668,34.668,28.320,56.152,0
1580492773.599,20.020,38.574,38.574,28.320,29.297,0
1580492773.603,12.207,39.551,40.527,23.926,18.555,0
1580492773.606,23.438,35.645,39.062,24.902,39.551,0
1580492773.610,29.785,32.227,36.133,25.391,22.949,0
1580492773.614,14.648,34.180,34.668,31.250,26.367,0
1580492773.618,0.977,35.645,39.551,34.180,17.578,0
1580492773.622,17.578,34.180,37.598,28.320,55.176,0
1580492773.620,31.738,34.180,36.133,24.902,29.785,0
1580492773.624,19.043,33.691,39.551,32.715,-3.906,0
1580492773.628,1.465,34.180,38.086,36.621,63.965,0
1580492773.632,10.254,32.227,39.062,29.785,20.020,0
1580492773.636,27.832,25.879,40.527,21.484,-37.109,0
1580492773.640,31.738,28.809,36.621,23.926,-14.160,0
1580492773.644,15.625,33.203,37.109,26.855,44.922,0
1580492773.647,4.883,32.227,42.480,26.367,61.523,0
1580492773.651,19.531,32.227,38.574,24.902,24.902,0
1580492773.655,30.762,32.227,34.180,20.020,29.297,0
1580492773.659,15.137,30.273,39.062,20.020,44.434,0
1580492773.663,9.277,32.227,42.480,21.484,8.789,0
1580492773.660,28.320,32.227,39.062,18.066,27.344,0
1580492773.664,40.527,30.273,38.086,18.066,52.734,0
1580492773.668,34.668,35.156,38.574,21.973,7.324,0
1580492773.672,19.531,36.621,38.086,19.531,-1.953,0
1580492773.676,27.344,33.691,33.203,20.996,20.508,0
1580492773.680,43.457,32.227,29.785,19.531,60.547,0
1580492773.684,35.156,32.715,33.203,18.555,69.336,0
1580492773.687,19.531,35.156,33.691,18.555,43.457,0
1580492773.691,22.461,36.133,31.738,17.578,30.762,0
1580492773.695,46.875,32.227,33.203,26.855,39.062,0
1580492773.699,47.852,30.273,34.180,27.832,33.203,0
1580492773.703,23.438,32.715,37.109,27.344,24.902,0
1580492773.719,20.996,34.668,36.621,31.738,51.758,0
1580492773.723,45.410,33.691,31.738,30.762,50.293,0
1580492773.727,52.734,36.133,32.227,33.691,37.109,0
1580492773.731,33.203,39.062,38.086,35.645,19.043,0
1580492773.735,21.973,37.109,42.969,33.691,36.133,0
1580492773.739,34.180,36.621,40.039,27.832,55.176,0
1580492773.743,44.922,34.668,39.551,21.484,63.477,0
1580492773.746,30.762,33.691,40.527,31.738,39.062,0
1580492773.750,11.719,39.551,37.109,38.574,-24.902,0
1580492773.754,22.461,40.039,36.133,40.039,7.324,0
1580492773.758,45.410,38.574,36.621,26.367,14.160,0
1580492773.762,41.016,38.574,33.691,18.066,21.484,0
1580492773.759,20.996,38.574,34.180,27.832,23.926,0
1580492773.763,21.484,38.574,37.598,27.344,16.602,0
1580492773.767,42.480,35.645,34.668,22.949,74.219,0
1580492773.771,43.457,36.133,30.762,20.020,65.918,0
1580492773.775,20.508,38.574,34.668,22.461,-0.977,0
1580492773.779,13.672,39.062,38.574,24.414,-8.789,0
1580492773.783,22.949,35.156,36.621,19.531,17.578,0
1580492773.786,26.855,33.203,34.668,21.973,37.109,0
1580492773.790,15.137,36.133,35.645,26.367,53.711,0
1580492773.794,7.324,36.133,36.621,22.949,34.180,0
1580492773.798,14.648,31.250,34.180,16.602,-0.977,0
1580492773.802,28.320,30.273,35.156,17.578,3.906,0
1580492773.819,22.461,31.738,38.574,30.762,4.395,0
1580492773.823,8.301,32.227,36.621,30.762,0.488,0
1580492773.827,16.602,31.250,33.691,24.414,-27.832,0
1580492773.831,32.715,30.273,36.133,26.855,-16.602,0
1580492773.835,30.273,31.738,37.109,34.180,59.570,0
1580492773.839,9.766,31.738,37.109,35.645,79.590,0
1580492773.843,10.254,32.227,39.551,32.715,44.434,0
1580492773.846,31.738,32.715,40.039,27.832,28.809,0
1580492773.850,33.203,29.297,37.598,20.020,-13.672,0
1580492773.854,12.207,29.297,38.086,20.508,18.555,0
1580492773.858,5.371,33.691,41.992,24.902,60.547,0
1580492773.862,23.438,32.715,41.992,22.461,61.523,0
1580492773.860,35.156,28.809,39.551,17.090,55.176,0
1580492773.864,21.484,32.227,39.551,18.066,51.270,0
1580492773.868,6.836,35.156,41.016,16.113,25.879,0
1580492773.872,23.438,35.156,38.574,11.719,8.301,0
1580492773.876,43.945,35.156,34.180,12.207,28.320,0
1580492773.880,34.668,35.156,32.715,18.066,17.090,0
1580492773.884,16.113,35.156,34.668,19.531,2.930,0
1580492773.887,20.996,32.227,33.203,19.531,34.668,0
1580492773.891,38.574,28.809,29.785,20.020,53.711,0
1580492773.895,38.086,29.785,33.203,16.602,20.996,0
1580492773.899,26.367,33.691,37.598,26.367,22.949,0
1580492773.903,22.461,33.691,36.621,33.203,44.922,0
1580492773.899,38.574,30.762,32.715,29.785,49.316,0
1580492773.903,45.898,33.691,36.621,31.250,21.484,0
1580492773.907,24.902,36.133,41.504,32.715,17.578,0
1580492773.911,11.230,37.598,38.086,31.250,20.508,0
1580492773.915,22.949,35.156,35.156,28.809,26.855,0
1580492773.919,36.621,35.156,38.086,35.645,46.875,0
1580492773.923,26.855,38.574,38.574,37.598,36.133,0
1580492773.926,9.277,36.621,40.039,33.203,5.859,0
1580492773.930,20.508,33.691,43.457,34.668,42.969,0
1580492773.934,41.992,32.715,42.969,35.156,50.781,0
1580492773.938,36.621,32.715,42.969,36.621,34.668,0
1580492773.942,17.578,35.645,42.480,40.039,73.242,0
1580492773.959,20.508,38.574,41.992,38.574,56.152,0
1580492773.963,38.086,35.156,38.574,37.109,58.105,0
1580492773.967,37.109,32.715,40.039,30.762,56.152,0
1580492773.971,21.973,36.133,41.992,29.785,24.414,0
1580492773.975,13.672,36.133,36.621,27.832,40.527,0
1580492773.979,27.344,35.645,30.273,19.043,49.805,0
1580492773.983,36.133,33.691,28.809,20.020,27.832,0
1580492773.986,19.531,31.738,29.785,19.531,19.531,0
1580492773.990,11.230,32.715,29.785,24.902,35.645,0
1580492773.994,27.344,34.668,29.785,25.879,35.156,0
1580492773.998,43.945,35.156,33.203,21.973,14.160,0
1580492774.002,35.156,37.109,39.062,25.391,36.621,0
1580492773.999,17.578,37.109,38.574,26.855,45.410,0
1580492774.003,23.438,35.645,33.203,27.344,18.555,0
1580492774.007,41.504,34.668,32.227,21.973,1.953,0
1580492774.011,38.086,36.133,35.156,20.996,44.434,0
1580492774.015,17.578,37.109,36.621,25.391,76.660,0
1580492774.019,20.996,37.109,36.133,26.367,62.500,0
1580492774.023,39.551,36.133,35.156,29.785,83.008,0
1580492774.026,40.039,36.133,31.250,34.668,8.789,0
1580492774.030,23.926,36.133,30.273,38.086,23.438,0
1580492774.034,15.625,36.133,36.621,41.504,47.363,0
1580492774.038,28.809,37.109,37.598,35.645,41.504,0
1580492774.042,33.691,35.156,35.645,31.250,99.609,0
1580492774.039,18.066,33.691,40.039,34.180,56.641,0
1580492774.043,3.418,34.668,41.504,37.109,-0.488,0
1580492774.047,15.137,34.180,38.086,34.668,32.227,0
1580492774.051,33.203,33.691,36.133,26.367,22.949,0
1580492774.055,24.902,33.691,38.574,32.715,-3.906,0
1580492774.059,8.789,37.109,41.016,34.668,-2.441,0
1580492774.063,12.207,34.668,39.062,23.438,-25.391,0
1580492774.066,31.738,29.785,36.621,25.391,-30.762,0
1580492774.070,28.809,31.738,36.621,29.297,-0.488,0
1580492774.074,10.742,34.668,40.039,25.391,34.180,0
1580492774.078,12.207,31.738,38.086,23.926,22.461,0
1580492774.082,28.809,29.785,36.621,25.879,-19.531,0
1580492774.099,32.715,30.273,37.598,32.715,21.973,0
1580492774.103,19.043,32.715,34.668,30.762,56.152,0
1580492774.107,22.461,36.621,32.715,19.043,63.965,0
1580492774.111,37.598,33.691,36.621,21.973,60.547,0
1580492774.115,45.898,33.691,38.574,27.832,38.574,0
1580492774.119,34.180,37.109,41.016,29.297,-10.742,0
1580492774.123,20.020,36.133,43.945,32.715,-4.395,0
1580492774.126,29.785,31.738,44.434,35.645,12.207,0
1580492774.130,43.945,25.879,44.922,40.039,30.273,0
1580492774.134,33.691,25.391,45.898,41.504,-13.672,0
1580492774.138,9.766,26.367,48.828,41.016,-46.875,0
1580492774.142,11.230,26.367,50.293,33.203,47.363,0
1580492774.139,33.691,27.344,46.387,25.391,59.082,0
1580492774.143,28.809,27.832,44.922,23.926,34.180,0
1580492774.147,2.441,30.273,44.434,25.879,16.113,0
1580492774.151,-5.371,32.715,42.480,29.785,59.082,0
1580492774.155,12.207,30.273,40.527,28.320,92.773,0
1580492774.159,23.438,29.785,41.504,30.273,-3.418,0
1580492774.163,7.324,28.809,43.457,34.180,34.180,0
1580492774.166,0.000,27.832,43.457,39.062,89.844,0
1580492774.170,17.578,28.809,41.504,37.109,-5.859,0
1580492774.174,35.645,29.297,37.598,35.156,14.160,0
1580492774.178,30.273,29.297,37.598,34.668,32.715,0
1580492774.182,14.160,27.344,40.039,34.668,34.180,0
1580492774.199,27.344,25.391,39.062,40.527,87.402,0
1580492774.203,46.875,25.879,37.109,35.156,42.480,0
1580492774.207,39.062,26.855,37.109,39.062,4.883,0
1580492774.211,27.344,30.273,35.156,48.340,-13.672,0
1580492774.215,35.645,32.715,33.691,41.504,-4.395,0
1580492774.219,53.711,31.250,29.297,38.086,30.762,0
1580492774.223,55.664,31.738,25.879,41.992,28.809,0
1580492774.226,36.133,33.203,28.320,48.828,-2.930,0
1580492774.230,28.809,32.715,28.320,45.410,10.254,0
1580492774.234,44.434,28.320,28.320,28.809,71.777,0
1580492774.238,54.199,27.344,34.180,27.344,103.516,0
1580492774.242,40.527,30.762,38.086,35.156,38.574,0
1580492774.259,27.344,31.738,41.016,40.527,-15.625,0
1580492774.263,44.434,31.250,39.062,37.109,33.203,0
1580492774.267,60.059,29.785,38.086,31.250,70.801,0
1580492774.271,36.621,28.809,43.457,30.273,64.453,0
1580492774.275,11.719,30.762,42.969,34.668,57.617,0
1580492774.279,16.113,32.227,41.016,40.039,45.898,0
1580492774.283,31.738,30.273,40.527,40.039,57.617,0
1580492774.286,26.855,32.715,38.574,41.504,54.199,0
1580492774.290,5.371,35.645,41.992,39.551,2.441,0
1580492774.294,7.812,34.668,43.457,38.086,46.875,0
1580492774.298,32.227,31.250,39.551,40.039,91.309,0
1580492774.302,33.203,33.691,42.480,35.645,10.254,0
1580492774.280,4.883,37.598,44.434,30.273,2.930,0
1580492774.284,6.836,37.598,43.457,32.715,33.203,0
1580492774.288,27.344,41.016,40.039,28.809,43.945,0
1580492774.292,29.785,43.457,34.668,26.855,39.551,0
1580492774.296,20.020,44.922,34.180,26.855,38.086,0
1580492774.300,7.812,44.922,33.691,23.438,46.387,0
1580492774.304,22.949,43.945,28.809,20.508,43.945,0
1580492774.307,41.992,43.457,27.344,17.578,62.500,0
1580492774.311,31.250,41.504,29.297,20.508,55.664,0
1580492774.315,8.789,41.504,33.691,25.391,17.578,0
1580492774.319,16.602,42.480,30.762,22.949,41.504,0
1580492774.323,39.062,42.480,23.438,23.438,108.887,0
1580492774.320,27.832,41.016,24.414,26.367,20.020,0
1580492774.324,2.930,40.039,28.320,26.367,-22.949,0
1580492774.328,9.766,41.016,26.367,27.344,49.316,0
1580492774.332,33.691,41.992,22.949,15.625,75.195,0
1580492774.336,34.668,41.016,24.902,0.977,84.961,0
1580492774.340,19.043,41.992,24.902,11.230,25.879,0
1580492774.344,11.719,41.992,26.367,23.438,-31.250,0
1580492774.347,23.926,36.133,28.809,18.066,-5.371,0
1580492774.351,40.039,32.715,30.762,18.066,45.410,0
1580492774.355,22.461,35.645,32.227,24.414,60.547,0
1580492774.359,2.930,39.062,31.250,25.879,57.617,0
1580492774.363,16.602,37.598,29.785,26.367,5.859,0
1580492774.380,36.133,37.109,27.832,23.438,10.254,0
1580492774.384,29.785,39.062,25.879,22.949,62.012,0
1580492774.388,15.137,38.086,28.320,28.320,64.941,0
1580492774.392,22.949,39.551,34.180,28.320,24.902,0
1580492774.396,36.133,39.062,41.504,23.926,-40.527,0
1580492774.400,37.109,38.086,38.574,27.832,26.367,0
1580492774.404,24.414,41.504,38.086,26.855,75.195,0
1580492774.407,20.508,41.504,44.434,21.484,37.109,0
1580492774.411,40.039,39.551,41.016,21.484,48.340,0
1580492774.415,47.852,37.598,32.227,24.414,15.137,0
1580492774.419,31.250,34.668,27.344,27.832,-8.789,0
1580492774.423,18.555,34.180,34.180,22.461,50.293,0
1580492774.419,30.762,33.203,35.645,19.043,0.977,0
1580492774.423,42.480,33.203,35.156,21.973,-19.531,0
1580492774.427,27.344,35.156,38.086,24.902,8.301,0
1580492774.431,13.672,36.621,39.062,27.344,9.277,0
1580492774.435,22.461,34.668,38.086,23.926,56.152,0
1580492774.439,36.621,32.227,34.668,20.996,0.488,0
1580492774.443,31.250,33.691,33.691,18.066,-32.227,0
1580492774.446,13.672,35.645,37.109,21.484,-25.391,0
1580492774.450,14.160,34.668,40.039,28.809,-26.855,0
1580492774.454,36.621,35.156,40.039,21.484,45.410,0
1580492774.458,42.480,37.598,40.039,14.160,40.039,0
1580492774.462,25.391,39.551,41.016,23.926,19.043,0
1580492774.461,17.578,40.527,37.109,27.832,0.977,0
1580492774.465,32.227,38.086,34.180,22.949,-19.531,0
1580492774.469,42.480,35.645,37.109,21.973,17.578,0
1580492774.473,25.391,39.062,38.086,22.949,14.160,0
1580492774.477,17.578,39.062,35.156,24.902,5.371,0
1580492774.481,35.156,37.598,35.156,24.902,0.977,0
1580492774.485,48.828,35.645,36.133,23.438,3.418,0
1580492774.488,33.691,32.715,39.062,24.414,10.742,0
1580492774.492,12.695,33.691,42.480,22.461,22.461,0
1580492774.496,21.484,34.180,41.504,22.949,41.504,0
1580492774.500,41.504,31.738,36.621,23.438,81.055,0
1580492774.504,35.156,30.762,35.156,26.367,95.215,0
1580492774.519,16.602,37.598,37.109,30.762,80.078,0
1580492774.523,16.113,40.039,35.156,24.414,23.438,0
1580492774.527,39.551,37.109,27.832,16.602,13.184,0
1580492774.531,45.410,36.133,27.832,22.461,39.062,0
1580492774.535,20.020,34.180,30.762,25.391,39.062,0
1580492774.539,11.719,34.180,33.691,28.320,50.781,0
1580492774.543,35.645,32.715,34.668,26.855,60.547,0
1580492774.546,50.781,33.203,31.738,22.949,59.570,0
1580492774.550,31.250,35.156,37.598,29.785,26.367,0
1580492774.554,17.090,35.156,41.504,34.180,5.371,0
1580492774.558,28.809,33.203,38.574,31.738,57.129,0
1580492774.562,44.434,33.691,30.762,28.809,59.570,0
1580492774.560,35.645,37.598,34.180,26.367,20.020,0
1580492774.564,11.719,39.551,43.457,31.250,4.395,0
1580492774.568,14.648,38.574,41.992,24.902,32.715,0
1580492774.572,36.621,35.156,37.598,18.066,29.785,0
1580492774.576,33.691,33.691,39.062,23.926,36.133,0
1580492774.580,13.672,35.156,40.039,25.391,42.480,0
1580492774.584,11.719,35.156,39.551,25.879,3.418,0
1580492774.587,27.832,31.250,40.039,25.879,-25.391,0
1580492774.591,27.344,30.762,41.016,23.926,41.992,0
1580492774.595,7.324,35.645,42.480,28.320,46.875,0
1580492774.599,0.488,37.109,42.969,25.391,18.555,0
1580492774.603,21.973,33.691,38.574,20.508,28.320,0
1580492774.599,39.551,32.227,36.621,22.461,7.324,0
1580492774.603,28.809,34.180,40.527,28.320,16.113,0
1580492774.607,13.672,38.086,40.527,38.574,26.855,0
1580492774.611,22.461,39.062,36.621,33.691,100.586,0
1580492774.615,42.969,38.574,34.180,24.902,115.723,0
1580492774.619,36.133,40.527,32.715,28.320,53.711,0
1580492774.623,16.602,45.898,32.715,27.344,16.113,0
1580492774.626,24.414,45.410,35.156,32.715,44.922,0
1580492774.630,36.621,41.016,40.039,30.762,10.254,0
1580492774.634,29.297,39.062,38.574,26.367,-36.133,0
1580492774.638,8.789,35.645,41.016,36.621,24.414,0
1580492774.642,0.488,33.203,44.434,27.832,1.953,0
1580492774.660,21.973,33.203,39.062,16.602,-27.832,0
1580492774.664,34.668,35.156,34.180,17.578,-40.039,0
1580492774.668,13.184,36.621,34.180,21.484,-53.223,0
1580492774.672,-5.859,34.668,38.574,27.344,15.625,0
1580492774.676,7.324,34.180,44.434,20.996,45.410,0
1580492774.680,28.320,34.180,44.434,15.625,25.879,0
1580492774.684,17.578,30.273,43.457,12.207,59.570,0
1580492774.687,-1.465,31.250,42.969,15.137,50.293,0
1580492774.691,12.207,32.227,38.574,27.344,26.855,0
1580492774.695,31.738,30.273,38.574,35.645,25.391,0
1580492774.699,28.320,34.180,40.527,35.645,25.391,0
1580492774.703,10.254,36.621,40.527,30.762,78.613,0
1580492774.699,12.207,33.203,38.574,33.203,11.719,0
1580492774.703,32.715,31.738,36.621,30.762,13.672,0
1580492774.707,37.109,32.715,38.574,29.297,79.102,0
1580492774.711,16.602,34.668,44.922,35.156,61.035,0
1580492774.715,10.254,37.598,44.922,33.203,70.801,0
1580492774.719,27.832,35.645,38.086,27.832,37.598,0
1580492774.723,33.203,34.180,37.109,28.809,23.926,0
1580492774.726,19.043,38.574,44.922,28.320,49.805,0
1580492774.730,4.883,38.086,42.969,26.855,15.625,0
1580492774.734,17.090,37.109,30.273,18.555,-11.230,0
1580492774.738,36.133,38.086,26.367,8.301,15.625,0
1580492774.742,23.926,36.133,38.086,10.254,24.414,0
1580492774.739,3.418,34.668,47.852,12.695,35.645,0
1580492774.743,6.348,27.344,45.898,9.766,-13.672,0
1580492774.747,23.926,26.367,39.062,8.789,32.715,0
1580492774.751,21.484,31.738,41.992,13.184,66.406,0
1580492774.755,0.000,32.715,49.316,18.066,12.207,0
1580492774.759,0.488,34.180,43.457,16.602,9.277,0
1580492774.763,23.438,32.227,40.039,20.020,73.730,0
1580492774.766,36.133,33.203,42.969,24.414,89.844,0
1580492774.770,15.625,35.156,43.945,20.996,8.301,0
1580492774.774,0.977,30.273,43.457,25.391,43.457,0
1580492774.778,25.391,27.832,37.598,28.809,58.594,0
1580492774.782,42.480,28.809,30.273,36.133,21.973,0
1580492774.799,28.320,32.715,36.621,41.016,-19.043,0
1580492774.803,11.719,34.668,43.945,41.016,10.742,0
1580492774.807,21.484,33.203,38.086,31.738,48.828,0
1580492774.811,35.156,32.715,34.180,27.832,17.090,0
1580492774.815,26.367,34.180,38.574,33.203,29.297,0
1580492774.819,9.277,36.621,45.898,30.762,30.273,0
1580492774.823,8.301,35.156,45.410,15.625,17.578,0
1580492774.826,26.855,32.227,33.691,9.277,43.945,0
1580492774.830,26.367,33.691,22.949,15.625,47.852,0
1580492774.834,4.883,37.109,36.621,11.230,39.551,0
1580492774.838,9.766,35.645,48.828,10.742,43.457,0
1580492774.842,32.227,34.180,39.062,14.648,14.160,0
1580492774.839,39.062,35.645,36.621,17.578,17.090,0
1580492774.843,19.043,36.621,43.457,15.625,19.043,0
1580492774.847,11.230,38.086,46.387,13.672,45.410,0
1580492774.851,35.645,39.551,40.039,20.996,-28.809,0
1580492774.855,52.734,39.551,37.598,30.273,-112.793,0
1580492774.859,37.598,42.480,41.016,29.297,-6.836,0
1580492774.863,19.043,41.504,43.457,26.855,66.895,0
1580492774.866,25.879,33.203,42.480,31.250,93.750,0
1580492774.870,45.410,28.809,36.621,36.621,98.145,0
1580492774.874,41.992,29.297,40.527,41.016,74.707,0
1580492774.878,17.090,29.297,44.434,39.551,111.328,0
1580492774.882,20.508,15.137,42.969,39.062,87.891,0
1580492774.880,45.410,-19.531,38.574,40.039,17.578,0
1580492774.884,41.016,-29.785,36.621,39.551,68.848,0
1580492774.888,14.160,-23.926,46.875,39.551,79.590,0
1580492774.892,9.277,-22.461,43.457,29.297,61.523,0
1580492774.896,26.855,-18.555,35.156,16.602,41.504,0
1580492774.900,31.250,-12.207,37.109,19.043,17.578,0
1580492774.904,11.230,-3.418,40.039,19.043,62.500,0
1580492774.907,-1.953,6.836,40.039,14.648,63.965,0
1580492774.911,17.090,20.508,37.598,11.719,51.758,0
1580492774.915,39.551,28.809,36.133,12.207,79.102,0
1580492774.919,25.879,32.227,36.133,16.113,96.680,0
1580492774.923,4.395,36.621,34.668,16.113,32.715,0
1580492774.939,25.879,38.574,36.133,17.090,-3.906,0
1580492774.943,56.152,36.621,35.645,19.043,2.930,0
1580492774.947,48.828,38.086,30.273,21.973,-17.578,0
1580492774.951,25.879,43.945,30.273,29.785,7.812,0
1580492774.955,28.809,47.363,32.227,32.227,47.363,0
1580492774.959,50.293,47.363,28.809,32.715,20.996,0
1580492774.963,47.363,46.387,32.715,32.715,35.645,0
1580492774.966,30.762,47.363,37.109,37.598,49.805,0
1580492774.970,18.555,46.387,35.645,33.691,27.344,0
1580492774.974,28.320,43.457,32.227,25.879,-6.836,0
1580492774.978,42.480,42.480,27.344,28.809,-8.789,0
1580492774.982,20.996,43.457,26.367,23.926,12.207,0
1580492774.999,3.906,40.527,33.691,24.902,-9.277,0
1580492775.003,20.996,37.598,37.109,34.668,18.555,0
1580492775.007,32.715,36.621,34.180,38.086,102.539,0
1580492775.011,22.949,36.133,35.645,37.109,69.824,0
1580492775.015,12.695,38.574,37.109,33.691,1.953,0
1580492775.019,21.973,39.062,35.156,33.203,29.785,0
1580492775.023,43.945,36.621,34.668,33.203,1.465,0
1580492775.026,41.504,38.574,30.762,33.691,-15.137,0
1580492775.030,19.043,40.527,29.785,30.273,-6.348,0
1580492775.034,17.578,38.574,38.086,20.996,6.348,0
1580492775.038,40.039,37.598,41.016,20.020,20.020,0
1580492775.042,45.410,38.086,38.574,24.414,-29.785,0
1580492775.039,26.367,41.504,39.551,26.367,-13.184,0
1580492775.043,14.648,40.039,38.086,24.414,38.574,0
1580492775.047,31.738,36.621,31.250,16.602,13.672,0
1580492775.051,47.363,39.062,28.809,18.555,12.207,0
1580492775.055,24.902,42.480,33.203,29.785,36.133,0
1580492775.059,8.789,42.480,35.156,32.715,66.406,0
1580492775.063,26.367,39.062,33.691,33.691,129.883,0
1580492775.066,39.062,38.086,30.273,33.691,92.773,0
1580492775.070,30.273,41.504,27.832,31.738,62.012,0
1580492775.074,13.184,40.527,25.879,38.574,25.391,0
1580492775.078,14.160,34.668,30.273,32.715,12.695,0
1580492775.082,41.992,30.273,33.691,25.391,60.059,0
1580492775.079,44.922,27.344,36.133,26.855,26.367,0
1580492775.083,17.578,28.320,40.039,24.902,7.324,0
1580492775.087,11.230,29.785,37.598,24.414,58.105,0
1580492775.091,28.320,29.297,31.250,24.902,-2.441,0
1580492775.095,37.109,29.785,31.250,26.855,35.156,0
1580492775.099,22.461,39.062,31.250,23.438,71.289,0
1580492775.103,3.418,42.480,26.367,9.277,12.207,0
1580492775.106,19.043,39.062,25.879,6.836,-11.230,0
1580492775.110,37.598,40.527,28.320,17.090,2.441,0
1580492775.114,23.438,44.434,31.738,20.996,18.555,0
1580492775.118,9.277,44.434,34.180,15.625,-2.441,0
1580492775.122,19.531,39.551,32.715,17.578,-15.625,0
1580492775.119,32.715,36.133,33.203,24.414,-23.926,0
1580492775.123,29.785,39.551,32.715,25.879,20.020,0
1580492775.127,16.113,41.016,31.250,26.367,41.016,0
1580492775.131,17.578,39.062,36.133,22.949,-12.695,0
1580492775.135,36.621,37.109,36.621,23.926,-2.441,0
1580492775.139,41.504,38.086,35.645,29.785,5.859,0
1580492775.143,18.555,38.574,38.086,26.367,36.133,0
1580492775.146,10.254,38.086,33.691,17.090,76.660,0
1580492775.150,35.156,38.574,29.785,18.555,75.684,0
1580492775.154,46.387,39.551,33.203,20.020,47.363,0
1580492775.158,28.809,39.062,33.691,17.090,58.594,0
1580492775.162,20.020,39.551,31.738,17.090,8.789,0
1580492775.159,40.527,41.504,32.715,21.973,15.137,0
1580492775.163,56.641,39.062,34.180,30.273,56.641,0
1580492775.167,38.574,41.016,35.645,33.691,32.715,0
1580492775.171,19.531,41.504,35.156,33.691,10.254,0
1580492775.175,28.320,38.574,37.598,25.879,2.441,0
1580492775.179,40.039,37.598,38.574,16.602,29.297,0
1580492775.183,31.738,41.016,38.086,14.160,36.133,0
1580492775.186,10.254,42.480,39.551,17.090,18.555,0
1580492775.190,10.742,38.574,39.062,18.066,8.301,0
1580492775.194,31.250,34.668,32.227,22.461,42.480,0
1580492775.198,36.621,31.250,28.320,31.250,43.945,0
1580492775.202,23.926,33.203,35.156,34.668,1.953,0
1580492775.219,21.973,35.645,37.109,26.855,42.480,0
1580492775.223,41.016,32.715,32.227,19.531,48.340,0
1580492775.227,48.340,30.762,35.645,27.344,-4.395,0
1580492775.231,29.785,31.738,39.551,31.250,33.691,0
1580492775.235,18.066,31.738,37.109,26.855,72.754,0
1580492775.239,34.668,32.715,34.180,27.344,88.867,0
1580492775.243,50.781,30.273,30.762,24.902,56.152,0
1580492775.246,36.133,26.855,36.621,23.926,53.711,0
1580492775.250,20.996,30.273,39.551,26.367,42.969,0
1580492775.254,27.832,35.156,34.668,28.320,6.836,0
1580492775.258,48.340,33.691,34.668,25.391,23.438,0
1580492775.262,46.875,30.273,33.691,18.555,62.500,0
1580492775.260,18.555,31.738,34.180,17.578,85.449,0
1580492775.264,15.137,32.227,35.156,19.531,39.062,0
1580492775.268,40.039,29.297,32.715,20.508,5.371,0
1580492775.272,44.922,29.297,31.738,24.414,29.297,0
1580492775.276,27.344,31.250,30.762,29.297,26.855,0
1580492775.280,23.438,33.691,30.762,28.320,-30.273,0
1580492775.284,41.016,32.715,31.250,28.809,-10.254,0
1580492775.287,51.270,30.762,30.273,29.785,33.203,0
1580492775.291,35.645,35.645,29.785,28.320,22.949,0
1580492775.295,18.066,37.109,30.762,25.391,-7.812,0
1580492775.299,29.297,36.133,25.879,27.832,45.898,0
1580492775.303,47.363,34.668,28.809,30.273,73.242,0
1580492775.320,37.598,34.668,39.062,34.180,18.066,0
1580492775.324,18.066,35.645,44.922,40.527,2.930,0
1580492775.328,24.414,34.668,41.016,36.133,42.969,0
1580492775.332,47.363,33.691,36.621,39.062,71.777,0
1580492775.336,47.363,34.668,37.598,46.387,23.438,0
1580492775.340,19.043,37.598,39.062,44.434,-0.977,0
1580492775.344,8.301,38.574,31.250,37.598,-11.719,0
1580492775.347,22.949,34.668,28.809,17.090,18.066,0
1580492775.351,24.902,31.250,39.551,9.766,29.297,0
1580492775.355,7.324,31.738,38.574,16.602,12.695,0
1580492775.359,0.488,33.203,36.133,19.531,17.578,0
1580492775.363,17.578,30.762,33.691,20.996,31.250,0
1580492775.361,37.598,35.645,32.227,20.996,8.789,0
1580492775.365,25.879,39.551,37.598,25.879,28.320,0
1580492775.369,10.742,39.551,38.574,22.461,36.133,0
1580492775.373,26.855,40.039,33.203,20.996,-10.254,0
1580492775.377,46.387,34.180,31.250,26.855,47.363,0
1580492775.381,38.574,32.715,34.180,27.832,8.789,0
1580492775.385,19.531,38.574,34.668,30.762,12.207,0
1580492775.388,23.926,40.039,28.809,31.250,46.387,0
1580492775.392,38.086,36.621,26.367,22.949,61.035,0
1580492775.396,32.227,32.715,33.203,29.297,85.449,0
1580492775.400,18.066,33.203,37.109,27.832,78.125,0
1580492775.404,17.090,35.156,34.668,19.043,99.609,0
1580492775.399,38.086,34.180,35.156,25.879,101.074,0
1580492775.403,45.898,33.691,38.574,27.832,52.734,0
1580492775.407,24.414,36.133,38.086,26.855,11.230,0
1580492775.411,12.207,36.621,39.551,30.762,22.949,0
1580492775.415,28.809,35.156,41.016,34.180,11.230,0
1580492775.419,41.504,34.668,35.645,24.414,61.523,0
1580492775.423,23.926,32.227,40.039,25.879,97.168,0
1580492775.426,5.371,33.691,44.922,34.668,88.379,0
1580492775.430,16.602,33.691,42.969,27.344,52.246,0
1580492775.434,36.133,31.250,40.039,21.973,-3.418,0
1580492775.438,30.273,35.645,39.062,28.320,37.109,0
1580492775.442,15.137,40.039,41.504,37.598,102.539,0
1580492775.460,15.625,40.527,39.551,35.645,65.918,0
1580492775.464,32.227,40.527,34.668,28.809,17.090,0
1580492775.468,35.645,38.574,35.156,28.320,13.184,0
1580492775.472,15.625,41.016,39.062,30.273,17.578,0
1580492775.476,8.301,41.992,40.039,30.762,1.465,0
1580492775.480,25.879,34.668,32.715,28.320,6.348,0
1580492775.484,40.527,33.203,30.273,24.902,36.621,0
1580492775.487,31.250,35.645,36.133,24.414,40.039,0
1580492775.491,16.602,35.645,41.504,26.367,37.109,0
1580492775.495,24.414,33.691,40.527,25.391,46.875,0
1580492775.499,44.922,34.668,38.574,29.297,20.996,0
1580492775.503,37.598,37.598,41.016,34.180,-17.090,0
1580492775.500,16.113,40.039,37.598,30.762,26.367,0
1580492775.504,24.902,40.527,37.109,33.203,20.020,0
1580492775.508,41.504,38.574,39.062,32.227,29.785,0
1580492775.512,32.715,35.156,39.062,27.344,6.348,0
1580492775.516,12.695,37.598,43.945,32.715,22.949,0
1580492775.520,8.789,35.156,41.504,31.738,115.723,0
1580492775.524,28.809,26.855,41.504,29.297,91.797,0
1580492775.527,35.645,27.832,38.574,29.297,64.453,0
1580492775.531,18.555,33.691,27.832,33.203,120.117,0
1580492775.535,11.230,33.203,31.250,36.621,99.609,0
1580492775.539,27.344,29.297,41.504,29.785,25.391,0
1580492775.543,39.062,29.297,43.457,28.320,16.113,0
1580492775.539,26.855,30.762,44.922,37.598,-3.418,0
1580492775.543,12.207,31.250,48.828,39.551,21.484,0
1580492775.547,22.949,31.250,46.387,34.668,3.906,0
1580492775.551,39.062,31.738,43.945,29.297,-40.039,0
1580492775.555,31.738,33.203,42.480,29.785,9.277,0
1580492775.559,14.648,32.227,42.969,32.227,12.695,0
1580492775.563,20.020,33.203,45.410,32.227,-12.207,0
1580492775.566,43.457,34.180,41.504,34.180,14.160,0
1580492775.570,44.922,36.133,37.598,30.273,63.477,0
1580492775.574,22.461,37.598,35.645,22.949,18.066,0
1580492775.578,20.020,38.574,35.645,25.879,20.508,0
1580492775.582,42.480,41.016,37.109,28.809,72.266,0
1580492775.600,45.410,41.016,35.645,23.926,52.734,0
1580492775.604,19.531,38.086,34.180,21.973,20.508,0
1580492775.608,6.836,36.133,36.133,26.367,0.488,0
1580492775.612,26.367,37.109,32.715,24.414,1.465,0
1580492775.616,41.016,37.109,32.227,24.414,6.348,0
1580492775.620,28.320,36.621,39.551,30.273,19.043,0
1580492775.624,14.160,41.016,28.809,24.902,21.973,0
1580492775.627,25.879,40.527,33.691,25.391,-8.301,0
1580492775.631,35.645,31.738,47.363,26.855,-27.832,0
1580492775.635,22.949,34.668,41.992,29.297,-28.809,0
1580492775.639,5.859,39.062,41.504,35.645,46.387,0
1580492775.643,7.324,35.156,46.875,34.180,72.266,0
1580492775.640,25.391,30.273,49.805,31.250,35.645,0
1580492775.644,29.297,30.762,46.387,34.180,-1.465,0
1580492775.648,12.207,34.668,36.621,34.180,-22.949,0
1580492775.652,4.395,30.273,42.969,25.391,41.016,0
1580492775.656,24.902,26.367,55.176,20.508,77.637,0
1580492775.660,31.738,28.320,52.734,20.996,79.590,0
1580492775.664,13.672,29.785,46.387,25.391,41.504,0
1580492775.667,7.812,29.297,44.434,25.391,22.949,0
1580492775.671,22.949,26.855,40.039,27.344,-6.348,0
1580492775.675,37.598,29.297,32.227,34.180,7.324,0
1580492775.679,29.785,32.227,34.180,24.414,66.406,0
1580492775.683,13.184,30.762,41.992,16.602,46.875,0
1580492775.679,21.973,29.785,40.039,24.414,55.176,0
1580492775.683,40.039,27.344,40.039,28.809,43.945,0
1580492775.687,28.809,24.414,44.434,32.227,26.855,0
1580492775.691,8.301,28.809,43.945,24.414,58.594,0
1580492775.695,12.207,34.668,41.504,17.578,21.484,0
1580492775.699,33.203,34.668,35.156,18.066,-27.832,0
1580492775.703,34.180,34.668,33.691,11.719,18.555,0
1580492775.706,12.207,34.668,41.016,17.090,40.039,0
1580492775.710,4.883,36.621,43.457,18.555,0.000,0
1580492775.714,23.926,34.668,32.227,9.766,-8.301,0
1580492775.718,38.574,34.180,25.391,14.648,69.336,0
1580492775.722,25.391,36.133,37.109,16.113,88.867,0
1580492775.739,11.719,36.621,46.875,14.160,-35.156,0
1580492775.743,25.391,35.645,45.410,18.555,-30.273,0
1580492775.747,46.387,34.180,40.527,26.367,33.691,0
1580492775.751,43.457,38.574,41.016,29.785,88.867,0
1580492775.755,26.367,41.016,38.574,33.691,119.141,0
1580492775.759,33.203,40.039,36.133,42.480,112.793,0
1580492775.763,44.434,36.133,37.109,37.109,24.902,0
1580492775.766,35.645,33.691,37.598,37.109,3.418,0
1580492775.770,17.578,34.668,35.645,42.969,48.828,0
1580492775.774,16.602,32.715,37.109,44.434,65.918,0
1580492775.778,35.645,32.715,38.086,43.945,100.098,0
1580492775.782,36.621,35.156,33.691,33.691,72.754,0
1580492775.779,17.578,37.598,33.203,31.250,22.949,0
1580492775.783,10.254,38.086,32.715,29.785,-10.742,0
1580492775.787,28.809,36.621,28.320,31.250,4.395,0
1580492775.791,45.410,37.109,23.926,32.227,5.859,0
1580492775.795,31.738,40.039,25.391,35.156,0.977,0
1580492775.799,15.137,39.062,30.762,35.156,30.762,0
1580492775.803,27.832,38.086,30.273,28.320,37.598,0
1580492775.806,46.875,37.109,29.785,26.367,8.789,0
1580492775.810,34.668,33.691,38.086,21.484,-21.973,0
1580492775.814,15.137,35.645,47.363,18.066,14.160,0
1580492775.818,18.555,38.086,38.086,8.789,62.988,0
1580492775.822,36.621,35.156,27.344,6.836,40.039,0
1580492775.840,38.574,35.645,34.668,15.625,1.953,0
1580492775.844,22.461,40.039,39.551,15.625,0.000,0
1580492775.848,22.461,41.992,44.922,10.254,-24.414,0
1580492775.852,44.434,39.551,44.434,13.184,8.789,0
1580492775.856,51.758,39.062,41.504,27.832,96.191,0
1580492775.860,27.832,42.969,40.039,33.691,27.832,0
1580492775.864,8.789,42.969,38.086,33.203,18.555,0
1580492775.867,19.531,39.062,37.109,34.180,4.395,0
1580492775.871,37.109,35.645,32.715,33.203,-8.789,0
1580492775.875,25.391,38.086,34.668,35.156,93.262,0
1580492775.879,8.301,41.992,41.992,42.480,4.395,0
1580492775.883,22.949,39.062,39.551,40.039,6.348,0
1580492775.879,43.457,38.086,35.645,41.504,97.168,0
1580492775.883,39.062,41.016,37.598,44.434,79.102,0
1580492775.887,19.531,40.527,38.574,42.480,71.777,0
1580492775.891,20.996,40.527,37.598,41.992,33.203,0
1580492775.895,39.551,40.527,41.992,34.668,5.859,0
1580492775.899,38.574,37.109,43.457,32.715,19.531,0
1580492775.903,16.602,38.086,42.969,34.180,22.461,0
1580492775.906,9.766,39.551,39.062,26.367,64.941,0
1580492775.910,27.344,36.133,32.715,20.508,55.176,0
1580492775.914,36.621,34.180,40.527,21.973,-21.973,0
1580492775.918,25.879,37.598,50.293,23.926,-15.137,0
1580492775.922,14.160,42.480,45.410,22.461,26.855,0
1580492775.922,22.461,39.551,37.598,19.043,21.973,0
1580492775.926,38.086,36.133,38.086,24.414,69.824,0
1580492775.930,29.297,40.039,43.457,26.855,77.637,0
1580492775.934,10.254,41.504,42.480,26.367,40.039,0
1580492775.938,14.648,40.039,40.527,30.273,69.824,0
1580492775.942,34.180,39.551,38.574,28.809,82.031,0
1580492775.946,35.645,40.039,28.809,21.973,52.246,0
1580492775.949,13.184,40.039,30.762,20.508,70.801,0
1580492775.953,12.207,38.574,32.715,27.344,66.895,0
1580492775.957,38.086,35.645,34.668,33.691,14.160,0
1580492775.961,42.480,33.203,38.574,30.762,24.902,0
1580492775.965,24.902,36.621,34.180,32.227,46.875,0
1580492775.959,17.090,36.621,35.156,35.645,21.973,0
1580492775.963,30.762,34.180,34.668,32.715,43.945,0
1580492775.967,40.527,34.668,32.227,27.832,83.008,0
1580492775.971,23.438,34.668,36.133,29.785,99.609,0
1580492775.975,10.742,36.621,35.156,35.156,77.148,0
1580492775.979,27.832,38.086,31.250,29.297,-22.949,0
1580492775.983,45.410,38.086,33.203,24.414,-40.527,0
1580492775.986,35.156,37.598,39.551,29.297,-25.391,0
1580492775.990,16.113,37.598,38.574,23.926,-6.348,0
1580492775.994,18.555,36.621,28.809,20.508,23.438,0
1580492775.998,34.180,34.180,31.250,28.809,14.648,0
1580492776.002,35.156,36.133,33.203,28.320,2.930,0
1580492776.020,16.113,40.527,28.809,23.438,3.418,0
1580492776.024,11.230,39.062,30.762,24.902,44.434,0
1580492776.028,30.762,37.598,29.297,21.973,39.062,0
1580492776.032,41.016,37.598,30.273,23.926,22.461,0
1580492776.036,30.273,40.039,33.691,38.574,52.246,0
1580492776.040,21.973,41.504,34.180,43.945,74.707,0
1580492776.044,41.992,38.574,30.273,41.504,32.715,0
1580492776.047,57.129,33.691,30.273,39.062,-27.832,0
1580492776.051,41.992,31.250,32.715,41.016,-27.832,0
1580492776.055,22.949,32.715,30.273,38.574,-63.477,0
1580492776.059,30.762,31.250,26.855,37.598,-55.664,0
1580492776.063,48.340,29.785,22.949,38.086,9.766,0
1580492776.063,37.109,30.762,21.973,28.809,2.441,0
1580492776.067,16.602,32.715,29.297,21.973,-4.395,0
1580492776.071,18.555,33.203,29.785,18.555,54.688,0
1580492776.075,35.645,30.762,28.809,17.090,34.668,0
1580492776.079,36.621,32.227,32.715,18.555,48.340,0
1580492776.083,19.531,38.086,34.668,20.508,94.727,0
1580492776.087,14.160,38.086,31.738,17.090,12.207,3
1580492776.090,30.762,33.691,29.297,10.742,-38.086,0
1580492776.094,39.062,35.645,27.344,12.207,0.488,0
1580492776.098,22.949,39.062,30.762,13.672,24.414,0
1580492776.102,7.812,41.016,30.273,14.648,20.508,0
1580492776.106,22.949,40.527,26.855,11.719,29.785,0
1580492776.099,37.109,35.156,29.785,9.277,66.406,0
1580492776.103,20.996,34.668,28.320,10.254,34.668,0
1580492776.107,1.465,37.598,29.785,14.160,6.836,0
1580492776.111,14.160,35.156,30.762,20.020,-8.301,0
1580492776.115,38.086,33.691,30.762,26.367,10.254,0
1580492776.119,36.133,35.645,35.156,35.645,34.180,0
1580492776.123,16.602,35.156,36.133,44.434,41.016,0
1580492776.126,24.902,31.738,36.621,42.480,78.613,0
1580492776.130,50.781,28.809,37.598,37.598,75.684,0
1580492776.134,49.805,31.250,40.039,44.922,22.949,0
1580492776.138,32.715,36.621,41.992,47.363,47.363,0
1580492776.142,30.273,37.598,37.598,40.039,17.090,0
1580492776.159,43.945,36.133,35.645,33.691,12.207,0
1580492776.163,48.340,35.156,38.086,30.762,73.242,0
1580492776.167,30.762,36.133,42.969,29.297,79.590,0
1580492776.171,15.137,39.062,37.109,25.879,39.551,0
1580492776.175,24.902,37.598,32.715,20.508,2.441,0
1580492776.179,38.574,33.691,37.109,20.020,30.762,0
1580492776.183,28.809,34.180,39.551,20.996,47.852,0
1580492776.186,10.254,35.156,40.527,23.926,35.645,0
1580492776.190,18.555,35.645,38.574,26.367,14.648,0
1580492776.194,39.551,34.668,37.598,16.602,24.414,0
1580492776.198,34.180,34.668,34.668,13.672,46.875,0
1580492776.202,13.184,38.086,35.645,18.066,76.660,0
1580492776.199,12.207,36.133,35.645,12.695,43.945,0
1580492776.203,28.809,32.715,33.691,7.812,26.855,0
1580492776.207,23.926,29.297,35.156,8.789,68.848,0
1580492776.211,-0.488,28.809,36.621,15.625,0.977,0
1580492776.215,-4.883,29.785,36.133,21.484,-20.508,0
1580492776.219,18.066,29.785,34.180,24.902,-4.395,0
1580492776.223,32.715,31.250,34.180,26.367,-6.836,0
1580492776.226,17.090,31.738,37.109,25.879,22.949,0
1580492776.230,3.906,32.715,38.574,30.273,-9.277,0
1580492776.234,17.090,32.227,37.109,30.762,10.254,0
1580492776.238,32.715,29.297,38.574,24.414,37.598,0
1580492776.242,23.438,29.297,40.039,25.879,20.996,0
1580492776.239,7.324,30.273,39.551,29.785,28.320,0
1580492776.243,14.160,28.809,40.527,35.156,31.250,0
1580492776.247,38.574,29.785,38.574,34.180,56.641,0
1580492776.251,42.969,30.762,37.598,30.273,89.844,0
1580492776.255,23.438,32.227,41.016,29.785,24.902,0
1580492776.259,16.602,31.250,39.551,21.484,28.809,0
1580492776.263,34.668,28.809,34.668,22.949,43.457,0
1580492776.266,39.551,30.273,31.250,27.832,80.078,0
1580492776.270,23.926,32.715,30.762,24.414,107.422,0
1580492776.274,12.695,32.227,29.785,21.973,62.500,0
1580492776.278,26.367,31.738,29.297,16.113,6.348,0
1580492776.282,41.992,32.715,34.668,15.137,-16.113,0
1580492776.299,28.809,37.598,40.039,20.996,41.016,0
1580492776.303,15.625,41.016,41.016,19.043,64.941,0
1580492776.307,25.391,37.109,36.133,11.719,35.156,0
1580492776.311,40.527,35.156,33.203,11.719,77.148,0
1580492776.315,27.344,37.109,37.109,11.719,45.410,0
1580492776.319,6.348,39.062,40.527,13.672,3.906,0
1580492776.323,13.184,40.527,34.668,10.254,50.781,0
1580492776.326,29.297,37.598,26.855,3.906,67.871,0
1580492776.330,25.391,35.156,31.738,8.301,55.176,0
1580492776.334,7.324,37.598,34.668,9.766,26.367,0
1580492776.338,5.371,41.016,36.621,5.371,2.930,0
1580492776.342,24.902,40.039,38.086,2.930,14.648,0
1580492776.339,31.250,37.109,38.574,5.859,34.668,0
1580492776.343,16.113,37.598,37.109,16.113,5.371,0
1580492776.347,12.207,38.574,31.250,23.926,13.184,0
1580492776.351,26.367,36.621,33.691,23.926,20.996,0
1580492776.355,39.062,37.598,38.574,20.508,-7.324,0
1580492776.359,26.855,36.621,41.992,23.926,-6.836,0
1580492776.363,5.859,38.086,42.480,27.344,6.348,0
1580492776.366,18.555,41.504,33.203,25.879,14.160,0
1580492776.370,37.109,39.062,30.273,19.043,21.484,0
1580492776.374,27.832,39.062,38.086,20.020,61.035,0
1580492776.378,16.113,42.969,41.504,24.414,18.066,0
1580492776.382,23.438,41.504,40.039,24.414,-19.531,0
1580492776.379,40.527,36.133,36.621,27.832,19.531,0
1580492776.383,39.551,35.156,37.598,28.809,34.180,0
1580492776.387,16.602,37.109,40.039,21.973,11.719,0
1580492776.391,10.742,38.086,40.039,19.043,21.973,0
1580492776.395,28.320,35.156,36.133,23.926,8.301,0
1580492776.399,34.668,33.203,33.203,17.578,7.812,0
1580492776.403,14.648,36.621,33.691,15.625,10.254,0
1580492776.406,2.441,39.551,32.227,20.996,15.625,0
1580492776.410,20.508,38.574,31.250,13.184,41.992,0
1580492776.414,39.062,34.668,29.785,9.766,26.367,0
1580492776.418,31.738,37.598,29.785,17.578,64.941,0
1580492776.422,15.137,42.480,32.715,25.391,64.941,0
1580492776.439,21.484,41.992,30.762,27.344,36.621,0
1580492776.443,38.574,38.574,28.320,26.855,26.367,0
1580492776.447,32.227,35.156,30.762,25.879,18.066,0
1580492776.451,11.719,35.645,34.180,26.855,46.875,0
1580492776.455,13.184,35.156,35.645,37.109,77.148,0
1580492776.459,35.156,35.156,35.156,39.551,47.363,0
1580492776.463,34.180,39.062,33.691,30.273,59.570,0
1580492776.466,14.160,41.016,33.691,24.902,21.484,0
1580492776.470,4.395,40.527,35.645,24.902,0.000,0
1580492776.474,18.555,36.133,33.691,21.973,83.008,0
1580492776.478,37.598,33.203,30.762,19.531,79.590,0
1580492776.482,24.414,34.668,32.227,20.020,60.547,0
1580492776.479,9.766,38.086,36.621,21.484,72.754,0
1580492776.483,24.902,35.156,36.133,23.926,57.129,0
1580492776.487,42.480,30.273,38.086,20.508,28.809,0
1580492776.491,35.156,34.180,41.504,24.902,-21.484,0
1580492776.495,17.578,39.062,41.016,27.344,-18.066,0
1580492776.499,20.508,38.574,40.039,26.855,73.730,0
1580492776.503,41.992,36.621,37.598,25.879,60.547,0
1580492776.506,44.434,36.621,34.180,24.902,-12.207,0
1580492776.510,23.926,37.598,35.645,28.320,-24.414,0
1580492776.514,20.020,37.109,36.133,25.391,-15.137,0
1580492776.518,38.086,35.645,32.715,26.367,1.953,0
1580492776.522,39.551,32.715,35.645,33.691,5.371,0
1580492776.519,17.578,32.227,39.551,29.297,-14.160,0
1580492776.523,6.348,33.203,39.062,23.926,4.395,0
1580492776.527,21.484,33.203,32.227,21.484,59.570,0
1580492776.531,33.203,33.203,33.203,17.090,60.059,0
1580492776.535,16.113,34.180,34.668,20.508,50.781,0
1580492776.539,-1.465,36.133,35.156,17.578,22.461,0
1580492776.543,12.207,31.250,36.133,16.113,46.387,0
1580492776.546,28.809,28.320,35.645,16.113,69.824,0
1580492776.550,20.020,34.180,34.668,12.695,33.203,0
1580492776.554,4.395,37.598,33.203,22.461,77.148,0
1580492776.558,10.254,36.621,36.133,29.297,108.887,0
1580492776.562,30.273,34.180,37.598,27.832,27.344,0
1580492776.579,31.738,31.250,39.062,27.832,-17.578,0
1580492776.583,17.578,33.691,43.457,28.320,-0.488,0
1580492776.587,18.555,35.645,41.992,30.273,1.465,0
1580492776.591,35.645,32.227,37.109,27.832,42.480,0
1580492776.595,41.016,32.227,37.598,24.414,78.613,0
1580492776.599,24.414,35.156,40.039,26.855,72.754,0
1580492776.603,10.254,32.715,37.109,29.785,48.828,0
1580492776.606,25.879,31.738,34.668,28.320,59.570,0
1580492776.610,43.945,33.203,36.133,22.949,-3.418,0
1580492776.614,31.738,33.203,32.227,27.832,34.180,0
1580492776.618,13.672,31.738,32.227,29.297,54.199,0
1580492776.622,25.879,32.227,32.227,27.344,-25.391,0
1580492776.619,42.969,29.785,29.297,28.809,7.812,0
1580492776.623,34.668,27.832,29.297,30.273,14.160,0
1580492776.627,17.578,31.250,32.715,32.227,-0.977,0
1580492776.631,24.902,34.668,34.180,31.738,18.066,0
1580492776.635,44.922,32.227,28.809,30.273,14.160,0
1580492776.639,47.363,34.180,26.367,27.832,36.133,0
1580492776.643,34.180,36.133,29.785,31.250,27.832,0
1580492776.646,29.785,33.691,34.668,32.227,-2.441,0
1580492776.650,49.805,34.180,37.598,30.273,11.719,0
1580492776.654,54.688,34.668,32.715,26.367,27.344,0
1580492776.658,26.855,35.156,31.738,26.855,18.555,0
1580492776.662,10.742,35.645,37.598,28.809,4.395,0
1580492776.660,23.926,34.180,38.086,29.785,32.715,0
1580492776.664,36.133,30.273,36.621,30.762,8.789,0
1580492776.668,21.973,29.297,39.062,36.621,61.035,0
1580492776.672,5.859,29.785,40.039,32.715,99.609,0
1580492776.676,16.602,29.785,38.086,25.879,54.199,0
1580492776.680,37.109,30.273,36.621,30.762,25.879,0
1580492776.684,33.691,31.738,36.133,37.109,-1.953,0
1580492776.687,15.137,31.250,37.598,34.180,17.578,0
1580492776.691,16.113,27.344,37.598,27.344,-7.812,0
1580492776.695,44.434,28.320,32.715,27.344,6.348,0
1580492776.699,56.641,33.691,33.691,36.621,-8.301,0
1580492776.703,31.738,36.621,43.457,40.039,4.883,0
1580492776.719,16.113,36.133,45.898,35.156,38.086,0
1580492776.723,33.203,30.273,41.992,27.832,30.273,0
1580492776.727,40.039,30.273,41.504,27.832,-8.301,0
1580492776.731,16.602,30.273,45.410,24.414,-3.418,0
1580492776.735,0.488,28.320,45.898,20.508,57.129,0
1580492776.739,10.742,30.273,43.457,16.113,64.453,0
1580492776.743,28.809,31.738,40.527,16.113,64.941,0
1580492776.746,25.879,32.227,40.527,19.043,67.383,0
1580492776.750,11.230,29.785,41.016,20.020,83.008,0
1580492776.754,20.508,27.832,39.551,27.832,69.336,0
1580492776.758,42.480,27.344,40.039,32.227,15.625,0
1580492776.762,41.504,26.855,40.527,30.762,46.875,0
1580492776.760,20.996,28.320,41.016,30.273,146.484,0
1580492776.764,17.090,29.297,41.992,29.785,117.676,0
1580492776.768,36.133,30.762,39.551,26.367,74.707,0
1580492776.772,42.480,32.715,39.551,30.762,35.156,0
1580492776.776,26.367,33.203,37.109,36.621,16.602,0
1580492776.780,17.578,33.691,39.062,40.039,74.707,0
1580492776.784,32.227,31.250,38.086,41.504,34.180,0
1580492776.787,41.016,27.832,33.691,37.109,-6.836,0
1580492776.791,27.344,31.250,37.598,31.738,31.738,0
1580492776.795,12.207,32.227,37.598,27.832,61.523,0
1580492776.799,20.996,26.855,32.227,28.809,8.789,0
1580492776.803,44.922,27.344,27.344,28.320,-74.707,0
1580492776.799,41.016,28.809,22.949,26.855,-1.953,0
1580492776.803,22.949,29.785,26.855,32.715,71.777,0
1580492776.807,28.320,30.762,36.133,32.715,57.617,0
1580492776.811,49.316,26.855,34.180,27.344,81.055,0
1580492776.815,56.641,27.344,35.645,28.809,38.086,0
1580492776.819,38.086,32.715,38.086,29.297,-5.371,0
1580492776.823,28.320,34.668,37.109,32.227,42.480,0
1580492776.826,47.852,34.180,34.668,29.297,58.594,0
1580492776.830,56.641,34.180,33.203,28.320,42.969,0
1580492776.834,35.156,34.668,33.691,33.691,53.223,0
1580492776.838,16.602,36.621,34.180,28.320,3.418,0
1580492776.842,30.762,35.645,28.320,27.832,17.090,0
1580492776.860,48.340,31.738,26.855,27.344,38.086,0
1580492776.864,29.297,32.715,35.645,19.043,15.625,0
1580492776.868,5.859,33.691,39.062,20.996,44.434,0
1580492776.872,13.672,33.203,34.668,22.949,78.613,0
1580492776.876,33.691,34.668,32.227,20.020,38.574,0
1580492776.880,27.344,34.180,31.738,18.066,46.875,0
1580492776.884,8.301,34.668,31.738,22.949,49.805,0
1580492776.887,12.695,31.250,30.273,26.855,28.320,0
1580492776.891,36.621,32.715,31.738,29.297,71.777,0
1580492776.895,37.109,36.133,35.156,33.203,26.855,0
1580492776.899,18.066,33.691,35.645,28.320,-11.719,0
1580492776.903,11.230,32.715,35.645,25.391,23.438,0
1580492776.899,27.344,33.203,36.133,29.785,-14.648,0
1580492776.903,35.156,31.250,31.738,29.297,-1.953,0
1580492776.907,16.602,28.809,31.738,30.762,65.430,0
1580492776.911,5.371,31.738,34.180,30.273,48.828,0
1580492776.915,15.137,28.809,30.762,23.438,35.645,0
1580492776.919,37.109,25.391,29.785,27.832,10.254,0
1580492776.923,34.668,29.785,33.691,34.180,-30.273,0
1580492776.926,15.137,30.762,34.668,31.250,9.766,0
1580492776.930,21.484,30.273,30.273,24.414,41.016,0
1580492776.934,40.039,31.738,28.320,19.043,13.184,0
1580492776.938,36.133,34.180,33.691,25.391,15.625,0
1580492776.942,17.578,40.039,37.109,31.250,52.246,0
1580492776.962,20.996,41.504,33.691,26.855,17.090,0
1580492776.966,41.992,38.574,33.691,25.391,33.691,0
1580492776.970,41.016,36.133,37.109,31.250,76.172,0
1580492776.974,14.648,34.668,37.109,27.344,71.289,0
1580492776.978,4.395,30.762,35.156,22.461,66.406,0
1580492776.982,20.508,30.273,35.156,25.879,1.465,0
1580492776.986,30.762,33.203,36.621,20.508,-0.488,0
1580492776.989,15.137,35.156,34.180,14.648,66.895,0
1580492776.993,-0.977,32.715,33.203,19.531,23.926,0
1580492776.997,14.648,29.785,31.250,20.508,-6.348,0
1580492777.001,36.133,30.762,23.438,24.414,22.461,0
1580492777.005,30.273,32.227,28.320,30.762,55.664,0
1580492776.999,12.207,31.250,36.133,27.832,57.617,0
1580492777.003,16.113,30.762,34.180,29.297,53.711,0
1580492777.007,34.180,29.297,33.691,31.250,53.711,0
1580492777.011,26.367,27.832,32.715,25.879,65.918,0
1580492777.015,4.395,30.762,35.645,29.297,65.430,0
1580492777.019,4.395,36.133,40.039,32.715,25.879,0
1580492777.023,21.484,34.668,35.156,24.414,18.555,0
1580492777.026,26.367,31.738,31.738,21.973,56.152,0
1580492777.030,10.254,32.715,32.715,20.508,36.621,0
1580492777.034,-0.488,30.762,33.203,16.602,14.160,0
1580492777.038,15.625,29.297,34.180,9.766,14.160,0
1580492777.042,28.320,29.297,32.715,4.395,49.316,0
1580492777.059,17.090,31.250,32.715,14.160,44.434,0
1580492777.063,11.230,32.227,28.809,21.973,-15.137,0
1580492777.067,29.785,30.762,26.367,23.926,4.883,0
1580492777.071,53.711,32.715,30.273,27.344,10.742,0
1580492777.075,50.293,38.574,35.156,34.668,-10.742,0
1580492777.079,25.391,38.086,37.109,39.062,46.875,0
1580492777.083,24.414,32.715,34.180,35.156,77.148,0
1580492777.086,46.387,31.738,34.668,29.785,11.719,0
1580492777.090,43.945,36.133,37.109,28.809,15.137,0
1580492777.094,23.438,39.062,35.156,28.320,4.395,0
1580492777.098,22.461,35.156,33.691,24.414,7.324,0
1580492777.102,41.992,35.156,33.691,20.508,3.418,0
1580492777.081,51.758,38.086,35.156,25.879,-12.695,0
1580492777.085,35.156,39.551,38.574,30.273,54.199,0
1580492777.089,21.973,38.086,36.621,27.344,39.551,0
1580492777.093,33.203,34.668,33.691,27.344,-31.738,0
1580492777.097,48.828,33.691,31.738,34.180,17.578,0
1580492777.101,41.016,37.598,32.715,35.645,41.016,0
1580492777.105,19.531,37.598,40.039,31.738,44.434,0
1580492777.108,23.438,33.691,42.969,30.273,68.848,0
1580492777.112,40.527,31.250,41.016,27.832,20.020,0
1580492777.116,34.180,30.273,39.551,26.367,48.340,0
1580492777.120,17.578,34.180,39.551,26.855,94.238,0
1580492777.124,19.531,39.551,37.598,30.273,76.172,0
1580492777.139,38.574,39.551,35.645,24.414,44.434,0
1580492777.143,43.457,36.133,37.109,27.344,34.180,0
1580492777.147,22.949,39.062,37.109,32.715,14.648,0
1580492777.151,13.672,40.039,36.133,25.391,39.551,0
1580492777.155,35.156,38.086,32.715,28.320,65.430,0
1580492777.159,46.387,36.621,30.273,23.926,66.895,0
1580492777.163,24.414,39.551,38.086,20.508,38.574,0
1580492777.166,11.230,39.062,41.992,33.691,13.672,0
