timestamps,TP9,AF7,AF8,TP10,Right AUX,Marker0
1579288660.671,-64.453,20.020,12.695,-131.836,-143.555,0
1579288660.675,-60.547,19.043,23.926,-84.473,-150.879,0
1579288660.679,-41.992,39.062,30.273,-82.520,-160.156,0
1579288660.683,-53.223,31.250,15.625,-171.875,-179.688,0
1579288660.687,-53.223,17.578,14.160,-219.727,-202.148,0
1579288660.691,-46.875,7.324,20.996,-165.527,-185.059,0
1579288660.695,-62.012,4.883,18.066,-155.762,-209.961,0
1579288660.698,-57.617,7.812,15.625,-215.820,-259.766,0
1579288660.702,-52.246,7.324,24.414,-251.465,-254.395,0
1579288660.706,-33.203,12.207,35.156,-180.664,-253.418,0
1579288660.710,-11.230,33.203,32.715,-100.586,-226.562,0
1579288660.714,-28.320,28.320,20.508,-143.066,-243.164,0
1579288660.711,-41.504,31.738,21.484,-199.707,-272.949,0
1579288660.715,-34.668,24.902,24.902,-171.387,-239.746,0
1579288660.719,-29.297,-2.930,29.297,-119.629,-240.723,0
1579288660.723,-37.109,14.648,25.879,-135.254,-253.418,0
1579288660.727,-55.176,27.344,15.625,-213.379,-271.484,0
1579288660.731,-59.570,24.414,15.137,-220.215,-291.016,0
1579288660.735,-56.641,26.855,18.066,-144.043,-287.109,0
1579288660.738,-52.734,21.484,27.344,-118.164,-274.902,0
1579288660.742,-35.156,31.250,32.227,-168.945,-242.188,0
1579288660.746,-30.762,27.832,21.973,-208.984,-268.555,0
1579288660.750,-29.297,18.555,13.672,-155.762,-295.898,0
1579288660.754,-15.137,20.508,21.973,-105.957,-257.812,0
1579288660.751,-5.371,9.766,30.273,-141.602,-274.902,0
1579288660.755,-0.977,21.484,26.855,-191.406,-321.777,0
1579288660.759,7.324,37.109,30.273,-151.855,-355.469,0
1579288660.763,10.254,15.137,27.832,-69.336,-343.262,0
1579288660.767,3.906,16.602,22.461,-78.125,-317.871,0
1579288660.771,-8.301,29.297,18.066,-135.254,-333.496,0
1579288660.775,0.488,17.090,21.484,-111.816,-340.332,0
1579288660.778,16.602,17.578,23.926,-34.180,-321.777,0
1579288660.782,20.020,24.902,17.090,-26.855,-337.891,0
1579288660.786,20.996,28.320,18.555,-89.355,-341.309,0
1579288660.790,19.043,25.391,17.090,-94.238,-339.844,0
1579288660.794,24.414,22.949,18.066,-30.762,-345.215,0
1579288660.811,25.391,31.250,18.066,-16.113,-341.309,0
1579288660.815,17.090,36.133,14.160,-73.730,-358.887,0
1579288660.819,19.043,36.621,17.578,-115.723,-352.539,0
1579288660.823,25.391,27.832,23.438,-66.406,-343.262,0
1579288660.827,36.133,23.438,27.832,-24.902,-321.289,0
1579288660.831,38.574,26.367,18.066,-75.684,-318.848,0
1579288660.835,32.227,20.508,12.207,-120.117,-329.102,0
1579288660.838,29.785,18.066,21.973,-84.473,-340.820,0
1579288660.842,44.434,23.438,27.832,-19.531,-332.520,0
1579288660.846,59.082,31.738,23.926,-55.176,-330.566,0
1579288660.850,45.898,29.297,16.113,-140.137,-350.586,0
1579288660.854,31.250,25.391,14.648,-130.859,-362.793,0
1579288660.851,35.156,16.602,24.902,-68.359,-349.121,0
1579288660.855,33.203,22.461,27.344,-58.594,-335.938,0
1579288660.859,33.691,36.621,21.484,-127.441,-343.262,0
1579288660.863,25.879,32.227,12.695,-146.973,-355.469,0
1579288660.867,18.555,18.066,14.160,-57.617,-369.629,0
1579288660.871,27.344,14.160,23.438,-15.625,-341.309,0
1579288660.875,29.785,25.879,28.320,-55.176,-337.402,0
1579288660.878,38.086,21.973,25.391,-90.332,-355.469,0
1579288660.882,41.504,12.207,14.160,-36.621,-312.012,0
1579288660.886,33.691,13.184,13.672,28.809,-314.453,0
1579288660.890,20.020,7.812,19.043,-21.973,-321.777,0
1579288660.894,12.695,12.695,19.531,-84.961,-313.477,0
1579288660.891,17.578,32.715,19.043,-65.430,-328.125,0
1579288660.895,6.836,37.109,19.043,-25.879,-335.449,0
1579288660.899,0.000,29.785,11.230,-47.852,-351.562,0
1579288660.903,0.488,19.531,13.672,-123.535,-332.031,0
1579288660.907,-1.953,23.926,12.695,-122.559,-342.773,0
1579288660.911,-12.207,12.207,10.254,-52.734,-337.891,0
1579288660.915,-20.996,5.859,19.043,-60.547,-316.895,0
1579288660.918,-17.090,36.621,16.113,-123.535,-358.398,0
1579288660.922,-28.320,40.527,13.184,-147.461,-385.254,0
1579288660.926,-21.973,43.945,18.555,-79.102,-341.797,0
1579288660.930,-2.930,41.504,20.020,-36.133,-319.824,0
1579288660.934,-2.441,30.762,12.695,-82.520,-320.801,0
1579288660.952,4.883,26.367,8.301,-102.051,-310.059,0
1579288660.956,10.254,20.508,12.207,-57.617,-315.430,0
1579288660.960,8.301,23.438,14.160,-17.578,-305.176,0
1579288660.964,29.785,16.113,14.648,-41.016,-276.367,0
1579288660.968,39.551,18.555,17.578,-78.125,-276.855,0
1579288660.972,24.414,30.762,15.137,-65.430,-298.340,0
1579288660.976,32.715,38.086,19.043,-13.184,-287.598,0
1579288660.979,40.527,35.645,14.160,-19.043,-290.527,0
1579288660.983,19.043,21.973,9.766,-100.098,-301.270,0
1579288660.987,20.020,22.949,18.066,-107.910,-290.039,0
1579288660.991,31.738,16.602,18.066,-27.344,-276.855,0
1579288660.995,34.668,16.113,13.184,-14.648,-281.250,0
1579288660.991,40.527,16.113,16.113,-81.055,-297.363,0
1579288660.995,45.898,13.184,13.184,-109.863,-286.621,0
1579288660.999,51.270,35.156,7.324,-55.664,-261.719,0
1579288661.003,53.711,38.086,8.301,-5.371,-256.836,0
1579288661.007,58.105,29.297,6.348,-45.898,-277.832,0
1579288661.011,63.965,26.855,4.883,-95.215,-288.574,0
1579288661.015,62.500,24.414,12.207,-66.895,-282.715,0
1579288661.018,64.453,27.832,16.602,-13.184,-291.992,0
1579288661.022,59.570,25.879,16.113,-29.785,-297.852,0
1579288661.026,45.898,9.277,14.648,-94.727,-345.215,0
1579288661.030,50.293,5.371,18.066,-89.844,-358.398,0
1579288661.034,52.246,3.906,19.531,-28.320,-313.965,0
1579288661.032,44.922,-15.137,17.090,-33.691,-292.969,0
1579288661.036,35.645,-4.883,20.020,-109.375,-288.086,0
1579288661.040,24.902,14.648,17.090,-130.371,-313.965,0
1579288661.044,27.344,20.508,16.113,-62.012,-319.336,0
1579288661.048,28.809,20.508,17.578,-43.457,-317.871,0
1579288661.052,25.391,18.066,13.672,-93.262,-342.285,0
1579288661.056,32.715,16.602,20.996,-101.562,-316.895,0
1579288661.059,31.738,20.020,20.508,-51.270,-330.566,0
1579288661.063,23.926,16.113,21.973,0.977,-329.590,0
1579288661.067,40.039,3.418,28.320,-37.598,-286.133,0
1579288661.071,41.504,26.855,24.902,-97.168,-307.129,0
1579288661.075,28.809,29.785,21.973,-59.570,-314.941,0
1579288661.091,27.344,22.461,17.090,-7.324,-299.805,0
1579288661.095,22.949,36.133,19.531,-39.551,-311.523,0
1579288661.099,14.648,32.227,20.020,-121.094,-356.934,0
1579288661.103,15.137,23.926,15.137,-117.188,-396.484,0
1579288661.107,15.625,21.484,16.113,-50.781,-403.320,0
1579288661.111,7.324,17.090,15.625,-42.480,-404.297,0
1579288661.115,9.766,18.066,18.555,-105.957,-430.176,0
1579288661.118,18.555,22.461,27.344,-139.160,-430.664,0
1579288661.122,27.832,22.949,28.320,-63.477,-389.648,0
1579288661.126,29.785,27.832,28.809,-21.484,-340.332,0
1579288661.130,18.066,25.391,23.926,-92.773,-376.953,0
1579288661.134,6.348,14.160,20.996,-137.207,-433.105,0
1579288661.131,2.930,11.230,24.902,-92.773,-426.758,0
1579288661.135,9.277,27.344,20.996,-43.945,-406.250,0
1579288661.139,6.836,35.156,19.531,-80.566,-396.484,0
1579288661.143,-4.395,28.320,14.648,-156.250,-411.133,0
1579288661.147,-1.465,22.949,10.254,-137.695,-397.949,0
1579288661.151,1.953,10.254,19.043,-84.961,-408.203,0
1579288661.155,4.395,6.836,21.484,-109.863,-431.152,0
1579288661.158,6.348,20.508,17.578,-188.477,-447.266,0
1579288661.162,15.137,26.855,15.625,-196.289,-469.727,0
1579288661.166,24.902,7.812,11.719,-127.930,-479.980,0
1579288661.170,29.785,7.812,17.090,-118.652,-441.406,0
1579288661.174,39.062,22.949,18.555,-166.504,-439.941,0
1579288661.172,42.969,18.555,12.695,-183.105,-459.961,0
1579288661.176,47.363,18.555,7.324,-111.328,-438.477,0
1579288661.180,59.082,25.391,6.836,-54.688,-441.895,0
1579288661.184,51.270,20.996,18.555,-97.168,-449.219,0
1579288661.188,27.832,12.695,25.391,-138.184,-474.609,0
1579288661.192,25.391,13.184,24.902,-83.984,-478.516,0
1579288661.196,37.109,15.137,32.715,-7.812,-431.152,0
1579288661.199,32.715,2.930,34.668,-18.555,-441.406,0
1579288661.203,24.902,-12.695,35.156,-76.660,-467.773,0
1579288661.207,37.598,-2.930,40.527,-27.344,-449.707,0
1579288661.211,29.785,6.836,44.922,57.617,-424.316,0
1579288661.215,10.254,11.719,48.828,45.898,-391.113,0
1579288661.232,15.625,19.043,50.781,-12.207,-416.992,0
1579288661.236,9.277,25.391,38.574,-14.160,-430.664,0
1579288661.240,-1.953,21.484,33.203,56.152,-401.855,0
1579288661.244,-0.488,5.859,33.691,75.195,-403.809,0
1579288661.248,-5.859,12.207,29.785,27.832,-369.141,0
1579288661.252,-13.184,16.602,26.367,-2.930,-382.324,0
1579288661.256,-4.883,12.695,32.227,42.480,-393.066,0
1579288661.259,5.371,17.090,35.156,91.309,-352.051,0
1579288661.263,3.418,24.902,34.180,44.434,-355.957,0
1579288661.267,2.930,26.367,38.086,-6.836,-357.422,0
1579288661.271,11.230,16.602,30.762,42.969,-354.980,0
1579288661.275,20.020,11.230,24.414,110.840,-353.027,0
1579288661.272,19.043,9.766,28.320,101.562,-355.957,0
1579288661.276,11.719,-0.977,26.855,45.898,-366.211,0
1579288661.280,26.855,4.395,31.738,79.590,-346.191,0
1579288661.284,49.316,14.160,34.180,160.645,-318.359,0
1579288661.288,47.852,8.789,27.832,146.973,-321.777,0
1579288661.292,48.340,3.906,21.484,85.938,-325.195,0
1579288661.296,50.781,11.719,19.531,82.031,-327.637,0
1579288661.299,51.758,24.902,31.738,150.391,-308.594,0
1579288661.303,56.152,6.348,32.227,181.641,-272.461,0
1579288661.307,55.664,9.277,25.879,120.117,-290.039,0
1579288661.311,59.082,35.645,27.832,89.844,-299.316,0
1579288661.315,59.082,34.180,30.762,149.414,-283.203,0
1579288661.311,59.570,23.438,31.738,190.918,-287.109,0
1579288661.315,55.664,17.090,28.320,141.113,-297.363,0
1579288661.319,50.781,15.625,24.902,76.172,-311.035,0
1579288661.323,62.500,14.160,26.367,122.070,-303.223,0
1579288661.327,63.477,12.207,28.320,196.777,-255.371,0
1579288661.331,44.922,19.043,26.855,166.016,-242.676,0
1579288661.335,28.320,19.043,26.367,38.574,-300.781,0
1579288661.338,20.996,14.648,26.367,16.113,-339.844,0
1579288661.342,31.250,28.809,29.297,114.258,-331.055,0
1579288661.346,40.527,34.180,29.785,132.812,-285.156,0
1579288661.350,38.574,37.598,24.414,73.730,-276.367,0
1579288661.354,29.785,42.480,25.879,52.734,-282.715,0
1579288661.371,32.227,39.062,34.668,135.742,-254.883,0
1579288661.375,39.551,32.715,38.574,168.457,-248.535,0
1579288661.379,28.320,13.184,30.273,86.426,-254.883,0
1579288661.383,22.949,7.324,25.879,43.457,-270.508,0
1579288661.387,21.484,14.648,22.461,74.219,-266.113,0
1579288661.391,17.090,21.484,19.043,111.816,-265.137,0
1579288661.395,20.020,27.344,19.043,90.332,-258.789,0
1579288661.398,24.414,17.578,26.855,25.879,-281.738,0
1579288661.402,29.785,22.461,26.855,57.617,-286.621,0
1579288661.406,39.062,43.457,22.461,121.094,-239.746,0
1579288661.410,29.785,37.598,12.207,103.027,-243.652,0
1579288661.414,20.508,32.715,15.137,55.176,-254.395,0
1579288661.412,29.297,36.133,26.855,73.242,-265.137,0
1579288661.416,45.410,29.297,28.320,172.363,-255.371,0
1579288661.420,56.152,34.668,31.250,187.012,-208.496,0
1579288661.424,61.035,37.109,27.832,132.812,-181.641,0
1579288661.428,69.824,22.949,28.809,138.672,-187.012,0
1579288661.432,68.359,6.836,28.809,196.777,-203.125,0
1579288661.436,63.965,19.043,28.809,247.070,-157.227,0
1579288661.439,61.035,32.227,33.203,179.199,-158.203,0
1579288661.443,44.922,20.508,25.879,112.793,-192.871,0
1579288661.447,34.668,20.996,23.926,164.551,-194.336,0
1579288661.451,28.809,29.297,27.832,204.102,-188.965,0
1579288661.455,24.902,14.160,24.414,172.363,-154.785,0
1579288661.452,23.438,10.742,27.344,103.516,-141.113,0
1579288661.456,27.832,18.066,28.320,129.395,-144.043,0
1579288661.460,46.875,26.367,24.902,230.957,-138.672,0
1579288661.464,51.270,38.086,20.508,249.512,-139.648,0
1579288661.468,51.758,29.785,20.996,229.980,-117.676,0
1579288661.472,59.082,15.137,25.879,267.578,-91.309,0
1579288661.476,62.012,17.578,25.879,325.195,-95.215,0
1579288661.479,54.688,28.320,21.484,315.430,-124.512,0
1579288661.483,47.852,37.598,25.391,228.027,-119.629,0
1579288661.487,43.945,31.738,27.344,183.105,-115.723,0
1579288661.491,37.598,31.738,20.508,219.238,-92.285,0
1579288661.495,33.203,29.297,18.555,228.027,-89.844,0
1579288661.511,30.762,23.926,21.484,175.781,-121.582,0
1579288661.515,28.809,26.367,20.996,111.328,-131.348,0
1579288661.519,34.668,30.762,25.879,146.973,-123.535,0
1579288661.523,43.945,38.086,24.414,200.684,-105.469,0
1579288661.527,44.434,22.949,24.414,166.992,-135.254,0
1579288661.531,46.387,14.160,24.414,121.582,-147.461,0
1579288661.535,52.734,18.555,20.508,133.789,-142.090,0
1579288661.538,54.199,21.973,31.738,187.500,-107.910,0
1579288661.542,46.387,41.016,36.133,148.438,-78.613,0
1579288661.546,26.855,26.855,22.461,47.363,-140.137,0
1579288661.550,11.719,7.324,17.578,21.973,-192.383,0
1579288661.554,11.230,26.367,25.391,66.406,-171.875,0
1579288661.551,11.230,40.527,26.855,80.566,-149.414,0
1579288661.555,6.836,23.438,24.414,15.625,-149.414,0
1579288661.559,10.254,-5.371,24.414,-15.137,-164.551,0
1579288661.563,7.812,-1.953,22.461,38.086,-177.734,0
1579288661.567,5.859,13.672,22.949,76.660,-160.156,0
1579288661.571,17.090,16.602,24.414,44.434,-167.480,0
1579288661.575,13.672,20.508,21.484,-18.066,-180.176,0
1579288661.578,10.742,9.277,24.902,12.207,-182.129,0
1579288661.582,4.883,1.953,20.996,71.777,-190.918,0
1579288661.586,-10.254,22.949,22.461,35.156,-189.453,0
1579288661.590,-9.766,25.391,29.297,-31.250,-198.242,0
1579288661.594,-5.371,11.230,30.762,-30.762,-203.125,0
1579288661.611,3.906,12.695,32.227,49.805,-174.316,0
1579288661.615,8.789,6.836,28.809,61.035,-185.547,0
1579288661.619,11.719,21.484,26.367,-13.672,-208.008,0
1579288661.623,18.555,31.250,22.461,-32.715,-191.406,0
1579288661.627,20.996,16.113,18.066,20.508,-178.223,0
1579288661.631,23.438,19.043,19.531,54.688,-167.969,0
1579288661.635,17.090,26.855,18.066,6.348,-206.543,0
1579288661.638,16.602,33.203,21.973,-29.785,-216.797,0
1579288661.642,41.504,41.504,29.785,30.762,-195.312,0
1579288661.646,49.316,42.969,29.785,80.566,-185.059,0
1579288661.650,39.551,37.598,20.508,34.180,-184.570,0
1579288661.654,47.363,39.062,17.578,-10.254,-191.895,0
1579288661.651,59.570,33.203,17.090,25.879,-194.824,0
1579288661.655,63.477,26.855,17.578,84.473,-171.387,0
1579288661.659,59.082,30.273,18.555,68.359,-150.879,0
1579288661.663,58.594,31.250,23.926,10.254,-166.016,0
1579288661.667,53.223,30.762,20.508,18.066,-178.223,0
1579288661.671,55.176,22.949,19.043,77.637,-179.688,0
1579288661.675,58.594,10.742,22.461,82.031,-144.043,0
1579288661.678,56.152,10.254,14.160,9.277,-169.434,0
1579288661.682,47.852,24.414,20.020,-8.301,-191.406,0
1579288661.686,48.828,21.973,27.832,64.941,-173.340,0
1579288661.690,41.016,0.000,19.043,91.797,-181.152,0
1579288661.694,45.410,19.531,20.508,35.156,-185.059,0
1579288661.691,49.316,32.227,27.344,-2.441,-182.617,0
1579288661.695,33.203,29.785,24.414,55.176,-179.199,0
1579288661.699,41.992,21.973,25.879,113.770,-169.922,0
1579288661.703,44.922,8.789,24.902,90.820,-180.176,0
1579288661.707,44.434,36.621,25.391,42.480,-168.945,0
1579288661.711,45.898,45.898,20.020,48.828,-162.598,0
1579288661.715,40.039,32.715,19.043,108.887,-159.668,0
1579288661.718,39.551,42.480,26.367,108.398,-140.137,0
1579288661.722,39.551,41.016,19.531,42.480,-177.734,0
1579288661.726,38.574,35.645,14.160,40.527,-200.684,0
1579288661.730,40.527,42.969,21.973,107.910,-160.156,0
1579288661.734,42.969,31.738,20.996,122.559,-153.809,0
1579288661.751,47.852,11.719,21.973,74.707,-140.137,0
1579288661.755,51.270,17.578,20.996,55.664,-170.410,0
1579288661.759,52.246,47.363,13.672,103.516,-188.965,0
1579288661.763,53.223,53.711,11.719,138.184,-126.465,0
1579288661.767,45.898,36.133,5.859,98.633,-130.859,0
1579288661.771,50.781,25.879,2.441,71.289,-163.086,0
1579288661.775,72.754,32.227,6.836,143.066,-135.254,0
1579288661.778,73.242,35.156,5.859,198.242,-137.207,0
1579288661.782,73.242,35.156,5.371,162.598,-151.367,0
1579288661.786,76.172,28.320,9.766,116.699,-163.574,0
1579288661.790,63.965,33.691,14.160,130.859,-166.992,0
1579288661.794,59.570,20.996,10.742,181.641,-159.668,0
1579288661.791,59.570,8.789,12.695,178.223,-168.945,0
1579288661.795,55.664,25.391,18.555,107.422,-172.363,0
1579288661.799,64.453,33.203,21.973,108.887,-164.062,0
1579288661.803,67.871,36.133,26.855,169.434,-131.348,0
1579288661.807,73.730,33.691,22.461,187.012,-104.492,0
1579288661.811,71.777,31.250,16.113,128.906,-125.977,0
1579288661.815,62.012,33.691,20.508,84.473,-159.668,0
1579288661.818,62.012,32.715,22.461,145.996,-146.484,0
1579288661.822,66.406,29.297,21.484,190.918,-115.723,0
1579288661.826,64.453,27.344,20.508,146.484,-118.652,0
1579288661.830,58.594,29.785,17.090,87.891,-151.367,0
1579288661.834,66.406,35.156,23.926,115.234,-141.602,0
1579288661.831,70.801,32.715,25.879,172.363,-115.723,0
1579288661.835,80.566,25.391,20.020,157.715,-105.469,0
1579288661.839,91.309,15.625,20.996,117.188,-102.539,0
1579288661.843,103.027,22.949,25.879,128.906,-114.258,0
1579288661.847,108.887,30.273,26.855,193.359,-96.191,0
1579288661.851,96.680,18.555,21.484,203.613,-99.609,0
1579288661.855,92.285,15.625,22.949,116.699,-128.418,0
1579288661.858,78.613,25.391,24.902,78.125,-134.277,0
1579288661.862,67.871,9.766,32.715,132.324,-129.395,0
1579288661.866,72.266,-2.441,36.621,146.484,-130.859,0
1579288661.870,56.152,20.996,33.203,93.750,-129.395,0
1579288661.874,50.781,21.484,32.227,54.199,-132.324,0
1579288661.891,51.758,15.625,30.762,98.145,-121.094,0
1579288661.895,34.668,20.020,23.438,126.953,-130.859,0
1579288661.899,18.555,29.297,19.043,77.637,-138.672,0
1579288661.903,2.930,30.273,20.508,35.156,-154.297,0
1579288661.907,1.465,29.785,27.832,66.895,-147.949,0
1579288661.911,-5.371,31.738,30.273,125.000,-122.559,0
1579288661.915,-23.926,28.320,19.531,82.520,-136.719,0
1579288661.918,-30.762,27.832,21.973,-4.883,-178.223,0
1579288661.922,-34.180,36.621,36.621,6.348,-171.387,0
1579288661.926,-42.480,34.180,31.738,68.359,-128.906,0
1579288661.930,-52.734,24.414,23.438,57.129,-137.207,0
1579288661.934,-50.293,20.508,21.973,-23.926,-149.902,0
1579288661.931,-52.246,27.832,20.020,-48.340,-162.109,0
1579288661.935,-54.688,39.062,24.414,36.621,-130.859,0
1579288661.939,-35.645,33.691,26.855,77.148,-134.766,0
1579288661.943,-34.180,25.879,23.926,26.855,-178.711,0
1579288661.947,-30.762,15.137,24.902,-10.254,-179.199,0
1579288661.951,-16.113,6.836,26.367,44.434,-170.410,0
1579288661.955,-6.836,5.371,23.926,116.211,-150.879,0
1579288661.958,1.465,5.371,20.996,84.961,-153.320,0
1579288661.962,4.395,14.648,22.461,39.551,-152.344,0
1579288661.966,15.137,13.672,20.508,58.105,-136.719,0
1579288661.970,27.832,2.930,20.020,96.191,-182.617,0
1579288661.974,42.480,27.832,32.227,108.887,-185.059,0
1579288661.972,48.828,36.621,34.180,62.012,-147.461,0
1579288661.976,45.410,20.508,27.344,60.547,-136.719,0
1579288661.980,49.316,34.180,22.461,123.047,-121.094,0
1579288661.984,52.246,42.480,14.160,137.207,-98.145,0
1579288661.988,56.641,47.852,18.555,95.215,-104.980,0
1579288661.992,56.152,43.945,15.137,70.312,-131.348,0
1579288661.996,59.082,44.922,17.578,124.512,-120.605,0
1579288661.999,72.754,56.641,27.832,147.461,-93.750,0
1579288662.003,71.289,45.410,21.484,91.797,-92.773,0
1579288662.007,70.801,41.504,20.996,57.129,-109.375,0
1579288662.011,82.520,52.246,25.391,106.934,-103.516,0
1579288662.015,94.238,47.852,29.297,174.316,-76.172,0
1579288662.031,86.426,38.086,26.855,134.277,-61.523,0
1579288662.035,73.730,45.898,20.996,50.293,-115.234,0
1579288662.039,79.590,53.223,28.320,80.078,-125.488,0
1579288662.043,82.520,57.129,34.180,147.461,-75.195,0
1579288662.047,67.383,42.480,29.785,125.000,-86.426,0
1579288662.051,45.898,26.855,25.879,34.180,-116.211,0
1579288662.055,20.996,25.879,23.926,11.230,-138.672,0
1579288662.058,10.742,30.273,27.344,72.754,-135.254,0
1579288662.062,22.949,36.621,35.156,95.703,-126.953,0
1579288662.066,20.508,19.043,34.668,38.086,-130.371,0
1579288662.070,5.859,10.742,29.785,-21.484,-157.227,0
1579288662.074,8.789,20.020,26.855,35.645,-191.406,0
1579288662.071,10.742,21.484,26.367,91.309,-178.223,0
1579288662.075,5.371,26.367,28.809,45.898,-163.574,0
1579288662.079,-0.977,24.414,25.879,-8.789,-169.434,0
1579288662.083,2.441,25.391,21.973,7.812,-170.898,0
1579288662.087,11.719,41.504,19.043,75.195,-173.828,0
1579288662.091,4.395,41.504,17.578,60.547,-170.898,0
1579288662.095,-5.371,27.832,17.578,-0.488,-143.555,0
1579288662.098,3.418,28.809,26.855,24.414,-156.738,0
1579288662.102,7.324,34.180,32.715,71.777,-132.812,0
1579288662.106,4.883,12.695,20.020,69.824,-112.305,0
1579288662.110,6.836,9.277,15.625,16.113,-174.316,0
1579288662.114,18.066,44.922,20.508,7.812,-174.316,0
1579288662.111,30.762,48.828,20.996,75.684,-165.527,0
1579288662.115,37.109,41.992,22.949,101.562,-166.504,0
1579288662.119,36.621,35.156,20.508,48.340,-174.805,0
1579288662.123,39.551,15.625,20.996,10.254,-195.801,0
1579288662.127,44.434,18.066,22.461,57.617,-169.922,0
1579288662.131,43.457,24.414,22.461,103.027,-152.344,0
1579288662.135,41.504,7.324,31.250,54.199,-181.641,0
1579288662.138,24.902,15.137,25.391,-10.742,-184.082,0
1579288662.142,12.695,23.438,15.625,6.348,-208.008,0
1579288662.146,15.625,22.949,22.949,53.711,-213.867,0
1579288662.150,17.090,27.832,30.762,32.715,-159.668,0
1579288662.154,15.625,26.367,35.156,-41.016,-157.715,0
1579288662.171,11.719,9.766,34.668,-31.738,-187.012,0
1579288662.175,7.812,2.930,27.344,28.809,-196.777,0
1579288662.179,-1.953,22.949,25.391,15.625,-177.734,0
1579288662.183,-4.395,28.809,25.879,-52.246,-191.406,0
1579288662.187,-7.812,11.230,27.832,-72.266,-223.633,0
1579288662.191,-19.531,15.625,21.973,-18.066,-206.543,0
1579288662.195,-21.973,40.527,17.090,1.465,-208.008,0
1579288662.198,-20.996,46.875,21.973,-61.035,-233.398,0
1579288662.202,-17.578,44.922,28.320,-103.516,-218.750,0
1579288662.206,-16.113,40.039,28.320,-60.059,-197.266,0
1579288662.210,-3.906,32.715,24.414,-6.836,-200.195,0
1579288662.214,1.953,26.367,16.602,-39.062,-216.309,0
1579288662.212,8.301,29.785,14.648,-92.773,-232.910,0
1579288662.216,6.836,26.367,21.973,-58.105,-226.562,0
1579288662.220,8.789,33.203,30.762,9.766,-187.988,0
1579288662.224,12.695,40.527,22.461,-1.953,-176.758,0
1579288662.228,9.766,27.344,15.625,-74.219,-227.539,0
1579288662.232,18.066,23.438,26.855,-65.918,-237.305,0
1579288662.236,22.461,34.180,26.367,12.695,-214.844,0
1579288662.239,21.973,27.832,22.949,11.719,-203.125,0
1579288662.243,25.879,22.461,21.484,-50.781,-191.895,0
1579288662.247,48.340,43.457,31.738,-50.781,-220.703,0
1579288662.251,55.664,44.922,34.668,10.742,-236.328,0
1579288662.255,50.293,39.551,18.066,25.879,-212.402,0
1579288662.252,36.133,28.809,13.184,-38.086,-208.008,0
1579288662.256,28.809,28.320,17.090,-93.262,-236.328,0
1579288662.260,30.762,33.203,19.043,-61.523,-238.770,0
1579288662.264,30.273,20.020,20.996,-21.484,-236.816,0
1579288662.268,40.039,25.391,19.043,-58.105,-228.027,0
1579288662.272,30.762,28.320,8.301,-132.324,-232.910,0
1579288662.276,19.043,43.945,18.555,-112.793,-268.066,0
1579288662.279,14.648,53.711,27.832,-36.133,-254.883,0
1579288662.283,-1.953,41.016,14.160,-60.547,-242.188,0
1579288662.287,-5.859,42.969,18.555,-131.836,-255.859,0
1579288662.291,2.930,45.898,23.926,-124.512,-247.559,0
1579288662.295,5.371,46.875,27.344,-58.105,-247.559,0
1579288662.311,5.859,44.922,25.879,-34.180,-245.117,0
1579288662.315,-1.465,40.527,15.137,-83.984,-250.977,0
1579288662.319,-2.930,16.113,16.602,-124.512,-237.793,0
1579288662.323,4.883,12.207,19.531,-66.895,-232.910,0
1579288662.327,12.207,49.805,26.367,-14.648,-252.441,0
1579288662.331,9.277,36.621,20.996,-62.988,-271.973,0
1579288662.335,-4.395,28.809,2.441,-123.047,-303.223,0
1579288662.338,2.930,55.176,9.766,-82.520,-295.898,0
1579288662.342,11.230,55.176,26.367,-27.832,-264.648,0
1579288662.346,9.277,44.434,22.461,-48.340,-270.020,0
1579288662.350,8.789,30.762,13.672,-109.375,-279.785,0
1579288662.354,15.625,38.574,13.184,-87.402,-266.602,0
1579288662.353,20.996,44.922,20.996,-22.461,-242.676,0
1579288662.357,20.508,29.785,34.668,-23.926,-244.629,0
1579288662.361,28.809,33.691,37.598,-74.219,-272.949,0
1579288662.365,11.719,46.387,18.066,-102.051,-287.598,0
1579288662.369,2.930,47.852,15.137,-36.133,-279.785,0
1579288662.373,-2.930,34.180,14.160,-14.648,-261.719,0
1579288662.377,-0.977,51.758,12.695,-73.242,-255.859,0
1579288662.380,8.789,33.691,13.184,-89.355,-261.719,0
1579288662.384,21.484,19.531,16.602,-22.461,-246.582,0
1579288662.388,24.414,43.945,11.719,19.043,-257.812,0
1579288662.392,10.742,20.020,0.488,-42.969,-281.738,0
1579288662.396,17.578,12.207,7.324,-104.004,-258.301,0
1579288662.392,19.531,24.414,15.625,-51.758,-230.957,0
1579288662.396,15.137,20.508,17.578,14.648,-232.422,0
1579288662.400,21.973,20.508,18.066,4.883,-248.047,0
1579288662.404,23.926,21.973,20.020,-58.594,-226.562,0
1579288662.408,29.297,22.949,20.020,-51.270,-211.426,0
1579288662.412,44.434,16.602,18.555,37.109,-223.633,0
1579288662.416,45.410,15.137,24.902,43.945,-201.172,0
1579288662.419,31.738,27.344,24.902,-25.391,-205.566,0
1579288662.423,21.973,21.484,13.672,-67.871,-236.328,0
1579288662.427,37.109,30.762,16.602,-14.648,-229.004,0
1579288662.431,41.016,28.320,14.648,27.344,-207.031,0
1579288662.435,24.902,7.812,12.695,-39.062,-199.707,0
1579288662.451,25.879,25.391,22.461,-79.590,-209.473,0
1579288662.455,21.973,35.156,22.461,-33.691,-204.102,0
1579288662.459,20.508,34.668,28.320,25.879,-192.871,0
1579288662.463,24.902,36.621,40.039,8.301,-196.289,0
1579288662.467,19.531,28.320,20.020,-70.312,-222.168,0
1579288662.471,28.320,20.996,2.930,-50.293,-253.418,0
1579288662.475,24.414,11.230,14.160,4.883,-249.023,0
1579288662.478,12.695,32.715,27.344,-6.348,-222.168,0
1579288662.482,21.973,52.734,31.250,-45.410,-212.891,0
1579288662.486,12.695,54.688,25.391,-47.363,-233.398,0
1579288662.490,0.977,55.664,19.043,22.461,-225.098,0
1579288662.494,7.324,48.340,16.602,16.602,-223.633,0
1579288662.492,13.672,47.363,16.602,-55.664,-249.023,0
1579288662.496,19.043,41.016,19.531,-52.246,-236.328,0
1579288662.500,32.715,32.227,17.090,19.043,-236.328,0
1579288662.504,40.527,37.109,18.066,65.918,-213.379,0
1579288662.508,43.945,18.066,23.438,11.719,-208.496,0
1579288662.512,46.875,26.855,16.113,-37.109,-232.422,0
1579288662.516,44.922,44.434,17.090,30.762,-234.375,0
1579288662.519,39.551,27.832,22.461,87.402,-210.449,0
1579288662.523,41.504,47.363,20.020,60.059,-191.406,0
1579288662.527,43.457,37.109,21.484,5.371,-224.609,0
1579288662.531,45.410,5.371,25.879,22.461,-235.840,0
1579288662.535,60.059,39.062,25.391,110.840,-206.543,0
1579288662.531,59.570,44.922,17.578,104.492,-200.195,0
1579288662.535,39.551,34.668,13.184,24.902,-216.797,0
1579288662.539,28.809,40.527,14.648,10.742,-209.961,0
1579288662.543,32.227,38.574,22.949,78.613,-198.242,0
1579288662.547,41.504,32.227,27.832,110.840,-207.520,0
1579288662.551,45.898,32.715,19.531,52.246,-220.215,0
1579288662.555,48.340,37.598,20.508,31.250,-222.168,0
1579288662.558,54.199,29.785,19.531,92.773,-187.500,0
1579288662.562,43.457,23.926,19.043,118.164,-210.938,0
1579288662.566,42.480,20.020,27.832,80.566,-226.074,0
1579288662.570,45.898,22.461,24.902,39.062,-187.988,0
1579288662.574,49.316,32.227,22.461,78.613,-178.223,0
1579288662.591,58.594,37.598,30.273,133.789,-165.039,0
1579288662.595,67.871,37.109,31.738,108.887,-171.387,0
1579288662.599,57.129,23.926,22.461,49.805,-191.895,0
1579288662.603,36.621,24.414,16.113,61.035,-183.105,0
1579288662.607,38.086,39.551,18.066,115.234,-189.453,0
1579288662.611,35.156,34.180,16.113,94.727,-187.988,0
1579288662.615,24.902,33.203,14.160,20.996,-193.848,0
1579288662.618,22.949,38.086,21.484,15.137,-190.430,0
1579288662.622,26.855,32.227,20.996,89.355,-169.434,0
1579288662.626,40.039,26.855,22.461,121.582,-162.109,0
1579288662.630,39.062,20.508,23.926,45.898,-180.176,0
1579288662.634,34.180,28.320,21.484,6.348,-207.520,0
1579288662.631,48.340,20.996,24.902,72.754,-199.707,0
1579288662.635,52.246,-8.789,16.602,120.117,-163.574,0
1579288662.639,37.109,2.930,16.602,68.359,-153.320,0
1579288662.643,28.320,20.996,20.996,-6.348,-178.223,0
1579288662.647,28.809,12.695,17.090,29.785,-193.848,0
1579288662.651,29.297,14.160,17.578,97.168,-177.246,0
1579288662.655,33.203,21.973,20.508,68.359,-169.922,0
1579288662.658,32.227,19.043,19.043,-5.859,-212.891,0
1579288662.662,31.250,14.648,18.066,-2.441,-218.262,0
1579288662.666,28.809,11.719,13.672,71.289,-214.355,0
1579288662.670,29.297,7.812,15.137,78.613,-194.336,0
1579288662.674,33.691,12.207,23.926,12.207,-177.734,0
1579288662.672,30.273,11.719,22.949,-6.836,-196.289,0
1579288662.676,35.645,14.160,19.043,52.734,-161.621,0
1579288662.680,52.734,9.277,24.414,88.379,-149.414,0
1579288662.684,49.805,7.324,21.973,31.250,-155.762,0
1579288662.688,42.480,34.180,16.602,-22.461,-171.875,0
1579288662.692,44.922,40.039,19.043,27.832,-188.965,0
1579288662.696,41.016,36.621,18.066,66.406,-194.336,0
1579288662.699,36.133,33.203,14.160,26.367,-206.055,0
1579288662.703,29.785,18.066,12.695,-34.180,-204.102,0
1579288662.707,33.203,17.578,16.113,-4.395,-188.477,0
1579288662.711,38.574,29.785,7.812,54.688,-181.152,0
1579288662.715,40.039,33.203,13.184,26.367,-199.707,0
1579288662.731,36.621,29.785,21.973,-30.273,-208.496,0
1579288662.735,25.879,20.020,9.277,-30.762,-208.008,0
1579288662.739,22.461,27.344,13.672,34.668,-186.035,0
1579288662.743,23.926,29.785,29.297,49.316,-171.875,0
1579288662.747,30.273,22.461,24.902,-23.926,-209.961,0
1579288662.751,29.785,31.738,7.812,-42.480,-231.445,0
1579288662.755,33.203,38.574,16.602,25.879,-233.398,0
1579288662.758,42.480,43.945,26.855,67.871,-216.797,0
1579288662.762,47.852,43.945,20.996,23.438,-199.707,0
1579288662.766,46.387,37.109,19.531,-29.785,-195.312,0
1579288662.770,45.410,26.855,20.508,23.438,-176.270,0
1579288662.774,60.059,17.090,24.902,85.449,-181.152,0
1579288662.771,61.523,26.367,26.367,49.316,-181.152,0
1579288662.775,55.176,39.551,21.973,-8.789,-184.570,0
1579288662.779,70.801,24.902,21.484,14.648,-206.543,0
1579288662.783,83.984,27.344,22.949,91.309,-174.805,0
1579288662.787,72.266,57.617,26.855,74.219,-165.039,0
1579288662.791,55.664,49.316,22.949,-6.836,-202.148,0
1579288662.795,59.082,41.504,27.832,1.953,-210.449,0
1579288662.798,62.988,56.641,26.855,67.383,-200.195,0
1579288662.802,49.316,41.504,12.207,74.219,-186.523,0
1579288662.806,42.969,22.461,11.230,5.371,-210.449,0
1579288662.810,49.805,30.273,18.555,-22.949,-216.797,0
1579288662.814,63.477,28.809,25.391,53.711,-197.266,0
1579288662.811,72.754,7.324,24.414,98.633,-185.059,0
1579288662.815,71.289,-1.953,21.973,63.965,-163.574,0
1579288662.819,62.012,3.418,30.762,13.672,-174.316,0
1579288662.823,62.988,17.090,32.227,42.969,-155.273,0
1579288662.827,63.965,21.973,25.879,105.957,-120.117,0
1579288662.831,52.246,22.461,20.020,66.895,-143.555,0
1579288662.835,54.199,31.250,19.043,-8.789,-196.777,0
1579288662.838,55.176,32.227,24.414,14.648,-211.914,0
1579288662.842,55.176,35.156,25.879,84.961,-198.730,0
1579288662.846,62.988,23.438,21.484,85.938,-168.457,0
1579288662.850,62.500,14.160,24.414,9.766,-167.969,0
1579288662.854,58.594,27.832,35.645,5.371,-181.641,0
1579288662.871,51.758,35.645,32.715,79.102,-179.688,0
1579288662.875,53.711,32.715,24.414,93.750,-167.480,0
1579288662.879,58.594,13.672,30.762,27.832,-173.340,0
1579288662.883,51.270,18.555,30.273,-10.254,-193.359,0
1579288662.887,61.523,35.156,29.297,61.035,-194.824,0
1579288662.891,64.453,29.297,25.879,110.352,-196.777,0
1579288662.895,53.711,42.480,25.391,58.594,-198.242,0
1579288662.898,48.828,44.922,23.438,-12.207,-195.312,0
1579288662.902,43.945,34.668,22.461,14.160,-196.777,0
1579288662.906,29.785,38.086,27.344,86.426,-183.594,0
1579288662.910,33.203,42.480,20.020,65.430,-185.059,0
1579288662.914,41.016,31.738,17.090,10.742,-203.613,0
1579288662.912,50.293,32.227,30.762,29.785,-217.773,0
1579288662.916,61.523,43.457,30.762,82.031,-199.707,0
1579288662.920,52.734,25.879,23.438,85.938,-163.574,0
1579288662.924,47.363,18.555,23.926,18.555,-169.922,0
1579288662.928,60.059,31.250,28.809,-1.465,-205.078,0
1579288662.932,63.477,22.949,22.461,53.223,-205.566,0
1579288662.936,51.270,18.066,22.461,70.801,-170.410,0
1579288662.939,38.086,32.715,31.738,20.020,-187.012,0
1579288662.943,33.203,28.320,31.738,-23.438,-228.516,0
1579288662.947,35.645,22.949,26.855,25.391,-253.418,0
1579288662.951,41.504,23.438,29.785,72.266,-203.125,0
1579288662.955,41.016,22.949,31.250,28.320,-182.129,0
1579288662.952,48.340,39.551,31.738,-14.160,-203.125,0
1579288662.956,47.363,41.992,27.832,22.461,-165.039,0
1579288662.960,46.387,35.156,26.367,84.961,-175.781,0
1579288662.964,44.922,35.645,32.715,51.758,-171.875,0
1579288662.968,28.320,8.301,24.902,-30.762,-174.805,0
1579288662.972,30.762,-1.953,21.484,-10.742,-213.867,0
1579288662.976,41.016,28.809,26.855,64.453,-183.594,0
1579288662.979,37.598,32.227,21.484,72.754,-178.711,0
1579288662.983,38.574,27.344,26.367,6.348,-184.570,0
1579288662.987,55.176,45.898,27.832,-14.160,-176.758,0
1579288662.991,63.965,47.852,15.625,59.082,-173.340,0
1579288662.995,52.246,30.762,18.066,91.309,-139.160,0
1579288663.011,32.227,18.555,18.555,25.391,-153.320,0
1579288663.015,26.855,15.625,22.949,-32.227,-193.359,0
1579288663.019,35.156,20.020,29.785,14.160,-168.457,0
1579288663.023,37.598,7.812,25.391,78.613,-146.973,0
1579288663.027,54.199,-14.160,34.668,63.477,-163.574,0
1579288663.031,61.035,12.207,41.016,10.742,-188.477,0
1579288663.035,32.227,29.297,19.531,6.348,-169.922,0
1579288663.038,20.996,32.227,13.672,55.664,-160.645,0
1579288663.042,21.973,48.828,26.855,61.035,-162.598,0
1579288663.046,28.320,49.805,29.297,3.418,-147.461,0
1579288663.050,15.625,17.090,18.066,-2.441,-180.664,0
1579288663.054,6.836,2.441,15.625,52.734,-162.109,0
1579288663.053,29.785,32.227,19.043,67.383,-134.277,0
1579288663.057,30.762,36.133,15.137,18.555,-164.062,0
1579288663.061,20.020,12.695,23.438,-13.672,-169.922,0
1579288663.065,26.367,19.531,30.273,57.617,-169.922,0
1579288663.069,27.344,26.367,21.973,86.426,-157.715,0
1579288663.073,27.832,14.160,20.996,23.926,-189.453,0
1579288663.077,41.016,23.926,32.227,-5.371,-217.773,0
1579288663.080,45.410,27.832,33.691,41.016,-217.285,0
1579288663.084,28.809,12.695,22.949,93.750,-188.477,0
1579288663.088,26.367,15.625,18.066,43.945,-168.457,0
1579288663.092,33.203,23.438,26.855,-19.043,-163.574,0
1579288663.096,43.945,29.297,25.391,21.484,-158.203,0
1579288663.112,47.852,21.973,17.090,85.938,-151.367,0
1579288663.116,39.062,4.395,22.949,68.359,-175.781,0
1579288663.120,44.434,0.000,26.855,-5.859,-179.688,0
1579288663.124,45.410,19.531,20.020,-4.395,-157.227,0
1579288663.128,43.945,23.926,18.555,54.688,-183.105,0
1579288663.132,50.293,29.297,31.250,74.707,-191.895,0
1579288663.136,53.223,37.598,26.367,29.297,-194.824,0
1579288663.139,52.734,13.184,18.066,-16.602,-213.867,0
1579288663.143,49.805,10.742,38.086,45.410,-184.570,0
1579288663.147,58.105,4.883,46.875,106.934,-169.922,0
1579288663.151,81.543,9.766,36.621,67.383,-185.547,0
1579288663.155,58.594,21.484,18.066,-2.930,-207.520,0
1579288663.152,35.156,-4.883,19.531,17.578,-208.008,0
1579288663.156,39.551,-11.230,28.809,77.637,-204.590,0
1579288663.160,26.367,10.742,24.414,59.570,-187.988,0
1579288663.164,31.250,30.762,25.879,-2.441,-177.734,0
1579288663.168,36.621,24.902,20.508,5.859,-176.270,0
1579288663.172,37.109,19.043,21.484,65.918,-180.176,0
1579288663.176,41.016,18.066,24.414,67.383,-195.312,0
1579288663.179,42.969,19.043,20.508,3.418,-199.219,0
1579288663.183,42.969,10.254,18.555,-13.672,-193.848,0
1579288663.187,48.828,3.418,22.461,59.570,-162.598,0
1579288663.191,51.758,19.043,26.855,78.613,-153.320,0
1579288663.195,45.898,14.648,20.996,12.207,-173.340,0
1579288663.192,48.828,5.371,16.602,-21.973,-198.242,0
1579288663.196,69.336,11.230,18.555,49.805,-188.477,0
1579288663.200,85.938,14.160,20.996,103.516,-157.715,0
1579288663.204,71.777,3.906,13.672,57.617,-173.828,0
1579288663.208,59.570,10.254,12.207,7.812,-201.660,0
1579288663.212,51.270,22.949,15.625,25.879,-227.051,0
1579288663.216,56.152,4.395,22.461,88.867,-204.102,0
1579288663.219,65.430,12.207,32.227,82.031,-152.344,0
1579288663.223,55.664,35.645,23.926,1.465,-189.453,0
1579288663.227,47.363,32.715,11.230,-3.418,-233.887,0
1579288663.231,48.340,25.391,14.160,76.172,-186.523,0
1579288663.235,53.223,21.484,12.695,81.055,-170.410,0
1579288663.254,55.176,19.043,11.719,12.695,-184.082,0
1579288663.258,45.898,15.137,15.625,-7.812,-182.129,0
1579288663.262,54.199,26.855,17.578,57.617,-196.777,0
1579288663.266,46.875,36.621,16.113,86.914,-190.430,0
1579288663.270,38.086,28.320,12.207,32.715,-172.363,0
1579288663.274,42.480,22.461,9.766,-5.859,-181.152,0
1579288663.278,43.945,18.066,5.859,47.363,-168.457,0
1579288663.281,65.918,34.668,27.832,115.723,-162.598,0
1579288663.285,58.594,30.762,18.066,71.777,-168.457,0
1579288663.289,37.109,9.766,7.324,-14.648,-184.082,0
1579288663.293,33.691,24.414,22.949,12.695,-187.500,0
1579288663.297,21.973,21.484,14.648,70.801,-188.477,0
1579288663.291,34.668,15.625,27.832,76.660,-170.410,0
1579288663.295,45.410,47.363,36.133,24.902,-127.930,0
1579288663.299,37.109,66.406,21.484,1.953,-163.086,0
1579288663.303,47.852,60.547,19.043,71.289,-180.176,0
1579288663.307,46.387,47.363,17.578,82.520,-161.133,0
1579288663.311,38.574,26.367,15.625,10.742,-179.199,0
1579288663.315,31.250,18.066,18.066,-6.348,-187.500,0
1579288663.318,30.762,26.367,20.996,54.688,-177.246,0
1579288663.322,37.109,28.809,20.996,78.613,-174.805,0
1579288663.326,32.227,23.926,21.484,30.273,-168.945,0
1579288663.330,34.668,18.555,20.508,-14.160,-196.289,0
1579288663.334,44.922,23.438,18.555,28.809,-203.613,0
1579288663.331,40.527,21.484,24.414,90.332,-150.391,0
1579288663.335,34.180,-0.977,28.809,53.711,-135.742,0
1579288663.339,31.738,-2.930,20.020,-27.832,-160.645,0
1579288663.343,33.691,20.996,9.277,-11.719,-181.641,0
1579288663.347,41.504,35.156,15.137,65.918,-167.969,0
1579288663.351,42.480,36.133,23.438,64.453,-158.203,0
1579288663.355,37.598,33.691,19.043,-5.371,-160.156,0
1579288663.358,36.133,18.555,12.695,-16.602,-149.414,0
1579288663.362,29.297,14.160,10.742,47.852,-179.688,0
1579288663.366,31.250,31.738,21.973,69.336,-200.684,0
1579288663.370,43.457,30.273,25.879,16.113,-168.457,0
1579288663.374,40.039,3.906,17.578,-22.461,-146.973,0
1579288663.391,47.852,12.695,19.531,33.691,-144.043,0
1579288663.395,50.293,37.598,16.113,84.961,-143.555,0
1579288663.399,47.852,37.109,19.531,46.875,-143.555,0
1579288663.403,54.199,37.598,23.926,-9.277,-155.762,0
1579288663.407,53.223,40.527,21.973,20.996,-168.457,0
1579288663.411,54.199,27.832,17.578,80.078,-148.926,0
1579288663.415,47.852,23.438,11.719,55.176,-170.410,0
1579288663.418,52.246,20.996,20.996,-10.742,-217.285,0
1579288663.422,58.105,14.648,27.344,13.184,-180.176,0
1579288663.426,63.477,22.949,24.414,81.055,-149.902,0
1579288663.430,56.641,26.367,24.902,73.730,-149.902,0
1579288663.434,43.945,32.715,18.555,10.742,-183.594,0
1579288663.431,61.523,41.992,29.785,5.371,-196.777,0
1579288663.435,65.430,34.180,30.273,83.008,-156.738,0
1579288663.439,61.035,25.879,19.531,90.332,-153.809,0
1579288663.443,67.871,33.691,24.902,20.996,-171.875,0
1579288663.447,64.941,22.949,26.855,-2.930,-174.316,0
1579288663.451,58.594,8.301,22.949,42.480,-179.688,0
1579288663.455,55.664,41.992,24.902,91.309,-177.734,0
1579288663.458,51.270,48.828,20.996,51.270,-160.645,0
1579288663.462,48.828,37.598,14.648,-14.160,-164.551,0
1579288663.466,48.828,37.109,22.461,25.879,-153.320,0
1579288663.470,60.547,37.598,30.273,77.637,-184.570,0
1579288663.474,54.199,44.922,27.832,52.734,-188.477,0
1579288663.471,44.922,41.992,26.367,-16.602,-149.414,0
1579288663.475,41.504,35.156,27.344,-17.090,-169.922,0
1579288663.479,40.039,24.414,28.809,64.941,-169.434,0
1579288663.483,47.852,34.668,28.809,70.312,-166.016,0
1579288663.487,46.875,34.180,26.367,3.906,-157.715,0
1579288663.491,42.969,22.461,26.855,-22.461,-160.645,0
1579288663.495,35.156,34.180,25.879,34.668,-162.109,0
1579288663.498,28.809,29.785,29.297,76.172,-145.508,0
1579288663.502,28.320,21.484,33.203,17.090,-166.992,0
1579288663.506,35.645,42.969,36.133,-26.855,-166.992,0
1579288663.510,50.293,49.316,39.062,26.855,-145.020,0
1579288663.514,47.852,28.320,35.156,80.078,-145.996,0
1579288663.531,32.227,10.254,37.109,47.852,-167.480,0
1579288663.535,29.297,11.719,36.133,-17.090,-194.824,0
1579288663.539,45.898,25.879,42.480,24.414,-181.641,0
1579288663.543,68.359,20.996,43.945,104.004,-148.926,0
1579288663.547,52.246,42.969,27.832,63.477,-151.855,0
1579288663.551,18.066,67.871,24.414,-23.926,-181.152,0
1579288663.555,20.508,62.988,29.785,-26.855,-198.730,0
1579288663.558,32.715,54.199,29.297,43.945,-195.312,0
1579288663.562,37.109,45.410,30.273,55.176,-172.363,0
1579288663.566,34.668,48.340,26.367,-9.277,-177.246,0
1579288663.570,31.738,50.781,25.391,-20.508,-171.875,0
1579288663.574,36.621,41.016,26.855,48.340,-166.504,0
1579288663.571,40.039,38.086,28.320,89.844,-169.922,0
1579288663.575,30.762,31.250,33.203,20.508,-178.711,0
1579288663.579,17.578,29.785,30.273,-42.480,-190.918,0
1579288663.583,26.855,20.996,30.273,20.020,-162.109,0
1579288663.587,38.086,21.484,32.715,80.566,-162.109,0
1579288663.591,36.621,36.133,36.621,49.805,-181.152,0
1579288663.595,35.156,26.855,32.227,-16.602,-173.340,0
1579288663.598,35.645,41.504,23.438,3.418,-161.133,0
1579288663.602,36.133,36.621,32.227,83.496,-136.719,0
1579288663.606,34.180,5.859,34.668,71.777,-162.109,0
1579288663.610,25.391,22.949,23.438,-4.883,-202.148,0
1579288663.614,19.531,51.270,20.508,-27.832,-190.430,0
1579288663.611,29.297,44.434,24.414,40.527,-184.082,0
1579288663.615,22.461,19.531,22.949,66.406,-169.434,0
1579288663.619,19.043,27.344,17.090,4.883,-157.227,0
1579288663.623,40.039,47.852,15.625,-17.090,-180.176,0
1579288663.627,41.504,44.434,13.672,29.297,-161.621,0
1579288663.631,36.621,44.922,9.766,57.129,-150.879,0
1579288663.635,27.832,44.434,2.441,11.719,-183.105,0
1579288663.638,20.020,20.020,-0.977,-42.969,-199.707,0
1579288663.642,20.996,28.320,6.836,1.953,-197.266,0
1579288663.646,28.809,52.246,13.672,61.035,-144.531,0
1579288663.650,32.715,43.945,11.719,38.574,-122.559,0
1579288663.654,25.879,34.668,12.207,-28.320,-172.363,0
1579288663.671,29.297,36.133,13.672,-13.184,-171.387,0
1579288663.675,37.598,37.109,9.766,61.035,-155.762,0
1579288663.679,41.504,32.715,11.230,52.734,-164.551,0
1579288663.683,37.109,28.320,18.066,-11.230,-178.223,0
1579288663.687,31.738,32.715,16.113,-16.113,-179.199,0
1579288663.691,33.203,43.457,12.207,46.387,-168.945,0
1579288663.695,31.738,39.062,12.695,66.406,-185.059,0
1579288663.698,33.691,43.945,17.090,-1.465,-211.426,0
1579288663.702,39.551,48.340,21.973,-25.879,-181.641,0
1579288663.706,32.715,33.203,18.555,31.738,-165.039,0
1579288663.710,29.785,31.250,17.090,72.754,-175.293,0
1579288663.714,29.785,35.156,19.043,40.039,-179.199,0
1579288663.711,18.555,36.621,18.066,-25.879,-192.871,0
1579288663.715,12.207,31.738,14.648,5.859,-179.199,0
1579288663.719,21.484,29.297,18.555,79.590,-151.855,0
1579288663.723,25.879,32.227,26.367,64.941,-169.434,0
1579288663.727,7.812,14.160,19.531,-0.488,-188.477,0
1579288663.731,3.906,25.879,13.184,-15.137,-181.152,0
1579288663.735,18.555,46.387,22.949,57.129,-150.879,0
1579288663.738,23.438,31.250,25.391,75.684,-151.855,0
1579288663.742,28.320,35.645,29.297,10.742,-164.062,0
1579288663.746,26.367,47.852,25.879,-11.719,-197.754,0
1579288663.750,24.414,40.527,20.996,43.457,-215.332,0
1579288663.754,43.945,35.156,30.273,89.844,-171.387,0
1579288663.751,51.270,44.922,30.762,38.574,-166.016,0
1579288663.755,33.203,38.574,25.879,-21.484,-180.664,0
1579288663.759,22.949,6.348,19.531,30.762,-167.969,0
1579288663.763,30.273,15.625,13.672,83.008,-156.738,0
1579288663.767,28.809,46.387,15.625,47.852,-167.969,0
1579288663.771,23.438,49.805,19.043,-1.953,-164.062,0
1579288663.775,24.414,44.434,17.090,17.090,-162.598,0
1579288663.778,26.367,40.527,15.625,80.078,-182.129,0
1579288663.782,23.438,42.480,13.672,62.012,-183.594,0
1579288663.786,19.531,41.992,14.648,-4.883,-165.039,0
1579288663.790,22.949,35.156,18.066,9.766,-171.875,0
1579288663.794,26.855,34.668,22.461,80.078,-165.039,0
1579288663.811,29.297,32.715,20.996,93.750,-141.113,0
1579288663.815,24.902,26.367,19.043,22.949,-163.574,0
1579288663.819,24.902,27.344,23.438,-4.883,-183.105,0
1579288663.823,29.297,34.180,26.855,64.453,-158.203,0
1579288663.827,21.484,28.320,26.367,103.516,-167.969,0
1579288663.831,10.254,20.996,22.461,42.969,-179.688,0
1579288663.835,6.348,17.090,20.996,-21.484,-211.426,0
1579288663.838,12.207,26.855,21.484,27.344,-212.402,0
1579288663.842,24.414,42.969,19.043,91.797,-146.484,0
1579288663.846,28.320,45.898,18.555,60.547,-139.160,0
1579288663.850,23.438,42.480,22.461,-5.859,-168.945,0
1579288663.854,17.578,39.551,22.949,3.418,-167.969,0
1579288663.852,26.855,41.016,31.250,78.125,-142.090,0
1579288663.856,20.996,29.785,27.832,71.289,-133.301,0
1579288663.860,6.836,24.414,14.160,-7.324,-136.230,0
1579288663.864,8.789,32.715,11.230,-9.766,-159.180,0
1579288663.868,8.789,29.785,11.230,62.500,-158.203,0
1579288663.872,19.531,14.648,18.555,85.938,-160.645,0
1579288663.876,20.996,35.645,21.973,29.785,-152.832,0
1579288663.879,-1.465,53.711,10.742,-15.137,-149.902,0
1579288663.883,-11.719,43.945,13.184,30.273,-156.250,0
1579288663.887,-11.230,35.156,14.648,69.336,-161.621,0
1579288663.891,-10.254,29.785,17.578,25.391,-183.105,0
1579288663.895,-9.766,25.391,21.973,-19.043,-178.711,0
1579288663.891,-4.395,25.391,20.508,24.902,-185.547,0
1579288663.895,4.883,22.949,24.902,84.961,-171.387,0
1579288663.899,7.812,31.250,24.414,64.453,-161.133,0
1579288663.903,8.301,38.574,23.438,7.324,-168.457,0
1579288663.907,-6.348,28.320,23.926,3.906,-155.762,0
1579288663.911,-30.762,18.066,25.391,54.199,-132.324,0
1579288663.915,-15.137,23.438,35.645,50.293,-143.066,0
1579288663.918,4.883,38.086,41.504,-5.371,-168.457,0
1579288663.922,-9.766,23.926,36.133,-12.695,-185.547,0
1579288663.926,-11.230,10.254,35.645,52.734,-150.391,0
1579288663.930,0.000,26.855,26.367,87.891,-98.633,0
1579288663.934,-2.930,33.691,27.832,26.855,-103.516,0
1579288663.951,-7.812,35.156,33.203,-22.461,-142.578,0
1579288663.955,-0.488,39.551,32.715,38.574,-166.504,0
1579288663.959,11.719,32.715,35.645,96.191,-153.809,0
1579288663.963,18.066,44.922,28.320,60.547,-132.812,0
1579288663.967,19.531,44.922,28.320,-4.395,-145.508,0
1579288663.971,20.508,35.645,31.738,28.320,-154.785,0
1579288663.975,5.859,45.410,22.461,86.426,-168.457,0
1579288663.978,5.859,54.688,26.855,58.594,-160.645,0
1579288663.982,21.484,54.688,34.668,12.695,-132.812,0
1579288663.986,29.297,53.711,42.480,22.949,-160.645,0
1579288663.990,27.344,43.945,41.992,83.008,-158.691,0
1579288663.994,21.484,32.227,34.668,90.820,-126.953,0
1579288663.992,31.738,29.297,37.598,21.973,-128.418,0
1579288663.996,41.504,24.414,40.039,6.348,-156.738,0
1579288664.000,43.457,26.855,41.016,60.059,-150.391,0
1579288664.004,50.293,19.531,42.480,87.402,-124.512,0
1579288664.008,54.199,32.227,40.039,51.270,-144.043,0
1579288664.012,53.711,69.824,30.762,2.930,-165.039,0
1579288664.016,53.223,63.965,31.738,43.945,-161.133,0
1579288664.019,44.922,46.387,34.668,88.379,-155.273,0
1579288664.023,32.715,44.922,30.762,40.527,-157.715,0
1579288664.027,43.945,33.203,39.062,-6.836,-169.922,0
1579288664.031,64.941,39.062,48.340,37.109,-175.293,0
1579288664.035,47.852,44.434,30.273,90.332,-152.832,0
1579288664.033,33.203,23.438,20.996,47.363,-141.602,0
1579288664.037,37.598,20.508,31.738,-18.555,-147.461,0
1579288664.041,37.598,20.508,30.273,6.836,-161.133,0
1579288664.045,40.039,28.320,26.367,74.219,-165.527,0
1579288664.049,29.785,32.715,31.738,82.520,-159.180,0
1579288664.053,28.320,15.137,34.668,14.648,-163.086,0
1579288664.057,38.574,34.180,33.203,-10.254,-156.738,0
1579288664.060,39.062,52.734,34.668,59.570,-163.574,0
1579288664.064,38.086,35.645,43.945,95.215,-160.645,0
1579288664.068,28.809,37.109,44.434,42.969,-153.809,0
1579288664.072,23.926,21.484,23.926,-22.461,-173.340,0
1579288664.076,22.949,16.602,21.484,16.602,-168.945,0
1579288664.091,22.949,20.508,20.020,82.520,-153.809,0
1579288664.095,20.996,11.230,15.625,39.062,-161.133,0
1579288664.099,19.531,34.668,26.367,-18.555,-183.594,0
1579288664.103,20.020,23.438,23.926,-3.906,-174.805,0
1579288664.107,38.574,14.160,28.320,68.848,-155.273,0
1579288664.111,50.781,24.414,27.832,82.031,-175.293,0
1579288664.115,40.527,20.508,12.695,6.836,-194.824,0
1579288664.118,28.809,10.254,24.414,-4.883,-179.199,0
1579288664.122,24.902,19.531,27.832,49.805,-138.184,0
1579288664.126,26.367,19.043,20.508,57.617,-126.465,0
1579288664.130,35.156,14.648,18.555,7.812,-155.762,0
1579288664.134,35.156,33.203,19.531,-19.043,-177.246,0
1579288664.132,30.762,36.133,26.367,38.574,-164.062,0
1579288664.136,28.809,33.203,24.902,65.430,-150.391,0
1579288664.140,30.762,42.969,31.250,10.742,-153.320,0
1579288664.144,34.180,45.898,33.203,-22.461,-172.363,0
1579288664.148,34.668,21.973,25.391,21.973,-157.227,0
1579288664.152,27.344,10.254,18.555,83.984,-125.488,0
1579288664.156,19.531,28.809,12.695,40.527,-140.625,0
1579288664.159,27.832,44.434,28.320,-32.227,-170.898,0
1579288664.163,37.598,46.875,32.227,1.465,-170.898,0
1579288664.167,33.691,46.387,21.484,67.383,-168.457,0
1579288664.171,35.156,52.734,23.926,61.035,-168.945,0
1579288664.175,51.758,54.688,28.320,-7.812,-182.617,0
1579288664.171,53.223,41.504,22.949,-21.973,-176.758,0
1579288664.175,44.922,24.414,14.160,42.480,-142.578,0
1579288664.179,52.246,6.836,16.602,72.266,-138.672,0
1579288664.183,62.500,23.926,25.391,22.461,-158.203,0
1579288664.187,46.875,47.852,23.438,-23.926,-163.574,0
1579288664.191,31.250,44.922,23.438,21.484,-165.039,0
1579288664.195,32.715,35.645,32.715,74.707,-155.273,0
1579288664.198,32.715,22.461,31.738,31.250,-174.805,0
1579288664.202,36.133,23.438,29.297,-26.855,-215.332,0
1579288664.206,43.457,34.668,32.715,6.348,-192.383,0
1579288664.210,40.039,38.086,30.762,71.289,-155.273,0
1579288664.214,46.875,17.578,32.227,68.848,-156.738,0
1579288664.231,54.199,30.762,31.250,-1.953,-169.434,0
1579288664.235,44.434,54.199,31.250,-5.371,-172.363,0
1579288664.239,37.109,41.504,32.715,62.988,-160.156,0
1579288664.243,49.805,31.738,33.203,70.801,-148.926,0
1579288664.247,59.570,28.809,31.738,10.742,-165.039,0
1579288664.251,46.387,20.508,23.438,-10.742,-169.922,0
1579288664.255,38.086,3.418,22.949,47.852,-134.766,0
1579288664.258,29.785,9.766,25.879,63.477,-135.742,0
1579288664.262,28.809,34.668,25.879,17.090,-148.438,0
1579288664.266,31.250,32.715,26.855,-16.602,-131.348,0
1579288664.270,28.809,20.996,18.555,19.531,-150.879,0
1579288664.274,30.273,27.344,15.137,69.824,-162.109,0
1579288664.271,36.133,20.020,22.949,28.320,-158.203,0
1579288664.275,39.062,39.551,23.926,-15.625,-148.438,0
1579288664.279,46.875,48.340,20.508,20.508,-129.883,0
1579288664.283,47.852,29.297,25.391,78.125,-123.047,0
1579288664.287,32.227,44.434,26.367,56.152,-130.859,0
1579288664.291,35.645,41.992,22.461,-19.043,-155.762,0
1579288664.295,41.992,35.645,20.020,-23.926,-180.664,0
1579288664.298,32.715,42.969,18.555,45.898,-160.645,0
1579288664.302,34.668,39.062,25.879,75.684,-129.883,0
1579288664.306,51.270,33.203,26.855,19.531,-165.527,0
1579288664.310,61.035,43.457,24.414,-12.207,-176.270,0
1579288664.314,54.688,45.410,25.391,51.758,-133.789,0
1579288664.311,44.434,38.574,23.438,77.637,-96.680,0
1579288664.315,58.105,43.945,25.391,16.113,-121.094,0
1579288664.319,53.711,36.621,32.227,-20.020,-157.715,0
1579288664.323,35.645,24.414,27.832,12.695,-169.922,0
1579288664.327,42.480,29.785,20.508,60.059,-156.250,0
1579288664.331,47.852,36.133,14.160,33.691,-135.254,0
1579288664.335,44.434,39.062,16.113,-34.668,-164.551,0
1579288664.338,40.039,34.180,14.648,-18.555,-173.828,0
1579288664.342,40.039,37.109,10.254,39.551,-149.414,0
1579288664.346,45.410,41.016,21.973,39.062,-114.746,0
1579288664.350,33.691,31.250,26.855,-32.227,-138.672,0
1579288664.354,35.156,33.203,28.320,-39.062,-147.949,0
1579288664.371,57.129,31.738,32.715,39.551,-143.555,0
1579288664.375,55.664,11.719,25.879,57.617,-137.695,0
1579288664.379,42.480,6.348,21.484,3.418,-133.301,0
1579288664.383,38.574,30.273,21.484,-20.508,-151.367,0
1579288664.387,37.598,45.410,16.602,34.668,-151.855,0
1579288664.391,18.555,29.785,9.766,71.289,-147.461,0
1579288664.395,20.996,29.785,11.719,19.531,-151.855,0
1579288664.398,36.621,43.945,24.414,-26.855,-162.109,0
1579288664.402,38.574,32.227,24.902,19.043,-177.246,0
1579288664.406,40.527,23.926,19.531,86.914,-128.906,0
1579288664.410,34.180,34.668,17.578,53.223,-113.281,0
1579288664.414,33.691,32.227,20.508,-16.602,-149.414,0
1579288664.411,43.457,30.762,31.250,12.207,-145.996,0
1579288664.415,54.688,38.086,39.551,83.008,-132.812,0
1579288664.419,50.293,40.039,32.227,76.660,-137.695,0
1579288664.423,45.898,41.016,28.320,17.578,-162.598,0
1579288664.427,36.621,39.062,27.344,0.488,-155.273,0
1579288664.431,24.902,32.227,21.973,58.105,-129.395,0
1579288664.435,29.297,29.785,29.785,86.426,-146.973,0
1579288664.438,27.832,32.715,34.668,32.227,-155.762,0
1579288664.442,23.926,36.621,26.855,-6.836,-142.578,0
1579288664.446,27.832,36.621,26.855,37.598,-152.344,0
1579288664.450,11.719,34.180,16.602,73.730,-158.691,0
1579288664.454,-8.301,27.344,5.371,18.555,-125.000,0
1579288664.451,-4.883,38.086,12.695,-43.457,-132.812,0
1579288664.455,-5.859,45.410,10.254,-17.090,-136.230,0
1579288664.459,-18.066,46.875,4.883,19.531,-127.930,0
1579288664.463,-23.926,60.059,6.836,-13.672,-115.234,0
1579288664.467,-48.828,59.082,-3.906,-106.445,-148.926,0
1579288664.471,-69.824,55.176,-14.160,-109.375,-165.527,0
1579288664.475,-77.637,41.504,-3.418,-46.875,-148.438,0
1579288664.478,-110.352,31.738,-5.371,-72.266,-122.070,0
1579288664.482,-124.512,70.312,-20.996,-144.531,-124.023,0
1579288664.486,-132.324,94.238,-34.180,-180.176,-158.203,0
1579288664.490,-167.969,70.801,-29.297,-140.625,-144.043,0
1579288664.494,-165.527,51.270,-10.742,-114.746,-120.117,0
1579288664.512,-144.043,47.363,-8.301,-159.180,-149.902,0
1579288664.516,-157.715,80.566,-12.695,-190.430,-157.227,0
1579288664.520,-169.434,106.934,-16.113,-140.625,-142.578,0
1579288664.524,-153.809,73.730,-22.949,-70.312,-113.281,0
1579288664.528,-130.371,64.941,-22.461,-95.215,-84.961,0
1579288664.532,-111.816,68.848,-19.043,-135.742,-131.348,0
1579288664.536,-102.051,52.246,-18.066,-74.219,-150.391,0
1579288664.539,-73.730,46.387,-0.488,10.254,-117.676,0
1579288664.543,-39.062,48.340,11.230,17.090,-112.793,0
1579288664.547,-18.066,52.734,4.395,-43.457,-127.930,0
1579288664.551,4.883,44.922,6.348,-30.273,-134.766,0
1579288664.555,15.625,38.086,17.578,69.824,-123.047,0
1579288664.551,35.156,45.410,10.742,99.609,-102.539,0
1579288664.555,47.852,30.762,12.207,35.156,-146.484,0
1579288664.559,46.387,6.348,16.602,3.418,-165.039,0
1579288664.563,60.547,0.488,15.137,72.266,-152.344,0
1579288664.567,74.707,0.000,34.668,133.789,-144.043,0
1579288664.571,92.285,-7.812,32.227,91.309,-139.648,0
1579288664.575,100.098,-4.883,22.949,46.387,-162.598,0
1579288664.578,102.051,23.438,35.645,89.844,-137.207,0
1579288664.582,103.027,37.109,39.062,151.855,-120.605,0
1579288664.586,104.004,26.367,34.668,121.094,-156.738,0
1579288664.590,109.375,24.414,38.086,60.059,-144.531,0
1579288664.594,111.816,18.066,41.016,93.262,-139.648,0
1579288664.611,119.141,9.766,44.434,143.066,-135.742,0
1579288664.615,123.535,11.230,42.969,131.348,-141.602,0
1579288664.619,110.840,5.371,35.645,69.336,-170.410,0
1579288664.623,106.445,-0.488,38.574,71.289,-144.531,0
1579288664.627,119.629,20.508,38.086,148.926,-139.160,0
1579288664.631,120.605,22.949,27.832,145.508,-134.277,0
1579288664.635,113.770,14.648,33.691,81.543,-152.344,0
1579288664.638,108.398,15.625,35.645,63.965,-179.199,0
1579288664.642,104.004,20.508,34.668,106.934,-150.391,0
1579288664.646,108.398,26.855,43.457,151.367,-134.277,0
1579288664.650,100.098,21.484,37.109,96.680,-138.184,0
1579288664.654,78.613,16.113,30.762,33.203,-161.621,0
1579288664.651,92.285,29.297,38.086,92.285,-145.996,0
1579288664.655,103.516,15.137,37.598,148.926,-136.719,0
1579288664.659,101.074,1.465,33.691,120.605,-124.512,0
1579288664.663,100.586,19.043,31.738,44.922,-120.117,0
1579288664.667,99.609,21.484,32.227,53.711,-151.855,0
1579288664.671,88.379,15.625,34.668,131.348,-162.598,0
1579288664.675,87.402,16.113,35.645,112.305,-135.742,0
1579288664.678,84.473,22.461,26.367,38.574,-134.277,0
1579288664.682,80.078,4.883,22.949,38.574,-170.410,0
1579288664.686,82.520,-4.395,30.762,99.609,-158.691,0
1579288664.690,82.031,30.762,36.133,123.535,-155.273,0
1579288664.694,80.566,39.551,31.738,71.289,-157.227,0
1579288664.691,67.383,35.645,32.715,43.457,-150.391,0
1579288664.695,71.777,43.945,41.016,82.520,-134.277,0
1579288664.699,78.613,41.016,37.109,124.023,-97.168,0
1579288664.703,68.359,27.344,27.832,76.172,-149.414,0
1579288664.707,61.035,11.719,26.855,15.137,-179.688,0
1579288664.711,56.641,0.000,29.785,62.500,-139.160,0
1579288664.715,64.941,22.949,31.250,117.188,-119.629,0
1579288664.718,64.941,46.387,35.156,97.168,-118.652,0
1579288664.722,57.617,29.297,30.273,31.738,-162.598,0
1579288664.726,50.293,31.738,25.879,29.297,-189.453,0
1579288664.730,41.504,42.480,25.879,95.703,-141.113,0
1579288664.734,48.340,41.992,24.902,82.031,-138.184,0
1579288664.751,47.852,30.273,34.668,16.602,-164.551,0
1579288664.755,47.852,19.531,23.926,17.090,-162.598,0
1579288664.759,42.969,26.855,10.254,79.590,-180.176,0
1579288664.763,38.574,20.508,22.949,103.027,-159.668,0
1579288664.767,28.320,15.137,22.461,35.156,-147.461,0
1579288664.771,24.414,28.320,22.461,0.000,-164.551,0
1579288664.775,37.109,29.297,24.414,57.617,-167.480,0
1579288664.778,48.828,37.598,23.926,104.980,-178.711,0
1579288664.782,63.965,38.574,36.133,81.543,-162.598,0
1579288664.786,58.105,20.508,32.715,26.367,-138.184,0
1579288664.790,59.082,23.438,28.320,39.062,-137.207,0
1579288664.794,64.941,21.484,31.250,115.234,-148.926,0
1579288664.791,50.781,33.203,29.297,103.027,-146.484,0
1579288664.795,27.344,46.875,26.367,-5.371,-144.043,0
1579288664.799,18.555,41.992,18.555,-16.602,-174.805,0
1579288664.803,33.203,36.133,19.043,66.406,-156.738,0
1579288664.807,37.109,41.016,26.855,80.566,-111.328,0
1579288664.811,32.715,35.156,20.508,11.719,-126.953,0
1579288664.815,38.574,29.297,10.254,-11.230,-150.391,0
1579288664.818,42.969,29.785,20.508,58.594,-137.207,0
1579288664.822,44.434,28.809,28.320,84.473,-158.203,0
1579288664.826,39.062,38.574,28.809,42.480,-154.785,0
1579288664.830,24.414,29.297,16.602,-2.441,-149.414,0
1579288664.834,35.156,21.973,19.043,25.879,-131.348,0
1579288664.832,46.387,27.344,27.344,80.078,-107.422,0
1579288664.836,36.621,24.902,26.367,53.223,-112.793,0
1579288664.840,38.574,27.344,27.832,9.766,-139.648,0
1579288664.844,43.945,33.691,21.973,22.949,-163.086,0
1579288664.848,44.434,25.879,16.602,72.266,-150.879,0
1579288664.852,35.645,20.996,18.066,62.988,-141.113,0
1579288664.856,34.180,34.180,22.461,6.836,-166.504,0
1579288664.859,58.594,45.898,23.438,21.973,-175.781,0
1579288664.863,74.219,30.762,30.273,89.355,-161.133,0
1579288664.867,54.199,16.113,25.391,111.816,-162.109,0
1579288664.871,33.691,42.969,12.695,40.039,-154.297,0
1579288664.875,22.949,53.711,14.648,1.953,-148.926,0
1579288664.891,23.438,42.969,19.043,65.918,-148.438,0
1579288664.895,42.480,42.969,22.949,106.445,-140.137,0
1579288664.899,45.898,48.340,27.832,69.336,-154.785,0
1579288664.903,38.086,41.992,21.973,0.000,-167.480,0
1579288664.907,47.363,30.273,19.531,48.828,-135.742,0
1579288664.911,60.059,29.297,21.973,115.234,-134.277,0
1579288664.915,50.293,33.203,19.531,83.008,-146.484,0
1579288664.918,30.273,30.762,20.508,17.090,-145.508,0
1579288664.922,42.969,24.414,27.832,44.922,-127.930,0
1579288664.926,59.570,24.902,20.996,114.258,-107.910,0
1579288664.930,53.223,30.762,23.438,91.797,-109.375,0
1579288664.934,53.711,10.742,30.273,49.316,-145.508,0
1579288664.931,68.359,14.160,31.250,47.852,-164.551,0
1579288664.935,53.223,42.969,28.809,82.520,-145.996,0
1579288664.939,34.668,50.293,18.066,77.148,-157.227,0
1579288664.943,34.180,42.969,10.254,0.977,-178.223,0
1579288664.947,42.969,40.527,6.348,-14.160,-180.664,0
1579288664.951,62.988,22.949,2.441,48.828,-161.621,0
1579288664.955,57.617,25.391,1.953,75.195,-130.859,0
1579288664.958,38.086,51.270,-0.977,38.574,-119.141,0
1579288664.962,36.133,49.316,-9.766,-14.648,-145.020,0
1579288664.966,30.762,41.016,-20.508,10.254,-142.578,0
1579288664.970,33.203,30.762,-25.391,56.641,-156.738,0
1579288664.974,34.180,28.809,-18.066,18.066,-151.367,0
1579288664.971,18.066,35.645,-15.137,-37.109,-151.855,0
1579288664.975,34.180,44.434,-13.184,-6.348,-148.926,0
1579288664.979,55.176,41.992,-10.254,73.730,-103.516,0
1579288664.983,59.570,36.133,-10.742,72.754,-120.605,0
1579288664.987,64.453,39.062,-8.301,4.883,-135.254,0
1579288664.991,63.477,29.785,-8.301,1.465,-145.996,0
1579288664.995,54.199,20.996,-5.371,66.406,-173.828,0
1579288664.998,59.570,32.715,-7.812,93.262,-179.199,0
1579288665.002,66.895,25.879,7.324,36.621,-176.270,0
1579288665.006,62.988,17.578,8.789,-9.277,-190.918,0
1579288665.010,62.500,40.039,-7.324,48.340,-165.527,0
1579288665.014,43.945,42.480,3.906,86.426,-131.836,0
1579288665.031,57.617,36.133,15.137,50.781,-126.953,0
1579288665.035,62.012,33.203,10.742,-13.672,-147.461,0
1579288665.039,34.668,24.414,5.371,-2.930,-191.895,0
1579288665.043,54.199,21.484,12.207,73.730,-156.250,0
1579288665.047,67.871,30.273,7.324,57.617,-144.531,0
1579288665.051,43.457,28.320,10.254,-21.973,-185.547,0
1579288665.055,27.832,10.254,17.090,-10.742,-187.988,0
1579288665.058,56.152,19.531,13.672,64.941,-185.547,0
1579288665.062,44.922,35.645,16.602,71.289,-161.621,0
1579288665.066,37.109,30.273,11.719,0.977,-143.066,0
1579288665.070,64.941,26.367,4.883,1.953,-129.395,0
1579288665.074,48.828,27.832,6.348,67.383,-137.207,0
1579288665.071,30.273,32.227,14.648,68.359,-128.906,0
1579288665.075,24.902,25.879,15.625,25.879,-124.512,0
1579288665.079,30.762,20.508,14.648,-10.254,-140.625,0
1579288665.083,64.941,29.785,17.090,56.641,-123.047,0
1579288665.087,67.383,26.855,14.160,93.262,-122.070,0
1579288665.091,41.992,19.043,14.648,48.340,-152.344,0
1579288665.095,37.109,26.855,20.020,4.395,-145.996,0
1579288665.098,31.738,33.203,17.090,17.090,-110.352,0
1579288665.102,45.410,31.250,13.184,85.449,-116.211,0
1579288665.106,52.246,5.859,4.395,62.988,-145.020,0
1579288665.110,40.527,-3.906,5.371,-20.996,-157.227,0
1579288665.114,37.109,33.203,21.484,-19.043,-149.414,0
1579288665.111,46.387,50.293,21.973,62.500,-134.766,0
1579288665.115,36.621,40.039,15.137,92.285,-125.977,0
1579288665.119,15.625,27.832,14.648,-6.348,-130.859,0
1579288665.123,12.695,27.832,20.020,-61.035,-150.879,0
1579288665.127,16.113,32.227,20.508,21.973,-147.949,0
1579288665.131,26.367,28.320,13.184,56.152,-143.066,0
1579288665.135,33.203,35.156,17.090,5.859,-159.180,0
1579288665.138,18.555,34.668,21.973,-52.246,-176.758,0
1579288665.142,18.066,24.414,16.113,-20.508,-203.613,0
1579288665.146,36.133,30.273,20.996,42.480,-193.359,0
1579288665.150,18.066,23.926,26.855,14.648,-188.965,0
1579288665.154,0.488,19.043,23.438,-53.711,-193.848,0
1579288665.171,9.766,26.367,17.578,-56.641,-161.621,0
1579288665.175,21.484,28.809,17.578,9.277,-143.555,0
1579288665.179,-4.395,27.344,24.902,2.930,-156.738,0
1579288665.183,-9.277,25.879,18.066,-80.078,-176.758,0
1579288665.187,7.324,18.066,15.137,-74.707,-196.777,0
1579288665.191,-10.254,7.324,21.973,-13.184,-173.828,0
1579288665.195,-3.906,15.137,17.578,-12.695,-179.688,0
1579288665.198,10.742,29.297,18.555,-61.523,-208.984,0
1579288665.202,17.090,35.645,19.043,-99.121,-187.988,0
1579288665.206,20.996,30.762,7.812,-45.898,-179.199,0
1579288665.210,12.695,24.902,13.184,21.484,-151.367,0
1579288665.214,32.715,21.484,17.578,-18.066,-168.457,0
1579288665.211,26.367,22.461,16.602,-62.988,-207.520,0
1579288665.215,39.551,20.508,19.043,-34.180,-216.797,0
1579288665.219,45.410,14.648,19.531,7.812,-189.941,0
1579288665.223,6.348,11.719,20.508,-19.043,-191.895,0
1579288665.227,20.996,6.836,19.531,-82.031,-231.445,0
1579288665.231,41.016,8.789,20.020,-56.152,-234.375,0
1579288665.235,58.105,25.391,20.996,6.836,-218.750,0
1579288665.238,59.082,23.438,25.391,-3.418,-198.730,0
1579288665.242,39.062,18.066,28.320,-68.359,-192.871,0
1579288665.246,47.852,22.949,22.461,-79.102,-215.820,0
1579288665.250,68.359,25.391,19.531,-35.156,-233.398,0
1579288665.254,53.223,25.391,23.926,3.906,-212.891,0
1579288665.251,38.574,19.043,22.949,-66.895,-212.402,0
1579288665.255,52.734,26.855,18.555,-136.719,-228.027,0
1579288665.259,65.918,29.785,16.602,-51.270,-203.613,0
1579288665.263,86.914,32.227,20.020,23.926,-190.918,0
1579288665.267,77.148,31.738,20.508,-4.883,-208.984,0
1579288665.271,61.035,22.949,15.137,-66.895,-228.027,0
1579288665.275,65.918,27.832,19.531,-48.340,-234.375,0
1579288665.278,48.828,27.344,23.438,1.465,-223.145,0
1579288665.282,51.270,27.832,26.855,-22.949,-240.723,0
1579288665.286,62.012,31.250,32.715,-74.707,-258.789,0
1579288665.290,40.039,24.902,27.344,-65.430,-254.883,0
1579288665.294,33.203,20.508,30.273,-10.742,-219.727,0
1579288665.311,53.223,23.438,31.250,5.859,-211.426,0
1579288665.315,83.984,33.203,21.973,-43.457,-237.305,0
1579288665.319,75.195,37.109,29.785,-57.617,-221.680,0
1579288665.323,42.480,32.715,27.832,-3.418,-202.637,0
1579288665.327,62.988,39.551,10.742,12.207,-208.984,0
1579288665.331,62.500,37.109,20.020,-33.691,-239.746,0
1579288665.335,72.266,31.738,25.879,-74.219,-265.625,0
1579288665.338,73.242,34.668,20.020,-29.785,-242.188,0
1579288665.342,49.805,36.133,29.785,32.227,-220.215,0
1579288665.346,62.012,30.273,33.203,-1.465,-232.422,0
1579288665.350,87.402,10.254,39.551,-41.504,-244.629,0
1579288665.354,94.238,9.766,36.133,-17.090,-239.258,0
1579288665.351,107.422,40.527,25.879,28.809,-234.375,0
1579288665.355,83.008,48.828,26.855,9.766,-222.168,0
1579288665.359,54.199,42.969,26.855,-73.242,-199.219,0
1579288665.363,70.801,37.109,26.367,-78.125,-190.430,0
1579288665.367,72.754,38.086,30.762,11.230,-188.965,0
1579288665.371,64.453,34.668,29.785,18.555,-208.984,0
1579288665.375,67.383,34.668,18.066,-57.617,-226.562,0
1579288665.378,62.988,37.109,18.555,-93.262,-224.609,0
1579288665.382,77.637,38.086,28.809,-32.227,-195.801,0
1579288665.386,94.238,31.738,15.137,17.578,-206.055,0
1579288665.390,88.379,18.066,7.812,-38.574,-262.695,0
1579288665.394,76.660,16.602,29.785,-80.078,-245.605,0
1579288665.392,58.105,24.414,28.809,-33.691,-214.355,0
1579288665.396,43.457,29.785,20.020,5.371,-195.801,0
1579288665.400,54.688,27.344,25.879,-25.391,-197.266,0
1579288665.404,70.312,26.367,30.273,-87.891,-230.469,0
1579288665.408,63.477,19.531,27.832,-47.852,-207.520,0
1579288665.412,85.449,23.438,22.461,41.992,-193.359,0
1579288665.416,94.727,39.062,20.996,11.230,-196.289,0
1579288665.419,77.637,29.297,24.414,-68.359,-221.680,0
1579288665.423,62.012,20.508,29.785,-73.730,-235.840,0
1579288665.427,54.199,29.297,34.180,-6.836,-159.180,0
1579288665.431,64.453,33.203,29.297,-1.465,-135.254,0
1579288665.435,61.035,23.438,30.762,-67.871,-179.688,0
1579288665.451,47.363,16.602,35.156,-80.566,-190.918,0
1579288665.455,46.875,31.738,32.227,-23.438,-204.590,0
1579288665.459,68.359,29.297,34.180,30.273,-166.992,0
1579288665.463,60.547,5.859,41.504,-14.648,-151.855,0
1579288665.467,31.738,18.066,30.762,-74.219,-181.152,0
1579288665.471,13.672,43.945,13.184,-20.508,-176.758,0
1579288665.475,11.719,37.109,16.113,34.180,-179.199,0
1579288665.478,-0.488,29.297,23.438,-3.418,-187.012,0
1579288665.482,-12.207,35.156,22.949,-72.754,-196.777,0
1579288665.486,-5.371,32.227,21.973,-62.500,-205.566,0
1579288665.490,-13.184,28.809,30.762,31.250,-178.711,0
1579288665.494,0.977,27.832,24.902,33.203,-174.316,0
1579288665.491,-10.742,26.855,13.672,-57.617,-206.543,0
1579288665.495,-19.531,26.367,21.973,-62.988,-201.660,0
1579288665.499,-14.160,23.926,27.344,9.766,-178.223,0
1579288665.503,-11.230,28.320,27.344,13.672,-181.641,0
1579288665.507,-3.418,31.250,25.391,-41.016,-203.613,0
1579288665.511,-9.277,17.578,19.043,-82.520,-208.984,0
1579288665.515,-0.977,10.254,27.344,-37.598,-215.820,0
1579288665.518,22.949,19.043,22.949,34.668,-206.055,0
1579288665.522,30.273,-16.113,2.441,-10.742,-185.547,0
1579288665.526,-15.625,-16.602,9.766,-101.562,-214.844,0
1579288665.530,-46.875,58.105,25.879,-73.730,-224.609,0
1579288665.534,-14.160,82.520,25.879,-0.977,-197.266,0
1579288665.531,-7.812,60.547,22.461,-5.371,-188.477,0
1579288665.535,-23.438,46.875,18.066,-65.430,-185.547,0
1579288665.539,-14.160,37.598,10.254,-49.316,-200.195,0
1579288665.543,2.441,35.156,30.762,40.039,-188.965,0
1579288665.547,14.648,23.926,32.715,46.387,-153.809,0
1579288665.551,21.973,31.738,14.648,-15.137,-160.645,0
1579288665.555,-1.465,49.805,15.625,-36.133,-168.945,0
1579288665.558,5.859,36.621,20.996,46.387,-159.668,0
1579288665.562,4.883,30.762,22.949,69.824,-171.387,0
1579288665.566,-2.930,30.762,23.438,-1.953,-166.992,0
1579288665.570,9.277,24.902,19.043,-25.391,-154.785,0
1579288665.574,-7.324,30.273,19.043,33.203,-160.156,0
1579288665.591,19.531,26.367,21.484,98.145,-150.879,0
1579288665.595,35.156,17.578,23.926,42.969,-143.555,0
1579288665.599,16.113,24.902,22.461,-18.555,-161.133,0
1579288665.603,21.484,43.457,22.949,35.645,-148.926,0
1579288665.607,30.762,37.109,17.578,91.309,-112.305,0
1579288665.611,40.039,14.648,2.441,83.984,-85.938,0
1579288665.615,46.387,19.531,6.836,-17.090,-121.094,0
1579288665.618,41.504,48.340,14.160,-45.898,-142.090,0
1579288665.622,25.391,30.273,10.742,47.363,-107.910,0
1579288665.626,31.250,12.695,16.113,55.176,-111.328,0
1579288665.630,44.922,42.969,19.043,3.418,-125.000,0
1579288665.634,41.992,36.621,18.066,-22.949,-160.156,0
1579288665.631,44.922,15.625,23.438,45.410,-139.160,0
1579288665.635,47.852,31.738,27.832,85.449,-106.934,0
1579288665.639,24.414,40.527,25.391,20.996,-120.117,0
1579288665.643,16.602,19.043,20.996,-13.184,-117.676,0
1579288665.647,32.227,22.461,21.973,21.973,-131.348,0
1579288665.651,30.273,26.855,23.926,77.637,-147.949,0
1579288665.655,24.414,24.414,20.508,79.102,-152.344,0
1579288665.658,25.391,35.156,22.461,15.137,-155.762,0
1579288665.662,27.344,12.207,28.320,41.992,-128.906,0
1579288665.666,38.086,13.672,24.902,121.094,-111.816,0
1579288665.670,38.574,45.898,16.113,100.098,-117.676,0
1579288665.674,26.367,44.922,20.508,59.082,-132.324,0
1579288665.671,17.090,38.574,25.391,78.125,-130.859,0
1579288665.675,29.297,34.180,28.320,142.578,-109.375,0
1579288665.679,30.273,23.926,22.949,155.762,-119.629,0
1579288665.683,17.578,16.602,28.809,107.910,-107.910,0
1579288665.687,25.391,30.762,37.109,101.562,-92.773,0
1579288665.691,21.973,14.160,19.531,140.625,-102.539,0
1579288665.695,19.531,-0.488,21.484,169.922,-91.797,0
1579288665.698,14.648,23.438,29.785,110.352,-103.027,0
1579288665.702,5.371,33.203,19.531,49.805,-119.141,0
1579288665.706,0.000,42.969,21.973,105.469,-98.145,0
1579288665.710,11.230,42.480,28.320,163.574,-72.266,0
1579288665.714,12.207,31.250,32.227,143.555,-68.848,0
1579288665.732,11.230,21.484,24.902,71.777,-87.891,0
1579288665.736,12.695,31.250,24.414,76.172,-117.188,0
1579288665.740,19.531,30.762,29.297,170.410,-87.891,0
1579288665.744,36.133,6.348,22.461,186.523,-74.219,0
1579288665.748,14.160,21.973,26.367,103.516,-110.840,0
1579288665.752,2.930,41.992,27.344,79.590,-139.648,0
1579288665.756,19.531,44.434,24.414,160.156,-135.742,0
1579288665.759,20.020,43.457,36.133,192.383,-93.750,0
1579288665.763,16.113,29.297,34.180,120.605,-91.797,0
1579288665.767,31.250,25.879,31.250,84.473,-94.238,0
1579288665.771,35.645,31.738,17.090,129.883,-106.445,0
1579288665.775,28.809,34.180,9.277,166.016,-109.375,0
1579288665.772,50.781,11.719,28.320,133.301,-82.520,0
1579288665.776,45.410,8.789,35.156,63.965,-99.609,0
1579288665.780,21.973,28.320,26.855,82.031,-98.145,0
1579288665.784,25.879,30.273,23.438,126.465,-101.562,0
1579288665.788,30.273,27.832,29.785,111.816,-108.398,0
1579288665.792,36.133,29.297,22.461,41.992,-116.211,0
1579288665.796,20.020,26.855,15.625,24.902,-138.184,0
1579288665.799,20.020,36.621,29.297,105.469,-113.770,0
1579288665.803,30.762,42.480,26.367,108.398,-93.750,0
1579288665.807,22.949,28.809,15.137,29.785,-128.418,0
1579288665.811,25.391,30.273,18.066,25.391,-126.465,0
1579288665.815,30.273,23.438,22.949,98.633,-94.238,0
1579288665.811,39.551,11.230,28.320,122.070,-68.359,0
1579288665.815,46.875,28.320,22.949,63.477,-79.102,0
1579288665.819,39.551,33.203,19.531,22.949,-118.652,0
1579288665.823,22.461,14.160,28.809,69.336,-95.215,0
1579288665.827,18.555,-2.930,31.250,132.324,-66.895,0
1579288665.831,41.992,3.906,23.926,114.258,-91.309,0
1579288665.835,43.457,21.973,26.367,50.781,-104.980,0
1579288665.838,26.855,31.250,32.715,67.871,-104.492,0
1579288665.842,20.020,25.879,27.832,132.324,-87.402,0
1579288665.846,30.762,23.438,22.949,125.488,-60.547,0
1579288665.850,41.992,39.062,24.414,67.383,-82.520,0
1579288665.854,38.086,39.062,29.297,71.777,-106.445,0
1579288665.871,40.527,29.297,28.809,151.367,-102.539,0
1579288665.875,36.133,26.855,30.273,161.133,-79.590,0
1579288665.879,40.039,26.855,24.414,91.797,-72.266,0
1579288665.883,61.523,20.508,22.949,69.824,-101.562,0
1579288665.887,59.570,20.996,22.461,122.559,-95.703,0
1579288665.891,62.012,22.461,16.602,145.020,-117.676,0
1579288665.895,49.316,27.832,24.414,89.844,-149.414,0
1579288665.898,37.598,34.668,30.762,43.945,-104.004,0
1579288665.902,42.480,22.949,24.414,98.145,-73.242,0
1579288665.906,43.457,25.391,23.926,153.320,-62.012,0
1579288665.910,42.969,41.016,20.020,116.699,-66.406,0
1579288665.914,21.484,41.992,18.555,49.316,-90.332,0
1579288665.911,23.438,41.016,27.832,69.824,-78.613,0
1579288665.915,35.156,28.320,24.902,146.973,-55.176,0
1579288665.919,37.598,22.461,26.367,119.629,-63.477,0
1579288665.923,48.340,29.785,30.273,65.430,-93.262,0
1579288665.927,44.434,22.461,27.344,70.312,-83.496,0
1579288665.931,32.715,8.789,15.137,120.117,-62.012,0
1579288665.935,37.109,24.902,4.395,129.883,-47.852,0
1579288665.938,43.945,54.688,11.230,49.805,-49.316,0
1579288665.942,51.270,46.875,10.254,7.324,-58.105,0
1579288665.946,48.340,32.715,2.930,68.848,-84.961,0
1579288665.950,44.434,43.457,0.000,116.211,-63.477,0
1579288665.954,54.688,38.086,-0.488,59.570,-41.504,0
1579288665.952,51.270,49.805,-0.488,-0.977,-81.543,0
1579288665.956,33.691,66.406,-7.812,35.645,-92.773,0
1579288665.960,43.945,54.199,-8.301,104.492,-84.473,0
1579288665.964,54.688,52.734,5.859,83.008,-45.410,0
1579288665.968,30.273,54.199,-2.441,0.977,-31.738,0
1579288665.972,23.926,42.480,-11.719,12.695,-60.059,0
1579288665.976,36.133,43.457,-13.672,93.262,-58.594,0
1579288665.979,33.691,52.246,-14.648,111.328,-76.660,0
1579288665.983,42.969,50.293,5.371,29.297,-107.910,0
1579288665.987,26.367,49.805,14.648,-8.789,-75.195,0
1579288665.991,19.531,46.875,10.254,58.105,-47.852,0
1579288665.995,47.363,55.176,18.555,103.516,-46.387,0
1579288666.011,24.902,45.410,3.906,53.223,-41.504,0
1579288666.015,-2.930,17.578,-11.230,-21.973,-55.176,0
1579288666.019,-9.277,12.695,-2.441,9.766,-70.801,0
1579288666.023,-7.324,23.926,0.977,51.270,-78.125,0
1579288666.027,16.113,34.668,9.766,29.785,-80.566,0
1579288666.031,15.625,40.039,1.953,-35.645,-110.352,0
1579288666.035,2.930,38.574,-14.648,-22.949,-114.746,0
1579288666.038,10.254,37.598,-7.324,24.414,-95.703,0
1579288666.042,-1.953,37.109,2.441,-11.230,-112.305,0
1579288666.046,-18.066,37.109,2.441,-64.453,-126.465,0
1579288666.050,-11.719,31.250,4.395,-59.570,-120.117,0
1579288666.054,-22.461,36.133,-1.465,-0.488,-107.910,0
1579288666.051,-15.625,47.852,-9.277,-0.488,-85.449,0
1579288666.055,-13.672,48.340,0.488,-69.336,-83.008,0
1579288666.059,-21.484,47.852,-2.441,-106.445,-103.027,0
1579288666.063,-21.484,72.754,0.000,-57.617,-101.074,0
1579288666.067,-46.875,80.566,-26.855,-45.410,-97.656,0
1579288666.071,-86.426,54.199,-49.316,-153.320,-105.469,0
1579288666.075,-100.586,46.387,-27.344,-207.031,-125.488,0
1579288666.078,-79.590,62.500,-20.508,-141.602,-95.703,0
1579288666.082,-82.520,48.828,-36.133,-80.078,-86.914,0
1579288666.086,-124.023,58.594,-51.270,-127.930,-118.164,0
1579288666.090,-122.070,83.008,-41.016,-234.375,-98.145,0
1579288666.094,-118.164,81.055,-28.809,-213.867,-94.238,0
1579288666.111,-113.770,77.637,-38.086,-133.789,-106.934,0
1579288666.115,-101.074,49.805,-42.969,-139.160,-108.398,0
1579288666.119,-102.539,66.406,-39.062,-183.105,-108.398,0
1579288666.123,-83.984,99.121,-36.133,-178.223,-106.445,0
1579288666.127,-73.730,81.543,-34.180,-127.930,-94.727,0
1579288666.131,-92.285,82.031,-29.785,-99.121,-101.562,0
1579288666.135,-94.238,80.566,-22.949,-144.043,-102.539,0
1579288666.138,-63.965,76.660,-25.879,-154.785,-128.906,0
1579288666.142,-24.414,85.938,-18.555,-67.871,-125.000,0
1579288666.146,-29.785,70.801,4.883,-17.578,-90.332,0
1579288666.150,-21.973,60.059,-0.977,-50.781,-83.496,0
1579288666.154,10.254,58.105,-17.090,-83.984,-93.750,0
1579288666.151,13.184,50.781,-4.883,-15.625,-100.098,0
1579288666.155,16.113,37.598,6.836,34.180,-77.148,0
1579288666.159,40.527,38.574,16.113,5.371,-78.125,0
1579288666.163,55.664,44.922,25.391,-26.855,-108.398,0
1579288666.167,52.734,39.551,30.762,21.973,-140.137,0
1579288666.171,61.035,26.367,34.668,107.422,-125.488,0
1579288666.175,77.637,19.043,31.738,74.707,-99.121,0
1579288666.178,77.637,17.578,34.180,13.672,-106.445,0
1579288666.182,84.473,13.184,40.527,36.621,-110.352,0
1579288666.186,83.984,10.742,42.969,103.027,-74.219,0
1579288666.190,90.820,4.395,40.039,117.188,-102.539,0
1579288666.194,111.328,14.160,38.574,28.809,-136.719,0
1579288666.191,106.445,7.324,48.828,7.812,-119.141,0
1579288666.195,99.121,-5.859,50.293,87.891,-104.004,0
1579288666.199,88.867,1.953,38.574,119.629,-97.168,0
1579288666.203,110.352,28.320,54.199,80.566,-102.051,0
1579288666.207,122.559,42.480,52.246,37.109,-111.328,0
1579288666.211,82.031,18.555,28.809,48.340,-117.676,0
1579288666.215,64.453,16.113,40.039,87.402,-139.648,0
1579288666.218,72.754,15.625,48.340,42.969,-138.184,0
1579288666.222,77.148,4.883,44.434,-15.625,-144.531,0
1579288666.226,102.051,5.371,57.129,5.371,-165.039,0
1579288666.230,131.836,23.438,56.641,85.938,-134.277,0
1579288666.234,116.211,29.297,44.922,88.867,-122.070,0
1579288666.252,92.285,14.648,50.293,13.672,-147.949,0
1579288666.256,88.379,-4.395,48.340,9.277,-148.926,0
1579288666.260,99.121,6.348,44.922,62.012,-133.789,0
1579288666.264,115.234,11.719,45.898,80.078,-143.066,0
1579288666.268,102.539,3.906,31.738,50.293,-152.344,0
1579288666.272,81.543,20.508,24.902,34.668,-145.996,0
1579288666.276,79.102,32.227,33.691,57.617,-141.602,0
1579288666.279,86.426,47.852,39.062,88.867,-130.371,0
1579288666.283,89.844,47.363,41.016,48.828,-122.070,0
1579288666.287,80.078,33.691,38.574,0.977,-154.297,0
1579288666.291,86.426,34.180,44.922,44.922,-153.809,0
1579288666.295,93.750,27.832,47.363,118.164,-133.789,0
1579288666.291,90.332,11.719,33.203,95.215,-147.461,0
1579288666.295,97.168,22.949,38.086,36.621,-152.344,0
1579288666.299,91.309,28.809,39.551,67.383,-176.270,0
1579288666.303,83.984,28.809,31.250,125.488,-160.645,0
1579288666.307,76.660,37.598,25.879,123.047,-132.324,0
1579288666.311,71.777,37.598,24.902,64.453,-141.113,0
1579288666.315,77.148,43.945,27.832,36.621,-153.320,0
1579288666.318,66.406,46.387,27.344,94.727,-150.879,0
1579288666.322,79.102,34.180,41.504,121.094,-119.141,0
1579288666.326,81.055,19.043,44.922,61.035,-105.469,0
1579288666.330,61.523,30.273,21.484,-0.977,-148.438,0
1579288666.334,62.012,29.297,23.438,51.270,-154.785,0
1579288666.331,92.285,0.000,30.762,108.887,-111.816,0
1579288666.335,95.703,35.645,18.555,68.359,-105.469,0
1579288666.339,70.801,78.613,28.809,21.973,-109.375,0
1579288666.343,54.688,44.922,33.691,29.297,-131.348,0
1579288666.347,44.434,23.926,33.691,83.496,-127.441,0
1579288666.351,54.199,41.504,28.320,70.312,-101.074,0
1579288666.355,53.223,43.457,17.090,-1.465,-120.605,0
1579288666.358,62.500,38.574,21.973,13.672,-142.578,0
1579288666.362,71.777,41.992,23.926,84.961,-152.832,0
1579288666.366,62.500,44.922,20.020,91.797,-158.203,0
1579288666.370,67.383,45.898,21.973,41.992,-159.668,0
1579288666.374,57.129,29.785,22.461,16.602,-157.227,0
1579288666.391,48.340,12.695,25.391,70.801,-123.047,0
1579288666.395,61.523,29.785,24.414,103.516,-122.070,0
1579288666.399,56.641,28.809,28.320,53.223,-125.488,0
1579288666.403,45.898,14.648,31.738,8.789,-137.695,0
1579288666.407,46.387,33.203,21.973,62.500,-127.441,0
1579288666.411,38.574,42.480,19.531,117.676,-93.262,0
1579288666.415,35.645,30.273,19.043,74.219,-110.840,0
1579288666.418,40.527,32.227,20.508,12.695,-145.508,0
1579288666.422,40.527,40.039,33.203,65.430,-125.488,0
1579288666.426,52.246,21.484,32.715,135.254,-90.332,0
1579288666.430,71.777,-11.230,24.414,97.168,-84.473,0
1579288666.434,56.152,-1.953,23.926,37.598,-95.215,0
1579288666.431,40.527,35.645,18.066,49.316,-107.422,0
1579288666.435,44.434,45.410,14.648,100.098,-102.539,0
1579288666.439,32.715,49.805,20.020,107.422,-96.680,0
1579288666.443,17.578,50.781,20.020,43.457,-103.027,0
1579288666.447,19.043,34.180,18.555,-2.441,-118.164,0
1579288666.451,14.648,25.879,22.461,69.824,-121.094,0
1579288666.455,30.762,21.484,24.902,124.023,-96.680,0
1579288666.458,54.688,9.766,24.902,72.754,-89.844,0
1579288666.462,41.992,27.344,22.949,52.734,-103.516,0
1579288666.466,32.227,46.387,14.648,88.379,-90.820,0
1579288666.470,29.297,39.551,8.301,109.375,-93.750,0
1579288666.474,42.969,30.273,24.902,87.402,-91.797,0
1579288666.472,33.691,26.367,27.344,26.367,-105.957,0
1579288666.476,22.949,17.090,19.531,43.457,-127.441,0
1579288666.480,36.133,19.043,22.949,123.047,-117.676,0
1579288666.484,47.363,4.395,18.555,127.441,-118.652,0
1579288666.488,42.480,-9.766,21.973,40.039,-111.816,0
1579288666.492,22.949,14.160,21.973,32.715,-109.863,0
1579288666.496,18.555,40.527,13.184,93.750,-94.238,0
1579288666.499,39.551,49.316,18.555,112.793,-70.801,0
1579288666.503,32.227,36.621,21.484,60.547,-104.980,0
1579288666.507,27.832,25.391,18.066,28.809,-111.816,0
1579288666.511,31.250,27.832,15.625,95.215,-85.449,0
1579288666.515,28.320,25.391,19.531,127.441,-68.359,0
1579288666.531,21.484,31.250,21.484,56.641,-51.758,0
1579288666.535,7.324,33.691,13.672,4.883,-74.219,0
1579288666.539,19.531,36.133,15.625,61.523,-101.562,0
1579288666.543,21.484,34.668,21.973,114.746,-66.895,0
1579288666.547,15.625,23.926,24.414,71.289,-47.363,0
1579288666.551,24.902,19.531,16.602,20.508,-76.172,0
1579288666.555,20.508,26.855,6.836,44.434,-91.309,0
1579288666.558,37.109,27.832,5.859,87.402,-97.168,0
1579288666.562,46.875,18.066,22.461,96.191,-83.496,0
1579288666.566,22.949,30.273,28.809,46.387,-83.008,0
1579288666.570,35.156,28.320,18.555,28.320,-80.078,0
1579288666.574,41.504,23.438,20.996,119.629,-80.078,0
1579288666.573,23.438,64.453,21.484,127.930,-58.594,0
1579288666.577,18.555,74.219,13.184,40.527,-51.758,0
1579288666.581,19.531,60.547,13.672,11.230,-87.402,0
1579288666.585,10.742,48.340,18.555,59.082,-89.844,0
1579288666.589,19.531,47.852,12.207,118.652,-58.594,0
1579288666.593,35.645,52.246,11.230,82.031,-77.148,0
1579288666.597,29.297,40.039,22.949,27.832,-119.629,0
1579288666.600,16.113,37.598,28.809,75.684,-93.750,0
1579288666.604,24.414,41.992,34.180,126.465,-62.988,0
1579288666.608,25.391,36.133,30.762,108.887,-62.500,0
1579288666.612,14.160,35.156,27.344,48.340,-86.426,0
1579288666.616,9.766,30.762,35.645,58.594,-114.258,0
1579288666.611,17.578,31.738,38.086,130.859,-66.406,0
1579288666.615,29.297,40.039,34.668,147.949,-28.320,0
1579288666.619,15.625,40.039,22.461,95.215,-54.688,0
1579288666.623,17.578,37.109,33.691,59.570,-63.965,0
1579288666.627,24.414,33.203,35.156,126.465,-75.195,0
1579288666.631,24.414,43.457,17.578,167.480,-44.434,0
1579288666.635,19.531,52.246,15.137,110.840,-23.926,0
1579288666.638,11.230,32.715,9.277,67.871,-59.570,0
1579288666.642,16.602,25.879,16.113,109.375,-106.445,0
1579288666.646,19.531,51.270,27.344,152.344,-76.172,0
1579288666.650,11.230,69.824,30.762,108.398,-21.484,0
1579288666.654,14.160,61.523,26.855,44.922,-42.480,0
1579288666.671,23.926,54.688,29.297,91.309,-37.109,0
1579288666.675,26.367,50.781,27.344,161.133,-24.902,0
1579288666.679,29.297,41.504,22.949,150.879,-35.645,0
1579288666.683,44.434,52.734,31.250,84.961,-29.785,0
1579288666.687,41.016,65.430,27.344,56.152,-25.879,0
1579288666.691,14.160,47.363,26.855,128.418,-26.367,0
1579288666.695,17.090,30.273,29.297,151.367,-33.691,0
1579288666.698,31.738,55.176,24.414,95.703,-23.438,0
1579288666.702,40.527,66.895,25.879,65.430,9.766,0
1579288666.706,34.180,56.152,20.508,112.793,1.465,0
1579288666.710,28.320,50.781,20.020,156.738,10.742,0
1579288666.714,20.996,38.086,25.879,83.496,2.930,0
1579288666.715,17.578,31.250,22.461,26.367,-25.879,0
1579288666.719,26.855,33.203,20.020,53.711,0.977,0
1579288666.723,34.668,39.062,22.949,100.586,13.184,0
1579288666.727,27.344,43.945,14.648,68.359,-22.949,0
1579288666.731,19.531,22.461,9.766,3.906,-50.781,0
1579288666.735,38.086,34.180,12.207,32.715,-49.805,0
1579288666.739,41.992,68.359,5.859,72.754,-23.438,0
1579288666.742,31.250,57.129,2.441,54.199,-17.090,0
1579288666.746,35.645,55.176,22.461,33.691,-23.926,0
1579288666.750,20.508,46.387,29.297,8.301,-54.199,0
1579288666.754,19.043,22.949,20.020,27.832,-60.059,0
1579288666.758,22.949,23.438,20.996,33.691,-28.809,0
1579288666.752,3.906,20.996,13.184,-31.738,-45.410,0
1579288666.756,6.836,29.297,17.090,-42.969,-61.035,0
1579288666.760,14.160,20.996,16.113,16.113,-64.941,0
1579288666.764,13.184,-2.930,19.043,63.965,-65.430,0
1579288666.768,15.625,5.371,28.320,14.160,-53.223,0
1579288666.772,14.648,27.832,18.066,-62.988,-68.359,0
1579288666.776,13.672,40.039,15.137,-21.484,-69.824,0
1579288666.779,39.062,38.086,22.461,59.082,-44.922,0
1579288666.783,20.020,28.809,20.508,39.551,-66.406,0
1579288666.787,9.766,31.738,17.578,-49.805,-74.219,0
1579288666.791,15.625,18.555,19.531,-54.688,-61.035,0
1579288666.795,10.742,20.508,27.344,51.758,-18.555,0
1579288666.811,16.113,35.156,18.066,51.270,-18.066,0
1579288666.815,15.625,30.762,24.414,-40.527,-64.941,0
1579288666.819,15.625,24.902,20.996,-55.176,-47.852,0
1579288666.823,36.621,30.762,13.184,25.879,-56.641,0
1579288666.827,49.316,46.387,16.602,85.449,-60.059,0
1579288666.831,37.109,45.410,21.484,21.973,-49.805,0
1579288666.835,19.531,39.551,26.855,-36.133,-86.426,0
1579288666.838,18.066,47.363,30.273,10.742,-83.008,0
1579288666.842,36.621,33.203,38.086,74.707,-48.828,0
1579288666.846,32.227,18.555,20.996,40.527,-33.203,0
1579288666.850,26.855,43.945,18.066,-17.578,-39.551,0
1579288666.854,32.227,49.805,16.113,20.020,-46.875,0
1579288666.853,27.832,33.691,13.672,61.523,-44.922,0
1579288666.857,15.137,37.109,20.996,38.574,-68.848,0
1579288666.861,31.250,57.617,21.973,-15.625,-81.543,0
1579288666.865,35.156,45.898,15.625,-20.508,-67.871,0
1579288666.869,36.133,40.039,23.438,53.711,-61.035,0
1579288666.873,59.570,43.457,31.250,78.125,-57.617,0
1579288666.877,37.598,42.480,25.879,5.371,-49.805,0
1579288666.880,4.395,44.434,21.973,-47.363,-78.613,0
1579288666.884,19.043,28.809,27.344,27.344,-80.078,0
1579288666.888,37.598,30.762,26.367,65.430,-76.172,0
1579288666.892,17.578,44.922,23.926,-11.719,-77.637,0
1579288666.896,6.348,28.320,24.902,-62.012,-80.078,0
1579288666.892,12.695,35.156,29.297,21.484,-82.520,0
1579288666.896,17.090,52.246,28.809,82.031,-71.777,0
1579288666.900,37.598,46.387,37.598,31.250,-67.871,0
1579288666.904,40.527,42.480,39.551,-31.250,-58.594,0
1579288666.908,32.715,50.293,19.531,-8.301,-75.195,0
1579288666.912,33.203,50.293,24.414,62.500,-73.730,0
1579288666.916,36.133,46.387,35.156,54.688,-78.613,0
1579288666.919,15.137,30.273,26.855,-3.906,-86.426,0
1579288666.923,3.418,14.160,19.531,-31.250,-84.961,0
1579288666.927,12.695,25.879,23.926,22.461,-77.637,0
1579288666.931,11.719,28.809,27.832,51.270,-70.312,0
1579288666.935,-0.488,31.250,23.926,-14.160,-76.660,0
1579288666.951,2.441,27.832,26.855,-38.086,-79.102,0
1579288666.955,30.762,18.066,28.320,28.320,-66.406,0
1579288666.959,21.484,39.062,19.043,62.012,-75.195,0
1579288666.963,9.766,37.109,27.344,19.043,-72.266,0
1579288666.967,41.992,52.734,37.109,-24.414,-67.871,0
1579288666.971,36.133,70.801,13.184,10.742,-96.680,0
1579288666.975,11.719,34.668,11.230,40.527,-76.172,0
1579288666.978,16.602,15.137,29.297,9.766,-44.434,0
1579288666.982,20.020,23.438,29.785,-41.016,-73.242,0
1579288666.986,21.484,41.016,32.227,-20.508,-98.145,0
1579288666.990,26.367,36.621,30.273,46.875,-67.871,0
1579288666.994,31.738,29.297,25.391,37.598,-48.340,0
1579288666.992,33.691,37.598,27.344,-19.531,-95.703,0
1579288666.996,33.691,54.688,29.297,-31.250,-103.027,0
1579288667.000,33.691,58.105,25.879,26.855,-67.383,0
1579288667.004,42.969,26.855,18.555,37.598,-50.293,0
1579288667.008,31.250,11.230,18.555,-34.180,-63.965,0
1579288667.012,30.762,33.691,18.066,-62.500,-77.148,0
1579288667.016,33.691,43.945,23.438,-1.465,-56.152,0
1579288667.019,27.344,28.320,27.832,40.039,-59.570,0
1579288667.023,38.574,20.020,26.855,0.977,-37.109,0
1579288667.027,42.969,35.156,23.438,-44.922,-67.871,0
1579288667.031,52.734,52.246,20.508,-1.465,-107.910,0
1579288667.035,53.223,47.852,24.902,59.570,-43.457,0
1579288667.031,28.809,26.367,23.438,23.438,-38.086,0
1579288667.035,23.438,23.926,23.438,-27.344,-77.637,0
1579288667.039,35.156,36.133,28.809,-20.996,-93.262,0
1579288667.043,32.715,45.410,27.832,26.367,-87.402,0
1579288667.047,24.414,53.711,23.438,30.762,-65.918,0
1579288667.051,23.438,47.852,20.508,-39.062,-63.965,0
1579288667.055,26.855,38.574,25.879,-52.246,-68.359,0
1579288667.058,15.137,31.738,23.926,13.184,-76.172,0
1579288667.062,42.969,52.246,41.992,62.012,-83.984,0
1579288667.066,60.059,67.871,40.527,16.113,-68.359,0
1579288667.070,24.414,40.527,7.812,-45.898,-91.309,0
1579288667.074,23.926,30.762,22.461,18.555,-72.754,0
1579288667.091,29.785,31.738,29.785,65.918,-48.828,0
1579288667.095,10.254,24.902,23.926,4.395,-78.125,0
1579288667.099,5.371,29.785,26.855,-60.059,-60.547,0
1579288667.103,18.066,22.949,30.273,-17.578,-80.078,0
1579288667.107,31.250,23.926,38.086,40.527,-96.191,0
1579288667.111,26.855,35.645,32.715,7.812,-87.402,0
1579288667.115,5.371,38.574,26.855,-43.457,-126.465,0
1579288667.118,8.789,42.969,32.715,-31.250,-118.164,0
1579288667.122,22.461,34.180,29.297,42.969,-86.426,0
1579288667.126,30.762,40.527,24.414,46.387,-83.984,0
1579288667.130,37.598,33.691,26.367,-18.555,-103.516,0
1579288667.134,29.297,24.902,21.484,-33.203,-101.074,0
1579288667.131,35.645,31.738,30.762,44.922,-70.801,0
1579288667.135,44.434,26.367,26.367,69.824,-69.824,0
1579288667.139,27.832,42.969,18.555,-19.531,-81.543,0
1579288667.143,8.301,48.340,25.879,-68.359,-93.262,0
1579288667.147,10.742,37.109,28.320,10.254,-87.891,0
1579288667.151,19.531,32.715,25.879,61.035,-77.637,0
1579288667.155,30.273,30.762,26.855,13.184,-87.402,0
1579288667.158,49.805,45.410,32.715,-44.434,-102.051,0
1579288667.162,41.504,43.457,25.391,-18.066,-89.844,0
1579288667.166,29.785,25.879,26.855,58.105,-89.844,0
1579288667.170,45.410,20.020,30.273,38.574,-98.145,0
1579288667.174,52.734,26.367,21.484,-27.344,-101.074,0
1579288667.172,47.363,31.250,17.090,-29.785,-108.887,0
1579288667.176,57.129,49.805,23.438,34.668,-86.426,0
1579288667.180,51.758,45.410,22.949,54.688,-93.262,0
1579288667.184,42.480,32.715,22.949,-4.395,-136.230,0
1579288667.188,44.434,40.527,26.855,-23.438,-134.277,0
1579288667.192,27.344,35.156,20.996,35.156,-83.984,0
1579288667.196,42.969,42.480,32.227,74.219,-66.406,0
1579288667.199,55.176,47.363,32.715,31.738,-101.562,0
1579288667.203,51.270,21.973,11.230,-26.855,-110.840,0
1579288667.207,54.688,23.926,12.695,20.996,-83.496,0
1579288667.211,52.734,38.086,23.926,71.289,-59.570,0
1579288667.215,62.500,42.480,25.391,37.109,-71.777,0
1579288667.231,49.316,45.898,18.555,-14.648,-95.703,0
1579288667.235,37.598,32.715,18.555,3.418,-97.656,0
1579288667.239,31.250,24.902,25.879,65.430,-72.754,0
1579288667.243,33.691,36.621,25.879,46.875,-70.312,0
1579288667.247,50.293,19.043,31.738,-12.207,-90.820,0
1579288667.251,42.969,10.254,25.879,-0.488,-121.094,0
1579288667.255,41.504,61.035,28.809,77.637,-117.188,0
1579288667.258,37.109,61.523,30.273,80.566,-82.031,0
1579288667.262,42.480,30.273,26.855,-4.883,-68.848,0
1579288667.266,48.828,43.457,30.273,-27.832,-87.402,0
1579288667.270,35.645,51.270,20.020,37.598,-117.188,0
1579288667.274,37.598,45.410,25.879,73.730,-95.703,0
1579288667.271,40.527,38.574,38.574,25.391,-92.773,0
1579288667.275,46.387,36.133,41.016,-18.555,-105.957,0
1579288667.279,42.969,48.340,40.039,22.949,-69.336,0
1579288667.283,31.250,34.668,27.832,82.031,-71.289,0
1579288667.287,40.039,37.598,18.066,40.039,-119.141,0
1579288667.291,40.527,53.223,20.020,-7.812,-120.605,0
1579288667.295,31.738,42.969,27.344,14.648,-100.098,0
1579288667.298,32.227,40.527,31.250,55.664,-104.492,0
1579288667.302,42.480,44.434,34.668,60.059,-103.516,0
1579288667.306,54.688,34.668,30.762,-7.324,-124.512,0
1579288667.310,45.898,34.668,28.320,-22.949,-122.070,0
1579288667.314,37.598,36.621,30.762,38.574,-79.102,0
1579288667.311,63.477,37.109,32.715,60.059,-68.848,0
1579288667.315,51.270,43.457,26.855,7.324,-85.449,0
1579288667.319,35.645,25.391,23.926,-20.020,-88.867,0
1579288667.323,56.152,16.602,31.738,43.457,-71.289,0
1579288667.327,49.316,38.574,29.785,75.684,-55.664,0
1579288667.331,33.203,35.156,26.367,38.086,-61.523,0
1579288667.335,44.434,24.414,28.809,-13.672,-88.379,0
1579288667.338,53.711,38.574,18.066,5.859,-97.168,0
1579288667.342,29.785,40.527,18.555,77.148,-85.449,0
1579288667.346,38.574,43.945,30.762,42.969,-70.312,0
1579288667.350,52.246,41.992,23.926,-29.785,-101.074,0
1579288667.354,47.852,23.926,18.066,-2.441,-110.352,0
1579288667.371,45.410,15.625,22.461,80.078,-83.008,0
1579288667.375,36.621,28.809,19.531,65.430,-84.961,0
1579288667.379,41.992,44.434,19.531,-18.555,-96.680,0
1579288667.383,43.945,38.086,24.902,-19.531,-88.379,0
1579288667.387,37.598,33.691,24.414,39.062,-77.637,0
1579288667.391,24.902,36.133,25.879,62.500,-88.867,0
1579288667.395,12.695,26.367,30.762,15.137,-88.867,0
1579288667.398,38.574,17.090,27.344,-21.484,-93.262,0
1579288667.402,44.434,39.062,32.227,46.875,-80.566,0
1579288667.406,41.504,36.621,27.344,97.168,-77.148,0
1579288667.410,41.504,37.598,18.555,60.059,-78.613,0
1579288667.414,17.090,57.129,24.414,-14.648,-88.379,0
1579288667.412,25.879,62.012,36.133,0.488,-98.145,0
1579288667.416,52.734,50.781,40.039,80.078,-86.426,0
1579288667.420,50.781,38.574,32.227,72.754,-59.570,0
1579288667.424,27.344,32.227,16.113,-5.371,-65.430,0
1579288667.428,24.902,26.367,11.719,-7.324,-80.078,0
1579288667.432,36.621,42.969,14.648,55.664,-87.402,0
1579288667.436,27.832,44.922,10.742,60.059,-107.910,0
1579288667.439,29.297,39.551,25.879,7.812,-91.797,0
1579288667.443,41.016,34.668,23.926,6.348,-111.328,0
1579288667.447,39.062,39.062,20.508,53.223,-132.812,0
1579288667.451,25.879,37.598,27.344,62.988,-100.098,0
1579288667.455,33.691,35.645,28.320,27.832,-97.168,0
1579288667.452,38.086,47.363,33.203,-8.301,-92.285,0
1579288667.456,44.434,31.738,29.785,37.598,-75.195,0
1579288667.460,55.664,26.367,24.414,101.562,-83.984,0
1579288667.464,56.152,51.270,24.414,65.918,-80.566,0
1579288667.468,50.781,38.574,14.160,-18.066,-96.680,0
1579288667.472,42.969,20.996,9.277,1.465,-110.352,0
1579288667.476,55.176,36.133,13.184,73.730,-92.285,0
1579288667.479,51.270,53.223,6.836,68.359,-112.305,0
1579288667.483,41.504,49.805,8.301,1.953,-120.605,0
1579288667.487,46.387,42.480,6.348,-7.324,-113.281,0
1579288667.491,48.828,47.852,3.418,74.707,-101.074,0
1579288667.495,34.180,36.133,0.000,87.402,-87.891,0
1579288667.512,13.184,22.949,1.465,-5.859,-63.965,0
1579288667.516,11.719,11.230,4.883,-35.645,-71.289,0
1579288667.520,24.902,21.973,5.371,40.039,-89.844,0
1579288667.524,39.062,41.504,6.348,85.449,-96.191,0
1579288667.528,47.852,27.832,5.859,28.809,-109.375,0
1579288667.532,40.039,40.039,8.301,-20.020,-116.211,0
1579288667.536,46.387,60.547,23.926,31.738,-111.816,0
1579288667.539,48.828,50.781,26.367,89.844,-88.379,0
1579288667.543,44.922,23.926,14.648,54.199,-99.121,0
1579288667.547,41.016,25.879,14.160,-10.742,-128.906,0
1579288667.551,34.180,49.316,14.648,18.066,-104.492,0
1579288667.555,53.223,38.086,16.602,81.543,-70.312,0
1579288667.551,54.688,37.109,20.508,74.707,-68.359,0
1579288667.555,41.016,51.758,21.973,27.344,-105.469,0
1579288667.559,42.969,41.992,24.414,16.113,-103.027,0
1579288667.563,38.574,33.203,23.926,62.500,-57.617,0
1579288667.567,56.641,38.086,28.320,84.473,-78.613,0
1579288667.571,56.641,39.551,21.484,28.320,-108.398,0
1579288667.575,45.410,28.809,10.742,-4.883,-124.023,0
1579288667.578,49.805,21.973,20.508,52.246,-124.512,0
1579288667.582,53.223,33.203,18.555,102.539,-98.633,0
1579288667.586,27.832,30.762,12.695,40.039,-104.004,0
1579288667.590,15.137,29.297,17.578,-20.996,-103.027,0
1579288667.594,33.691,33.691,16.602,24.902,-99.609,0
1579288667.591,35.645,36.621,16.602,79.590,-113.770,0
1579288667.595,32.227,33.691,12.695,51.270,-103.516,0
1579288667.599,36.621,33.203,9.766,-21.973,-101.074,0
1579288667.603,34.668,43.457,15.625,-2.441,-103.027,0
1579288667.607,34.180,40.527,18.066,91.797,-64.941,0
1579288667.611,52.246,31.738,18.555,92.773,-55.664,0
1579288667.615,40.039,34.180,17.090,-1.953,-69.824,0
1579288667.618,38.086,27.344,19.531,-15.625,-100.586,0
1579288667.622,55.176,26.367,20.020,65.430,-103.027,0
1579288667.626,34.180,37.598,15.137,79.590,-78.613,0
1579288667.630,19.531,33.203,21.973,7.324,-89.355,0
1579288667.634,18.066,33.203,23.926,-31.738,-97.168,0
1579288667.651,9.277,38.574,15.137,20.020,-98.145,0
1579288667.655,22.461,44.434,22.461,79.102,-66.895,0
1579288667.659,25.391,44.434,24.414,41.016,-73.242,0
1579288667.663,16.113,32.715,15.625,-9.766,-80.566,0
1579288667.667,33.203,24.414,20.508,17.578,-66.406,0
1579288667.671,46.387,30.273,25.391,68.848,-78.125,0
1579288667.675,29.785,23.926,21.484,67.383,-67.871,0
1579288667.678,15.137,27.832,20.508,2.930,-88.379,0
1579288667.682,20.996,41.504,24.902,4.883,-108.398,0
1579288667.686,16.113,42.969,21.484,68.359,-70.312,0
1579288667.690,19.043,34.668,16.113,49.316,-66.895,0
1579288667.694,33.203,23.926,21.973,-9.277,-93.262,0
1579288667.691,29.297,26.855,20.020,-21.484,-101.074,0
1579288667.695,39.551,19.043,12.695,45.898,-85.449,0
1579288667.699,43.945,23.926,15.137,72.266,-62.500,0
1579288667.703,21.484,39.551,11.719,8.789,-89.355,0
1579288667.707,11.719,27.344,7.324,-27.832,-104.492,0
1579288667.711,23.438,12.695,12.207,17.578,-84.961,0
1579288667.715,35.645,27.344,16.113,76.660,-87.402,0
1579288667.718,33.691,40.527,21.973,34.668,-87.891,0
1579288667.722,23.438,33.691,16.602,-18.555,-101.562,0
1579288667.726,17.090,44.922,16.113,18.066,-105.469,0
1579288667.730,41.016,46.387,26.367,67.871,-82.031,0
1579288667.734,51.758,15.137,20.020,69.336,-75.684,0
1579288667.751,27.832,21.484,13.672,-8.789,-75.684,0
1579288667.755,25.879,51.270,14.160,-18.066,-63.477,0
1579288667.759,28.320,46.387,15.625,59.082,-59.082,0
1579288667.763,32.715,37.598,17.578,61.523,-69.824,0
1579288667.767,38.086,46.875,20.508,8.301,-87.402,0
1579288667.771,45.410,41.016,24.902,-20.508,-77.148,0
1579288667.775,48.828,33.691,17.578,34.180,-76.172,0
1579288667.778,27.832,40.039,14.160,77.148,-104.492,0
1579288667.782,23.926,42.480,23.926,25.391,-76.660,0
1579288667.786,32.715,38.086,19.531,-22.949,-78.125,0
1579288667.790,35.645,34.180,16.113,12.695,-81.055,0
1579288667.794,40.527,27.832,20.508,57.617,-68.359,0
1579288667.791,39.062,17.090,20.996,51.758,-73.242,0
1579288667.795,42.480,25.879,25.879,-0.488,-68.359,0
1579288667.799,44.922,35.645,25.391,1.953,-56.152,0
1579288667.803,50.293,29.785,21.484,67.871,-55.664,0
1579288667.807,41.016,29.297,21.484,55.664,-77.148,0
1579288667.811,33.203,25.391,20.020,-6.348,-111.328,0
1579288667.815,63.965,24.902,24.902,-8.301,-132.324,0
1579288667.818,54.199,21.973,28.809,66.406,-103.027,0
1579288667.822,39.062,9.766,30.762,100.098,-64.941,0
1579288667.826,49.805,19.043,20.020,31.738,-69.336,0
1579288667.830,32.227,44.434,1.953,-20.996,-116.699,0
1579288667.834,20.508,44.922,11.719,20.020,-107.910,0
1579288667.831,33.691,39.062,19.531,65.918,-57.129,0
1579288667.835,35.156,47.363,9.766,11.230,-70.312,0
1579288667.839,20.020,34.180,9.277,-48.828,-112.305,0
1579288667.843,24.414,22.461,11.719,-0.488,-115.723,0
1579288667.847,26.367,34.180,15.625,83.496,-82.031,0
1579288667.851,27.344,35.645,18.066,51.270,-82.031,0
1579288667.855,29.785,29.297,14.648,-51.758,-98.633,0
1579288667.858,21.973,20.996,16.602,-20.020,-88.379,0
1579288667.862,39.551,21.484,22.949,73.242,-87.891,0
1579288667.866,33.203,24.414,19.043,66.406,-132.812,0
1579288667.870,32.715,27.344,14.160,-4.883,-121.582,0
1579288667.874,30.273,28.320,8.789,-25.879,-92.285,0
1579288667.891,23.438,34.668,8.789,45.410,-93.262,0
1579288667.895,38.574,41.504,13.184,80.566,-89.844,0
1579288667.899,27.832,45.410,17.578,14.160,-95.703,0
1579288667.903,28.320,34.668,19.043,-23.438,-100.098,0
1579288667.907,33.203,22.949,12.695,15.625,-95.215,0
1579288667.911,31.738,38.086,16.113,70.312,-86.426,0
1579288667.915,40.527,33.203,14.648,49.316,-89.355,0
1579288667.918,49.316,6.836,10.254,-20.996,-117.188,0
1579288667.922,32.715,26.367,17.090,5.859,-98.145,0
1579288667.926,16.113,43.945,22.949,69.824,-87.891,0
1579288667.930,26.855,38.574,15.625,55.176,-72.266,0
1579288667.934,31.738,36.133,18.555,2.441,-82.031,0
1579288667.931,37.598,17.090,29.297,1.953,-109.863,0
1579288667.935,53.711,16.113,34.180,67.383,-89.355,0
1579288667.939,56.152,44.434,27.832,66.895,-85.449,0
1579288667.943,56.152,51.270,21.973,-5.859,-99.609,0
1579288667.947,41.504,32.715,22.461,-22.949,-94.727,0
1579288667.951,37.598,28.320,20.508,49.316,-78.613,0
1579288667.955,45.898,34.668,20.020,79.102,-58.105,0
1579288667.958,57.617,21.484,25.391,29.785,-45.898,0
1579288667.962,73.242,18.066,29.297,1.465,-69.336,0
1579288667.966,39.551,34.668,12.207,32.715,-60.059,0
1579288667.970,18.066,40.039,7.324,71.289,-63.965,0
1579288667.974,24.414,35.156,18.066,33.203,-104.004,0
1579288667.972,28.809,33.691,26.367,-18.555,-106.934,0
1579288667.976,32.715,32.715,26.367,20.996,-92.773,0
1579288667.980,27.832,20.508,17.090,81.543,-96.191,0
1579288667.984,19.531,22.461,12.695,53.711,-98.145,0
1579288667.988,28.809,21.484,21.973,-14.648,-88.867,0
1579288667.992,34.668,25.391,30.273,-14.648,-110.840,0
1579288667.996,34.180,30.273,28.320,65.430,-83.496,0
1579288667.999,36.133,28.320,21.973,82.520,-63.477,0
1579288668.003,35.645,29.785,11.230,8.789,-79.590,0
1579288668.007,33.691,23.438,22.461,-8.301,-73.730,0
1579288668.011,33.203,37.109,30.273,41.992,-72.754,0
1579288668.015,47.363,56.641,32.227,80.078,-47.852,0
1579288668.031,37.598,31.250,32.227,28.320,-43.457,0
1579288668.035,24.414,31.738,28.809,-26.367,-96.191,0
1579288668.039,32.227,50.293,36.133,24.414,-100.098,0
1579288668.043,25.879,25.391,31.738,73.242,-56.641,0
1579288668.047,27.344,20.020,26.855,45.410,-44.434,0
1579288668.051,41.992,43.457,25.391,-10.254,-83.496,0
1579288668.055,30.273,46.875,24.902,0.000,-116.211,0
1579288668.058,33.203,52.734,25.391,71.777,-97.656,0
1579288668.062,58.594,58.594,21.484,65.430,-75.684,0
1579288668.066,35.156,42.480,22.949,-6.348,-87.891,0
1579288668.070,18.066,35.645,25.391,-7.812,-105.957,0
1579288668.074,38.574,24.414,25.391,66.406,-111.816,0
1579288668.071,43.945,22.949,24.414,78.613,-102.051,0
1579288668.075,43.945,34.668,22.949,14.160,-75.684,0
1579288668.079,70.801,13.184,16.602,-6.836,-87.402,0
1579288668.083,59.082,14.648,16.602,39.062,-88.867,0
1579288668.087,25.879,39.062,25.391,61.035,-77.148,0
1579288668.091,28.809,48.828,30.273,20.996,-82.520,0
1579288668.095,28.320,43.457,28.320,-41.504,-107.910,0
1579288668.098,19.531,14.648,22.949,-6.348,-110.352,0
1579288668.102,29.785,20.996,20.996,58.105,-85.938,0
1579288668.106,34.180,34.180,23.438,36.133,-95.703,0
1579288668.110,41.016,28.320,22.461,-20.996,-112.793,0
1579288668.114,46.875,44.922,24.902,-7.812,-128.418,0
1579288668.111,25.879,51.270,32.715,75.195,-95.703,0
1579288668.115,27.832,31.738,31.250,74.707,-72.754,0
1579288668.119,30.273,27.344,31.738,-6.348,-91.309,0
1579288668.123,40.039,42.969,35.156,-20.508,-98.145,0
1579288668.127,64.941,41.016,27.344,47.363,-83.008,0
1579288668.131,62.012,32.227,17.578,67.871,-99.121,0
1579288668.135,48.828,40.527,22.461,6.348,-114.746,0
1579288668.138,31.738,49.316,28.809,-20.996,-92.285,0
1579288668.142,21.973,39.551,15.137,23.438,-97.656,0
1579288668.146,20.996,36.621,16.113,55.664,-90.332,0
1579288668.150,27.832,34.668,27.344,28.809,-70.801,0
1579288668.154,36.621,37.109,30.273,-22.949,-99.609,0
1579288668.171,35.645,29.297,34.668,20.996,-106.445,0
1579288668.175,37.598,-16.113,32.227,79.590,-108.398,0
1579288668.179,44.922,19.043,29.297,51.758,-111.816,0
1579288668.183,51.270,71.289,19.043,-7.812,-104.004,0
1579288668.187,32.715,57.129,15.137,-0.488,-102.539,0
1579288668.191,29.785,48.340,21.484,64.941,-90.332,3
1579288668.195,37.598,30.762,24.902,52.734,-99.121,0
1579288668.198,22.949,32.715,24.414,-15.137,-96.680,0
1579288668.202,21.973,46.387,22.949,-14.648,-72.266,0
1579288668.206,43.457,33.691,33.203,57.617,-63.965,0
1579288668.210,40.039,20.020,25.879,79.102,-40.527,0
1579288668.214,28.809,34.668,11.719,14.160,-66.895,0
1579288668.212,20.996,44.434,17.090,-21.484,-70.312,0
1579288668.216,37.598,28.320,14.160,36.133,-54.199,0
1579288668.220,40.039,20.020,15.625,89.844,-41.992,0
1579288668.224,3.906,29.297,16.113,45.410,-30.762,0
1579288668.228,6.836,26.855,14.160,-34.668,-70.312,0
1579288668.232,19.043,7.324,16.602,-8.789,-87.402,0
1579288668.236,26.855,14.160,12.207,66.895,-55.664,0
1579288668.239,41.504,28.320,8.789,55.664,-64.453,0
1579288668.243,31.738,30.273,12.207,-6.348,-93.262,0
1579288668.247,14.160,35.156,12.207,-27.344,-94.238,0
1579288668.251,15.625,31.738,22.949,37.109,-85.449,0
1579288668.255,23.438,41.504,25.879,68.359,-58.105,0
1579288668.251,24.902,45.410,13.184,0.000,-46.875,0
1579288668.255,19.043,34.180,18.066,-26.855,-85.449,0
1579288668.259,33.203,30.762,21.973,35.645,-81.055,0
1579288668.263,36.133,25.391,21.484,67.871,-51.758,0
1579288668.267,20.508,23.438,23.438,23.926,-78.125,0
1579288668.271,20.508,30.762,24.902,-17.090,-97.168,0
1579288668.275,30.273,35.156,23.438,28.809,-100.586,0
1579288668.278,40.039,41.992,24.414,76.172,-76.172,0
1579288668.282,25.391,45.410,17.090,37.598,-89.355,0
1579288668.286,18.555,43.945,15.625,-16.113,-123.535,0
1579288668.290,31.250,44.922,21.484,2.930,-102.539,0
1579288668.294,39.551,32.715,21.973,66.406,-61.523,0
1579288668.311,33.691,21.484,20.020,45.410,-71.777,0
1579288668.315,16.113,21.484,20.508,-23.926,-99.121,0
1579288668.319,20.996,14.160,27.832,-8.301,-97.656,0
1579288668.323,34.668,14.648,22.461,58.105,-80.566,0
1579288668.327,34.180,38.574,20.508,81.543,-70.801,0
1579288668.331,48.340,47.363,17.090,21.973,-70.312,0
1579288668.335,48.340,28.320,5.371,-30.273,-116.699,0
1579288668.338,27.832,34.668,18.066,35.645,-122.070,0
1579288668.342,30.762,42.480,25.879,86.914,-71.777,0
1579288668.346,28.809,23.438,24.414,35.645,-71.289,0
1579288668.350,32.227,20.020,29.297,-10.254,-41.016,0
1579288668.354,42.480,30.762,18.555,23.438,-55.664,0
1579288668.352,41.016,33.203,23.438,90.820,-57.129,0
1579288668.356,29.297,43.457,34.668,64.941,-32.227,0
1579288668.360,16.113,43.945,24.414,-10.254,-38.574,0
1579288668.364,24.902,37.109,26.855,0.488,-51.270,0
1579288668.368,41.016,45.410,30.273,65.918,-60.547,0
1579288668.372,33.691,26.855,15.137,70.801,-55.664,0
1579288668.376,25.391,24.414,12.207,11.230,-67.871,0
1579288668.379,18.555,35.156,15.625,-7.812,-81.543,0
1579288668.383,20.996,36.133,23.438,43.945,-63.965,0
1579288668.387,40.527,33.691,23.926,77.148,-51.758,0
1579288668.391,40.039,37.109,23.438,30.273,-55.664,0
1579288668.395,18.555,33.203,25.879,-18.555,-70.801,0
1579288668.391,32.715,23.438,21.973,32.715,-85.449,0
1579288668.395,35.156,25.391,22.949,72.754,-86.426,0
1579288668.399,17.090,20.996,17.578,34.668,-96.191,0
1579288668.403,10.742,14.648,12.695,-12.207,-119.141,0
1579288668.407,19.043,18.066,16.113,21.484,-106.445,0
1579288668.411,33.203,18.555,10.742,92.773,-85.938,0
1579288668.415,44.434,20.508,15.137,61.523,-90.332,0
1579288668.418,41.504,36.133,19.531,3.906,-109.863,0
1579288668.422,32.715,45.898,17.090,27.832,-150.391,0
1579288668.426,32.227,30.762,20.508,85.449,-118.652,0
1579288668.430,30.273,-8.789,19.531,82.520,-71.777,0
1579288668.434,39.551,10.742,16.602,10.254,-71.289,0
1579288668.451,26.855,58.105,11.719,-3.418,-101.074,0
1579288668.455,20.996,44.434,14.160,67.383,-78.613,0
1579288668.459,31.738,32.715,16.602,88.379,-41.504,0
1579288668.463,28.320,32.715,18.555,30.762,-62.500,0
1579288668.467,36.133,34.668,28.320,-3.418,-67.871,0
1579288668.471,33.691,32.715,24.902,51.758,-63.477,0
1579288668.475,31.738,10.742,14.160,99.121,-63.477,0
1579288668.478,26.855,13.184,18.555,48.340,-94.238,0
1579288668.482,20.996,18.555,23.438,-8.301,-91.309,0
1579288668.486,31.738,19.043,12.695,19.531,-67.383,0
1579288668.490,28.320,30.273,18.066,78.125,-53.711,0
1579288668.494,29.297,23.926,26.367,57.617,-64.941,0
1579288668.491,28.320,24.414,21.973,-16.113,-68.848,0
1579288668.495,35.156,21.973,24.414,3.906,-50.781,0
1579288668.499,52.734,25.879,28.809,76.172,-58.105,0
1579288668.503,55.176,29.785,25.879,80.566,-53.223,0
1579288668.507,42.480,19.531,14.160,8.301,-83.984,0
1579288668.511,14.160,25.391,12.695,-12.695,-102.539,0
1579288668.515,20.020,32.227,20.020,56.152,-70.801,0
1579288668.518,36.621,28.809,27.832,89.355,-66.406,0
1579288668.522,39.062,25.391,28.320,48.828,-55.664,0
1579288668.526,33.691,17.578,21.484,0.488,-77.148,0
1579288668.530,45.410,24.414,27.344,49.805,-91.797,0
1579288668.534,52.734,42.969,31.250,104.980,-50.781,0
1579288668.531,49.316,34.180,26.855,60.547,-32.715,0
1579288668.535,42.969,25.391,32.227,-5.859,-70.312,0
1579288668.539,42.969,26.855,30.273,11.719,-90.332,0
1579288668.543,51.270,33.691,25.391,78.125,-81.543,0
1579288668.547,53.711,24.414,37.598,70.312,-58.594,0
1579288668.551,38.574,0.488,27.832,3.418,-78.613,0
1579288668.555,9.766,10.742,10.742,-12.695,-109.375,0
1579288668.558,11.719,35.156,21.484,51.270,-106.445,0
1579288668.562,18.066,36.621,27.344,66.895,-111.816,0
1579288668.566,22.461,27.344,37.598,14.160,-78.125,0
1579288668.570,34.180,25.879,40.039,-12.695,-77.148,0
1579288668.574,34.180,29.297,30.762,32.715,-99.121,0
1579288668.591,26.855,27.344,27.344,74.219,-79.590,0
1579288668.595,34.668,22.461,25.391,24.902,-68.359,0
1579288668.599,40.039,19.531,23.438,-26.367,-77.637,0
1579288668.603,32.715,18.066,17.578,13.184,-77.148,0
1579288668.607,35.156,11.719,11.719,69.824,-98.633,0
1579288668.611,47.363,16.602,10.254,54.199,-104.980,0
1579288668.615,56.152,27.832,17.090,-2.930,-91.797,0
1579288668.618,32.715,32.227,23.926,12.207,-63.965,0
1579288668.622,25.391,28.320,22.949,65.918,-49.805,0
1579288668.626,35.645,31.250,18.066,55.664,-49.316,0
1579288668.630,25.879,30.273,18.555,-11.230,-54.199,0
1579288668.634,26.855,22.461,17.090,-21.484,-74.219,0
1579288668.631,42.969,26.855,17.578,51.758,-69.336,0
1579288668.635,46.387,28.809,23.926,75.195,-62.988,0
1579288668.639,45.898,20.996,20.996,19.043,-82.031,0
1579288668.643,35.645,4.395,15.137,-26.855,-111.328,0
1579288668.647,27.832,6.348,17.090,22.461,-112.305,0
1579288668.651,28.320,20.996,20.996,78.613,-78.125,0
1579288668.655,22.949,32.227,22.461,28.809,-66.406,0
1579288668.658,29.297,39.062,17.578,-29.785,-96.191,0
1579288668.662,41.016,27.832,14.648,20.996,-89.844,0
1579288668.666,25.879,6.348,8.301,84.961,-96.191,0
1579288668.670,14.648,32.715,12.207,35.156,-119.629,0
1579288668.674,13.184,59.570,22.949,-27.344,-79.590,0
1579288668.671,12.207,51.270,14.160,-0.977,-66.895,0
1579288668.675,9.766,44.434,14.648,53.711,-67.383,0
1579288668.679,5.859,35.156,19.531,47.852,-62.988,0
1579288668.683,27.344,39.062,24.902,-0.488,-68.848,0
1579288668.687,41.016,40.527,21.973,-7.812,-65.430,0
1579288668.691,15.625,37.598,13.184,45.410,-76.660,0
1579288668.695,2.441,44.434,19.531,68.359,-69.336,0
1579288668.698,12.695,41.992,16.113,20.020,-68.848,0
1579288668.702,16.602,38.574,16.602,-24.902,-89.844,0
1579288668.706,21.484,42.480,22.949,16.602,-69.824,0
1579288668.710,44.434,31.250,26.367,82.520,-47.852,0
1579288668.714,50.293,37.109,16.602,43.945,-35.156,0
1579288668.732,30.273,47.363,2.441,-23.438,-81.055,0
1579288668.736,30.762,40.527,17.578,0.000,-87.891,0
1579288668.740,24.902,33.203,25.879,56.152,-31.738,0
1579288668.744,29.297,29.297,19.043,45.898,-29.785,0
1579288668.748,34.180,23.438,18.066,-19.531,-52.734,0
1579288668.752,21.484,20.996,14.160,-18.555,-70.801,0
1579288668.756,20.996,16.113,9.766,40.527,-70.312,0
1579288668.759,22.949,9.277,20.020,50.781,-65.918,0
1579288668.763,27.344,12.695,20.508,1.953,-52.246,0
1579288668.767,41.504,30.762,21.973,-10.254,-52.734,0
1579288668.771,42.480,44.434,19.043,60.059,-58.105,0
1579288668.775,34.180,29.785,6.836,72.266,-54.199,0
1579288668.771,33.203,35.645,13.184,12.207,-71.777,0
1579288668.775,31.738,37.598,21.973,-12.695,-71.777,0
1579288668.779,31.738,22.461,22.461,30.273,-59.570,0
1579288668.783,55.176,20.996,24.414,90.332,-51.270,0
1579288668.787,47.363,36.133,27.832,50.781,-61.035,0
1579288668.791,18.555,40.527,24.902,-20.508,-84.473,0
1579288668.795,27.344,28.809,26.855,20.020,-87.402,0
1579288668.798,37.598,42.969,32.227,90.820,-61.035,0
1579288668.802,34.180,44.434,20.508,67.383,-39.551,0
1579288668.806,21.973,21.973,11.230,-20.020,-65.430,0
1579288668.810,21.484,26.855,18.555,-29.785,-90.332,0
1579288668.814,29.297,35.645,22.949,51.270,-75.684,0
1579288668.811,28.809,28.809,20.020,69.336,-57.129,0
1579288668.815,28.809,29.785,22.949,10.742,-54.688,0
1579288668.819,38.086,29.785,23.926,-20.996,-78.613,0
1579288668.823,38.086,17.578,22.461,31.250,-68.848,0
1579288668.827,41.992,24.902,26.367,85.449,-50.293,0
1579288668.831,39.062,37.109,20.996,34.180,-85.938,0
1579288668.835,31.738,36.621,15.625,-25.391,-91.309,0
1579288668.838,45.898,35.156,16.602,16.602,-77.148,0
1579288668.842,38.574,37.598,13.184,66.895,-64.941,0
1579288668.846,26.367,42.480,20.020,42.480,-64.453,0
1579288668.850,26.855,43.945,28.809,-21.484,-70.801,0
1579288668.854,41.504,46.875,25.391,0.488,-47.852,0
1579288668.871,49.805,53.711,22.461,63.477,-36.621,0
1579288668.875,46.387,44.922,24.414,48.828,-53.711,0
1579288668.879,47.852,34.180,30.273,-5.371,-83.496,0
1579288668.883,43.457,47.363,25.879,-11.719,-88.379,0
1579288668.887,41.016,46.387,17.090,51.270,-77.637,0
1579288668.891,36.621,35.156,20.508,67.383,-51.270,0
1579288668.895,28.320,35.156,20.996,-2.441,-71.289,0
1579288668.898,33.691,42.480,25.879,-29.297,-92.773,0
1579288668.902,40.527,41.992,26.855,37.109,-53.711,0
1579288668.906,26.367,35.156,25.879,75.684,-37.598,0
1579288668.910,18.066,41.016,20.508,10.254,-64.453,0
1579288668.914,23.926,46.387,17.090,-45.898,-100.098,0
1579288668.911,30.273,35.645,23.438,10.742,-94.727,0
1579288668.915,40.527,42.969,29.785,87.891,-77.637,0
1579288668.919,36.621,45.898,25.391,61.035,-76.660,0
1579288668.923,21.973,39.062,16.113,-25.391,-78.125,0
1579288668.927,36.133,31.738,18.066,-15.137,-76.172,0
1579288668.931,45.410,22.461,19.531,70.312,-62.012,0
1579288668.935,29.785,33.203,22.461,73.730,-54.688,0
1579288668.938,34.180,41.016,27.832,11.719,-49.805,0
1579288668.942,41.992,19.043,25.879,-6.836,-44.922,0
1579288668.946,28.809,19.531,15.625,37.598,-59.082,0
1579288668.950,21.484,51.758,16.602,66.406,-45.410,0
1579288668.954,18.555,51.270,22.461,17.578,-37.598,0
1579288668.952,14.160,43.457,21.973,-19.043,-38.086,0
1579288668.956,20.020,38.086,19.531,25.391,-40.039,0
1579288668.960,21.484,23.438,16.602,68.359,-63.477,0
1579288668.964,27.344,27.832,23.438,40.039,-54.199,0
1579288668.968,30.273,31.250,21.484,-9.766,-48.828,0
1579288668.972,24.414,22.949,13.184,16.113,-62.500,0
1579288668.976,26.855,42.969,24.902,76.660,-57.617,0
1579288668.979,30.273,44.922,32.227,61.523,-80.078,0
1579288668.983,28.809,33.203,25.391,-6.348,-68.848,0
1579288668.987,43.945,34.180,22.949,0.488,-72.754,0
1579288668.991,61.035,38.086,30.273,67.871,-71.777,0
1579288668.995,36.133,28.809,30.273,61.523,-47.363,0
1579288669.011,22.461,19.531,20.508,1.465,-82.031,0
1579288669.015,41.504,42.969,25.391,-9.766,-80.078,0
1579288669.019,41.992,41.504,21.484,51.270,-50.293,0
1579288669.023,31.250,28.320,14.648,76.660,-47.852,0
1579288669.027,30.762,28.809,21.973,18.066,-48.340,0
1579288669.031,33.203,2.930,20.020,-19.531,-85.938,0
1579288669.035,32.227,14.160,20.996,26.855,-87.402,0
1579288669.038,42.969,56.641,24.414,84.961,-56.152,0
1579288669.042,40.527,53.223,16.602,51.758,-72.266,0
1579288669.046,33.691,42.480,16.602,-22.949,-92.773,0
1579288669.050,30.273,35.645,20.508,0.977,-116.699,0
1579288669.054,30.762,36.133,19.531,66.406,-107.422,0
1579288669.052,45.410,43.457,24.414,70.312,-56.641,0
1579288669.056,45.898,25.879,29.785,7.812,-65.918,0
1579288669.060,42.969,29.297,28.320,-8.789,-96.191,0
1579288669.064,46.875,44.434,16.602,70.801,-94.238,0
1579288669.068,57.617,48.340,20.508,89.355,-80.078,0
1579288669.072,33.203,38.086,28.809,20.508,-61.035,0
1579288669.076,5.371,38.086,23.438,-9.766,-62.012,0
1579288669.079,21.973,49.805,25.391,42.480,-56.641,0
1579288669.083,24.414,41.504,19.531,83.984,-57.129,0
1579288669.087,23.438,44.922,20.508,38.086,-52.246,0
1579288669.091,36.133,42.480,25.879,-12.695,-64.941,0
1579288669.095,40.039,32.715,14.648,27.832,-66.895,0
1579288669.092,27.832,43.457,15.137,75.195,-60.547,0
1579288669.096,23.926,33.203,18.555,50.293,-68.848,0
1579288669.100,30.762,25.879,19.531,-8.789,-98.145,0
1579288669.104,32.227,46.875,28.320,5.859,-104.004,0
1579288669.108,25.391,46.875,24.414,70.801,-58.594,0
1579288669.112,26.367,33.691,18.066,61.523,-53.223,0
1579288669.116,27.832,31.738,24.902,8.301,-83.984,0
1579288669.119,24.902,31.738,22.949,6.348,-106.445,0
1579288669.123,36.621,36.133,19.043,53.711,-96.680,0
1579288669.127,39.062,32.227,22.949,72.754,-61.035,0
1579288669.131,54.199,22.949,23.438,20.020,-68.848,0
1579288669.135,58.594,39.062,31.250,-6.836,-88.379,0
1579288669.151,39.062,56.641,33.691,45.410,-87.891,0
1579288669.155,42.480,40.039,25.879,82.520,-69.824,0
1579288669.159,41.992,34.668,26.367,37.598,-78.125,0
1579288669.163,45.898,52.734,29.297,-12.695,-77.148,0
1579288669.167,41.016,52.734,25.391,30.273,-59.570,0
1579288669.171,36.621,46.875,24.414,86.914,-51.758,0
1579288669.175,38.086,52.246,18.555,58.594,-52.246,0
1579288669.178,40.039,58.105,18.066,-3.906,-77.148,0
1579288669.182,46.875,42.969,24.414,11.230,-83.008,0
