timestamps,TP9,AF7,AF8,TP10,Right AUX,Marker0
1583423847.817,-969.238,231.934,2.441,-35.156,337.891,0
1583423847.821,-961.426,304.688,20.508,-52.734,378.906,0
1583423847.825,-979.980,182.617,-22.461,-33.691,346.191,0
1583423847.829,-915.039,159.668,-20.996,-26.855,279.785,0
1583423847.833,-747.070,304.688,26.855,-49.805,206.543,0
1583423847.837,-760.742,215.820,-2.930,-57.617,108.398,0
1583423847.841,-830.078,233.398,16.602,-49.316,16.113,0
1583423847.844,-845.215,177.246,12.695,-17.090,-61.523,0
1583423847.848,-876.953,47.852,-0.977,-36.621,-138.672,0
1583423847.852,-886.230,181.152,45.898,-87.891,-178.711,0
1583423847.856,-941.406,179.199,34.180,-75.684,-225.098,0
1583423847.860,-972.168,138.184,22.461,-39.551,-246.582,0
1583423847.877,-967.285,83.008,-1.465,-15.137,-240.234,0
1583423847.881,-965.820,54.199,-1.465,-35.156,-218.750,0
1583423847.885,-966.797,35.156,2.930,-46.875,-219.238,0
1583423847.889,-968.262,72.754,24.414,1.465,-179.199,0
1583423847.893,-833.496,144.531,43.457,36.133,-95.215,0
1583423847.897,-688.965,37.598,-0.977,33.691,-112.793,0
1583423847.901,-681.152,-37.598,-15.137,-15.137,-168.945,0
1583423847.904,-555.664,114.746,36.133,-33.691,-187.988,0
1583423847.908,-381.836,179.199,49.316,7.324,-217.773,0
1583423847.912,-308.594,174.316,52.246,1.465,-228.516,0
1583423847.916,-302.246,139.648,34.180,-31.250,-269.043,0
1583423847.920,-308.594,101.562,20.020,-40.527,-317.871,0
1583423847.917,-224.121,175.293,34.668,-29.297,-314.941,0
1583423847.921,-136.230,180.176,27.344,-14.648,-330.078,0
1583423847.925,-70.801,196.289,31.250,-36.621,-336.426,0
1583423847.929,-39.551,209.473,27.344,-35.156,-346.191,0
1583423847.933,33.691,226.074,32.715,-8.789,-304.688,0
1583423847.937,149.414,219.727,27.832,-17.578,-281.738,0
1583423847.941,226.562,224.609,25.879,-24.414,-292.480,0
1583423847.944,263.672,263.184,33.691,-39.062,-266.602,0
1583423847.948,300.781,324.219,43.945,-36.133,-241.699,0
1583423847.952,295.898,180.176,-1.465,-3.418,-244.141,0
1583423847.956,308.594,148.926,2.930,-26.367,-237.305,0
1583423847.960,330.078,323.242,61.035,-67.871,-198.242,0
1583423847.957,306.152,257.812,47.852,-35.645,-184.082,0
1583423847.961,361.328,175.781,39.062,5.371,-198.730,0
1583423847.965,400.879,100.098,30.762,-9.277,-235.352,0
1583423847.969,414.551,125.000,45.898,-34.180,-254.395,0
1583423847.973,422.363,132.812,44.434,-28.320,-265.137,0
1583423847.977,444.336,26.367,23.438,7.812,-280.762,0
1583423847.981,501.465,73.242,53.223,13.672,-284.668,0
1583423847.984,510.742,18.555,31.738,-23.438,-318.848,0
1583423847.988,491.699,-24.414,20.996,-44.922,-372.070,0
1583423847.992,558.105,125.977,71.289,-18.066,-368.164,0
1583423847.996,616.699,76.172,59.570,7.324,-393.066,0
1583423848.000,658.691,78.125,68.848,1.465,-443.359,0
1583423848.017,642.578,5.371,41.016,-5.371,-490.723,0
1583423848.021,657.227,-10.742,41.504,-8.789,-553.223,0
1583423848.025,793.945,165.039,90.820,-10.742,-585.449,0
1583423848.029,893.066,121.094,57.617,-23.926,-659.668,0
1583423848.033,949.219,101.074,51.270,-41.504,-736.816,0
1583423848.037,990.723,59.082,36.133,-28.809,-778.809,0
1583423848.041,-1000.000,13.672,24.902,9.277,-803.223,0
1583423848.044,998.047,190.430,73.730,12.207,-787.109,0
1583423848.048,999.512,223.633,59.570,-18.555,-780.273,0
1583423848.052,999.512,208.496,48.340,-19.531,-737.305,0
1583423848.056,999.512,147.461,36.133,24.902,-674.316,0
1583423848.060,999.512,106.445,28.320,31.738,-613.281,0
1583423848.057,999.512,160.156,41.992,7.812,-566.406,0
1583423848.061,995.117,136.230,32.715,8.789,-537.109,0
1583423848.065,-995.605,121.582,28.320,43.457,-501.465,0
1583423848.069,948.242,75.195,14.160,72.266,-486.328,0
1583423848.073,825.195,28.809,5.371,52.246,-483.398,0
1583423848.077,743.164,26.855,12.207,19.043,-483.887,0
1583423848.081,711.914,2.930,16.113,36.621,-467.773,0
1583423848.084,738.281,29.297,34.668,60.059,-458.984,0
1583423848.088,797.852,109.863,52.734,38.086,-432.129,0
1583423848.092,746.094,-14.648,9.277,11.719,-425.781,0
1583423848.096,754.395,3.418,15.625,5.859,-464.355,0
1583423848.100,889.648,215.820,69.336,38.086,-408.203,0
1583423848.097,963.379,239.258,59.082,57.129,-335.938,0
1583423848.101,999.023,156.738,17.578,33.691,-354.980,0
1583423848.105,998.047,155.273,19.043,31.250,-328.613,0
1583423848.109,998.535,263.672,51.270,51.758,-227.051,0
1583423848.113,999.512,247.559,38.574,71.777,-158.691,0
1583423848.117,999.512,163.086,21.973,67.383,-119.141,0
1583423848.121,999.512,216.797,31.738,30.273,-114.746,0
1583423848.124,999.512,193.359,0.977,57.617,-115.234,0
1583423848.128,999.512,235.352,-0.488,80.566,-88.867,0
1583423848.132,999.512,479.492,51.758,57.129,-25.391,0
1583423848.136,999.512,445.801,16.602,37.598,-22.461,0
1583423848.140,999.512,425.293,15.137,60.059,32.715,0
1583423848.157,999.512,386.230,16.602,102.539,165.527,0
1583423848.161,999.512,342.773,15.137,94.727,278.320,0
1583423848.165,999.512,328.613,20.020,69.336,405.273,0
1583423848.169,999.512,250.000,18.066,68.848,532.227,0
1583423848.173,999.512,145.020,16.113,108.398,637.695,0
1583423848.177,999.512,-16.602,-6.836,131.348,715.332,0
1583423848.181,998.047,-29.297,17.578,110.840,785.156,0
1583423848.184,997.559,54.199,55.176,98.145,797.852,0
1583423848.188,994.629,4.883,45.898,116.699,764.648,0
1583423848.192,917.480,-3.418,53.223,113.770,716.309,0
1583423848.196,729.004,-87.891,29.785,102.539,646.973,0
1583423848.200,478.516,-159.180,22.461,73.730,562.500,0
1583423848.198,254.395,-68.359,73.242,72.266,483.887,0
1583423848.202,39.062,-109.375,65.430,105.957,419.922,0
1583423848.206,-116.699,-143.066,55.664,54.199,345.703,0
1583423848.210,-241.211,-182.129,43.945,28.320,273.926,0
1583423848.214,-193.848,-181.152,39.551,54.688,255.371,0
1583423848.218,48.340,-128.418,49.316,57.617,248.535,0
1583423848.222,157.227,-125.977,47.852,58.594,234.863,0
1583423848.225,245.117,-95.703,51.758,26.367,233.887,0
1583423848.229,410.156,-60.059,53.223,27.344,250.488,0
1583423848.233,552.246,-203.125,18.066,74.219,235.840,0
1583423848.237,766.113,-132.324,58.594,76.660,262.695,0
1583423848.241,925.293,10.742,86.426,48.340,317.383,0
1583423848.237,895.020,-59.570,51.758,35.156,324.219,0
1583423848.241,832.520,-101.562,45.410,66.406,338.379,0
1583423848.245,710.938,-140.137,46.875,84.961,369.629,0
1583423848.249,601.562,-124.023,57.129,37.598,395.996,0
1583423848.253,465.820,-166.992,51.270,22.461,395.508,0
1583423848.257,296.387,-257.324,34.180,57.617,400.879,0
1583423848.261,225.098,-249.023,42.969,84.961,432.617,0
1583423848.264,125.488,-337.891,21.973,92.285,431.152,0
1583423848.268,-14.648,-273.926,44.434,65.918,425.781,0
1583423848.272,-80.566,-103.516,78.613,62.988,456.055,0
1583423848.276,-172.363,-179.688,50.781,88.379,448.730,0
1583423848.280,-236.328,-146.973,71.777,102.051,476.074,0
1583423848.297,-295.898,-159.180,61.523,72.266,469.727,0
1583423848.301,-379.395,-161.621,58.594,61.523,452.637,0
1583423848.305,-423.828,-152.832,53.223,66.406,438.477,0
1583423848.309,-499.512,-134.277,51.270,69.336,441.406,0
1583423848.313,-549.805,-105.469,48.340,66.895,435.059,0
1583423848.317,-659.180,-267.578,-4.395,48.340,348.145,0
1583423848.321,-685.547,-224.609,28.320,56.152,307.617,0
1583423848.324,-616.699,-44.434,85.449,66.895,318.848,0
1583423848.328,-678.711,-83.984,65.918,70.312,297.363,0
1583423848.332,-750.488,-94.727,50.781,43.457,229.492,0
1583423848.336,-801.758,-157.715,20.508,29.297,175.781,0
1583423848.340,-788.086,-109.375,44.434,62.500,187.988,0
1583423848.337,-741.211,-15.137,61.523,56.152,155.273,0
1583423848.341,-770.508,-65.918,35.645,26.855,88.867,0
1583423848.345,-752.930,14.648,57.617,29.297,111.328,0
1583423848.349,-697.266,2.930,38.574,29.785,142.090,0
1583423848.353,-614.746,-37.109,18.555,47.363,140.137,0
1583423848.357,-529.297,-34.668,20.996,58.105,133.789,0
1583423848.361,-514.160,-39.551,32.227,46.387,140.625,0
1583423848.364,-514.160,24.414,43.945,50.781,153.320,0
1583423848.368,-484.863,-35.645,3.906,54.199,160.645,0
1583423848.372,-487.793,-155.273,-11.719,27.344,143.066,0
1583423848.376,-455.566,-31.250,47.363,-2.441,142.090,0
1583423848.380,-393.555,11.719,43.945,19.043,164.551,0
1583423848.377,-372.559,-41.504,26.367,49.316,151.855,0
1583423848.381,-357.910,-93.750,7.324,28.320,122.070,0
1583423848.385,-332.031,-117.676,8.301,-13.672,91.309,0
1583423848.389,-259.277,-62.500,31.250,4.883,64.941,0
1583423848.393,-224.121,-78.125,12.695,40.039,61.523,0
1583423848.397,-206.543,-77.637,4.883,37.109,69.824,0
1583423848.401,-226.074,-90.332,-9.766,0.000,50.293,0
1583423848.404,-245.117,-56.152,3.418,-0.977,68.359,0
1583423848.408,-180.176,51.270,29.785,10.742,135.742,0
1583423848.412,-114.746,80.078,18.555,12.695,194.336,0
1583423848.416,-81.055,79.102,19.531,-11.719,251.465,0
1583423848.420,-104.980,71.777,11.230,-5.371,287.598,0
1583423848.437,-172.363,-12.207,-17.578,20.508,280.273,0
1583423848.441,-148.438,65.430,-4.395,-5.859,305.176,0
1583423848.445,-168.457,118.652,20.508,0.488,316.406,0
1583423848.449,-318.848,6.348,5.371,-15.137,251.465,0
1583423848.453,-392.090,25.879,14.648,-22.949,239.258,0
1583423848.457,-381.836,-55.664,-4.395,23.926,225.586,0
1583423848.461,-398.438,-63.965,3.418,-9.766,164.551,0
1583423848.464,-423.828,101.562,43.945,-59.570,123.535,0
1583423848.468,-432.617,125.488,34.668,-38.086,59.570,0
1583423848.472,-441.406,148.926,25.879,-25.879,14.160,0
1583423848.476,-517.578,14.160,-12.695,-10.254,-63.965,0
1583423848.480,-566.895,27.344,8.301,-35.156,-132.812,0
1583423848.477,-563.477,182.129,24.414,-80.078,-143.066,0
1583423848.481,-492.188,170.410,13.672,-41.992,-137.695,0
1583423848.485,-401.367,135.742,33.203,15.137,-116.211,0
1583423848.489,-422.852,103.516,6.836,-34.180,-120.117,0
1583423848.493,-465.332,128.418,11.230,-60.059,-94.238,0
1583423848.497,-464.844,94.727,12.207,6.348,-50.781,0
1583423848.501,-417.969,97.656,20.020,11.230,0.000,0
1583423848.504,-308.105,254.395,56.152,-14.160,83.008,0
1583423848.508,-257.812,132.812,12.695,-13.672,104.004,0
1583423848.512,-195.312,-33.203,-0.488,15.137,69.336,0
1583423848.516,62.012,172.363,73.242,40.527,96.191,0
1583423848.520,287.109,280.273,73.242,34.668,105.957,0
1583423848.537,363.281,259.766,54.199,-36.621,37.109,0
1583423848.541,371.094,182.617,44.922,-33.691,-3.906,0
1583423848.545,340.332,163.574,38.574,13.672,-17.578,0
1583423848.549,289.062,237.305,57.617,22.949,-27.832,0
1583423848.553,209.961,177.246,50.781,16.602,-44.922,0
1583423848.557,100.586,101.074,30.762,-29.785,-68.359,0
1583423848.561,24.414,57.129,30.273,-19.043,-74.707,0
1583423848.564,-33.203,-52.246,22.461,1.465,-89.355,0
1583423848.568,-85.449,38.086,69.336,-19.043,-81.543,0
1583423848.572,-191.406,84.961,73.730,-38.086,-76.660,0
1583423848.576,-314.941,16.602,46.387,-14.160,-94.238,0
1583423848.580,-401.855,-14.160,43.945,21.973,-107.422,0
1583423848.577,-536.133,-108.887,30.762,-8.301,-158.691,0
1583423848.581,-709.961,-140.137,37.598,-48.340,-217.773,0
1583423848.585,-824.707,-101.074,55.176,-1.465,-250.000,0
1583423848.589,-910.156,-85.449,65.918,24.414,-276.855,0
1583423848.593,-969.727,-133.301,53.223,8.301,-345.215,0
1583423848.597,-967.285,-221.191,27.344,-6.348,-448.730,0
1583423848.601,-967.773,-210.449,43.945,-23.438,-522.461,0
1583423848.604,-968.750,-146.484,61.035,-12.695,-563.477,0
1583423848.608,-968.750,-156.250,51.758,-13.184,-591.309,0
1583423848.612,-968.750,-120.117,38.574,-42.969,-623.535,0
1583423848.616,-968.750,-218.750,-5.371,-46.387,-649.414,0
1583423848.620,-968.262,-120.117,16.602,-35.645,-595.215,0
1583423848.617,-968.262,154.785,56.641,-53.223,-494.141,0
1583423848.621,-968.750,151.367,26.855,-52.734,-426.758,0
1583423848.625,-968.750,182.617,20.020,-28.320,-333.496,0
1583423848.629,-961.914,220.215,19.531,-15.625,-171.387,0
1583423848.633,-977.051,242.188,34.668,-8.301,-11.719,0
1583423848.637,-901.855,236.328,41.016,5.371,70.801,0
1583423848.641,-708.496,237.305,29.297,-20.508,97.656,0
1583423848.644,-542.969,307.617,45.410,-21.973,92.285,0
1583423848.648,-443.848,232.422,30.762,6.348,34.180,0
1583423848.652,-385.742,229.004,30.762,-28.320,-13.672,0
1583423848.656,-353.027,335.449,46.387,-76.660,-78.613,0
1583423848.660,-363.770,326.660,38.086,-81.543,-165.527,0
1583423848.677,-327.637,319.824,36.133,-41.016,-210.938,0
1583423848.681,-364.258,169.922,-9.766,-59.082,-275.391,0
1583423848.685,-436.523,98.145,-12.207,-76.172,-344.727,0
1583423848.689,-511.230,168.457,20.996,-62.012,-387.695,0
1583423848.693,-605.957,98.145,3.418,-32.227,-391.602,0
1583423848.697,-670.410,33.691,-6.836,-19.043,-341.309,0
1583423848.701,-753.418,-58.594,-38.574,-29.785,-330.078,0
1583423848.704,-829.102,-93.750,-41.504,-6.348,-312.012,0
1583423848.708,-766.113,86.426,5.859,-11.230,-225.586,0
1583423848.712,-627.441,162.109,-5.859,26.367,-153.809,0
1583423848.716,-528.320,159.180,-15.625,46.387,-116.211,0
1583423848.720,-459.473,106.934,-33.691,1.465,-85.938,0
1583423848.718,-377.441,85.938,-35.645,7.324,-49.316,0
1583423848.722,-269.531,186.523,-2.930,46.875,15.625,0
1583423848.726,-176.758,180.664,-10.742,38.574,78.125,0
1583423848.730,-123.535,160.645,-15.625,23.438,108.887,0
1583423848.734,-149.902,150.391,-36.133,0.488,134.277,0
1583423848.738,-103.027,134.277,-51.270,22.461,187.988,0
1583423848.742,-28.809,120.117,-44.922,26.855,202.637,0
1583423848.745,26.367,156.738,-27.344,2.930,218.750,0
1583423848.749,115.234,213.379,-10.742,5.859,238.770,0
1583423848.753,219.238,111.328,-23.438,35.645,219.238,0
1583423848.757,322.266,-6.836,-27.344,56.152,182.617,0
1583423848.761,417.480,65.918,2.441,18.066,133.789,0
1583423848.757,444.824,89.844,6.348,-36.133,93.262,0
1583423848.761,445.312,73.730,16.602,-28.809,76.660,0
1583423848.765,486.816,61.523,19.043,34.180,66.406,0
1583423848.769,466.797,-35.645,-11.230,22.461,27.832,0
1583423848.773,443.359,-2.930,-1.953,0.488,-8.789,0
1583423848.777,431.641,-17.090,-17.090,-20.508,-15.137,0
1583423848.781,456.543,-41.504,-11.230,2.930,-9.766,0
1583423848.784,531.738,73.242,23.438,32.715,29.297,0
1583423848.788,518.555,-33.203,-20.020,0.488,11.719,0
1583423848.792,525.879,-55.664,-4.395,-6.348,-1.953,0
1583423848.796,630.859,38.574,37.598,21.973,36.133,0
1583423848.800,683.594,6.836,14.160,49.316,33.691,0
1583423848.817,665.527,-18.555,9.277,15.625,1.953,0
1583423848.821,560.059,-121.094,-14.648,3.418,-31.250,0
1583423848.825,507.812,-120.605,-23.926,9.766,-58.105,0
1583423848.829,580.078,79.590,35.645,11.719,-27.344,0
1583423848.833,583.008,24.414,22.461,10.742,-23.438,0
1583423848.837,511.230,-44.922,11.719,-12.207,-47.852,0
1583423848.841,436.035,-103.516,3.418,25.879,-22.461,0
1583423848.844,429.688,-160.156,-7.324,35.156,-35.156,0
1583423848.848,486.816,21.973,43.945,-4.395,-11.230,0
1583423848.852,480.957,62.500,61.523,8.789,50.781,0
1583423848.856,451.172,-11.719,51.270,17.090,45.410,0
1583423848.860,416.992,-63.477,26.855,-1.465,36.133,0
1583423848.857,427.246,-53.711,32.715,2.441,40.527,0
1583423848.861,440.430,13.184,58.105,25.391,44.434,0
1583423848.865,406.250,8.301,46.875,4.395,34.668,0
1583423848.869,415.527,-56.641,36.133,10.254,-9.277,0
1583423848.873,405.273,-114.746,32.715,42.480,-20.508,0
1583423848.877,386.230,-133.301,20.020,2.930,-53.711,0
1583423848.881,383.789,-83.496,41.504,-27.344,-81.543,0
1583423848.884,407.227,-18.555,62.500,-6.348,-74.219,0
1583423848.888,466.309,30.762,72.754,6.836,-48.828,0
1583423848.892,477.539,-26.367,50.781,23.926,-68.848,0
1583423848.896,433.594,-125.000,32.715,-2.441,-146.973,0
1583423848.900,442.383,-50.781,71.777,-4.395,-181.152,0
1583423848.897,504.883,-14.160,76.172,25.391,-159.668,0
1583423848.901,513.672,-26.855,63.477,25.391,-180.176,0
1583423848.905,492.676,-73.242,60.059,20.020,-263.184,0
1583423848.909,433.105,-157.715,48.340,-6.836,-324.219,0
1583423848.913,407.715,-62.012,59.570,-2.441,-369.141,0
1583423848.917,447.266,-9.766,64.941,17.090,-396.973,0
1583423848.921,440.430,-65.430,57.129,-15.137,-462.402,0
1583423848.924,434.082,31.738,67.383,-30.273,-521.973,0
1583423848.928,377.441,-75.684,32.227,14.160,-554.688,0
1583423848.932,350.098,-81.055,35.645,14.648,-595.703,0
1583423848.936,353.516,108.887,75.195,-22.949,-604.980,0
1583423848.940,266.113,63.965,55.664,-41.504,-654.297,0
1583423848.957,191.895,61.523,52.246,-36.133,-679.688,0
1583423848.961,145.996,51.270,47.852,-5.371,-674.805,0
1583423848.965,112.305,46.387,52.734,0.488,-688.477,0
1583423848.969,79.590,58.594,51.270,-42.480,-706.055,0
1583423848.973,40.527,9.277,34.668,-25.879,-724.609,0
1583423848.977,5.859,-30.762,21.973,21.484,-721.191,0
1583423848.981,-29.785,-129.395,-0.977,33.691,-718.262,0
1583423848.984,-77.637,-95.703,14.648,8.789,-716.797,0
1583423848.988,-123.535,97.656,68.359,-13.672,-645.508,0
1583423848.992,-128.906,62.988,56.152,32.227,-577.637,0
1583423848.996,-56.641,75.684,57.617,35.645,-532.715,0
1583423849.000,-69.336,64.941,36.621,-20.996,-507.324,0
1583423848.997,-123.535,33.691,30.273,-27.344,-509.766,0
1583423849.001,-111.328,60.059,45.898,-10.254,-484.375,0
1583423849.005,-84.961,43.945,47.363,1.953,-436.523,0
1583423849.009,-98.145,43.945,56.152,-24.902,-415.527,0
1583423849.013,-217.285,-25.391,36.133,-42.480,-423.828,0
1583423849.017,-307.617,-64.941,24.414,-36.621,-419.434,0
1583423849.021,-266.113,29.785,51.758,-41.992,-382.324,0
1583423849.024,-209.961,104.492,57.129,-56.641,-358.887,0
1583423849.028,-203.613,128.906,57.129,-95.703,-374.023,0
1583423849.032,-243.164,46.875,29.785,-106.445,-394.531,0
1583423849.036,-300.781,-101.074,0.977,-86.426,-414.062,0
1583423849.040,-250.977,54.199,60.059,-118.164,-382.324,0
1583423849.037,-211.914,160.645,69.336,-162.109,-348.145,0
1583423849.041,-263.184,156.738,60.059,-166.504,-322.754,0
1583423849.045,-307.617,110.352,41.504,-157.227,-288.086,0
1583423849.049,-352.539,68.848,39.551,-149.414,-233.887,0
1583423849.053,-358.887,131.348,57.129,-171.875,-185.547,0
1583423849.057,-411.133,81.055,29.785,-179.199,-153.809,0
1583423849.061,-414.062,78.125,36.621,-152.832,-120.605,0
1583423849.064,-334.961,188.477,63.477,-123.535,-47.363,0
1583423849.068,-348.633,88.867,25.391,-132.324,10.254,0
1583423849.072,-329.590,93.262,33.203,-164.551,34.180,0
1583423849.076,-266.602,205.078,59.082,-145.508,73.242,0
1583423849.080,-194.824,215.332,62.012,-119.629,131.836,0
1583423849.097,-135.254,173.828,46.875,-115.723,153.320,0
1583423849.101,-180.664,114.746,34.668,-108.398,152.344,0
1583423849.105,-216.797,112.305,49.805,-89.844,181.152,0
1583423849.109,-210.449,111.816,55.176,-58.594,220.215,0
1583423849.113,-187.012,109.375,53.223,-77.637,228.027,0
1583423849.117,-135.254,13.184,33.691,-81.543,218.750,0
1583423849.121,-86.914,-74.707,29.785,-39.062,189.453,0
1583423849.124,31.738,39.062,60.547,-31.250,197.266,0
1583423849.128,172.363,123.047,71.777,-27.832,219.238,0
1583423849.132,222.656,83.496,61.035,-11.230,200.195,0
1583423849.136,236.816,42.969,44.922,-24.902,151.367,0
1583423849.140,221.680,-86.426,21.484,-17.090,116.211,0
1583423849.137,227.051,-78.125,41.992,34.180,133.789,0
1583423849.141,256.836,0.488,52.734,39.062,148.438,0
1583423849.145,199.707,-39.551,38.086,6.348,148.926,0
1583423849.149,147.949,-27.832,42.969,24.414,165.039,0
1583423849.153,96.191,-103.516,18.066,63.965,157.227,0
1583423849.157,70.312,-112.793,20.508,71.289,166.504,0
1583423849.161,133.789,-31.738,40.527,46.875,185.547,0
1583423849.164,185.059,-82.031,29.297,43.945,146.973,0
1583423849.168,287.598,-15.625,56.641,55.664,138.184,0
1583423849.172,363.770,-1.953,44.922,52.246,179.688,0
1583423849.176,294.434,-94.727,9.766,20.508,151.367,0
1583423849.180,265.137,66.406,59.570,1.465,114.258,0
1583423849.177,266.602,108.398,61.035,38.086,105.469,0
1583423849.181,181.641,88.379,54.688,13.184,118.164,0
1583423849.185,68.359,29.297,27.832,-31.738,130.859,0
1583423849.189,-14.160,24.902,31.250,-36.621,138.184,0
1583423849.193,-84.473,103.516,59.082,-42.480,170.898,0
1583423849.197,-141.602,27.344,31.738,-36.621,164.062,0
1583423849.201,-181.641,167.480,63.477,-59.570,168.945,0
1583423849.204,-251.953,312.012,67.871,-99.609,168.945,0
1583423849.208,-359.375,212.891,23.926,-115.234,124.512,0
1583423849.212,-371.094,379.883,65.918,-105.469,119.629,0
1583423849.216,-368.164,471.191,73.730,-102.539,133.789,0
1583423849.220,-449.707,336.914,45.410,-125.977,95.215,0
1583423849.238,-533.203,245.117,41.504,-131.348,82.031,0
1583423849.242,-537.598,172.363,37.598,-93.750,103.516,0
1583423849.246,-521.484,172.363,44.922,-77.148,112.793,0
1583423849.250,-577.148,137.207,49.316,-112.305,121.582,0
1583423849.254,-631.836,50.293,36.133,-131.348,114.746,0
1583423849.258,-625.000,-83.984,2.441,-112.793,79.102,0
1583423849.262,-609.375,-222.656,-11.719,-83.984,62.012,0
1583423849.265,-546.875,-126.953,33.203,-98.633,72.266,0
1583423849.269,-486.816,-58.594,52.246,-103.516,68.848,0
1583423849.273,-485.840,-200.195,27.344,-69.336,29.297,0
1583423849.277,-450.684,-224.121,30.762,-41.992,33.691,0
1583423849.281,-463.867,-297.363,30.762,-30.762,63.477,0
1583423849.277,-469.727,-311.035,26.855,-41.992,64.941,0
1583423849.281,-482.910,-295.410,19.043,-34.180,61.035,0
1583423849.285,-490.234,-330.566,20.508,-0.488,77.148,0
1583423849.289,-455.078,-393.066,0.977,19.043,62.988,0
1583423849.293,-488.281,-457.031,-13.672,8.789,36.133,0
1583423849.297,-552.734,-432.129,-6.348,-3.418,25.879,0
1583423849.301,-549.805,-409.180,-4.883,15.137,16.113,0
1583423849.304,-520.996,-370.605,7.324,43.945,21.973,0
1583423849.308,-490.234,-280.273,23.438,23.438,33.203,0
1583423849.312,-547.363,-416.504,-21.973,8.301,13.672,0
1583423849.316,-590.332,-440.430,-21.973,37.109,25.879,0
1583423849.320,-482.422,-220.703,29.785,41.992,58.594,0
1583423849.317,-435.547,-204.102,20.996,42.480,92.285,0
1583423849.321,-460.449,-215.332,11.719,19.043,124.023,0
1583423849.325,-472.168,-357.910,-20.508,26.367,86.426,0
1583423849.329,-412.598,-381.836,-9.277,76.660,85.449,0
1583423849.333,-313.477,-256.836,15.625,65.918,118.164,0
1583423849.337,-293.457,-325.195,-9.766,43.457,124.023,0
1583423849.341,-235.840,-256.348,8.789,41.016,143.555,0
1583423849.344,-108.887,-250.488,0.488,83.008,147.949,0
1583423849.348,5.371,-292.969,-3.906,103.027,156.250,0
1583423849.352,168.457,-141.602,42.480,80.566,177.246,0
1583423849.356,243.164,-161.621,23.926,77.148,162.109,0
1583423849.360,286.621,-161.621,27.832,87.891,143.066,0
1583423849.377,346.191,-188.965,17.578,110.840,138.184,0
1583423849.381,365.723,-228.516,2.441,92.285,106.445,0
1583423849.385,382.324,-92.285,34.180,49.316,85.449,0
1583423849.389,416.504,-68.359,33.203,83.496,77.637,0
1583423849.393,463.379,-72.266,41.016,111.816,87.402,0
1583423849.397,473.145,-113.770,23.926,100.586,99.609,0
1583423849.401,402.832,-281.250,-21.484,91.797,61.523,0
1583423849.404,410.645,-124.023,24.902,86.914,78.613,0
1583423849.408,480.469,119.629,67.871,95.703,169.922,0
1583423849.412,491.211,54.688,36.621,86.426,196.289,0
1583423849.416,501.465,8.301,19.531,73.242,192.383,0
1583423849.420,496.094,-15.625,20.996,78.125,204.102,0
1583423849.417,522.949,0.488,40.039,101.074,225.098,0
1583423849.421,530.273,-5.371,40.527,112.305,227.539,0
1583423849.425,498.535,-3.418,38.574,86.426,228.027,0
1583423849.429,438.965,-19.531,34.668,63.477,214.844,0
1583423849.433,391.602,-68.848,33.691,115.723,203.613,0
1583423849.437,371.094,-89.355,29.297,143.555,218.750,0
1583423849.441,378.418,-79.102,28.809,87.402,239.746,0
1583423849.444,371.582,-74.219,31.738,51.270,233.887,0
1583423849.448,361.328,-62.500,42.969,86.426,240.723,0
1583423849.452,331.055,-182.129,16.602,122.070,259.277,0
1583423849.456,337.402,-182.617,23.438,108.398,271.484,0
1583423849.460,371.582,-19.531,61.035,71.777,245.605,0
1583423849.457,314.453,-24.414,48.340,69.336,215.332,0
1583423849.461,323.242,9.277,52.246,89.355,239.746,0
1583423849.465,342.773,-50.781,31.738,100.586,205.566,0
1583423849.469,318.359,-33.691,33.203,59.082,168.945,0
1583423849.473,299.316,8.301,37.109,45.410,165.527,0
1583423849.477,276.367,-110.840,14.648,85.449,149.414,0
1583423849.481,313.477,-42.480,40.039,87.891,153.320,0
1583423849.484,303.223,-61.035,21.973,80.566,150.391,0
1583423849.488,246.582,-67.871,16.113,60.059,161.133,0
1583423849.492,281.250,52.246,46.875,77.637,187.012,0
1583423849.496,296.387,-18.555,25.879,102.539,194.824,0
1583423849.500,299.805,33.203,41.016,69.824,226.562,0
1583423849.537,247.070,-64.453,7.812,56.152,199.707,0
1583423849.541,184.082,-136.719,-3.418,69.824,166.992,0
1583423849.545,236.328,71.777,53.223,95.703,222.656,0
1583423849.549,254.395,85.449,40.039,87.402,249.023,0
1583423849.553,219.238,52.734,28.320,48.340,233.398,0
1583423849.557,163.086,-31.738,7.812,76.172,246.094,0
1583423849.561,144.531,-126.465,2.441,113.770,274.902,0
1583423849.564,226.562,35.645,57.617,97.656,307.129,0
1583423849.568,259.766,97.168,59.082,59.570,340.820,0
1583423849.572,231.934,49.805,47.852,67.871,353.516,0
1583423849.576,229.004,47.363,47.852,118.652,417.480,0
1583423849.580,246.582,-5.371,28.320,115.234,438.477,0
1583423849.557,281.738,42.969,34.668,82.031,406.738,0
1583423849.561,276.855,6.836,22.949,64.453,354.004,0
1583423849.565,296.387,27.344,33.203,81.543,318.848,0
1583423849.569,379.395,139.648,50.293,97.168,303.711,0
1583423849.573,452.637,130.371,29.297,75.195,232.910,0
1583423849.577,472.656,147.949,28.320,36.133,154.297,0
1583423849.581,504.883,160.156,31.738,17.090,90.820,0
1583423849.584,586.426,230.469,42.480,38.574,32.227,0
1583423849.588,595.215,244.629,33.691,62.012,0.977,0
1583423849.592,431.641,102.539,4.395,39.062,-31.250,0
1583423849.596,221.191,86.426,20.996,28.320,31.738,0
1583423849.600,0.488,50.293,29.785,73.242,209.961,0
1583423849.597,-248.535,-70.801,24.902,93.750,450.195,0
1583423849.601,-509.277,-173.340,32.227,95.215,702.148,0
1583423849.605,-836.426,-520.508,-14.160,105.469,895.996,0
1583423849.609,-978.027,-647.949,15.137,124.512,991.211,0
1583423849.613,-959.961,-506.836,79.102,125.000,998.047,0
1583423849.617,-969.727,-612.793,41.016,86.914,997.559,0
1583423849.621,-958.984,-473.145,58.105,42.480,995.605,0
1583423849.624,-970.703,-343.750,27.832,28.320,-1000.000,0
1583423849.628,-907.715,-166.504,15.625,-1.465,955.566,0
1583423849.632,-469.727,185.547,55.664,-49.805,756.348,0
1583423849.636,70.312,243.652,19.043,-79.102,495.117,0
1583423849.640,553.223,300.781,22.949,-70.801,351.562,0
1583423849.657,934.082,308.594,22.949,-25.879,314.941,0
1583423849.661,994.141,330.078,28.320,-10.742,335.449,0
1583423849.665,990.234,353.516,25.879,-20.020,389.648,0
1583423849.669,957.520,299.805,19.531,18.066,492.676,0
1583423849.673,672.852,292.480,46.387,35.156,670.410,0
1583423849.677,199.707,66.895,9.766,37.598,796.387,0
1583423849.681,-149.902,-81.055,15.137,22.461,869.629,0
1583423849.684,-342.773,2.441,60.059,12.207,943.848,0
1583423849.688,-474.121,-59.082,49.805,56.641,957.031,0
1583423849.692,-513.672,-37.598,77.637,79.102,934.570,0
1583423849.696,-545.410,-130.859,47.852,70.312,831.055,0
1583423849.700,-540.039,-157.715,44.922,45.410,690.918,0
1583423849.697,-449.219,-56.152,83.008,51.758,560.059,0
1583423849.701,-346.191,-76.660,74.707,66.406,421.387,0
1583423849.705,-305.664,-81.055,74.219,59.082,275.391,0
1583423849.709,-376.465,-148.438,55.176,47.852,113.770,0
1583423849.713,-492.676,-157.227,57.617,55.176,13.184,0
1583423849.717,-568.359,-93.750,75.684,77.148,-22.461,0
1583423849.721,-658.203,-128.418,59.082,83.984,-75.684,0
1583423849.724,-766.113,-74.707,62.500,59.082,-114.258,0
1583423849.728,-900.879,-17.578,64.453,47.363,-101.074,0
1583423849.732,-971.191,-180.176,19.531,73.242,-93.262,0
1583423849.736,-965.820,-162.598,30.273,76.172,-79.102,0
1583423849.740,-967.773,16.113,65.918,72.754,-23.926,0
1583423849.737,-968.750,39.062,58.105,68.848,-8.789,0
1583423849.741,-968.750,20.996,41.016,76.660,-1.465,0
1583423849.745,-968.262,9.277,36.133,96.680,49.316,0
1583423849.749,-968.262,34.668,47.852,78.125,63.965,0
1583423849.753,-968.262,16.113,35.645,50.781,42.969,0
1583423849.757,-968.750,-24.414,26.855,91.309,68.848,0
1583423849.761,-968.750,-13.672,38.086,109.375,84.961,0
1583423849.764,-968.750,-117.676,8.789,70.312,28.809,0
1583423849.768,-968.262,-93.262,23.926,28.320,-35.645,0
1583423849.772,-968.750,73.730,75.195,10.742,-64.941,0
1583423849.776,-968.750,66.406,69.336,51.270,-75.195,0
1583423849.780,-969.238,22.949,57.129,59.082,-133.301,0
1583423849.797,-965.820,-8.789,49.805,29.297,-198.730,0
1583423849.801,-969.727,-50.781,37.109,24.414,-250.977,0
1583423849.805,-960.449,-35.156,39.551,64.453,-266.113,0
1583423849.809,-855.957,45.410,60.547,86.426,-213.867,0
1583423849.813,-759.766,44.922,53.223,87.891,-167.480,0
1583423849.817,-762.695,-139.160,-0.488,86.426,-133.789,0
1583423849.821,-711.914,-151.855,15.625,80.566,-68.848,0
1583423849.824,-558.594,60.059,78.613,108.398,33.203,0
1583423849.828,-403.809,62.012,60.059,118.164,123.535,0
1583423849.832,-338.867,56.152,46.875,97.168,177.246,0
1583423849.836,-346.680,24.414,33.691,102.051,210.938,0
1583423849.840,-258.789,49.316,40.527,119.629,232.910,0
1583423849.838,-170.410,130.859,54.688,103.027,234.375,0
1583423849.842,-144.531,112.793,39.062,56.152,209.961,0
1583423849.846,-125.488,136.719,32.715,29.785,204.102,0
1583423849.850,-142.578,122.070,20.020,37.109,244.141,0
1583423849.854,-106.445,70.312,8.301,36.133,260.254,0
1583423849.858,-45.410,85.938,12.207,4.883,244.629,0
1583423849.862,-48.828,56.152,10.254,-6.348,211.914,0
1583423849.865,2.441,119.629,41.504,-9.277,188.477,0
1583423849.869,40.039,98.633,32.227,-11.230,186.035,0
1583423849.873,-14.648,-102.539,-0.977,-28.320,128.906,0
1583423849.877,-41.016,-23.926,42.480,-53.223,52.734,0
1583423849.881,-51.758,34.668,58.594,-40.039,-4.395,0
1583423849.877,-73.242,-22.949,53.223,-21.484,-60.059,0
1583423849.881,-97.656,-69.336,45.898,-23.438,-130.859,0
1583423849.885,-161.133,-143.066,27.832,-41.992,-239.746,0
1583423849.889,-188.965,-102.539,48.828,-45.898,-325.684,0
1583423849.893,-184.082,-124.512,45.898,-28.320,-390.625,0
1583423849.897,-226.562,-224.121,21.973,-30.273,-479.980,0
1583423849.901,-263.184,-191.895,29.297,-70.801,-553.711,0
1583423849.904,-359.375,-294.922,1.953,-81.543,-645.020,0
1583423849.908,-380.859,-230.957,35.645,-41.992,-704.590,0
1583423849.912,-286.133,-69.336,69.824,-37.598,-731.445,0
1583423849.916,-250.000,-164.062,42.480,-40.039,-800.781,0
1583423849.920,-209.961,-176.758,45.898,-38.086,-893.555,0
1583423849.937,-144.043,-170.898,47.363,-53.223,-960.449,0
1583423849.941,-31.250,-115.723,65.430,-62.988,-968.262,0
1583423849.945,140.625,-130.371,54.199,-67.383,-966.797,0
1583423849.949,360.352,-141.602,46.875,-71.289,-969.238,0
1583423849.953,664.551,-93.262,52.246,-67.871,-968.262,0
1583423849.957,941.406,-130.371,40.039,-23.926,-968.262,0
1583423849.961,-998.535,-114.258,53.711,-9.766,-968.750,0
1583423849.964,992.676,-19.043,77.148,-11.719,-968.750,0
1583423849.968,-1000.000,-24.902,61.523,24.902,-968.262,0
1583423849.972,999.512,18.066,70.312,53.223,-968.262,0
1583423849.976,999.512,-131.836,36.621,94.727,-968.750,0
1583423849.980,999.512,-195.312,30.762,104.492,-968.750,0
1583423849.977,999.512,14.160,81.543,115.234,-965.332,0
1583423849.981,999.512,22.949,71.777,182.129,-972.656,0
1583423849.985,999.512,6.836,54.688,209.473,-929.688,0
1583423849.989,999.512,-31.250,41.504,195.312,-825.195,0
1583423849.993,999.512,-6.348,54.688,200.195,-727.051,0
1583423849.997,999.512,-29.297,54.688,229.004,-652.344,0
1583423850.001,999.512,-5.859,73.730,244.141,-587.891,0
1583423850.004,999.512,68.359,89.355,218.750,-590.332,0
1583423850.008,999.512,-3.906,55.664,180.176,-626.465,0
1583423850.012,999.512,-42.969,33.203,184.570,-646.484,0
1583423850.016,999.512,147.949,71.289,194.336,-690.918,0
1583423850.020,999.512,259.766,76.660,169.922,-716.797,0
1583423850.017,999.512,248.535,55.176,135.742,-749.512,0
1583423850.021,999.512,159.668,28.809,145.996,-809.082,0
1583423850.025,999.512,152.344,40.527,185.059,-838.379,0
1583423850.029,999.512,226.074,65.430,190.430,-821.777,0
1583423850.033,999.512,204.590,54.688,192.383,-799.316,0
1583423850.037,999.512,188.965,48.340,216.797,-742.188,0
1583423850.041,999.512,207.031,60.547,295.410,-648.926,0
1583423850.044,999.512,268.066,88.379,401.367,-524.414,0
1583423850.048,999.512,385.742,114.746,474.121,-379.883,0
1583423850.052,999.512,405.273,108.398,526.855,-278.320,0
1583423850.056,999.512,442.383,115.723,594.238,-136.230,0
1583423850.060,999.512,458.496,109.863,671.875,3.418,0
1583423850.077,999.512,407.227,95.703,712.891,71.289,0
1583423850.081,999.512,503.418,129.883,698.730,163.086,0
1583423850.085,999.512,556.641,134.277,679.688,274.902,0
1583423850.089,999.512,471.191,111.328,671.875,304.688,0
1583423850.093,999.512,414.551,105.469,616.211,302.734,0
1583423850.097,999.512,276.855,67.383,512.207,270.508,0
1583423850.101,999.512,295.410,70.312,398.926,213.379,0
1583423850.104,999.512,424.316,98.145,318.848,180.176,0
1583423850.108,-999.512,381.836,88.867,254.883,161.621,0
1583423850.112,996.094,288.574,59.570,173.828,94.238,0
1583423850.116,985.352,153.809,26.855,107.422,1.465,0
1583423850.120,-990.234,182.617,47.852,70.801,-25.391,0
1583423850.117,682.617,207.031,43.945,43.457,-65.918,0
1583423850.121,74.219,138.672,20.020,-15.137,-173.828,0
1583423850.125,-365.723,165.039,31.250,-70.801,-264.648,0
1583423850.129,-791.992,112.305,19.531,-95.215,-365.723,0
1583423850.133,-979.492,73.242,16.602,-108.398,-472.168,0
1583423850.137,-958.008,68.848,21.973,-150.391,-579.590,0
1583423850.141,-967.285,15.137,13.672,-207.031,-719.727,0
1583423850.144,-969.238,25.879,31.738,-228.516,-881.348,0
1583423850.148,-968.750,-70.801,5.371,-238.770,-966.309,0
1583423850.152,-968.750,-83.496,7.324,-253.418,-965.820,0
1583423850.156,-968.750,124.512,71.777,-229.980,-967.285,0
1583423850.160,-968.750,107.422,59.082,-209.473,-968.750,0
1583423850.157,-968.750,42.969,43.457,-234.375,-968.750,0
1583423850.161,-968.750,-2.441,30.273,-248.535,-968.750,0
1583423850.165,-968.750,43.457,34.668,-229.980,-968.262,0
1583423850.169,-968.262,166.016,59.082,-196.777,-968.750,0
1583423850.173,-968.750,174.316,44.434,-174.316,-968.750,0
1583423850.177,-968.750,157.715,18.555,-168.945,-968.750,0
1583423850.181,-968.750,146.973,1.953,-181.641,-968.750,0
1583423850.184,-968.750,87.891,-18.066,-205.078,-968.750,0
1583423850.188,-968.262,216.797,28.320,-209.473,-968.750,0
1583423850.192,-968.262,199.219,19.043,-195.801,-968.750,0
1583423850.196,-968.750,119.141,8.301,-181.152,-962.891,0
1583423850.200,-968.750,88.379,8.301,-204.102,-977.051,0
1583423850.217,-968.750,17.090,-2.441,-203.125,-906.738,0
1583423850.221,-968.750,54.199,22.949,-168.945,-738.281,0
1583423850.225,-968.262,8.301,14.648,-180.176,-636.719,0
1583423850.229,-968.750,-48.828,-4.883,-238.281,-613.281,0
1583423850.233,-968.750,-115.723,-20.996,-251.465,-623.535,0
1583423850.237,-968.750,-210.938,-12.695,-226.562,-634.766,0
1583423850.241,-968.750,-207.031,33.691,-228.516,-635.254,0
1583423850.244,-968.262,-216.797,47.363,-270.020,-646.973,0
1583423850.248,-968.262,-305.664,39.062,-309.570,-727.539,0
1583423850.252,-968.262,-336.914,41.992,-310.059,-847.656,0
1583423850.256,-968.750,-382.324,27.344,-294.434,-946.777,0
1583423850.260,-968.262,-267.578,53.223,-305.664,-969.238,0
1583423850.257,-968.262,-227.539,37.598,-322.754,-966.309,0
1583423850.261,-968.262,-253.418,14.160,-316.895,-968.750,0
1583423850.265,-968.262,-155.273,31.250,-320.312,-968.750,0
1583423850.269,-968.750,-222.168,5.859,-327.637,-968.262,0
1583423850.273,-968.750,-158.691,19.531,-348.633,-968.262,0
1583423850.277,-968.750,-99.121,15.625,-355.469,-968.750,0
1583423850.281,-968.750,-94.727,6.836,-307.617,-968.262,0
1583423850.284,-968.750,31.738,21.484,-273.438,-968.262,0
1583423850.288,-968.750,22.461,-3.418,-289.551,-968.750,0
1583423850.292,-968.750,65.918,4.395,-297.363,-968.262,0
1583423850.296,-968.750,125.000,18.066,-261.230,-968.262,0
1583423850.300,-968.750,62.500,10.742,-229.004,-968.262,0
1583423850.317,-968.750,37.109,13.184,-233.887,-968.750,0
1583423850.321,-968.750,-98.633,-13.184,-237.793,-968.750,0
1583423850.325,-968.750,-97.656,1.465,-221.191,-968.262,0
1583423850.329,-968.750,-21.484,25.391,-199.219,-968.750,0
1583423850.333,-968.750,-46.387,6.836,-183.594,-969.238,0
1583423850.337,-968.750,8.789,6.836,-181.152,-964.844,0
1583423850.341,-968.750,-39.062,-19.531,-123.535,-970.215,0
1583423850.344,-968.750,-76.660,-18.066,-68.848,-952.637,0
1583423850.348,-969.727,98.633,46.387,-74.219,-819.336,0
1583423850.352,-959.473,125.977,45.410,-58.105,-670.898,0
1583423850.356,-975.098,73.730,37.109,-18.555,-583.496,0
1583423850.360,-893.555,68.359,38.086,44.434,-487.305,0
1583423850.357,-561.035,62.988,44.922,91.309,-415.039,0
1583423850.361,-195.801,138.672,74.707,92.285,-360.840,0
1583423850.365,44.434,140.625,69.824,109.863,-326.660,0
1583423850.369,213.867,139.648,72.754,133.301,-325.684,0
1583423850.373,337.402,109.863,59.570,163.574,-319.824,0
1583423850.377,438.965,49.805,43.457,170.410,-315.918,0
1583423850.381,520.020,80.078,53.711,146.484,-289.062,0
1583423850.384,557.617,104.980,63.477,160.645,-225.586,0
1583423850.388,575.195,164.551,92.285,199.219,-133.789,0
1583423850.392,572.266,155.273,86.426,219.727,-57.129,0
1583423850.396,442.383,-10.742,33.203,192.383,-44.922,0
1583423850.400,293.457,114.746,71.289,174.316,-9.277,0
1583423850.397,221.680,291.016,105.957,195.312,46.387,0
1583423850.401,93.262,253.906,87.891,183.105,25.879,0
1583423850.405,11.719,207.520,75.684,144.531,-62.988,0
1583423850.409,-19.531,138.672,62.012,113.770,-196.289,0
1583423850.413,-69.824,128.906,76.172,104.492,-329.102,0
1583423850.417,-200.684,38.086,66.895,85.938,-472.656,0
1583423850.421,-468.262,7.812,68.848,20.996,-618.164,0
1583423850.424,-826.172,42.969,80.078,-38.574,-772.461,0
1583423850.428,-979.492,-154.785,31.250,-64.941,-923.828,0
1583423850.432,-958.984,-239.746,20.996,-86.914,-970.703,0
1583423850.436,-967.773,-127.441,64.453,-108.398,-965.332,0
1583423850.440,-969.238,-141.113,75.684,-96.680,-968.750,0
1583423850.457,-968.750,-197.266,74.219,-52.246,-967.285,0
1583423850.461,-968.750,-275.879,54.688,-42.969,-963.867,0
1583423850.465,-968.750,-241.699,68.848,-50.781,-970.703,0
1583423850.469,-968.262,-146.484,81.055,-15.625,-844.238,0
1583423850.473,-968.262,-145.020,47.852,20.508,-636.719,0
1583423850.477,-968.262,-105.957,36.621,76.660,-407.715,0
1583423850.481,-968.750,-51.270,25.879,93.750,-76.172,0
1583423850.484,-968.750,53.711,29.297,96.680,232.910,0
1583423850.488,-963.379,260.254,65.918,130.859,568.359,0
1583423850.492,-979.492,280.273,51.758,176.758,895.996,0
1583423850.496,-911.133,239.746,45.410,185.059,-995.605,0
1583423850.500,-799.316,134.277,36.133,145.508,991.699,0
1583423850.498,-821.289,58.105,34.668,117.676,999.023,0
1583423850.502,-920.410,107.422,54.199,99.609,999.512,0
1583423850.506,-806.641,104.004,49.805,99.121,999.512,0
1583423850.510,-199.707,144.043,59.082,144.531,999.512,0
1583423850.514,408.203,135.742,42.480,168.945,999.512,0
1583423850.518,645.996,116.699,22.461,158.691,999.512,0
1583423850.522,864.258,193.359,42.480,159.180,999.512,0
1583423850.525,-993.164,252.930,56.152,158.203,999.512,0
1583423850.529,994.629,294.434,59.570,186.035,-1000.000,0
1583423850.533,997.559,257.324,26.855,210.449,997.070,0
1583423850.537,-1000.000,257.324,13.672,240.234,999.023,0
1583423850.541,999.512,385.742,40.527,278.320,988.770,0
1583423850.537,999.512,416.504,29.785,256.348,885.254,0
1583423850.541,-998.535,405.273,20.508,214.844,723.633,0
1583423850.545,993.164,387.695,21.484,210.938,592.285,0
1583423850.549,986.816,328.125,10.742,198.242,433.105,0
1583423850.553,986.816,361.816,21.484,158.203,240.234,0
1583423850.557,580.078,351.074,11.230,119.629,65.918,0
1583423850.561,-304.199,334.961,9.766,112.793,-59.570,0
1583423850.564,-910.645,353.027,22.461,90.332,-134.277,0
1583423850.568,-966.309,325.195,13.184,46.387,-195.312,0
1583423850.572,-954.102,343.262,16.602,5.859,-235.352,0
1583423850.576,-971.680,351.562,13.184,-0.977,-196.777,0
1583423850.580,-968.750,314.941,-3.418,27.344,-90.332,0
1583423850.597,-968.262,285.156,-11.230,14.160,21.973,0
1583423850.601,-968.750,158.203,-45.410,-28.320,164.551,0
1583423850.605,-968.750,186.523,-30.273,-35.156,362.305,0
1583423850.609,-968.262,316.895,16.113,1.953,615.723,0
1583423850.613,-968.262,262.695,-10.254,30.273,877.441,0
1583423850.617,-968.750,185.547,-41.992,8.789,-1000.000,0
1583423850.621,-968.262,64.453,-60.547,-1.953,994.629,0
1583423850.624,-968.262,122.070,-23.926,8.789,997.559,0
1583423850.628,-968.262,256.836,16.602,8.301,-1000.000,0
1583423850.632,-968.750,200.684,-0.977,2.930,999.512,0
1583423850.636,-968.750,138.184,-4.883,-38.574,999.512,0
1583423850.640,-968.262,62.988,-4.395,-40.039,-999.512,0
1583423850.637,-968.750,93.262,22.461,-43.457,991.211,0
1583423850.641,-968.750,103.516,26.855,-97.656,-996.582,0
1583423850.645,-968.750,98.633,28.320,-137.695,931.152,0
1583423850.649,-968.750,130.371,33.691,-183.594,606.934,0
1583423850.653,-968.750,83.496,18.066,-196.289,194.336,0
1583423850.657,-968.750,61.035,14.160,-210.938,-189.453,0
1583423850.661,-968.262,53.711,18.066,-270.508,-625.000,0
1583423850.664,-968.262,83.496,39.062,-306.152,-930.176,0
1583423850.668,-968.262,81.055,45.898,-318.359,-968.262,0
1583423850.672,-968.262,-78.125,18.555,-316.406,-961.426,0
1583423850.676,-968.262,-150.879,16.113,-348.145,-969.727,0
1583423850.680,-968.750,-56.152,51.758,-374.512,-968.262,0
1583423850.677,-968.262,-104.980,46.387,-341.797,-968.262,0
1583423850.681,-968.262,-194.824,39.062,-314.941,-968.750,0
1583423850.685,-968.750,-285.156,21.973,-303.711,-968.750,0
1583423850.689,-968.750,-364.746,6.836,-306.641,-968.750,0
1583423850.693,-968.262,-385.254,19.043,-314.941,-968.750,0
1583423850.697,-968.750,-502.441,0.000,-295.898,-968.262,0
1583423850.701,-968.750,-489.258,21.484,-267.090,-968.750,0
1583423850.704,-968.750,-450.684,32.227,-240.723,-967.773,0
1583423850.708,-968.750,-581.055,-11.719,-188.965,-963.867,0
1583423850.712,-968.750,-471.680,18.555,-145.996,-977.051,0
1583423850.716,-968.750,-292.969,53.711,-116.699,-877.930,0
1583423850.720,-968.262,-322.754,22.461,-99.609,-734.375,0
1583423850.737,-968.262,-280.762,16.113,-60.059,-647.949,0
1583423850.741,-970.215,-172.363,39.062,4.395,-546.875,0
1583423850.745,-958.984,-114.258,52.734,26.367,-492.676,0
1583423850.749,-968.262,-74.707,63.477,37.109,-458.008,0
1583423850.753,-919.922,-80.078,60.059,40.527,-464.355,0
1583423850.757,-491.211,-111.816,48.340,55.664,-511.719,0
1583423850.761,72.266,-172.363,34.180,76.660,-574.707,0
1583423850.764,518.066,-67.383,66.406,48.828,-629.395,0
1583423850.768,812.500,90.332,95.703,25.391,-655.762,0
1583423850.772,879.395,7.812,59.570,40.527,-737.305,0
1583423850.776,917.480,-28.320,58.105,61.035,-780.762,0
1583423850.780,974.121,-18.066,62.012,43.457,-771.973,0
1583423850.777,999.512,-17.578,64.453,20.508,-766.602,0
1583423850.781,998.535,12.207,65.918,20.996,-730.469,0
1583423850.785,999.023,-9.766,46.875,33.691,-688.477,0
1583423850.789,999.512,25.391,48.828,60.059,-646.973,0
1583423850.793,999.512,98.633,49.805,43.457,-604.492,0
1583423850.797,999.512,115.723,33.691,27.344,-563.477,0
1583423850.801,999.512,143.555,27.344,56.641,-528.809,0
1583423850.804,999.512,215.332,41.992,75.195,-456.055,0
1583423850.808,999.512,305.176,54.199,54.199,-377.930,0
1583423850.812,999.512,185.059,6.348,41.016,-368.164,0
1583423850.816,999.512,141.113,1.465,56.152,-356.934,0
1583423850.820,999.512,310.059,49.316,78.125,-311.523,0
1583423850.817,999.512,314.453,43.457,78.613,-293.945,0
1583423850.821,999.512,298.340,40.527,72.266,-325.195,0
1583423850.825,999.512,259.277,20.996,97.168,-382.324,0
1583423850.829,999.512,302.246,35.645,131.836,-409.180,0
1583423850.833,999.512,388.184,51.758,144.043,-408.203,0
1583423850.837,999.512,323.730,15.625,132.812,-455.078,0
1583423850.841,999.512,332.520,21.484,128.906,-489.746,0
1583423850.844,999.512,335.938,19.531,155.762,-472.168,0
1583423850.848,999.512,295.898,11.719,184.082,-424.316,0
1583423850.852,999.512,427.734,48.340,176.758,-327.637,0
1583423850.856,999.512,474.121,49.316,180.176,-200.684,0
1583423850.860,999.512,462.402,48.828,211.426,-49.805,0
1583423850.877,999.512,399.414,27.832,233.398,82.520,0
1583423850.881,999.512,350.098,15.625,214.355,185.547,0
1583423850.885,999.512,392.090,31.738,190.430,287.109,0
1583423850.889,999.512,361.328,22.461,198.730,344.238,0
1583423850.893,999.512,358.887,23.926,199.707,409.668,0
1583423850.897,999.512,276.367,3.418,169.434,430.664,0
1583423850.901,999.512,245.605,2.441,138.672,384.766,0
1583423850.904,999.512,349.121,33.203,116.211,342.285,0
1583423850.908,999.512,334.961,28.320,101.074,317.871,0
1583423850.912,999.512,311.523,24.902,94.727,267.090,0
1583423850.916,999.512,317.383,21.973,76.172,155.273,0
1583423850.920,999.512,231.445,0.488,59.570,57.617,0
1583423850.917,999.512,306.152,32.227,62.012,48.828,0
1583423850.921,999.512,369.629,45.898,70.801,64.941,0
1583423850.925,999.512,318.359,26.367,78.125,71.777,0
1583423850.929,999.512,299.316,22.461,69.824,99.609,0
1583423850.933,999.512,263.184,19.531,90.332,188.477,0
1583423850.937,999.512,213.379,12.207,91.797,314.941,0
1583423850.941,999.512,184.570,21.484,68.359,452.148,0
1583423850.944,999.512,160.156,34.180,71.289,591.309,0
1583423850.948,999.512,139.160,45.898,98.145,757.812,0
1583423850.952,999.512,-76.172,10.742,132.812,916.992,0
1583423850.956,999.512,-178.711,15.625,115.234,987.793,0
1583423850.960,999.512,-65.430,68.359,74.219,997.070,0
1583423850.957,999.512,-101.562,63.965,59.082,998.535,0
1583423850.961,999.512,-120.605,60.547,67.383,-1000.000,0
1583423850.965,999.512,-133.789,53.223,64.941,996.094,0
1583423850.969,999.512,-104.492,50.781,16.602,-998.047,0
1583423850.973,999.512,-83.008,38.574,-20.020,980.957,0
1583423850.977,999.512,-73.242,32.227,-13.672,876.465,0
1583423850.981,999.512,-8.301,43.945,-22.461,785.156,0
1583423850.984,999.512,-68.848,17.578,-34.668,713.867,0
1583423850.988,999.512,-105.469,17.090,-53.223,670.410,0
1583423850.992,999.512,25.391,65.430,-49.316,711.914,0
1583423850.996,999.512,-15.137,51.758,-11.719,759.277,0
1583423851.000,-1000.000,-84.961,34.668,-11.719,802.246,0
1583423851.017,995.117,-126.953,29.297,-14.648,869.141,0
1583423851.021,-999.023,-124.512,37.109,-15.625,939.453,0
1583423851.025,975.586,-108.398,40.039,9.277,983.398,0
1583423851.029,812.500,-108.398,37.598,23.926,985.840,0
1583423851.033,627.441,-82.031,49.316,-10.742,958.496,0
1583423851.037,448.242,-144.043,28.320,-4.395,918.457,0
1583423851.041,353.516,-190.430,13.184,-3.418,850.586,0
1583423851.044,490.723,-7.812,57.617,-41.504,790.527,0
1583423851.048,683.105,85.449,59.082,-49.316,728.516,0
1583423851.052,821.777,60.059,45.898,-52.734,637.695,0
1583423851.056,946.289,52.734,43.457,-38.086,576.172,0
1583423851.060,-998.535,68.359,42.969,-30.273,567.383,0
1583423851.057,996.582,141.602,59.570,-42.969,546.875,0
1583423851.061,999.023,139.160,45.410,-41.016,489.746,0
1583423851.065,999.512,140.137,44.922,-21.973,459.961,0
1583423851.069,999.512,103.516,37.109,5.859,450.684,0
1583423851.073,999.512,50.781,19.531,-15.625,452.148,0
1583423851.077,999.512,33.203,19.043,-40.039,452.148,0
1583423851.081,995.605,8.301,12.207,-10.254,470.215,0
1583423851.084,999.023,20.508,24.414,26.855,535.156,0
1583423851.088,966.309,61.523,40.039,41.992,598.633,0
1583423851.092,762.207,-96.680,2.930,35.156,652.344,0
1583423851.096,584.961,-137.207,17.090,25.391,722.168,0
1583423851.100,551.270,-13.184,64.941,46.875,797.852,0
1583423851.097,474.121,-75.684,54.688,69.824,834.473,0
1583423851.101,411.133,-104.980,52.734,76.660,852.051,0
1583423851.105,334.961,-134.277,50.293,55.176,831.543,0
1583423851.109,281.250,-86.914,62.012,41.992,795.410,0
1583423851.113,328.613,-63.965,59.082,64.453,745.605,0
1583423851.117,415.527,-151.367,43.457,61.523,647.949,0
1583423851.121,528.809,-81.543,74.219,33.203,574.707,0
1583423851.124,637.695,-140.137,58.105,31.250,468.262,0
1583423851.128,786.621,-167.969,62.012,39.551,360.840,0
1583423851.132,964.355,-2.930,101.562,29.785,311.523,0
1583423851.136,977.051,-33.203,72.754,4.883,219.238,0
1583423851.140,935.059,-28.809,67.383,-1.953,156.250,0
1583423851.157,891.602,-111.816,40.527,29.785,154.785,0
1583423851.161,870.117,-134.277,35.156,41.992,158.203,0
1583423851.165,895.508,23.438,67.383,28.809,193.359,0
1583423851.169,861.816,36.133,54.199,39.551,239.746,0
1583423851.173,925.781,60.547,54.199,66.406,291.992,0
1583423851.177,-995.605,-50.293,16.113,74.707,317.383,0
1583423851.181,998.047,-119.629,12.695,52.734,305.176,0
1583423851.184,997.559,15.625,67.871,25.879,282.715,0
1583423851.188,999.512,14.648,72.266,35.645,257.324,0
1583423851.192,999.512,-45.898,64.453,42.969,223.633,0
1583423851.196,999.512,-136.230,48.828,32.715,139.648,0
1583423851.200,999.512,-129.395,64.453,14.160,61.035,0
1583423851.198,999.512,-75.195,85.938,11.719,-23.926,0
1583423851.202,999.512,-105.957,81.055,33.203,-118.164,0
1583423851.206,999.512,-120.605,84.473,36.621,-187.988,0
1583423851.210,999.512,-203.613,67.383,6.348,-302.246,0
1583423851.214,999.512,-285.645,54.199,2.441,-433.105,0
1583423851.218,-999.023,-291.992,72.266,22.461,-495.117,0
1583423851.222,992.676,-349.121,77.637,37.598,-523.438,0
1583423851.225,-1000.000,-385.742,84.473,29.785,-561.035,0
1583423851.229,968.262,-418.457,92.773,12.207,-558.105,0
1583423851.233,687.988,-507.812,89.844,48.340,-494.141,0
1583423851.237,298.340,-487.305,105.469,58.594,-431.152,0
1583423851.241,-16.113,-472.656,97.168,45.898,-388.672,0
1583423851.237,-266.113,-470.215,74.707,47.363,-342.773,0
1583423851.241,-368.652,-485.352,50.781,57.129,-295.898,0
1583423851.245,-267.578,-481.445,45.410,91.797,-202.148,0
1583423851.249,42.480,-323.730,68.848,98.633,-77.148,0
1583423851.253,405.762,-209.961,68.359,80.566,54.199,0
1583423851.257,785.645,-187.500,46.387,99.609,198.730,0
1583423851.261,-994.141,-83.984,48.828,138.184,336.914,0
1583423851.264,992.188,-27.832,41.992,155.273,441.406,0
1583423851.268,996.094,32.715,41.016,135.254,457.520,0
1583423851.272,-999.512,141.602,57.617,134.766,439.453,0
1583423851.276,-999.023,138.672,56.152,141.113,335.938,0
1583423851.280,990.723,156.250,61.523,109.863,120.117,0
1583423851.297,-999.512,60.059,29.785,91.797,-159.668,0
1583423851.301,938.477,37.109,28.320,48.340,-530.762,0
1583423851.305,555.664,146.484,62.500,-4.395,-877.441,0
1583423851.309,-3.418,116.211,56.152,-49.316,-972.656,0
1583423851.313,-625.000,98.145,54.199,-116.699,-960.449,0
1583423851.317,-976.074,-14.160,8.301,-170.410,-968.750,0
1583423851.321,-958.008,-9.277,12.207,-183.105,-968.750,0
1583423851.324,-962.891,149.902,65.430,-184.082,-968.262,0
1583423851.328,-970.703,173.828,59.570,-180.176,-968.262,0
1583423851.332,-968.750,210.938,53.223,-187.988,-968.750,0
1583423851.336,-968.750,172.852,10.254,-172.363,-968.262,0
1583423851.340,-968.750,200.195,-8.301,-123.047,-968.750,0
1583423851.337,-968.750,388.184,32.715,-97.168,-966.797,0
1583423851.341,-968.262,401.855,22.461,-99.121,-966.797,0
1583423851.345,-968.750,405.762,15.625,-94.727,-969.238,0
1583423851.349,-968.750,383.301,1.953,-67.383,-887.695,0
1583423851.353,-968.262,406.738,1.953,-69.336,-770.508,0
1583423851.357,-968.262,464.355,10.254,-89.355,-729.980,0
1583423851.361,-968.262,463.867,7.812,-153.320,-825.195,0
1583423851.364,-968.750,420.898,9.277,-216.309,-957.520,0
1583423851.368,-968.750,291.016,-10.254,-251.953,-970.215,0
1583423851.372,-968.750,133.301,-23.438,-341.797,-964.844,0
1583423851.376,-968.262,150.879,13.672,-462.891,-969.238,0
1583423851.380,-968.262,117.676,22.461,-502.441,-968.262,0
1583423851.377,-968.750,-3.418,21.484,-509.277,-968.750,0
1583423851.381,-968.262,-95.703,22.461,-539.062,-968.750,0
1583423851.385,-968.262,-183.105,27.344,-540.527,-968.262,0
1583423851.389,-968.750,-213.379,43.457,-518.555,-968.262,0
1583423851.393,-968.262,-285.645,31.738,-482.422,-968.750,0
1583423851.397,-968.262,-292.480,43.457,-441.895,-968.262,0
1583423851.401,-968.262,-222.656,55.664,-431.152,-968.262,0
1583423851.404,-968.262,-202.637,31.250,-419.434,-968.750,0
1583423851.408,-968.262,-44.922,55.664,-379.883,-968.750,0
1583423851.412,-968.750,172.363,86.914,-340.332,-968.262,0
1583423851.416,-968.262,186.523,50.781,-326.172,-968.262,0
1583423851.420,-968.750,238.281,35.645,-332.031,-968.262,0
1583423851.437,-968.750,340.820,42.480,-310.059,-968.750,0
1583423851.441,-968.750,431.152,39.062,-268.555,-968.750,0
1583423851.445,-968.262,453.125,21.484,-311.035,-968.750,0
1583423851.449,-968.750,396.973,1.953,-350.098,-968.750,0
1583423851.453,-968.750,311.035,4.395,-309.570,-966.309,0
1583423851.457,-968.750,41.016,-17.578,-250.977,-971.680,0
1583423851.461,-968.262,-111.816,2.930,-220.703,-938.477,0
1583423851.464,-968.262,-150.391,46.387,-229.004,-871.094,0
1583423851.468,-968.262,-327.637,46.875,-202.637,-822.754,0
1583423851.472,-968.750,-426.758,53.711,-170.898,-779.297,0
1583423851.476,-968.262,-576.172,29.785,-162.109,-724.609,0
1583423851.480,-968.262,-583.008,49.316,-155.273,-625.488,0
1583423851.477,-968.262,-488.281,74.219,-178.711,-593.262,0
1583423851.481,-968.262,-526.367,50.293,-174.805,-605.469,0
1583423851.485,-968.750,-486.816,44.434,-149.902,-566.895,0
1583423851.489,-968.262,-436.035,29.785,-165.039,-557.617,0
1583423851.493,-968.262,-333.984,38.574,-199.707,-504.395,0
1583423851.497,-968.750,-260.742,40.039,-217.285,-441.406,0
1583423851.501,-968.750,-195.312,39.062,-219.727,-423.828,0
1583423851.504,-968.262,-63.477,55.664,-251.465,-394.531,0
1583423851.508,-968.750,-123.047,13.184,-271.973,-397.949,0
1583423851.512,-968.750,-197.754,-5.859,-260.254,-374.512,0
1583423851.516,-968.262,-47.852,55.664,-266.113,-308.594,0
1583423851.520,-968.750,-32.227,69.824,-262.695,-273.926,0
1583423851.517,-968.750,-90.332,67.383,-274.902,-274.902,0
1583423851.521,-968.262,-167.969,44.922,-292.480,-321.289,0
1583423851.525,-968.262,-186.523,40.527,-277.344,-323.242,0
1583423851.529,-968.750,-130.371,65.918,-263.184,-307.129,0
1583423851.533,-968.750,-174.316,59.570,-258.301,-312.500,0
1583423851.537,-968.750,-166.504,64.941,-239.746,-277.832,0
1583423851.541,-968.262,-127.441,69.336,-202.148,-258.301,0
1583423851.544,-968.750,-149.414,57.617,-171.387,-257.324,0
1583423851.548,-968.750,10.254,83.496,-193.848,-235.352,0
1583423851.552,-968.750,164.062,81.055,-224.121,-232.910,0
1583423851.556,-968.262,185.059,57.617,-171.875,-207.520,0
1583423851.560,-968.750,213.867,53.711,-133.301,-183.105,0
1583423851.577,-968.262,215.332,44.922,-163.574,-169.922,0
1583423851.581,-968.750,237.305,47.363,-194.824,-183.105,0
1583423851.585,-968.750,216.797,42.969,-169.434,-238.770,0
1583423851.589,-968.750,213.867,60.547,-137.207,-211.426,0
1583423851.593,-968.750,198.242,60.547,-123.047,-113.770,0
1583423851.597,-968.262,88.379,23.438,-159.180,-154.785,0
1583423851.601,-968.750,75.684,39.551,-192.383,-166.504,0
1583423851.604,-968.750,115.234,56.152,-130.371,-136.230,0
1583423851.608,-968.262,142.090,56.641,-97.168,-164.062,0
1583423851.612,-968.750,144.043,59.570,-122.070,-160.645,0
1583423851.616,-968.262,51.758,33.691,-108.887,-130.859,0
1583423851.620,-968.750,107.422,58.594,-80.566,-77.637,0
1583423851.617,-968.750,182.617,72.754,-49.316,-117.188,0
1583423851.621,-968.750,176.270,69.336,-20.996,-156.250,0
1583423851.625,-968.750,203.125,78.125,7.324,-176.758,0
1583423851.629,-969.727,141.602,48.340,34.180,-190.918,0
1583423851.633,-967.285,189.453,70.312,54.199,-117.188,0
1583423851.637,-942.871,234.375,90.332,63.965,-115.723,0
1583423851.641,-994.141,210.938,79.590,55.664,-113.770,0
1583423851.644,-600.098,330.078,96.680,28.320,-44.922,0
1583423851.648,380.371,255.859,54.199,67.383,-20.508,0
1583423851.652,952.148,164.062,31.250,73.242,8.789,0
1583423851.656,990.723,245.117,57.129,52.734,-38.574,0
1583423851.660,987.305,226.562,55.664,91.309,-68.848,0
1583423851.657,-997.559,171.875,59.570,137.695,-60.547,0
1583423851.661,999.512,41.504,40.527,171.387,-85.938,0
1583423851.665,999.512,-39.551,33.203,181.152,-164.551,0
1583423851.669,999.512,13.672,64.941,210.938,-146.484,0
1583423851.673,999.512,-27.344,56.152,264.648,-52.734,0
1583423851.677,999.512,-104.004,36.133,314.453,-91.797,0
1583423851.681,999.512,-115.723,37.598,336.914,-127.441,0
1583423851.684,999.512,-95.215,32.227,329.590,-101.074,0
1583423851.688,999.512,103.027,70.312,301.758,-54.688,0
1583423851.692,999.512,200.195,65.430,313.965,-72.266,0
1583423851.696,999.512,215.332,49.316,315.918,-94.727,0
1583423851.700,999.512,255.859,41.504,285.156,-63.965,0
1583423851.717,999.512,244.141,17.090,273.926,-30.273,0
1583423851.721,999.512,302.734,22.949,283.203,-55.664,0
1583423851.725,999.512,375.000,32.715,287.598,-44.434,0
1583423851.729,999.512,361.328,14.648,284.668,-74.707,0
1583423851.733,999.512,349.121,10.742,297.363,-73.242,0
1583423851.737,999.512,280.273,0.000,348.145,-5.371,0
1583423851.741,999.512,285.645,8.789,370.117,-8.789,0
1583423851.744,999.512,301.758,24.414,384.277,-56.152,0
1583423851.748,999.512,242.188,22.949,423.340,-49.805,0
1583423851.752,999.512,198.730,21.484,458.496,-22.461,0
1583423851.756,999.512,28.320,-14.160,509.766,-31.250,0
1583423851.760,999.512,18.555,15.137,560.059,19.043,0
1583423851.757,999.512,63.965,49.805,583.008,71.289,0
1583423851.761,999.512,-53.711,34.180,626.465,65.918,0
1583423851.765,999.512,-124.023,35.156,692.383,40.039,0
1583423851.769,999.512,-202.637,22.461,736.328,8.301,0
1583423851.773,999.512,-215.332,22.461,756.836,4.883,0
1583423851.777,999.512,-212.891,27.344,784.668,34.180,0
1583423851.781,999.512,-247.070,19.043,806.152,15.625,0
1583423851.784,999.512,-177.246,45.898,804.199,45.898,0
1583423851.788,999.512,-257.812,17.090,775.391,75.684,0
1583423851.792,999.512,-281.738,9.766,748.535,68.359,0
1583423851.796,999.512,-94.727,64.453,727.539,83.008,0
1583423851.800,999.512,-76.172,46.387,705.078,68.848,0
1583423851.817,999.512,-58.105,34.668,683.594,75.684,0
1583423851.821,999.512,-98.145,10.742,637.695,45.898,0
1583423851.825,999.512,-63.965,18.555,601.074,38.574,0
1583423851.829,999.512,-4.395,34.180,557.129,104.004,0
1583423851.833,999.512,-36.133,20.508,494.141,186.523,0
1583423851.837,999.512,-35.645,25.879,424.316,228.027,0
1583423851.841,999.512,-96.680,-1.465,388.672,269.043,0
1583423851.844,999.512,-53.223,4.883,357.422,443.848,0
1583423851.848,999.512,112.793,48.828,311.035,707.520,0
1583423851.852,999.512,86.426,25.391,286.133,917.480,0
1583423851.856,999.512,62.500,18.066,250.000,991.211,0
1583423851.860,999.512,29.785,7.324,229.980,996.582,0
1583423851.857,999.512,13.184,3.418,219.727,998.535,0
1583423851.861,999.512,124.512,33.203,194.824,-1000.000,0
1583423851.865,999.512,136.230,25.391,176.758,999.512,0
1583423851.869,999.512,185.059,33.691,178.711,999.512,0
1583423851.873,999.512,185.547,5.371,193.848,999.512,0
1583423851.877,999.512,174.805,-20.996,167.480,999.512,0
1583423851.881,999.512,263.672,-4.395,154.297,999.512,0
1583423851.884,999.512,337.402,9.766,185.547,999.512,0
1583423851.888,999.512,410.156,28.809,210.449,999.512,0
1583423851.892,999.512,386.719,10.254,200.195,999.512,0
1583423851.896,999.512,253.906,-32.715,188.477,999.512,0
1583423851.900,999.512,360.840,17.090,180.176,999.512,0
1583423851.897,999.512,479.492,48.828,178.711,999.512,0
1583423851.901,999.512,437.012,28.320,170.410,999.512,0
1583423851.905,999.512,415.527,23.438,136.230,999.512,0
1583423851.909,999.512,372.559,14.648,121.094,999.512,0
1583423851.913,999.512,355.469,31.738,127.441,999.512,0
1583423851.917,999.512,260.742,22.461,120.605,999.512,0
1583423851.921,999.512,247.559,34.668,94.238,999.512,0
1583423851.924,999.512,277.344,62.500,69.824,999.512,0
1583423851.928,999.512,104.492,26.855,82.031,999.512,0
1583423851.932,999.512,77.148,36.133,82.520,999.512,0
1583423851.936,999.512,187.012,76.660,60.547,999.512,0
1583423851.940,999.512,135.742,70.312,30.762,999.512,0
1583423851.957,999.512,47.852,58.105,21.484,999.512,0
1583423851.961,999.512,2.930,60.547,41.992,999.512,0
1583423851.965,999.512,36.133,79.102,41.504,999.512,0
1583423851.969,999.512,34.180,82.031,12.695,-1000.000,0
1583423851.973,999.512,2.441,76.172,-7.324,998.535,0
1583423851.977,999.512,3.906,72.266,12.695,994.629,0
1583423851.981,999.512,-61.035,43.945,29.297,-998.047,0
1583423851.984,999.512,-32.227,51.270,4.395,903.809,0
1583423851.988,999.512,101.562,85.449,6.836,681.641,0
1583423851.992,999.512,98.145,71.777,27.832,523.926,0
1583423851.996,999.512,123.535,68.359,29.785,482.910,0
1583423852.000,999.512,93.750,57.617,42.969,492.188,0
1583423851.997,999.512,85.449,46.875,25.879,543.457,0
1583423852.001,999.512,114.746,43.457,47.852,648.438,0
1583423852.005,-1000.000,124.512,40.527,83.496,853.516,0
1583423852.009,992.676,155.762,41.016,76.660,-996.582,0
1583423852.013,-993.164,127.441,26.855,78.125,996.094,0
1583423852.017,951.172,106.934,16.602,85.449,996.582,0
1583423852.021,750.977,200.684,45.410,104.004,-999.512,0
1583423852.024,652.344,238.281,49.316,94.727,999.512,0
1583423852.028,677.246,223.145,35.645,70.801,999.512,0
1583423852.032,713.867,191.406,23.438,79.102,999.512,0
1583423852.036,884.277,155.762,19.531,100.586,999.512,0
1583423852.040,-990.723,227.051,56.152,90.820,999.512,0
1583423852.037,994.141,200.684,41.992,42.969,999.512,0
1583423852.041,997.559,187.012,39.551,19.531,999.512,0
1583423852.045,-1000.000,186.035,54.199,44.922,999.512,0
1583423852.049,999.512,122.559,45.410,58.594,999.512,0
1583423852.053,999.512,167.969,63.965,41.016,999.512,0
1583423852.057,999.512,158.691,56.152,28.320,999.512,0
1583423852.061,999.512,134.277,57.617,48.340,999.512,0
1583423852.064,999.512,155.762,72.266,67.383,999.512,0
1583423852.068,999.512,100.098,63.965,59.082,999.512,0
1583423852.072,999.512,111.816,73.242,40.039,999.512,0
1583423852.076,999.512,136.230,73.730,32.715,999.512,0
1583423852.080,999.512,129.883,71.777,58.105,999.512,0
1583423852.097,999.512,134.766,76.660,82.031,999.512,0
1583423852.101,999.512,56.152,49.316,65.918,999.512,0
1583423852.105,999.512,101.074,62.500,60.547,999.512,0
1583423852.109,999.512,187.988,92.773,101.074,999.512,0
1583423852.113,999.512,147.949,75.684,145.996,999.512,0
1583423852.117,999.512,121.582,67.383,165.527,999.512,0
1583423852.121,999.512,50.781,55.664,180.176,999.512,0
1583423852.124,999.512,80.078,67.871,221.191,999.512,0
1583423852.128,999.512,210.449,105.469,243.164,999.512,0
1583423852.132,999.512,171.875,89.844,231.445,999.512,0
1583423852.136,999.512,134.766,69.336,204.590,999.512,0
1583423852.140,999.512,109.863,53.223,175.781,999.512,0
1583423852.137,999.512,136.230,59.570,162.598,999.512,0
1583423852.141,999.512,170.410,55.176,126.465,999.512,0
1583423852.145,999.023,165.039,38.086,80.078,999.512,0
1583423852.149,995.117,189.453,35.645,82.031,999.512,0
1583423852.153,-993.164,149.902,20.020,98.145,999.512,0
1583423852.157,940.430,112.305,16.113,89.844,999.512,0
1583423852.161,820.801,157.715,35.645,76.660,999.512,0
1583423852.164,796.875,193.848,48.828,84.473,999.512,0
1583423852.168,906.738,271.484,66.895,107.910,999.512,0
1583423852.172,-993.652,215.332,34.180,154.785,999.512,0
1583423852.176,996.582,106.934,3.418,167.480,999.512,0
1583423852.180,997.559,237.793,49.805,118.164,999.512,0
1583423852.177,-1000.000,290.527,54.688,111.816,999.512,0
1583423852.181,999.512,319.336,51.758,136.230,999.512,0
1583423852.185,999.512,268.555,22.461,138.672,999.512,0
1583423852.189,-1000.000,254.395,24.902,110.352,999.512,0
1583423852.193,997.070,328.613,52.734,92.285,999.512,0
1583423852.197,998.535,250.977,34.668,107.910,999.512,0
1583423852.201,982.910,213.379,36.621,87.891,999.512,0
1583423852.204,862.793,226.074,45.410,41.992,999.512,0
1583423852.208,648.926,116.211,22.461,24.902,999.512,0
1583423852.212,538.574,163.574,42.480,6.348,999.512,0
1583423852.216,370.605,234.863,54.199,-20.996,999.512,0
1583423852.220,67.871,197.754,44.434,-36.133,999.512,0
1583423852.237,-354.492,163.574,38.086,-56.641,999.512,0
1583423852.241,-839.355,98.145,23.926,-74.707,999.512,0
1583423852.245,-979.004,86.914,23.926,-99.121,999.512,0
1583423852.249,-955.566,41.504,9.277,-149.902,999.512,0
1583423852.253,-969.238,76.172,17.090,-181.152,999.512,0
1583423852.257,-968.750,102.539,14.648,-157.715,999.512,0
1583423852.261,-968.750,5.371,-16.113,-146.973,999.512,0
1583423852.264,-968.262,70.801,-4.883,-202.148,999.512,0
1583423852.268,-968.262,211.426,22.949,-239.746,999.512,0
1583423852.272,-968.750,164.551,5.371,-229.980,999.512,0
1583423852.276,-968.262,135.742,6.348,-191.406,999.512,0
1583423852.280,-968.750,91.797,7.812,-206.543,999.512,0
1583423852.277,-968.750,80.078,3.418,-266.602,999.512,0
1583423852.281,-968.750,87.891,5.859,-273.926,999.512,0
1583423852.285,-968.750,59.570,4.883,-256.348,998.535,0
1583423852.289,-968.750,57.129,5.859,-251.953,995.605,0
1583423852.293,-968.262,28.320,0.000,-283.203,-997.070,0
1583423852.297,-968.750,-9.766,-17.578,-346.191,913.574,0
1583423852.301,-968.750,17.578,-12.695,-355.469,751.465,0
1583423852.304,-968.262,38.574,-6.348,-346.191,646.484,0
1583423852.308,-968.262,96.191,-1.953,-379.395,542.969,0
1583423852.312,-968.750,25.879,-33.203,-397.949,400.879,0
1583423852.316,-968.262,-7.812,-31.738,-385.254,291.992,0
1583423852.320,-968.262,87.891,1.953,-364.258,258.789,0
1583423852.318,-968.750,49.805,-2.930,-355.469,260.742,0
1583423852.322,-968.750,18.066,0.977,-361.816,234.375,0
1583423852.326,-968.750,-100.586,-24.902,-335.449,183.105,0
1583423852.330,-968.750,-101.074,-10.742,-288.574,192.871,0
1583423852.334,-968.262,37.598,27.344,-267.578,220.703,0
1583423852.338,-968.262,-21.973,-9.277,-245.605,195.312,0
1583423852.342,-968.262,45.898,8.301,-229.004,204.102,0
1583423852.345,-968.750,62.988,7.324,-187.988,245.117,0
1583423852.349,-968.262,-43.945,-18.066,-156.250,262.207,0
1583423852.353,-968.262,89.355,30.273,-160.645,307.129,0
1583423852.357,-968.262,108.398,25.391,-154.297,304.199,0
1583423852.361,-968.750,82.520,30.762,-145.020,309.570,0
1583423852.377,-968.750,69.336,41.504,-114.746,367.188,0
1583423852.381,-968.750,17.090,15.137,-118.652,334.961,0
1583423852.385,-968.750,65.430,24.902,-149.902,277.832,0
1583423852.389,-968.750,79.102,29.297,-138.672,242.188,0
1583423852.393,-968.750,84.961,26.367,-95.215,213.379,0
1583423852.397,-968.262,58.594,18.555,-78.613,203.125,0
1583423852.401,-968.262,-42.969,-0.977,-104.492,156.250,0
1583423852.404,-968.262,16.602,29.297,-117.188,107.422,0
1583423852.408,-968.262,110.840,56.152,-88.867,117.676,0
1583423852.412,-968.750,42.480,37.109,-81.055,95.215,0
1583423852.416,-968.750,-2.441,31.250,-98.145,50.781,0
1583423852.420,-968.750,-69.824,18.066,-107.422,-2.930,0
1583423852.417,-968.750,-25.391,35.645,-88.867,-24.414,0
1583423852.421,-968.750,2.930,38.086,-68.359,-21.973,0
1583423852.425,-968.750,-36.621,20.996,-90.820,-35.156,0
1583423852.429,-968.750,-47.363,18.066,-104.004,-37.109,0
1583423852.433,-968.750,-77.148,11.719,-85.938,-22.949,0
1583423852.437,-968.262,-89.844,9.766,-54.688,1.953,0
1583423852.441,-968.750,-38.574,17.090,-58.594,52.246,0
1583423852.444,-968.750,18.066,17.090,-87.891,79.590,0
1583423852.448,-968.262,91.309,31.250,-76.660,106.445,0
1583423852.452,-968.262,8.789,5.371,-41.016,148.438,0
1583423852.456,-968.262,-13.672,1.465,-38.574,161.621,0
1583423852.460,-968.262,74.707,26.367,-77.148,176.270,0
1583423852.457,-968.262,38.574,24.902,-82.520,200.684,0
1583423852.461,-968.750,38.574,36.133,-53.711,215.820,0
1583423852.465,-968.750,-81.055,-0.977,-42.480,208.496,0
1583423852.469,-968.750,-92.773,-0.488,-63.477,201.172,0
1583423852.473,-968.262,3.906,33.691,-81.055,164.551,0
1583423852.477,-968.262,-100.586,15.625,-45.898,131.836,0
1583423852.481,-968.750,-76.172,36.133,-19.043,136.719,0
1583423852.484,-968.262,-142.090,11.230,-35.156,88.379,0
1583423852.488,-968.262,-258.301,-6.348,-62.988,-11.719,0
1583423852.492,-968.750,-100.586,56.641,-52.246,-36.621,0
1583423852.496,-968.750,-65.918,57.129,-22.949,-26.367,0
1583423852.500,-968.750,-107.422,40.527,-43.945,-52.246,0
1583423852.517,-964.355,-194.336,12.207,-53.711,-135.254,0
1583423852.521,-974.121,-177.734,19.531,-30.762,-178.223,0
1583423852.525,-923.828,-80.566,40.039,-13.672,-160.645,0
1583423852.529,-787.598,-83.008,29.297,-0.977,-163.574,0
1583423852.533,-710.449,-72.754,30.762,-19.531,-166.016,0
1583423852.537,-710.938,-136.719,13.184,-23.926,-162.598,0
1583423852.541,-658.691,-145.996,12.695,19.531,-139.160,0
1583423852.544,-548.340,-4.883,49.805,28.809,-80.566,0
1583423852.548,-515.625,26.367,45.410,10.742,-19.531,0
1583423852.552,-566.406,-7.812,27.832,-3.418,-9.277,0
1583423852.556,-583.496,-27.344,22.949,26.367,19.043,0
1583423852.560,-591.309,-92.285,12.695,55.664,43.457,0
1583423852.557,-600.098,-25.391,40.039,21.484,82.520,0
1583423852.561,-649.902,-23.438,41.016,0.488,109.863,0
1583423852.565,-739.746,-83.008,38.086,-0.977,98.145,0
1583423852.569,-785.156,-98.633,45.898,11.719,105.957,0
1583423852.573,-809.082,-162.598,37.598,22.461,77.637,0
1583423852.577,-825.195,-161.133,47.363,3.906,52.246,0
1583423852.581,-825.684,-153.809,51.758,-9.766,30.762,0
1583423852.584,-699.219,-142.578,57.129,-4.883,11.230,0
1583423852.588,-539.062,-91.797,70.312,26.367,13.672,0
1583423852.592,-512.695,-214.844,40.039,44.434,-45.898,0
1583423852.596,-466.309,-213.867,44.434,27.344,-129.395,0
1583423852.600,-229.980,-29.297,88.867,51.758,-121.094,0
1583423852.597,-48.340,-17.090,83.984,86.426,-85.449,0
1583423852.601,45.898,-6.836,72.754,73.242,-85.938,0
1583423852.605,82.031,-79.102,41.016,69.336,-111.816,0
1583423852.609,137.207,-35.645,50.293,95.215,-112.305,0
1583423852.613,238.281,68.848,64.941,123.047,-54.688,0
1583423852.617,239.746,-6.836,35.645,120.605,-2.930,0
1583423852.621,214.844,37.109,56.641,103.516,19.043,0
1583423852.624,118.652,-8.789,41.992,124.512,44.434,0
1583423852.628,76.172,-49.316,32.227,146.484,92.285,0
1583423852.632,144.043,123.535,76.660,147.949,133.789,0
1583423852.636,82.520,119.629,61.035,121.094,150.391,0
1583423852.640,-57.617,79.102,53.711,106.445,168.457,0
1583423852.657,-180.664,61.523,46.875,147.949,187.988,0
1583423852.661,-260.254,78.613,45.898,135.254,208.496,0
1583423852.665,-356.445,128.418,49.805,92.773,237.305,0
1583423852.669,-537.598,103.027,34.668,72.266,265.625,0
1583423852.673,-674.805,99.121,39.062,89.355,300.781,0
1583423852.677,-819.336,42.480,22.461,103.027,343.262,0
1583423852.681,-958.496,61.035,24.414,64.941,381.836,0
1583423852.684,-969.727,189.453,52.246,15.625,404.297,0
1583423852.688,-964.844,188.477,37.598,-1.953,436.035,0
1583423852.692,-969.238,211.426,41.016,13.184,482.422,0
1583423852.696,-968.750,176.270,23.926,18.555,507.324,0
1583423852.700,-968.750,128.906,11.230,-29.785,521.484,0
1583423852.697,-968.750,248.535,46.387,-56.152,537.109,0
1583423852.701,-968.262,275.391,42.480,-25.879,563.477,0
1583423852.705,-968.750,233.398,29.785,-36.133,571.289,0
1583423852.709,-969.238,237.793,33.203,-74.707,547.852,0
1583423852.713,-966.309,175.781,21.484,-84.961,462.402,0
1583423852.717,-969.238,187.988,40.527,-74.219,407.227,0
1583423852.721,-962.891,211.426,53.711,-75.195,393.066,0
1583423852.724,-880.371,221.191,51.758,-102.539,299.316,0
1583423852.728,-819.336,249.512,54.199,-121.582,189.941,0
1583423852.732,-889.160,77.637,19.043,-102.051,72.754,0
1583423852.736,-880.859,107.910,41.504,-104.980,-15.137,0
1583423852.740,-823.242,253.906,75.684,-133.789,-69.824,0
1583423852.737,-835.449,200.195,57.129,-146.973,-151.855,0
1583423852.741,-827.637,160.645,41.016,-135.254,-239.258,0
1583423852.745,-832.031,146.973,40.039,-102.539,-275.879,0
1583423852.749,-803.711,191.406,47.852,-97.168,-284.180,0
1583423852.753,-819.824,160.645,30.762,-114.258,-320.801,0
1583423852.757,-875.488,105.469,17.090,-107.422,-352.051,0
1583423852.761,-840.820,148.438,26.855,-62.988,-342.773,0
1583423852.764,-838.867,107.422,13.184,-44.922,-333.496,0
1583423852.768,-869.141,154.297,24.414,-87.891,-328.125,0
1583423852.772,-889.648,234.375,44.434,-97.656,-304.199,0
1583423852.776,-886.719,190.430,38.574,-55.176,-276.855,0
1583423852.780,-887.207,188.477,42.480,-43.945,-258.301,0
1583423852.797,-940.430,33.691,-3.418,-71.289,-299.805,0
1583423852.801,-970.703,-11.230,-4.883,-91.309,-351.562,0
1583423852.805,-968.750,145.508,51.758,-66.406,-315.430,0
1583423852.809,-918.457,125.000,47.852,-28.809,-266.113,0
1583423852.813,-883.301,104.980,39.551,-49.316,-245.117,0
1583423852.817,-943.848,-48.828,-1.465,-61.523,-249.512,0
1583423852.821,-973.633,-99.121,6.348,-50.293,-263.184,0
1583423852.824,-965.820,58.105,53.711,-40.527,-236.328,0
1583423852.828,-968.750,27.344,42.480,-20.020,-190.430,0
1583423852.832,-968.750,26.367,39.551,-50.781,-153.320,0
1583423852.836,-968.262,-34.668,13.184,-56.152,-154.785,0
1583423852.840,-968.262,-30.762,26.367,-18.066,-103.027,0
1583423852.837,-968.750,28.809,44.922,-7.812,-21.484,0
1583423852.841,-968.750,-14.160,28.809,-26.367,7.812,0
1583423852.845,-964.844,-28.809,20.508,-42.969,26.367,0
1583423852.849,-973.633,-105.957,4.395,-5.859,38.574,0
1583423852.853,-938.477,-132.812,11.719,21.484,62.988,0
1583423852.857,-843.262,-134.766,12.695,-4.395,76.660,0
1583423852.861,-823.242,-150.391,9.277,-26.855,48.340,0
1583423852.864,-795.410,-62.988,37.109,-10.254,40.039,0
1583423852.868,-721.680,-91.309,30.273,14.648,41.504,0
1583423852.872,-721.680,-245.605,2.441,0.000,13.672,0
1583423852.876,-693.848,-197.266,21.484,-31.250,-24.902,0
1583423852.880,-646.973,-109.863,37.598,-15.625,-63.477,0
1583423852.877,-593.750,-83.984,53.223,15.137,-69.824,0
1583423852.881,-553.711,-79.102,51.758,5.371,-59.570,0
1583423852.885,-583.984,-129.883,28.809,-20.508,-93.750,0
1583423852.889,-597.656,-109.863,34.668,-31.250,-139.160,0
1583423852.893,-574.219,-114.746,37.109,-0.977,-145.508,0
1583423852.897,-581.055,-172.852,33.691,26.367,-126.953,0
1583423852.901,-616.211,-195.801,36.133,9.277,-139.648,0
1583423852.904,-744.629,-275.879,11.230,-19.043,-172.852,0
1583423852.908,-786.133,-202.637,28.809,-15.625,-178.223,0
1583423852.912,-707.520,-24.902,71.777,-1.953,-156.250,0
1583423852.916,-679.199,-41.016,64.453,-3.906,-155.762,0
1583423852.920,-684.082,-45.410,59.570,-17.578,-158.691,0
1583423852.937,-672.363,-60.547,43.457,-8.789,-166.016,0
1583423852.941,-608.398,-89.844,36.133,1.465,-179.688,0
1583423852.945,-561.035,-62.988,52.246,-4.395,-176.270,0
1583423852.949,-549.316,-27.832,59.082,-19.531,-202.148,0
1583423852.953,-580.566,-29.297,47.852,-10.254,-224.609,0
1583423852.957,-652.344,-185.547,4.883,16.113,-261.230,0
1583423852.961,-646.973,-132.324,31.250,11.230,-257.812,0
1583423852.964,-590.820,48.828,70.801,-17.090,-228.516,0
1583423852.968,-624.512,-7.324,44.922,-31.250,-247.559,0
1583423852.972,-592.285,-5.859,48.828,-3.418,-250.000,0
1583423852.976,-575.684,-109.375,27.832,30.273,-262.207,0
1583423852.980,-594.238,-114.258,32.715,5.371,-270.508,0
1583423852.977,-577.148,-13.184,52.246,-26.367,-280.273,0
1583423852.981,-571.289,-27.344,49.805,-0.488,-274.902,0
1583423852.985,-552.246,-20.020,54.199,29.297,-264.648,0
1583423852.989,-578.125,-78.125,33.691,2.441,-281.250,0
1583423852.993,-643.555,-114.258,21.484,-23.926,-299.805,0
1583423852.997,-664.551,-94.727,20.996,2.930,-301.758,0
1583423853.001,-621.094,-46.875,33.203,15.625,-277.832,0
1583423853.004,-551.270,42.480,54.199,7.812,-237.305,0
1583423853.008,-551.270,-54.199,20.508,0.488,-238.770,0
1583423853.012,-555.176,-117.676,10.254,-1.465,-251.953,0
1583423853.016,-423.340,9.766,46.875,20.020,-231.445,0
1583423853.020,-307.617,8.301,43.945,24.902,-226.562,0
1583423853.024,-243.164,-4.395,43.457,-0.977,-242.188,0
1583423853.028,-226.074,-46.387,24.414,-22.461,-279.297,0
1583423853.032,-204.102,-81.055,23.438,-13.184,-287.109,0
1583423853.036,-75.195,18.555,62.012,13.184,-275.391,0
1583423853.040,2.930,-8.301,54.199,-4.883,-299.316,0
1583423853.044,-46.387,-126.465,28.809,-25.879,-347.656,0
1583423853.048,-39.551,-103.516,38.574,-3.906,-358.398,0
1583423853.051,-48.340,-208.984,16.602,20.020,-356.934,0
1583423853.055,-75.684,-203.125,29.785,12.207,-374.512,0
1583423853.059,-88.379,-83.984,54.199,-14.160,-361.816,0
1583423853.063,-167.480,-132.324,45.410,-2.930,-326.660,0
1583423853.067,-216.797,-170.898,43.457,26.367,-280.273,0
1583423853.077,-288.086,-235.840,35.156,45.410,-249.023,0
1583423853.081,-371.094,-236.328,46.875,23.926,-212.402,0
1583423853.085,-464.844,-267.090,45.898,3.418,-188.477,0
1583423853.089,-567.383,-322.754,38.574,36.133,-173.340,0
1583423853.093,-670.898,-341.797,38.574,38.086,-143.066,0
1583423853.097,-835.449,-362.793,39.551,9.766,-131.836,0
1583423853.101,-960.449,-351.074,40.527,16.602,-171.387,0
1583423853.104,-967.285,-258.301,46.387,28.809,-187.500,0
1583423853.108,-966.309,-196.777,43.457,33.203,-163.574,0
1583423853.112,-967.773,-148.438,40.527,16.602,-117.676,0
1583423853.116,-965.332,-202.148,15.137,12.207,-84.473,0
1583423853.120,-971.191,-134.766,27.344,35.156,-36.133,0
1583423853.117,-859.863,-10.254,50.781,55.176,19.043,0
1583423853.121,-697.266,-6.348,48.340,51.270,57.129,0
1583423853.125,-605.957,5.371,50.781,20.508,55.664,0
1583423853.129,-548.828,-86.914,24.902,32.227,0.977,0
1583423853.133,-450.684,-49.316,33.203,58.105,-28.320,0
1583423853.137,-332.031,55.664,49.316,42.969,-34.668,0
1583423853.141,-284.180,59.570,36.133,11.230,-77.148,0
1583423853.144,-208.984,175.293,60.547,-5.371,-111.328,0
1583423853.148,-125.488,87.891,36.133,23.438,-168.945,0
1583423853.152,-62.988,-8.301,25.391,39.551,-236.816,0
1583423853.156,59.082,162.109,73.242,14.648,-261.230,0
1583423853.160,125.488,193.359,66.406,-0.977,-281.738,0
1583423853.157,175.781,166.016,54.688,18.066,-291.992,0
1583423853.161,232.910,100.098,39.551,46.387,-303.223,0
1583423853.165,285.645,97.656,41.016,35.156,-320.312,0
1583423853.169,349.121,162.109,52.734,15.137,-329.102,0
1583423853.173,372.559,128.418,42.969,36.621,-312.500,0
1583423853.177,387.695,89.355,31.250,52.734,-275.391,0
1583423853.181,397.949,70.801,16.113,42.480,-270.508,0
1583423853.184,352.051,19.043,7.812,23.926,-287.598,0
1583423853.188,366.211,133.789,43.945,15.625,-266.113,0
1583423853.192,435.547,201.172,47.852,43.457,-245.605,0
1583423853.196,496.582,189.941,45.410,38.574,-207.520,0
1583423853.200,536.133,144.043,35.645,21.973,-191.895,0
1583423853.217,527.832,68.359,24.414,21.484,-232.422,0
1583423853.221,589.844,121.582,49.805,20.508,-222.168,0
1583423853.225,668.945,121.094,51.758,36.621,-201.172,0
1583423853.229,702.637,96.680,43.457,17.578,-203.125,0
1583423853.233,638.184,24.414,22.461,-8.301,-241.699,0
1583423853.237,590.820,-20.508,23.438,6.348,-293.945,0
1583423853.241,668.457,97.656,59.082,22.949,-286.621,0
1583423853.244,738.770,158.691,67.383,-0.488,-274.902,0
1583423853.248,728.516,116.699,48.828,-32.715,-308.105,0
1583423853.252,753.418,118.652,44.922,-20.020,-310.547,0
1583423853.256,794.434,38.574,31.738,6.348,-297.363,0
1583423853.260,830.078,60.059,47.363,-18.066,-306.641,0
1583423853.257,830.078,135.254,61.035,-59.570,-305.176,0
1583423853.261,769.043,131.836,56.641,-71.777,-275.879,0
1583423853.265,751.953,127.930,54.199,-67.871,-259.766,0
1583423853.269,717.285,102.051,58.105,-72.266,-257.812,0
1583423853.273,640.625,131.348,63.965,-103.516,-252.930,0
1583423853.277,524.414,114.258,48.828,-127.930,-271.484,0
1583423853.281,454.590,109.375,45.410,-134.277,-293.457,0
1583423853.284,471.191,229.492,62.988,-154.785,-290.527,0
1583423853.288,407.227,199.707,44.434,-181.152,-282.715,0
1583423853.292,270.996,136.230,29.297,-222.168,-319.824,0
1583423853.296,290.039,339.844,82.031,-215.332,-273.438,0
1583423853.300,325.684,411.133,84.961,-190.918,-204.590,0
1583423853.318,313.965,389.160,75.684,-218.262,-199.219,0
1583423853.322,229.004,323.730,61.035,-258.789,-216.797,0
1583423853.326,117.676,317.871,58.105,-283.691,-212.402,0
1583423853.330,124.512,364.258,64.453,-243.652,-181.152,0
1583423853.334,79.102,332.031,58.105,-244.141,-168.457,0
1583423853.338,-18.066,310.547,52.246,-280.762,-185.059,0
1583423853.342,-102.539,312.012,39.062,-279.785,-171.387,0
1583423853.345,-161.621,291.504,39.062,-244.629,-130.859,0
1583423853.349,-130.371,376.465,73.730,-240.723,-141.113,0
1583423853.353,-141.113,319.824,64.453,-257.324,-135.254,0
1583423853.357,-205.566,162.598,49.316,-238.281,-146.484,0
1583423853.361,-205.566,64.941,48.828,-195.312,-157.227,0
1583423853.357,-197.266,-16.602,41.992,-179.688,-145.020,0
1583423853.361,-177.734,-34.180,47.363,-191.895,-158.691,0
1583423853.365,-174.316,-112.305,43.945,-167.969,-171.875,0
1583423853.369,-209.961,-169.434,50.293,-131.348,-168.945,0
1583423853.373,-225.586,-256.836,30.762,-93.750,-183.594,0
1583423853.377,-254.883,-332.031,21.484,-84.961,-202.148,0
1583423853.381,-304.199,-320.801,39.062,-88.379,-212.891,0
1583423853.384,-331.543,-300.293,38.574,-86.914,-236.816,0
1583423853.388,-339.355,-258.789,38.086,-76.172,-257.324,0
1583423853.392,-342.285,-266.113,30.273,-43.945,-291.016,0
1583423853.396,-437.500,-433.594,-5.859,-56.641,-374.512,0
1583423853.400,-501.465,-325.684,30.273,-81.055,-398.926,0
1583423853.397,-451.660,-220.703,51.270,-43.457,-379.883,0
1583423853.401,-436.035,-306.641,28.320,-10.254,-411.621,0
1583423853.405,-416.016,-248.047,41.992,-20.508,-435.059,0
1583423853.409,-449.707,-277.344,36.621,-29.297,-471.191,0
1583423853.413,-460.938,-230.469,42.969,0.488,-483.887,0
1583423853.417,-443.359,-253.418,22.461,34.180,-480.469,0
1583423853.421,-450.195,-306.641,12.207,38.574,-521.973,0
1583423853.424,-435.547,-206.543,40.527,29.297,-557.617,0
1583423853.428,-470.703,-276.367,19.043,40.527,-559.082,0
1583423853.432,-459.961,-282.715,24.902,68.359,-534.180,0
1583423853.436,-370.605,-114.746,54.199,64.941,-531.250,0
1583423853.440,-375.488,-134.277,37.109,53.223,-544.922,0
1583423853.457,-404.785,-132.812,38.574,61.035,-536.621,0
1583423853.461,-401.367,-152.344,34.668,91.309,-508.301,0
1583423853.465,-359.375,-116.699,42.969,98.633,-479.980,0
1583423853.469,-364.258,-109.863,37.109,82.031,-459.473,0
1583423853.473,-416.992,-155.762,20.996,94.727,-463.867,0
1583423853.477,-387.207,-89.355,37.109,113.770,-443.848,0
1583423853.481,-377.441,-157.715,16.113,124.512,-421.875,0
1583423853.484,-372.559,-158.203,10.742,103.027,-411.621,0
1583423853.488,-306.152,31.738,42.480,68.848,-379.395,0
1583423853.492,-278.320,42.480,34.180,105.469,-350.098,0
1583423853.496,-242.188,32.227,34.180,137.207,-312.500,0
1583423853.500,-226.562,-41.504,10.254,125.488,-301.270,0
1583423853.497,-256.348,-69.336,6.836,100.586,-301.270,0
1583423853.501,-256.348,18.555,34.180,103.516,-253.906,0
1583423853.505,-227.539,28.809,39.062,138.184,-207.031,0
1583423853.509,-205.078,4.883,35.156,142.090,-204.102,0
1583423853.513,-254.883,-76.172,5.859,106.445,-213.379,0
1583423853.517,-277.344,-84.473,3.418,92.773,-210.449,0
1583423853.521,-199.707,7.324,32.227,115.723,-158.691,0
1583423853.524,-147.461,33.203,36.133,128.906,-109.863,0
1583423853.528,-137.207,72.266,45.410,96.680,-120.605,0
1583423853.532,-169.434,46.875,28.320,80.566,-128.418,0
1583423853.536,-224.609,-120.605,-5.371,104.004,-148.438,0
1583423853.540,-187.500,3.418,43.457,101.562,-129.395,0
1583423853.537,-132.324,133.301,55.176,79.590,-103.516,0
1583423853.541,-177.734,96.680,31.250,45.410,-125.977,0
1583423853.545,-198.730,71.777,21.484,61.523,-131.836,0
1583423853.549,-178.711,25.391,9.277,92.285,-148.438,0
1583423853.553,-166.504,65.918,27.344,74.707,-155.762,0
1583423853.557,-229.492,14.160,15.137,60.547,-147.949,0
1583423853.561,-269.043,45.898,28.320,63.965,-128.906,0
1583423853.564,-214.844,168.945,45.898,78.613,-86.914,0
1583423853.568,-260.742,6.836,-9.766,70.801,-96.191,0
1583423853.572,-320.312,-18.066,-6.348,22.461,-112.305,0
1583423853.576,-301.270,207.031,45.410,24.902,-60.059,0
1583423853.580,-266.602,220.215,35.645,55.176,-7.324,0
1583423853.597,-233.398,178.711,20.996,71.777,19.531,0
1583423853.601,-251.953,146.484,16.602,52.246,26.855,0
1583423853.605,-259.277,164.062,26.367,24.414,27.832,0
1583423853.609,-205.078,210.449,34.180,41.992,66.406,0
1583423853.613,-140.625,190.918,26.367,74.707,93.262,0
1583423853.617,-93.262,135.742,19.043,76.172,83.496,0
1583423853.621,-91.309,76.660,8.789,37.109,67.871,0
1583423853.624,-34.668,149.902,25.391,36.621,55.176,0
1583423853.628,76.660,262.695,47.852,79.102,76.172,0
1583423853.632,138.184,206.055,29.785,62.988,55.176,0
1583423853.636,176.270,228.027,34.180,33.203,35.156,0
1583423853.640,144.531,107.422,3.418,49.316,17.578,0
1583423853.637,189.941,29.297,6.836,84.961,5.371,0
1583423853.641,337.891,204.102,54.688,97.168,37.109,0
1583423853.645,407.715,171.387,37.109,76.172,22.461,0
1583423853.649,435.059,123.535,35.156,78.125,-4.883,0
1583423853.653,503.418,83.496,28.809,103.027,1.465,0
1583423853.657,605.469,36.621,25.391,116.211,20.996,0
1583423853.661,729.492,75.684,42.969,120.605,23.438,0
1583423853.664,775.391,134.766,52.246,90.820,36.621,0
1583423853.668,740.234,154.297,50.293,96.680,45.410,0
1583423853.672,682.617,25.879,18.555,129.395,17.090,0
1583423853.676,599.121,-101.074,-2.441,91.309,-14.160,0
1583423853.680,548.340,29.297,39.551,46.387,-42.480,0
1583423853.677,530.762,95.215,53.223,64.453,-50.781,0
1583423853.681,551.758,78.125,47.852,100.586,-30.273,0
1583423853.685,524.414,32.227,30.762,83.008,-25.391,0
1583423853.689,438.965,-38.574,17.090,39.062,-63.477,0
1583423853.693,405.273,21.484,37.109,49.316,-102.051,0
1583423853.697,366.211,-5.859,22.461,84.473,-104.004,0
1583423853.701,346.680,26.855,35.645,71.777,-102.051,0
1583423853.704,299.316,90.332,42.480,42.480,-95.703,0
1583423853.708,130.371,-94.238,-2.930,45.410,-148.926,0
1583423853.712,88.867,-30.273,35.156,76.660,-153.320,0
1583423853.716,97.656,96.191,59.570,91.309,-85.449,0
1583423853.720,26.367,50.781,38.086,72.266,-90.820,0
1583423853.737,-94.727,7.324,29.785,38.086,-115.234,0
1583423853.741,-199.707,-35.645,32.715,55.664,-115.234,0
1583423853.745,-219.238,-11.230,44.434,109.863,-111.816,0
1583423853.749,-247.070,-20.020,41.016,81.055,-110.840,0
1583423853.753,-319.824,-64.941,31.250,47.852,-117.676,0
1583423853.757,-396.484,-111.816,27.832,61.035,-100.586,0
1583423853.761,-446.289,-258.301,10.254,78.613,-127.930,0
1583423853.764,-449.219,-199.707,32.227,74.707,-172.363,0
1583423853.768,-453.125,6.836,67.871,43.457,-157.715,0
1583423853.772,-513.672,-18.066,49.316,40.527,-171.875,0
1583423853.776,-462.402,-28.809,48.340,55.664,-165.039,0
1583423853.780,-395.020,-78.613,31.250,60.059,-166.992,0
1583423853.777,-399.902,-84.473,27.832,47.852,-198.242,0
1583423853.781,-410.645,-30.762,45.898,31.738,-176.270,0
1583423853.785,-418.457,-57.617,37.598,53.711,-166.504,0
1583423853.789,-405.273,-28.809,41.504,62.500,-134.766,0
1583423853.793,-444.824,-75.195,23.926,32.715,-135.742,0
1583423853.797,-526.855,-102.051,18.066,19.531,-155.762,0
1583423853.801,-520.020,-34.668,32.715,39.551,-98.633,0
1583423853.804,-458.008,1.953,34.180,58.594,-60.059,0
1583423853.808,-445.312,3.906,27.832,43.457,-62.012,0
1583423853.812,-560.059,-147.949,-9.277,21.484,-103.027,0
1583423853.816,-652.344,-135.254,9.766,10.254,-113.770,0
1583423853.820,-574.219,78.613,56.152,21.973,-61.523,0
1583423853.817,-524.414,61.035,35.156,30.273,-71.777,0
1583423853.821,-536.621,38.086,28.809,-5.371,-93.262,0
1583423853.825,-521.484,-18.555,11.230,-5.371,-108.887,0
1583423853.829,-453.125,-34.668,15.625,30.762,-123.535,0
1583423853.833,-409.668,54.688,35.645,28.809,-99.121,0
1583423853.837,-437.500,-28.809,9.766,15.625,-113.281,0
1583423853.841,-433.594,18.066,32.715,-3.906,-121.582,0
1583423853.844,-375.488,43.457,33.691,0.488,-109.863,0
1583423853.848,-332.520,-12.207,19.043,14.160,-110.840,0
1583423853.852,-274.414,104.492,49.805,-4.395,-90.332,0
1583423853.856,-303.223,85.449,47.852,-15.625,-90.820,0
1583423853.860,-306.152,44.922,49.316,-5.859,-93.262,0
1583423853.877,-281.250,-24.414,31.250,28.809,-72.754,0
1583423853.881,-292.969,-75.195,35.156,23.438,-94.727,0
1583423853.885,-296.387,49.316,65.430,-27.832,-103.027,0
1583423853.889,-323.242,81.543,60.059,-46.875,-107.422,0
1583423853.893,-287.598,33.691,51.270,-17.578,-113.281,0
1583423853.897,-260.742,-17.090,42.480,-6.836,-127.441,0
1583423853.901,-293.457,-131.836,21.973,-24.902,-168.457,0
1583423853.904,-261.230,-43.457,40.527,-38.086,-190.430,0
1583423853.908,-197.754,116.699,69.824,-32.227,-180.664,0
1583423853.912,-178.223,85.449,61.035,-26.367,-181.641,0
1583423853.916,-165.039,49.805,48.340,-47.852,-204.102,0
1583423853.920,-209.961,8.789,38.086,-66.895,-249.023,0
1583423853.917,-224.609,52.246,52.734,-45.898,-248.535,0
1583423853.921,-171.875,81.055,60.059,-26.855,-233.887,0
1583423853.925,-174.805,-6.348,36.133,-38.086,-279.297,0
1583423853.929,-248.047,-37.109,27.344,-60.059,-340.332,0
1583423853.933,-268.066,-12.695,40.527,-58.594,-351.074,0
1583423853.937,-261.719,-41.992,37.598,-27.832,-355.469,0
1583423853.941,-297.852,-51.270,33.203,-34.180,-381.836,0
1583423853.944,-324.707,-12.207,41.504,-67.871,-384.277,0
1583423853.948,-360.352,39.551,53.711,-66.895,-390.625,0
1583423853.952,-462.891,-91.797,19.043,-32.715,-419.434,0
1583423853.956,-536.621,-98.633,20.508,-18.066,-425.293,0
1583423853.960,-562.988,25.879,48.340,-49.316,-394.043,0
1583423853.957,-609.863,-35.156,31.250,-73.730,-380.859,0
1583423853.961,-568.848,-40.527,35.156,-38.574,-367.676,0
1583423853.965,-561.035,-163.086,10.254,-13.184,-359.863,0
1583423853.969,-586.914,-186.523,17.090,-43.457,-364.258,0
1583423853.973,-581.543,-55.664,44.434,-70.312,-364.746,0
1583423853.977,-613.770,-148.438,15.137,-48.340,-393.555,0
1583423853.981,-589.844,-137.695,28.320,-11.230,-393.066,0
1583423853.984,-552.734,-150.879,24.902,-13.184,-390.137,0
1583423853.988,-632.812,-277.832,-3.418,-47.363,-463.867,0
1583423853.992,-621.582,-115.234,45.410,-55.664,-485.840,0
1583423853.996,-550.293,1.953,59.570,-44.922,-445.312,0
1583423854.000,-555.176,-30.762,33.691,-38.086,-466.309,0
1583423854.017,-576.660,-71.289,21.484,-49.805,-498.047,0
1583423854.021,-573.730,-96.680,22.461,-54.688,-518.555,0
1583423854.025,-490.234,-51.270,37.109,-33.691,-537.109,0
1583423854.029,-423.340,-64.941,36.133,-28.809,-534.180,0
1583423854.033,-416.992,-98.145,34.668,-46.387,-557.617,0
1583423854.037,-476.074,-180.664,15.137,-55.176,-599.121,0
1583423854.041,-529.785,-249.023,5.371,-37.598,-616.211,0
1583423854.044,-478.027,-94.727,40.527,-29.785,-606.934,0
1583423854.048,-471.191,-39.062,40.527,-43.945,-617.188,0
1583423854.052,-549.805,-93.262,24.414,-58.105,-667.480,0
1583423854.056,-562.988,-83.008,20.020,-41.504,-670.898,0
1583423854.060,-564.941,-114.746,16.113,-16.602,-648.926,0
1583423854.057,-549.805,-47.363,35.645,-26.367,-617.676,0
1583423854.061,-575.684,-24.414,33.203,-54.688,-599.121,0
1583423854.065,-621.094,-49.805,23.926,-44.434,-613.770,0
1583423854.069,-597.656,-40.039,25.391,-6.348,-594.238,0
1583423854.073,-571.777,-51.270,19.043,5.859,-550.781,0
1583423854.077,-570.312,-67.383,18.066,-18.066,-523.926,0
1583423854.081,-580.566,-55.176,26.855,-46.387,-509.277,0
1583423854.084,-514.160,6.836,44.922,-15.625,-485.352,0
1583423854.088,-416.016,79.102,55.664,4.883,-438.965,0
1583423854.092,-460.938,-101.074,5.859,-15.137,-465.332,0
1583423854.096,-507.324,-119.141,10.254,-52.246,-498.047,0
1583423854.100,-450.684,64.941,44.922,-45.410,-481.445,0
1583423854.097,-414.551,89.355,40.039,-2.930,-481.445,0
1583423854.101,-370.605,125.977,41.504,-17.578,-465.332,0
1583423854.105,-384.277,67.871,25.879,-35.645,-468.262,0
1583423854.109,-356.445,100.098,40.039,-26.367,-432.617,0
1583423854.113,-242.676,133.301,32.715,5.859,-377.930,0
1583423854.117,-208.984,47.363,6.348,13.184,-330.078,0
1583423854.121,-187.988,92.285,27.832,-26.855,-287.598,0
1583423854.124,-182.129,18.066,4.883,-11.719,-286.133,0
1583423854.128,-147.949,-34.668,6.836,17.578,-262.207,0
1583423854.132,-11.230,150.879,60.547,16.113,-199.707,0
1583423854.136,22.461,141.602,42.969,13.184,-167.480,0
1583423854.140,22.949,132.324,41.992,1.465,-173.340,0
1583423854.157,70.801,62.012,35.645,18.066,-198.242,0
1583423854.161,157.715,42.480,39.062,23.926,-208.008,0
1583423854.165,254.883,80.566,44.434,0.977,-216.309,0
1583423854.169,245.605,75.195,44.434,-8.301,-264.160,0
1583423854.173,270.996,89.355,49.316,13.672,-288.086,0
1583423854.177,324.707,-15.137,18.555,45.898,-299.805,0
1583423854.181,328.125,-86.426,11.230,10.742,-319.336,0
1583423854.184,376.953,106.934,58.105,-34.180,-305.664,0
1583423854.188,440.430,195.801,63.477,-10.254,-271.973,0
1583423854.192,542.480,180.176,50.781,16.602,-238.770,0
1583423854.196,626.953,148.438,39.062,26.367,-213.379,0
1583423854.200,642.578,106.934,33.691,7.324,-199.219,0
1583423854.197,701.660,159.180,45.410,-4.883,-187.500,0
1583423854.201,799.805,144.043,44.434,20.996,-179.688,0
1583423854.205,875.977,134.766,51.270,32.227,-172.852,0
1583423854.209,897.461,115.723,45.410,20.996,-176.758,0
1583423854.213,882.812,67.383,29.785,8.789,-191.895,0
1583423854.217,885.254,41.504,34.180,24.902,-217.773,0
1583423854.221,890.137,32.227,41.992,41.504,-216.797,0
1583423854.224,887.695,65.430,48.340,24.414,-187.500,0
1583423854.228,907.715,121.094,62.012,18.555,-169.922,0
1583423854.232,894.043,-51.758,28.809,43.945,-170.898,0
1583423854.236,941.406,-50.781,42.969,56.152,-144.043,0
1583423854.240,-993.652,118.164,82.031,52.246,-98.633,0
1583423854.237,997.070,23.926,59.082,48.828,-118.164,0
1583423854.241,998.535,-29.297,55.664,74.219,-149.902,0
1583423854.245,999.023,-32.715,61.523,83.008,-119.629,0
1583423854.249,999.512,-4.883,65.430,58.105,-106.445,0
1583423854.253,999.512,-11.719,55.664,48.828,-145.996,0
1583423854.257,992.676,-84.961,43.945,55.176,-176.270,0
1583423854.261,995.605,-42.969,64.941,83.496,-167.969,0
1583423854.264,-999.512,-106.445,40.039,83.008,-188.965,0
1583423854.268,999.023,-117.188,33.691,47.852,-220.703,0
1583423854.272,999.512,70.312,75.195,34.180,-228.516,0
1583423854.276,999.512,80.078,64.453,56.152,-225.098,0
1583423854.280,997.559,81.543,62.012,101.562,-189.941,0
1583423854.297,-998.047,39.551,51.758,83.496,-171.387,0
1583423854.301,988.281,62.988,59.082,29.785,-148.438,0
1583423854.305,950.195,121.582,76.172,54.688,-96.680,0
1583423854.309,939.941,103.516,74.707,98.633,-54.199,0
1583423854.313,937.500,99.121,69.824,86.426,-41.016,0
1583423854.317,857.910,-53.711,25.879,46.875,-76.172,0
1583423854.321,823.730,-64.941,31.738,57.617,-116.699,0
1583423854.324,926.758,106.934,75.684,77.637,-101.562,0
1583423854.328,955.566,59.082,58.105,69.336,-115.234,0
1583423854.332,906.250,34.668,65.430,55.664,-160.645,0
1583423854.336,792.480,-69.824,45.898,62.988,-210.938,0
1583423854.340,722.656,-143.066,39.062,84.473,-222.168,0
1583423854.337,763.672,-43.945,80.078,91.797,-212.891,0
1583423854.341,659.180,-51.758,64.941,74.219,-259.766,0
1583423854.345,459.473,13.672,64.453,59.082,-286.133,0
1583423854.349,337.402,-14.160,43.945,79.590,-325.684,0
1583423854.353,319.336,-84.473,22.949,82.031,-399.902,0
1583423854.357,341.797,-50.293,37.109,41.992,-450.195,0
1583423854.361,319.824,-88.867,30.273,7.812,-526.855,0
1583423854.364,334.961,-0.488,51.270,18.066,-536.621,0
1583423854.368,379.883,37.109,47.363,31.250,-515.137,0
1583423854.372,294.922,-102.051,12.695,32.715,-542.480,0
1583423854.376,177.734,18.066,42.480,11.230,-529.785,0
1583423854.380,119.141,127.930,59.082,2.930,-505.859,0
1583423854.377,95.215,92.285,52.246,36.133,-501.953,0
1583423854.381,37.598,62.988,41.504,57.617,-489.258,0
1583423854.385,-25.391,16.113,34.180,32.227,-498.047,0
1583423854.389,-35.645,71.289,55.176,7.812,-515.137,0
1583423854.393,3.906,48.828,54.199,35.645,-515.137,0
1583423854.397,15.137,-31.250,41.016,56.641,-492.676,0
1583423854.401,-20.508,7.324,49.805,26.367,-471.191,0
1583423854.404,-140.137,-116.699,16.602,24.414,-522.949,0
1583423854.408,-186.035,-96.191,29.785,40.039,-525.391,0
1583423854.412,-117.676,113.770,81.543,53.711,-440.430,0
1583423854.416,-114.258,67.871,65.918,50.781,-421.875,0
1583423854.420,-124.023,12.207,54.688,20.508,-455.566,0
1583423854.437,-142.090,-42.969,55.176,27.832,-491.699,0
1583423854.441,-91.797,-23.438,72.754,63.477,-508.789,0
1583423854.445,-19.531,-5.371,65.430,61.035,-526.367,0
1583423854.449,17.578,-26.367,58.594,23.438,-563.965,0
1583423854.453,-7.324,-57.617,50.781,17.090,-585.938,0
1583423854.457,-43.457,-114.258,34.668,44.922,-596.680,0
1583423854.461,-39.062,-64.941,54.688,56.152,-577.637,0
1583423854.464,-63.477,-7.324,60.059,10.254,-571.777,0
1583423854.468,-83.008,-11.719,52.246,-3.418,-595.703,0
1583423854.472,-33.203,12.695,57.129,34.180,-576.660,0
1583423854.476,-28.809,-95.703,27.832,64.453,-555.664,0
1583423854.480,-49.316,-135.742,22.949,19.531,-548.340,0
1583423854.477,-42.969,31.738,62.988,-15.137,-528.809,0
1583423854.481,-50.293,14.648,53.711,12.695,-531.738,0
1583423854.485,-13.184,12.695,46.387,54.199,-528.809,0
1583423854.489,3.906,-26.367,32.715,63.965,-541.992,0
1583423854.493,-41.992,-49.805,30.762,23.438,-566.895,0
1583423854.497,-87.402,-43.457,31.250,11.719,-581.055,0
1583423854.501,-49.805,10.254,41.016,34.180,-566.406,0
1583423854.504,-10.254,89.844,53.711,51.758,-549.316,0
1583423854.508,-65.430,20.508,25.879,28.320,-584.473,0
1583423854.512,-144.043,-31.250,16.113,-7.324,-630.859,0
1583423854.516,-97.168,122.070,57.617,16.602,-611.328,0
1583423854.520,-29.785,167.969,56.152,41.992,-615.723,0
1583423854.517,-52.246,112.305,51.270,20.020,-654.297,0
1583423854.521,-99.609,69.336,35.156,3.418,-694.336,0
1583423854.525,-118.164,50.781,34.668,24.414,-697.754,0
1583423854.529,-87.402,126.953,57.617,36.133,-670.898,0
1583423854.533,-83.008,107.910,37.598,45.898,-686.035,0
1583423854.537,-159.180,35.156,29.297,37.598,-724.609,0
1583423854.541,-215.332,5.859,26.855,17.090,-763.672,0
1583423854.544,-211.914,7.324,34.180,34.180,-803.711,0
1583423854.548,-217.773,110.352,68.359,23.926,-811.523,0
1583423854.552,-264.648,128.906,58.105,-2.441,-823.242,0
1583423854.556,-362.305,61.523,27.832,-7.324,-844.238,0
1583423854.560,-400.391,101.074,35.156,17.578,-837.891,0
1583423854.577,-450.684,75.684,25.391,27.344,-867.188,0
1583423854.581,-507.812,124.023,30.273,-27.344,-848.633,0
1583423854.585,-522.461,173.828,28.809,-55.176,-805.176,0
1583423854.589,-489.258,155.273,22.949,-5.371,-759.766,0
1583423854.593,-449.707,182.617,24.902,0.977,-701.660,0
1583423854.597,-526.855,29.297,-25.391,-31.250,-700.684,0
1583423854.601,-568.848,68.359,-9.277,-36.133,-668.457,0
1583423854.604,-506.348,246.094,38.574,-48.828,-610.840,0
1583423854.608,-414.062,206.055,22.461,-24.414,-563.965,0
1583423854.612,-336.426,192.383,11.719,-25.391,-519.043,0
1583423854.616,-374.512,84.961,-27.832,-51.270,-508.789,0
1583423854.620,-393.066,116.211,-20.996,-50.293,-478.027,0
1583423854.617,-304.199,263.672,11.719,-38.574,-400.879,0
1583423854.621,-271.484,183.105,-21.484,-3.418,-381.836,0
1583423854.625,-288.574,135.742,-37.109,-32.227,-398.438,0
1583423854.629,-288.086,138.672,-22.949,-40.039,-360.840,0
1583423854.633,-204.590,104.980,-17.578,-7.812,-318.848,0
1583423854.637,-133.301,58.105,-28.809,-1.465,-281.738,0
1583423854.641,-141.602,9.277,-32.227,-27.832,-260.254,0
1583423854.644,-112.305,77.148,-7.324,-28.320,-274.414,0
1583423854.648,-94.238,5.859,-26.855,-1.465,-270.996,0
1583423854.652,-105.957,-103.516,-42.969,9.766,-286.621,0
1583423854.656,-29.297,69.824,-0.488,-20.996,-297.852,0
1583423854.660,-6.348,87.891,-11.719,-53.711,-345.215,0
1583423854.657,5.859,83.984,-6.836,-19.531,-367.188,0
1583423854.661,71.289,77.637,-10.742,11.230,-332.520,0
1583423854.665,101.074,31.738,-26.367,11.719,-365.234,0
1583423854.669,88.379,89.844,-14.160,-54.688,-380.371,0
1583423854.673,59.570,56.152,-28.809,-56.152,-360.840,0
1583423854.677,80.078,47.363,-29.785,7.812,-339.844,0
1583423854.681,80.566,56.641,-28.320,-4.395,-313.965,0
1583423854.684,0.977,-19.531,-36.133,-19.043,-307.129,0
1583423854.688,5.859,81.543,1.465,-24.902,-291.992,0
1583423854.692,75.684,164.551,13.184,-27.344,-271.973,0
1583423854.696,101.074,123.047,-0.977,-12.207,-270.996,0
1583423854.700,94.727,78.125,-5.859,-22.461,-283.203,0
1583423854.717,59.082,-6.348,-6.836,-40.527,-324.707,0
1583423854.721,109.863,26.855,12.207,-35.156,-307.617,0
1583423854.725,143.066,-4.883,1.953,-26.855,-313.965,0
1583423854.729,140.625,-55.176,9.277,-18.555,-369.629,0
1583423854.733,77.637,-75.684,11.230,-48.828,-399.902,0
1583423854.737,-45.898,-173.828,-4.883,-42.480,-442.383,0
1583423854.741,-118.164,-218.750,1.465,2.441,-495.605,0
1583423854.744,-183.594,-183.594,15.625,-20.996,-533.203,0
1583423854.748,-332.031,-178.711,32.227,-65.430,-587.891,0
1583423854.752,-518.555,-198.242,36.621,-96.680,-678.711,0
1583423854.756,-674.805,-320.312,4.883,-58.594,-744.141,0
1583423854.760,-787.109,-310.059,23.438,-51.758,-769.531,0
1583423854.757,-874.512,-180.664,62.012,-76.172,-792.480,0
1583423854.761,-960.938,-225.586,48.340,-52.734,-823.730,0
1583423854.765,-968.750,-246.094,50.781,-20.020,-834.961,0
1583423854.769,-966.797,-261.230,46.387,9.766,-809.570,0
1583423854.773,-969.238,-220.703,41.504,0.488,-758.789,0
1583423854.777,-968.750,-207.520,31.738,-34.668,-733.398,0
1583423854.781,-968.750,-200.195,31.250,-12.207,-684.082,0
1583423854.784,-968.262,-56.152,53.223,22.461,-582.520,0
1583423854.788,-968.262,-81.543,22.949,18.066,-493.652,0
1583423854.792,-968.750,-57.617,9.277,-12.207,-402.832,0
1583423854.796,-968.750,96.680,38.086,-12.695,-285.645,0
1583423854.800,-969.238,162.598,38.574,27.344,-153.320,0
1583423854.817,-963.867,220.703,34.180,35.156,-30.273,0
1583423854.821,-971.191,101.562,-2.441,40.039,37.109,0
1583423854.825,-950.684,59.570,-1.953,53.711,104.980,0
1583423854.829,-783.203,214.844,44.434,49.316,235.352,0
1583423854.833,-669.434,172.852,28.809,60.547,317.871,0
1583423854.837,-713.867,87.891,22.461,65.918,321.289,0
1583423854.841,-791.504,22.461,24.902,66.895,301.758,0
1583423854.844,-838.867,-20.508,27.344,83.008,255.859,0
1583423854.848,-837.402,76.172,62.988,70.801,193.848,0
1583423854.852,-882.812,60.059,60.059,27.344,103.516,0
1583423854.856,-942.383,37.598,48.828,3.906,44.922,0
1583423854.860,-947.754,-7.812,29.785,42.480,5.371,0
1583423854.857,-959.961,-99.609,13.184,56.641,-46.387,0
1583423854.861,-959.961,-35.156,43.945,18.555,-77.148,0
1583423854.865,-904.785,14.160,47.852,4.883,-107.910,0
1583423854.869,-822.754,15.137,48.340,6.836,-133.301,0
1583423854.873,-709.473,2.930,50.293,41.504,-143.066,0
1583423854.877,-639.160,-66.406,29.297,44.434,-184.570,0
1583423854.881,-628.418,-46.875,43.457,19.043,-232.910,0
1583423854.884,-597.656,5.371,52.246,-10.254,-298.828,0
1583423854.888,-497.070,38.086,49.316,3.418,-359.863,0
1583423854.892,-430.176,55.664,51.270,38.574,-407.715,0
1583423854.896,-475.098,-79.590,17.090,17.090,-479.492,0
1583423854.900,-490.234,-16.113,29.297,-22.461,-518.555,0
1583423854.897,-424.805,148.438,60.547,-3.418,-518.066,0
1583423854.901,-402.832,109.375,47.852,32.715,-524.414,0
1583423854.905,-376.465,123.535,43.945,18.555,-508.789,0
1583423854.909,-410.645,71.289,20.996,-2.930,-509.766,0
1583423854.913,-436.035,92.285,23.438,20.508,-497.559,0
1583423854.917,-394.531,153.809,33.203,36.621,-442.383,0
1583423854.921,-424.805,127.441,16.113,32.227,-411.621,0
1583423854.924,-465.820,226.074,41.504,35.156,-354.980,0
1583423854.928,-513.184,133.301,15.625,42.480,-288.574,0
1583423854.932,-515.625,81.055,1.465,66.895,-228.516,0
1583423854.936,-459.961,275.879,57.617,61.035,-114.258,0
1583423854.940,-478.027,250.000,58.105,53.711,-34.668,0
1583423854.957,-499.023,182.129,44.922,47.852,-12.207,0
1583423854.961,-493.164,136.719,31.738,65.430,14.648,0
1583423854.965,-420.410,158.691,39.551,91.797,62.988,0
1583423854.969,-375.000,167.480,39.551,62.988,69.824,0
1583423854.973,-363.770,123.535,25.879,26.855,55.176,0
1583423854.977,-273.926,91.797,24.414,65.430,62.988,0
1583423854.981,-175.781,2.930,8.789,123.047,65.430,0
1583423854.984,-104.004,-20.996,12.695,92.773,36.133,0
1583423854.988,-40.039,167.480,66.406,60.547,58.105,0
1583423854.992,18.066,161.133,56.152,82.031,111.328,0
1583423854.996,119.141,67.383,28.320,116.211,115.723,0
1583423855.000,173.340,36.133,27.832,121.094,120.605,0
1583423854.998,176.270,24.414,37.109,97.168,125.488,0
1583423855.002,206.055,67.871,50.781,101.562,132.324,0
1583423855.006,273.438,23.926,30.273,123.535,108.398,0
1583423855.010,372.070,35.645,32.227,129.883,88.867,0
1583423855.014,379.395,-2.930,25.391,105.957,57.617,0
1583423855.018,345.215,-80.566,1.953,78.613,2.441,0
1583423855.022,443.359,6.836,26.855,127.930,12.695,0
1583423855.025,522.461,52.246,31.250,148.926,-5.371,0
1583423855.029,498.535,75.195,31.250,92.285,-11.719,0
1583423855.033,375.000,6.348,12.695,72.754,1.465,0
1583423855.037,245.117,-36.133,7.812,83.984,20.508,0
1583423855.041,197.266,72.266,30.273,80.078,82.031,0
1583423855.037,79.102,66.895,13.184,57.129,124.512,0
1583423855.041,-93.750,68.848,14.648,21.973,194.824,0
1583423855.045,-227.539,32.227,-0.977,26.367,247.559,0
1583423855.049,-342.773,-13.672,-11.230,64.453,305.176,0
1583423855.053,-460.449,73.242,12.695,56.152,409.668,0
1583423855.057,-636.230,29.297,-6.836,18.555,456.543,0
1583423855.061,-749.023,20.020,-3.418,0.000,496.582,0
1583423855.064,-724.121,111.328,23.438,18.066,562.988,0
1583423855.068,-773.926,-27.832,-13.672,50.293,600.586,0
1583423855.072,-825.684,-34.668,-4.395,32.227,603.516,0
1583423855.076,-780.273,156.738,42.480,0.977,595.215,0
1583423855.080,-714.844,192.383,33.203,25.391,599.121,0
1583423855.097,-668.457,151.855,11.230,47.852,585.449,1
1583423855.101,-624.023,107.422,0.488,26.855,508.301,0
1583423855.105,-523.438,175.781,22.461,-19.043,441.406,0
1583423855.109,-392.578,206.055,33.203,-4.883,409.180,0
1583423855.113,-276.855,182.129,26.367,20.020,365.723,0
1583423855.117,-213.379,159.180,10.742,-6.836,305.664,0
1583423855.121,-226.562,61.523,-11.719,-17.090,242.676,0
1583423855.124,-216.309,88.379,13.184,0.977,200.195,0
1583423855.128,-98.633,272.949,61.035,16.602,180.176,0
1583423855.132,-31.738,252.441,43.945,7.812,150.879,0
1583423855.136,-32.227,226.562,35.156,-34.180,123.535,0
1583423855.140,-40.527,220.703,38.574,-19.531,136.719,0
1583423855.137,24.902,210.449,42.480,29.297,140.137,0
1583423855.141,115.723,223.145,46.875,21.973,123.535,0
1583423855.145,140.137,215.820,41.992,-21.484,129.395,0
1583423855.149,116.699,150.879,21.973,-41.016,97.168,0
1583423855.153,125.488,71.777,18.555,-9.277,64.941,0
1583423855.157,186.523,73.242,21.484,11.719,53.711,0
1583423855.161,223.633,107.422,24.902,9.766,22.461,0
1583423855.164,216.797,148.926,34.180,-39.551,2.441,0
1583423855.168,246.582,182.129,40.527,-31.250,-17.090,0
1583423855.172,271.484,79.590,6.348,23.926,-68.848,0
1583423855.176,254.883,-43.945,-18.066,-9.766,-117.676,0
1583423855.180,277.832,94.727,27.832,-51.270,-127.441,0
1583423855.177,294.434,139.160,31.738,-42.969,-136.230,0
1583423855.181,291.992,86.914,15.625,-30.762,-145.508,0
1583423855.185,248.047,28.320,4.883,-0.977,-183.594,0
1583423855.189,105.469,-26.855,4.395,0.977,-221.680,0
1583423855.193,-10.742,17.090,18.555,-25.879,-238.281,0
1583423855.197,-27.344,3.418,13.184,-11.230,-246.094,0
1583423855.201,-31.250,0.977,13.184,11.230,-239.746,0
1583423855.204,-56.641,37.109,14.648,0.977,-205.078,0
1583423855.208,-137.207,-70.312,-13.672,-22.949,-206.543,0
1583423855.212,-99.121,14.648,25.391,-14.648,-172.852,0
1583423855.216,2.441,175.293,61.523,-2.930,-90.820,0
1583423855.220,-40.527,132.812,36.621,-22.949,-61.523,0
1583423855.237,-96.680,108.887,20.996,-28.320,-33.691,0
1583423855.241,-79.102,78.613,14.160,-14.160,-12.207,0
1583423855.245,7.324,129.395,35.645,17.090,41.016,0
1583423855.249,43.457,127.930,31.738,8.301,73.242,0
1583423855.253,11.230,88.379,23.438,-37.598,70.801,0
1583423855.257,-3.906,51.270,14.160,-18.555,110.352,0
1583423855.261,31.250,11.230,13.672,22.461,161.621,0
1583423855.264,112.305,89.355,37.598,23.926,184.082,0
1583423855.268,167.480,140.137,37.598,8.789,207.520,0
1583423855.272,144.043,104.492,30.762,-13.184,225.586,0
1583423855.276,208.984,174.316,45.410,16.602,271.973,0
1583423855.280,271.973,74.219,8.789,51.758,287.598,0
1583423855.277,265.137,74.219,13.184,23.438,300.293,0
1583423855.281,256.836,200.195,42.969,-3.418,349.121,0
1583423855.285,264.648,147.949,29.785,18.555,373.535,0
1583423855.289,318.359,146.484,34.180,46.875,395.996,0
1583423855.293,299.316,81.055,17.578,31.738,409.668,0
1583423855.297,212.891,40.039,13.672,-0.977,403.320,0
1583423855.301,225.098,77.637,31.250,-2.930,401.855,0
1583423855.304,303.223,87.402,38.574,23.438,389.160,0
1583423855.308,343.262,126.465,46.387,21.973,346.680,0
1583423855.312,271.484,-1.465,8.789,-5.371,269.531,0
1583423855.316,144.043,-85.449,13.184,-10.742,191.895,0
1583423855.320,150.879,91.309,65.918,1.953,161.133,0
1583423855.317,103.516,74.219,41.992,6.836,87.402,0
1583423855.321,-17.090,58.594,35.645,-26.367,-26.367,0
1583423855.325,-137.695,37.109,24.902,-41.016,-106.934,0
1583423855.329,-175.293,33.691,30.762,-7.324,-136.230,0
1583423855.333,-124.512,99.121,55.664,7.324,-129.883,0
1583423855.337,-182.129,-12.207,25.879,-10.254,-153.320,0
1583423855.341,-251.953,-20.508,28.320,-28.320,-184.082,0
1583423855.344,-213.867,37.598,37.598,-15.137,-167.480,0
1583423855.348,-193.359,8.789,25.879,4.883,-139.160,0
1583423855.352,-200.195,103.027,47.852,-10.254,-103.516,0
1583423855.356,-242.188,98.145,37.598,-30.273,-101.562,0
1583423855.360,-269.043,54.199,32.715,-17.090,-117.676,0
1583423855.377,-238.770,31.738,28.809,14.648,-106.445,0
1583423855.381,-211.914,-30.762,24.902,11.230,-116.699,0
1583423855.385,-200.195,9.766,45.898,-10.254,-134.766,0
1583423855.389,-232.422,13.672,44.434,-3.906,-153.320,0
1583423855.393,-194.336,22.461,49.805,11.719,-145.020,0
1583423855.397,-140.137,-15.625,31.738,4.395,-144.043,0
1583423855.401,-200.195,-166.504,-8.789,-16.602,-196.777,0
1583423855.404,-234.375,-110.840,14.648,-32.715,-221.680,0
1583423855.408,-131.836,72.266,62.500,-3.418,-192.871,0
1583423855.412,-80.078,36.133,51.270,23.438,-161.621,0
1583423855.416,-110.840,-23.926,37.109,12.207,-152.832,0
1583423855.420,-160.156,-47.852,31.738,-14.648,-179.688,0
1583423855.417,-147.949,-32.715,38.574,-21.484,-188.477,0
1583423855.421,-111.328,-8.789,50.293,16.113,-150.879,0
1583423855.425,-130.859,-41.504,36.621,13.184,-155.273,0
1583423855.429,-194.336,-35.156,24.414,-30.762,-170.410,0
1583423855.433,-238.281,-43.457,21.973,-19.531,-145.020,0
1583423855.437,-181.641,-92.773,20.020,29.785,-138.184,0
1583423855.441,-156.738,-84.473,29.297,22.461,-118.652,0
1583423855.444,-185.547,-57.129,40.039,-20.508,-91.797,0
1583423855.448,-194.336,7.812,62.012,-18.555,-77.637,0
1583423855.452,-216.309,-116.211,30.762,27.344,-56.152,0
1583423855.456,-241.211,-179.199,18.555,30.762,-66.895,0
1583423855.460,-249.512,8.789,60.059,-8.789,-57.129,0
1583423855.457,-286.621,8.789,43.945,-22.461,-50.781,0
1583423855.461,-263.184,12.695,40.039,6.836,-45.898,0
1583423855.465,-231.445,-100.586,15.137,32.227,-61.035,0
1583423855.469,-209.961,-125.977,16.602,20.508,-93.750,0
1583423855.473,-187.500,22.949,48.828,8.301,-77.637,0
1583423855.477,-195.801,-47.363,28.320,11.230,-61.523,0
1583423855.481,-112.793,-6.348,44.434,28.320,-51.270,0
1583423855.484,-77.148,18.555,40.527,34.668,-39.551,0
1583423855.488,-156.738,-76.172,12.207,1.953,-56.641,0
1583423855.492,-140.137,27.832,41.992,-5.859,-75.195,0
1583423855.496,-62.500,82.031,49.805,17.578,-96.191,0
1583423855.500,0.000,87.891,57.129,15.625,-113.281,0
1583423855.517,-30.762,22.461,36.133,-2.441,-134.277,0
1583423855.521,-109.863,-67.383,15.137,-12.695,-187.012,0
1583423855.525,-40.527,43.945,49.316,11.230,-196.289,0
1583423855.529,23.926,75.195,55.176,40.039,-183.594,0
1583423855.533,-0.977,16.602,41.992,20.020,-222.656,0
1583423855.537,-55.664,-35.645,33.203,3.906,-248.535,0
1583423855.541,-79.590,-135.254,22.949,31.250,-245.605,0
1583423855.544,6.348,-46.387,44.922,45.898,-255.859,0
1583423855.548,73.730,98.633,62.988,13.672,-258.301,0
1583423855.552,27.832,34.180,51.270,-4.883,-293.945,0
1583423855.556,46.875,-12.207,50.781,31.738,-313.477,0
1583423855.560,58.105,-81.543,26.367,49.805,-319.824,0
1583423855.557,42.480,-13.672,41.992,11.719,-303.711,0
1583423855.561,21.973,63.965,54.199,-43.457,-297.363,0
1583423855.565,-6.348,49.805,44.434,-52.734,-339.355,0
1583423855.569,36.133,75.684,49.805,-41.504,-348.633,0
1583423855.573,67.871,34.180,39.062,-59.082,-367.188,0
1583423855.577,32.227,-1.953,28.809,-89.844,-416.016,0
1583423855.581,-20.996,21.484,33.691,-131.348,-439.941,0
1583423855.584,15.625,47.363,41.504,-136.719,-459.473,0
1583423855.588,91.309,114.258,47.852,-127.441,-453.125,0
1583423855.592,30.762,-44.434,1.465,-146.973,-483.887,0
1583423855.596,-38.574,-84.473,-5.371,-195.312,-516.113,0
1583423855.600,36.133,98.633,45.410,-187.012,-475.098,0
1583423855.597,86.426,68.848,38.574,-152.344,-422.852,0
1583423855.601,77.637,16.113,22.461,-178.711,-393.555,0
1583423855.605,41.504,-70.312,2.930,-185.547,-381.836,0
1583423855.609,1.465,-108.887,3.906,-169.922,-377.441,0
1583423855.613,22.461,-66.406,20.020,-125.977,-344.238,0
1583423855.617,-0.488,-88.379,-0.977,-134.766,-311.523,0
1583423855.621,-43.945,-96.191,-7.812,-165.039,-319.336,0
1583423855.624,-71.777,-155.273,-13.184,-129.883,-314.941,0
1583423855.628,-57.129,-184.570,-2.441,-94.727,-286.621,0
1583423855.632,67.871,-31.738,40.527,-64.453,-243.164,0
1583423855.636,108.398,-20.996,29.785,-70.801,-207.031,0
1583423855.640,79.102,-46.875,23.926,-84.961,-182.617,0
1583423855.657,103.027,-112.793,8.789,-32.227,-163.574,0
1583423855.661,169.922,-159.668,-0.488,2.930,-171.387,0
1583423855.665,200.684,-109.375,20.508,-17.578,-172.363,0
1583423855.669,160.156,-118.164,30.762,-22.949,-167.480,0
1583423855.673,184.082,-125.488,29.785,-9.277,-177.246,0
1583423855.677,209.961,-200.684,5.859,18.555,-181.152,0
1583423855.681,183.105,-188.477,16.113,36.621,-188.965,0
1583423855.684,175.293,-32.715,49.316,0.000,-175.781,0
1583423855.688,142.578,-55.176,33.691,5.371,-189.941,0
1583423855.692,161.621,-69.824,35.156,38.086,-199.707,0
1583423855.696,182.129,-89.844,30.762,37.109,-180.176,0
1583423855.700,93.262,-174.805,8.789,21.973,-222.656,0
1583423855.697,37.109,-80.566,34.180,15.137,-234.863,0
1583423855.701,63.965,-27.344,48.340,45.898,-177.734,0
1583423855.705,60.547,-72.266,36.133,56.641,-169.922,0
1583423855.709,17.578,-70.801,29.297,29.297,-169.922,0
1583423855.713,-66.406,-96.191,25.391,22.949,-182.129,0
1583423855.717,-87.891,-96.680,32.715,62.500,-192.383,0
1583423855.721,-75.684,-80.078,31.738,83.496,-184.082,0
1583423855.724,-107.422,-40.039,34.180,33.691,-212.402,0
1583423855.728,-166.504,-37.109,31.250,7.812,-246.094,0
1583423855.732,-209.473,-88.867,22.461,34.668,-275.879,0
1583423855.736,-150.391,2.930,42.480,41.504,-274.414,0
1583423855.740,-79.590,62.500,47.363,40.527,-257.324,0
1583423855.737,-80.566,55.664,41.016,20.996,-248.535,0
1583423855.741,-81.543,79.590,38.574,20.508,-241.699,0
1583423855.745,-55.664,-5.371,17.578,60.059,-228.516,0
1583423855.749,35.156,51.758,38.574,62.500,-196.777,0
1583423855.753,104.980,164.551,57.129,24.902,-177.734,0
1583423855.757,57.617,83.496,28.320,12.207,-165.527,0
1583423855.761,114.746,133.301,47.852,46.875,-157.227,0
1583423855.764,131.836,67.871,26.367,69.824,-178.711,0
1583423855.768,63.965,26.367,14.648,47.363,-208.008,0
1583423855.772,63.965,208.496,62.500,10.742,-206.543,0
1583423855.776,60.059,196.289,42.969,18.555,-209.473,0
1583423855.780,91.309,157.715,33.691,49.805,-212.891,0
1583423855.797,76.660,147.949,40.039,41.504,-213.867,0
1583423855.801,10.742,160.645,38.574,0.000,-225.586,0
1583423855.805,-11.719,187.988,40.039,3.906,-236.328,0
1583423855.809,21.484,175.781,34.668,44.922,-213.867,0
1583423855.813,10.254,175.293,34.180,35.156,-217.773,0
1583423855.817,-123.535,55.664,9.766,15.625,-245.117,0
1583423855.821,-211.426,10.742,16.113,14.160,-253.906,0
1583423855.824,-128.906,188.965,68.359,29.785,-217.773,0
1583423855.828,-70.312,221.191,66.895,34.668,-167.969,0
1583423855.832,-113.281,159.180,46.875,2.930,-195.801,0
1583423855.836,-200.684,86.914,25.391,-0.488,-237.793,0
1583423855.840,-168.945,121.094,37.598,23.926,-235.840,0
1583423855.837,-72.754,195.801,58.594,31.738,-236.816,0
1583423855.841,-71.289,181.641,52.734,12.695,-228.027,0
1583423855.845,-106.445,171.387,49.805,-9.277,-217.285,0
1583423855.849,-97.168,155.762,44.434,11.719,-235.840,0
1583423855.853,-67.383,127.441,36.133,38.574,-253.418,0
1583423855.857,-99.609,136.230,42.480,35.156,-272.949,0
1583423855.861,-176.270,132.812,42.969,8.301,-276.367,0
1583423855.864,-225.586,185.547,51.758,-3.906,-266.602,0
1583423855.868,-222.168,211.914,52.734,23.926,-242.188,0
1583423855.872,-248.535,142.578,38.086,26.367,-231.445,0
1583423855.876,-282.715,185.547,49.316,0.000,-235.840,0
1583423855.880,-289.551,189.941,47.363,-9.277,-240.234,0
1583423855.877,-231.445,188.965,49.316,17.578,-217.285,0
1583423855.881,-185.059,185.059,41.992,35.645,-199.219,0
1583423855.885,-248.535,55.664,15.625,13.184,-263.672,0
1583423855.889,-274.414,147.949,44.922,-12.207,-269.531,0
1583423855.893,-203.613,225.586,49.316,7.812,-208.496,0
1583423855.897,-176.270,137.207,23.926,36.133,-191.406,0
1583423855.901,-163.574,157.227,38.086,24.902,-201.172,0
1583423855.904,-220.215,60.059,15.625,-2.441,-220.215,0
1583423855.908,-227.539,77.637,26.855,-1.465,-203.125,0
1583423855.912,-127.441,240.234,74.707,11.719,-149.902,0
1583423855.916,-120.605,201.660,65.918,23.438,-128.418,0
1583423855.920,-182.129,132.812,44.434,6.836,-173.340,0
1583423855.937,-225.098,103.027,36.133,-4.395,-209.473,0
1583423855.941,-186.523,151.855,53.223,26.855,-164.551,0
1583423855.945,-142.578,171.387,60.059,22.461,-120.605,0
1583423855.949,-169.922,113.770,41.016,-12.207,-166.016,0
1583423855.953,-178.223,144.531,48.828,-3.906,-170.410,0
1583423855.957,-166.504,31.738,19.531,36.133,-139.160,0
1583423855.961,-133.301,7.324,18.555,42.480,-156.250,0
1583423855.964,-70.801,163.574,56.152,2.930,-144.531,0
1583423855.968,-85.449,136.719,43.457,-5.859,-137.695,0
1583423855.972,-45.410,150.391,52.246,20.508,-147.949,0
1583423855.976,3.418,107.422,44.922,28.809,-145.508,0
1583423855.980,0.488,100.098,47.852,7.812,-138.184,0
1583423855.977,-48.340,111.328,45.410,-14.160,-170.898,0
1583423855.981,-70.801,94.727,41.504,7.812,-176.270,0
1583423855.985,-8.301,106.934,47.363,44.922,-156.250,0
1583423855.989,-27.344,24.414,27.832,36.621,-193.359,0
1583423855.993,-64.453,25.879,30.273,15.625,-190.918,0
