timestamps,TP9,AF7,AF8,TP10,Right AUX,Marker0
1583339065.664,21.973,32.227,32.715,19.043,16.113,0
1583339065.668,17.578,35.156,28.809,17.578,-10.742,0
1583339065.672,16.602,33.203,26.855,18.555,27.832,0
1583339065.676,19.043,34.668,28.809,17.090,60.059,0
1583339065.680,24.902,37.109,30.273,20.508,32.227,0
1583339065.684,25.879,36.621,30.273,20.020,19.043,0
1583339065.688,22.461,35.645,30.762,10.742,3.418,0
1583339065.691,17.578,35.645,30.273,11.719,23.926,0
1583339065.695,20.508,36.133,29.785,21.484,71.777,0
1583339065.699,23.926,34.668,28.809,28.320,59.570,0
1583339065.703,26.855,36.133,29.785,36.133,44.434,0
1583339065.707,23.926,41.016,27.832,25.879,17.090,0
1583339065.704,17.578,41.504,20.996,11.230,11.719,0
1583339065.708,23.926,41.992,19.531,17.578,48.828,0
1583339065.712,22.949,41.016,20.020,18.555,33.691,0
1583339065.716,22.461,38.086,16.113,13.672,50.293,0
1583339065.720,27.344,38.086,10.742,11.719,51.270,0
1583339065.724,26.367,40.039,12.207,6.348,49.316,0
1583339065.728,23.438,40.527,13.672,3.418,53.711,0
1583339065.731,22.461,42.969,14.160,7.812,54.199,0
1583339065.735,24.902,41.992,13.672,13.672,20.508,0
1583339065.739,26.855,40.039,14.160,16.602,32.715,0
1583339065.743,27.832,40.527,15.625,18.066,76.172,0
1583339065.747,29.297,38.086,16.602,19.531,21.973,0
1583339065.764,33.691,39.551,16.113,20.508,-25.391,0
1583339065.768,36.133,45.898,14.648,21.484,-3.418,0
1583339065.772,33.203,46.875,15.625,19.043,21.973,0
1583339065.776,35.156,45.410,15.625,15.137,69.336,0
1583339065.780,36.133,45.898,18.066,21.484,45.898,0
1583339065.784,31.250,46.875,19.531,27.344,-25.391,0
1583339065.788,30.762,42.969,17.578,26.367,18.066,0
1583339065.791,28.809,38.574,20.508,19.043,45.410,0
1583339065.795,27.344,41.016,21.484,16.602,38.574,0
1583339065.799,30.762,42.480,19.531,22.949,51.270,0
1583339065.803,32.715,41.992,22.461,24.902,10.742,0
1583339065.807,32.715,40.527,24.902,26.367,3.418,0
1583339065.803,28.809,39.062,29.297,27.344,73.242,0
1583339065.807,30.762,39.062,30.273,26.367,39.062,0
1583339065.811,36.133,39.062,27.832,25.879,-0.977,0
1583339065.815,29.785,37.109,30.762,26.367,40.039,0
1583339065.819,25.391,36.133,32.227,24.902,-0.977,0
1583339065.823,28.320,34.668,30.273,26.367,24.414,0
1583339065.827,30.273,35.645,30.273,26.367,55.176,0
1583339065.830,29.785,36.621,29.297,26.855,10.254,0
1583339065.834,30.273,36.621,27.344,27.344,2.930,0
1583339065.838,34.668,39.551,27.832,30.273,-22.461,0
1583339065.842,40.039,40.039,27.832,29.785,-22.949,0
1583339065.846,42.480,41.016,27.832,24.902,-27.832,0
1583339065.864,39.551,39.062,29.297,29.297,-39.551,0
1583339065.868,38.574,37.109,27.832,32.227,-26.855,0
1583339065.872,36.621,40.527,27.344,29.297,33.691,0
1583339065.876,32.227,42.480,30.762,25.879,38.574,0
1583339065.880,30.273,40.527,32.227,24.414,48.340,0
1583339065.884,28.809,37.598,31.738,23.438,65.430,0
1583339065.888,31.250,38.086,30.762,22.949,43.457,0
1583339065.891,36.133,39.062,29.785,25.879,33.203,0
1583339065.895,33.203,39.551,32.227,25.391,41.504,0
1583339065.899,31.738,40.527,32.227,17.090,39.062,0
1583339065.903,33.691,41.016,29.785,18.555,16.113,0
1583339065.907,33.691,40.039,28.809,24.902,54.199,0
1583339065.884,35.645,38.086,27.344,27.832,38.574,0
1583339065.888,34.180,38.574,25.879,28.809,10.742,0
1583339065.892,34.668,41.504,26.367,27.344,49.805,0
1583339065.896,32.715,41.992,29.297,25.879,101.074,0
1583339065.900,28.809,39.062,29.785,25.879,47.852,0
1583339065.904,20.508,37.109,27.344,19.043,17.578,0
1583339065.908,17.578,35.645,27.344,13.672,50.293,0
1583339065.911,23.438,35.645,29.297,16.602,1.953,0
1583339065.915,24.902,37.109,29.297,21.484,-54.199,0
1583339065.919,21.484,38.574,28.320,23.926,-1.953,0
1583339065.923,20.996,38.086,29.785,21.973,25.879,0
1583339065.927,23.438,40.039,33.691,23.926,34.180,0
1583339065.944,29.785,41.992,36.133,17.578,80.078,0
1583339065.948,25.879,40.527,35.645,8.301,78.125,0
1583339065.952,22.461,40.527,33.203,14.160,55.664,0
1583339065.956,26.367,41.016,31.250,19.531,69.824,0
1583339065.960,26.367,41.016,29.785,21.484,53.223,0
1583339065.964,28.320,43.945,33.691,23.926,-8.789,0
1583339065.968,27.832,43.945,35.645,22.949,-7.324,0
1583339065.971,26.367,41.016,35.645,21.973,-2.441,0
1583339065.975,25.391,40.039,36.133,21.973,9.277,0
1583339065.979,26.367,39.551,33.691,22.461,27.832,0
1583339065.983,28.320,39.062,33.691,21.973,50.293,0
1583339065.987,36.133,39.551,34.180,21.484,68.848,0
1583339065.984,41.992,38.574,34.180,25.391,17.090,0
1583339065.988,44.922,39.062,34.180,27.344,23.926,0
1583339065.992,49.805,41.504,32.715,28.320,61.523,0
1583339065.996,52.246,41.992,33.203,28.320,56.641,0
1583339066.000,43.457,41.992,35.645,23.926,2.441,0
1583339066.004,33.203,40.039,37.598,27.344,4.883,0
1583339066.008,30.273,38.086,35.156,27.344,51.758,0
1583339066.011,28.320,37.598,34.180,23.926,29.297,0
1583339066.015,28.320,35.645,34.180,25.391,15.625,0
1583339066.019,31.250,32.715,31.250,24.414,23.926,0
1583339066.023,26.855,31.250,30.762,23.926,31.250,0
1583339066.027,23.438,29.785,32.227,25.391,64.941,0
1583339066.044,28.320,29.297,34.180,25.391,62.988,0
1583339066.048,28.320,33.203,38.574,25.391,36.133,0
1583339066.052,26.855,34.668,39.062,24.414,15.625,0
1583339066.056,23.438,37.109,39.062,25.879,36.621,0
1583339066.060,22.461,36.621,38.574,26.367,35.645,0
1583339066.064,26.367,35.156,35.645,26.367,37.598,0
1583339066.068,30.762,37.598,33.691,24.902,51.270,0
1583339066.071,26.855,38.086,30.273,19.043,43.945,0
1583339066.075,22.949,38.086,26.855,17.578,36.621,0
1583339066.079,28.809,39.551,27.344,22.949,20.020,0
1583339066.083,34.668,37.598,29.297,24.902,-12.207,0
1583339066.087,31.250,36.621,31.738,26.855,5.859,0
1583339066.083,28.809,35.156,31.738,24.414,-21.973,0
1583339066.087,30.762,33.691,28.809,21.484,-27.344,0
1583339066.091,33.691,37.109,28.320,27.344,7.324,0
1583339066.095,34.180,37.598,30.762,25.879,19.043,0
1583339066.099,32.227,36.621,32.227,22.949,41.016,0
1583339066.103,30.273,36.621,33.203,22.949,61.523,0
1583339066.107,30.762,35.645,32.715,20.996,55.176,0
1583339066.110,34.180,35.156,31.738,21.484,35.645,0
1583339066.114,30.762,33.203,32.715,23.438,48.828,0
1583339066.118,29.297,32.227,33.203,23.926,51.270,0
1583339066.122,33.691,31.738,33.203,23.926,49.805,0
1583339066.126,32.227,29.297,32.227,22.461,58.594,0
1583339066.123,27.832,28.320,33.203,20.508,-5.859,0
1583339066.127,25.391,26.367,31.250,20.508,-57.129,0
1583339066.131,24.414,25.391,30.762,19.043,-15.625,0
1583339066.135,26.367,30.273,36.621,18.555,26.367,0
1583339066.139,26.367,31.738,33.203,21.484,49.316,0
1583339066.143,26.855,31.250,32.227,28.320,-3.418,0
1583339066.147,24.902,29.297,33.691,25.391,3.418,0
1583339066.150,24.902,27.344,32.715,22.461,9.277,0
1583339066.154,26.855,27.832,34.180,22.949,55.176,0
1583339066.158,22.461,27.832,33.691,16.602,60.547,0
1583339066.162,22.949,27.832,30.273,18.066,19.043,0
1583339066.166,28.809,28.809,29.297,20.996,43.457,0
1583339066.184,32.227,31.250,32.715,23.926,5.859,0
1583339066.188,31.738,33.691,33.691,24.414,7.324,0
1583339066.192,31.738,35.645,32.715,22.949,23.926,0
1583339066.196,34.180,37.109,29.297,26.367,15.137,0
1583339066.200,35.156,35.645,30.273,25.879,47.852,0
1583339066.204,36.133,36.621,32.715,25.879,21.484,0
1583339066.208,37.109,37.598,33.203,29.297,12.695,0
1583339066.211,36.133,34.180,31.250,21.973,81.055,0
1583339066.215,39.062,34.668,29.785,23.438,4.883,0
1583339066.219,44.434,37.598,30.762,28.320,1.953,0
1583339066.223,41.016,36.621,29.297,24.902,103.516,0
1583339066.227,31.250,35.645,27.344,24.414,68.359,0
1583339066.224,32.227,36.621,28.320,25.879,67.383,0
1583339066.228,36.133,38.574,27.344,24.902,48.340,0
1583339066.232,38.086,40.039,27.344,23.926,-4.395,0
1583339066.236,34.668,40.039,30.762,21.484,-22.949,0
1583339066.240,33.691,33.691,29.297,20.996,1.953,0
1583339066.244,39.062,34.180,27.832,21.484,13.184,0
1583339066.248,35.645,39.551,27.344,19.043,-9.277,0
1583339066.251,32.227,38.086,29.297,18.555,45.410,0
1583339066.255,35.645,36.133,32.227,20.996,46.387,0
1583339066.259,39.062,36.133,30.273,24.902,27.344,0
1583339066.263,36.133,36.133,25.879,19.043,15.137,0
1583339066.267,30.273,36.133,25.391,16.113,15.625,0
1583339066.264,32.715,38.574,26.855,20.020,62.500,0
1583339066.268,34.180,39.551,28.809,17.090,20.508,0
1583339066.272,32.227,37.109,31.250,17.578,0.000,0
1583339066.276,31.738,36.133,28.320,14.160,35.156,0
1583339066.280,30.273,33.691,27.832,9.766,45.410,0
1583339066.284,32.715,35.156,31.250,16.113,55.664,0
1583339066.288,34.180,38.574,31.250,17.578,33.691,0
1583339066.291,30.762,39.062,33.691,17.578,6.348,0
1583339066.295,28.809,40.039,34.668,15.625,40.527,0
1583339066.299,33.691,39.551,34.180,17.090,69.824,0
1583339066.303,35.645,36.621,34.668,22.461,84.473,0
1583339066.307,34.180,37.598,36.133,23.926,38.574,0
1583339066.324,34.180,43.457,38.086,26.367,-8.301,0
1583339066.328,34.668,43.457,40.527,22.949,18.066,0
1583339066.332,40.039,41.992,40.527,21.484,19.531,0
1583339066.336,40.527,41.992,39.551,29.785,-5.859,0
1583339066.340,33.691,39.062,38.574,29.785,-9.766,0
1583339066.344,31.738,39.551,34.180,27.344,-13.184,0
1583339066.348,35.156,40.527,29.785,28.809,20.996,0
1583339066.351,34.180,38.574,29.785,30.762,46.387,0
1583339066.355,27.832,36.133,29.785,26.855,26.855,0
1583339066.359,24.414,34.180,27.832,20.996,15.137,0
1583339066.363,27.344,34.668,26.367,23.438,7.324,0
1583339066.367,27.832,32.227,26.855,24.902,50.781,0
1583339066.364,24.414,31.738,31.738,19.043,67.871,0
1583339066.368,25.391,32.715,32.227,18.066,35.645,0
1583339066.372,29.297,36.133,31.250,22.949,21.973,0
1583339066.376,31.738,38.086,30.762,27.832,33.691,0
1583339066.380,31.250,36.133,28.809,27.344,74.707,0
1583339066.384,28.809,35.645,26.855,22.949,35.645,0
1583339066.388,30.762,35.156,28.320,21.973,44.434,0
1583339066.391,30.762,34.668,28.809,22.949,65.430,0
1583339066.395,25.879,34.180,29.785,22.949,32.715,0
1583339066.399,22.461,32.715,31.738,21.484,-9.766,0
1583339066.403,20.996,32.227,27.344,19.043,33.203,0
1583339066.407,24.902,31.250,23.926,19.531,36.621,0
1583339066.404,22.461,34.180,27.344,19.531,6.348,0
1583339066.408,15.625,37.598,29.297,15.137,13.672,0
1583339066.412,16.113,38.086,28.809,11.230,14.160,0
1583339066.416,23.926,38.086,32.227,11.230,31.250,0
1583339066.420,27.832,37.109,33.203,16.113,22.461,0
1583339066.424,27.832,36.133,28.320,21.973,57.129,0
1583339066.428,25.391,34.180,23.438,21.484,61.035,0
1583339066.431,21.973,33.203,25.879,21.973,64.941,0
1583339066.435,23.438,32.227,28.809,20.996,58.594,0
1583339066.439,24.414,31.250,28.320,20.020,1.953,0
1583339066.443,21.973,29.785,28.809,22.949,30.273,0
1583339066.447,25.391,31.250,28.809,25.879,42.480,0
1583339066.464,31.250,33.203,30.762,27.832,16.113,0
1583339066.468,30.273,32.227,29.297,24.414,77.148,0
1583339066.472,28.320,31.250,27.832,21.973,84.473,0
1583339066.476,28.320,31.738,27.344,22.949,5.371,0
1583339066.480,31.738,33.203,25.879,24.414,50.293,0
1583339066.484,33.691,35.156,26.855,27.344,-9.766,0
1583339066.488,26.855,35.156,28.320,20.996,-38.086,0
1583339066.491,24.414,31.250,25.391,11.230,42.969,0
1583339066.495,28.809,31.250,26.367,18.066,13.184,0
1583339066.499,30.273,31.250,29.297,23.926,51.758,0
1583339066.503,29.785,30.273,28.809,21.973,56.641,0
1583339066.507,28.809,36.133,29.297,21.484,24.414,0
1583339066.504,31.738,39.062,29.785,22.949,42.480,0
1583339066.508,33.203,38.574,33.203,26.855,35.645,0
1583339066.512,28.809,38.574,36.621,24.902,18.066,0
1583339066.516,25.879,38.574,36.133,21.973,9.277,0
1583339066.520,29.297,37.598,34.180,21.484,28.320,0
1583339066.524,30.762,38.086,33.691,20.020,20.996,0
1583339066.528,26.367,39.551,34.668,18.066,59.570,0
1583339066.531,25.879,41.016,34.180,15.625,101.562,0
1583339066.535,26.367,38.574,35.156,16.113,47.363,0
1583339066.539,32.715,38.574,34.180,21.484,10.742,0
1583339066.543,34.180,38.574,34.180,22.949,17.090,0
1583339066.547,25.391,34.180,31.738,20.996,64.453,0
1583339066.543,27.344,34.668,30.273,20.020,49.316,0
1583339066.547,27.832,35.156,29.785,17.090,33.691,0
1583339066.551,29.785,34.180,28.809,18.555,32.715,0
1583339066.555,32.227,37.598,30.273,21.973,32.227,0
1583339066.559,32.715,39.551,33.203,21.484,2.930,0
1583339066.563,34.668,37.109,37.598,24.902,-20.020,0
1583339066.567,31.738,36.133,36.133,23.438,15.137,0
1583339066.570,30.273,36.621,32.715,22.461,-0.488,0
1583339066.574,29.297,35.645,32.715,18.555,35.156,0
1583339066.578,28.320,34.180,33.691,20.020,68.848,0
1583339066.582,31.738,33.691,33.691,27.832,27.344,0
1583339066.586,32.227,35.156,35.156,27.344,11.719,0
1583339066.604,31.250,35.645,35.645,28.320,-23.438,0
1583339066.608,29.297,35.645,33.203,25.879,13.672,0
1583339066.612,27.344,34.668,32.715,23.438,103.516,0
1583339066.616,26.855,31.738,31.250,23.926,96.680,0
1583339066.620,26.855,33.691,30.762,22.461,47.852,0
1583339066.624,22.461,34.668,33.691,21.484,17.578,0
1583339066.628,24.902,33.203,33.203,20.508,12.207,0
1583339066.631,27.832,34.180,31.738,22.461,16.602,0
1583339066.635,23.926,35.645,34.180,23.438,15.625,0
1583339066.639,22.949,35.156,33.691,20.020,19.043,0
1583339066.643,27.344,35.156,32.227,24.414,13.672,0
1583339066.647,32.227,35.156,32.227,24.902,-11.719,0
1583339066.645,32.227,35.645,26.855,20.996,2.441,0
1583339066.649,31.250,36.133,27.344,23.438,4.883,0
1583339066.653,33.203,37.598,28.320,30.273,11.230,0
1583339066.657,44.434,40.039,25.879,40.527,28.320,0
1583339066.661,38.574,34.180,32.227,39.062,53.223,0
1583339066.665,15.137,28.320,37.598,24.414,7.812,0
1583339066.669,11.230,26.367,36.621,21.484,-21.484,0
1583339066.672,24.414,24.902,38.086,28.809,28.809,0
1583339066.676,29.785,28.809,41.992,28.809,8.301,0
1583339066.680,24.414,29.297,45.410,20.020,9.766,0
1583339066.684,20.508,29.297,45.898,18.066,47.363,0
1583339066.688,20.508,30.762,43.945,22.949,37.598,0
1583339066.683,22.949,31.250,41.992,25.391,1.465,0
1583339066.687,28.320,33.691,42.969,26.367,63.965,0
1583339066.691,27.344,34.180,44.922,24.414,59.570,0
1583339066.695,26.367,32.715,41.504,22.461,11.230,0
1583339066.699,32.227,32.227,38.574,23.438,14.648,0
1583339066.703,31.250,32.227,39.551,23.926,41.016,0
1583339066.707,21.484,31.738,37.109,18.555,23.438,0
1583339066.710,21.973,30.762,35.156,17.090,-12.207,0
1583339066.714,26.855,30.762,35.645,14.648,62.012,0
1583339066.718,26.855,30.273,33.203,16.602,101.562,0
1583339066.722,21.973,29.785,31.250,21.484,33.203,0
1583339066.726,20.020,31.738,31.250,18.555,8.789,0
1583339066.744,26.855,34.180,34.668,20.508,73.730,0
1583339066.748,26.855,33.203,39.062,20.020,49.805,0
1583339066.752,19.043,32.715,38.086,20.508,57.617,0
1583339066.756,20.020,35.645,39.062,25.879,50.293,0
1583339066.760,26.367,37.598,37.109,23.926,31.738,0
1583339066.764,28.320,37.109,33.203,21.484,62.500,0
1583339066.768,27.832,33.691,35.645,18.066,41.504,0
1583339066.771,27.832,33.203,38.574,15.137,58.594,0
1583339066.775,28.809,31.738,37.109,18.066,46.387,0
1583339066.779,27.832,31.738,35.156,16.602,-0.488,0
1583339066.783,29.297,37.109,36.133,18.555,-33.203,0
1583339066.787,28.809,37.109,37.109,20.996,-9.277,0
1583339066.784,27.832,33.691,35.645,20.020,17.090,0
1583339066.788,29.785,33.691,33.691,23.926,22.461,0
1583339066.792,24.902,32.227,31.738,25.391,36.621,0
1583339066.796,20.996,29.785,32.715,22.949,-10.742,0
1583339066.800,25.879,30.762,36.133,24.902,32.715,0
1583339066.804,29.297,31.250,38.086,26.367,83.008,0
1583339066.808,30.762,32.227,40.527,28.809,-2.930,0
1583339066.811,29.785,33.691,39.062,22.949,10.742,0
1583339066.815,25.391,32.227,39.062,15.625,38.574,0
1583339066.819,26.855,32.715,39.551,16.113,-0.977,0
1583339066.823,31.738,34.668,36.621,13.184,-54.199,0
1583339066.827,29.297,34.180,36.621,13.184,30.273,0
1583339066.823,22.949,33.691,35.156,13.672,38.574,0
1583339066.827,26.367,34.180,31.250,11.230,18.066,0
1583339066.831,32.227,35.645,31.738,16.113,86.426,0
1583339066.835,31.250,37.598,31.250,18.555,61.523,0
1583339066.839,25.391,36.133,30.273,15.625,22.949,0
1583339066.843,29.297,39.551,32.715,18.555,74.219,0
1583339066.847,34.668,41.992,34.668,21.973,52.734,0
1583339066.850,32.715,37.598,36.133,20.508,-6.348,0
1583339066.854,30.273,37.598,35.156,15.625,34.668,0
1583339066.858,29.297,39.062,33.203,15.137,55.664,0
1583339066.862,30.273,39.551,32.715,17.578,59.082,0
1583339066.866,27.344,40.039,32.715,16.113,42.969,0
1583339066.883,24.414,36.621,33.691,17.090,33.691,0
1583339066.887,21.973,33.203,34.668,14.648,37.109,0
1583339066.891,20.508,33.203,34.180,10.254,25.391,0
1583339066.895,23.926,31.250,34.668,9.277,48.340,0
1583339066.899,21.973,29.785,34.668,10.742,41.504,0
1583339066.903,16.602,29.785,34.668,14.648,23.438,0
1583339066.907,18.555,32.715,35.645,11.719,43.945,0
1583339066.910,23.926,35.645,35.645,10.254,31.250,0
1583339066.914,24.414,35.156,35.156,14.648,-13.184,0
1583339066.918,21.973,34.180,34.668,13.672,-7.812,0
1583339066.922,23.438,35.645,33.203,16.113,32.715,0
1583339066.926,23.926,36.621,30.762,19.531,0.977,0
1583339066.924,22.949,34.180,31.738,16.113,27.344,0
1583339066.928,19.043,33.203,31.738,11.719,74.707,0
1583339066.932,14.160,34.668,29.785,11.230,24.902,0
1583339066.936,16.602,33.691,29.297,12.207,26.855,0
1583339066.940,21.484,31.250,30.762,12.207,6.836,0
1583339066.944,19.531,27.344,30.762,13.672,-5.859,0
1583339066.948,19.531,29.297,31.738,0.488,34.180,0
1583339066.951,20.508,32.715,32.715,2.930,50.781,0
1583339066.955,22.461,31.250,34.668,26.855,42.969,0
1583339066.959,23.438,31.738,33.691,19.531,5.859,0
1583339066.963,23.438,33.203,28.320,9.766,48.340,0
1583339066.967,26.855,34.180,26.367,11.719,47.852,0
1583339066.985,33.203,36.621,29.297,15.625,25.391,0
1583339066.989,35.156,36.133,32.227,19.043,34.668,0
1583339066.993,35.645,35.645,31.250,19.043,37.598,0
1583339066.997,39.062,33.691,29.297,18.555,45.898,0
1583339067.001,44.922,29.785,29.785,20.020,55.176,0
1583339067.005,53.223,32.227,30.273,23.926,25.391,0
1583339067.009,55.176,36.133,31.738,24.902,-11.719,0
1583339067.012,42.480,33.203,31.250,23.926,31.250,0
1583339067.016,37.109,30.273,27.344,22.949,51.758,0
1583339067.020,38.086,35.156,27.832,21.973,-24.414,0
1583339067.024,29.297,38.574,27.344,20.996,-33.203,0
1583339067.028,25.879,38.086,26.855,20.508,33.203,0
1583339067.025,28.809,38.086,28.809,20.996,45.410,0
1583339067.029,31.738,36.133,28.809,20.508,20.508,0
1583339067.033,29.297,36.133,29.297,20.020,27.832,0
1583339067.037,25.879,36.133,30.762,20.508,77.637,0
1583339067.041,25.879,35.156,30.273,21.484,86.426,0
1583339067.045,26.367,41.016,32.715,22.461,74.219,0
1583339067.049,25.879,40.527,34.180,19.043,107.910,0
1583339067.052,24.414,37.109,33.203,19.531,70.801,0
1583339067.056,24.414,37.598,34.668,23.438,33.691,0
1583339067.060,31.738,40.039,35.645,25.879,21.484,0
1583339067.064,35.156,41.504,35.156,25.879,-2.441,0
1583339067.068,28.320,39.551,36.133,22.461,55.176,0
1583339067.063,26.855,36.621,34.668,21.973,50.781,0
1583339067.067,28.320,39.062,34.668,26.367,22.949,0
1583339067.071,26.855,38.086,33.203,26.367,35.156,0
1583339067.075,27.832,35.156,30.273,24.414,29.297,0
1583339067.079,23.926,37.109,30.273,21.973,49.805,0
1583339067.083,17.578,34.668,29.785,20.996,92.773,0
1583339067.087,22.949,35.156,32.227,24.414,58.105,0
1583339067.090,23.926,37.598,33.691,23.926,71.289,0
1583339067.094,26.367,38.086,29.785,24.902,87.402,0
1583339067.098,29.297,38.086,30.273,22.461,31.250,0
1583339067.102,23.926,37.598,32.227,19.043,-23.438,0
1583339067.106,26.367,36.621,33.691,24.414,18.555,0
1583339067.103,24.902,35.156,33.203,25.391,52.246,0
1583339067.107,22.461,35.156,29.297,22.461,-4.395,0
1583339067.111,30.273,38.086,30.273,26.367,13.184,0
1583339067.115,35.645,39.551,30.273,30.762,0.977,0
1583339067.119,32.227,36.621,28.320,30.762,-20.508,0
1583339067.123,27.832,34.668,31.738,27.832,-3.418,0
1583339067.127,32.227,36.621,35.156,27.344,-9.766,0
1583339067.130,38.086,37.109,35.645,27.344,23.438,0
1583339067.134,35.645,36.133,36.621,22.949,43.457,0
1583339067.138,31.738,35.156,36.133,26.367,69.336,0
1583339067.142,34.180,35.156,35.156,27.832,122.559,0
1583339067.146,36.621,35.156,33.203,22.461,81.055,0
1583339067.163,33.203,34.668,31.738,19.531,64.453,0
1583339067.167,31.738,38.086,35.156,18.066,62.500,0
1583339067.171,33.691,40.039,36.621,15.137,-20.996,0
1583339067.175,38.574,38.574,35.156,16.602,-15.137,0
1583339067.179,38.574,43.457,37.109,20.996,56.152,0
1583339067.183,38.086,42.969,37.109,19.531,84.961,0
1583339067.187,34.180,37.598,35.645,12.207,-2.930,0
1583339067.190,26.855,36.621,34.668,9.277,19.531,0
1583339067.194,29.297,33.203,31.738,11.230,77.148,0
1583339067.198,31.738,31.738,32.715,12.695,24.414,0
1583339067.202,28.809,32.715,33.691,14.160,49.805,0
1583339067.206,29.297,31.250,34.668,14.648,99.121,0
1583339067.204,31.738,32.715,35.156,15.137,34.180,0
1583339067.208,28.809,36.621,33.691,14.160,34.180,0
1583339067.212,24.902,39.551,31.738,13.184,48.828,0
1583339067.216,26.367,40.039,32.715,11.719,34.668,0
1583339067.220,30.762,39.551,34.180,11.719,16.113,0
1583339067.224,27.832,40.527,34.180,12.695,-13.184,0
1583339067.228,24.414,41.016,32.227,2.441,4.883,0
1583339067.231,25.879,41.992,28.809,-5.371,44.434,0
1583339067.235,29.785,43.457,28.320,0.000,71.777,0
1583339067.239,29.785,39.062,29.297,-1.465,19.531,0
1583339067.243,26.855,37.598,29.785,-1.465,-8.789,0
1583339067.247,26.367,39.551,30.762,4.883,-3.418,0
1583339067.244,31.738,39.551,31.250,4.395,24.414,0
1583339067.248,36.133,40.527,32.715,3.418,66.895,0
1583339067.252,34.668,41.504,31.738,4.395,42.480,0
1583339067.256,30.273,41.992,30.762,8.301,16.602,0
1583339067.260,29.785,40.039,32.227,14.160,4.395,0
1583339067.264,35.156,38.086,32.227,19.043,1.953,0
1583339067.268,36.133,37.598,30.762,15.625,44.434,0
1583339067.271,33.203,39.551,30.762,13.184,81.543,0
1583339067.275,35.156,40.039,31.250,14.160,17.578,0
1583339067.279,34.668,38.086,32.715,11.719,-27.344,0
1583339067.283,33.691,38.574,32.715,10.254,2.930,0
1583339067.287,34.180,40.039,35.645,9.277,7.324,0
1583339067.303,35.156,41.016,40.039,6.348,-3.418,0
1583339067.307,37.109,39.062,40.039,8.789,-7.324,0
1583339067.311,37.109,37.598,40.527,12.207,18.066,0
1583339067.315,35.156,36.621,40.039,10.254,90.332,0
1583339067.319,34.180,35.645,40.527,9.766,98.145,0
1583339067.323,38.574,35.156,41.992,9.766,41.016,0
1583339067.327,41.016,33.203,37.598,8.301,4.395,0
1583339067.330,35.156,35.645,36.133,9.766,11.230,0
1583339067.334,32.715,38.086,36.621,7.324,-8.301,0
1583339067.338,34.180,36.133,34.180,3.906,-8.789,0
1583339067.342,35.156,34.180,31.738,6.348,3.906,0
1583339067.346,31.738,34.668,31.738,7.812,-10.742,0
1583339067.344,26.855,35.645,32.227,6.348,59.570,0
1583339067.348,26.855,33.691,31.250,3.906,60.059,0
1583339067.352,26.855,32.715,30.273,2.930,26.367,0
1583339067.356,24.414,34.668,30.762,3.906,55.664,0
1583339067.360,21.973,34.180,29.297,3.418,55.176,0
1583339067.364,23.438,33.203,26.855,3.418,57.617,0
1583339067.368,25.391,33.691,31.250,6.836,27.344,0
1583339067.371,27.344,35.156,32.227,9.277,27.344,0
1583339067.375,28.320,34.180,28.809,6.836,36.621,0
1583339067.379,24.902,32.227,33.203,1.953,12.695,0
1583339067.383,23.926,31.738,34.668,4.395,46.387,0
1583339067.387,28.809,33.691,32.227,8.301,81.543,0
1583339067.384,31.250,36.133,32.715,5.371,44.434,0
1583339067.388,32.227,36.621,34.180,6.836,24.902,0
1583339067.392,31.738,38.086,33.691,9.766,21.484,0
1583339067.396,35.156,37.598,32.227,5.371,11.230,0
1583339067.400,35.156,36.621,30.273,7.812,47.363,0
1583339067.404,34.180,37.598,27.832,11.230,91.797,0
1583339067.408,35.156,37.598,28.320,12.695,70.312,0
1583339067.411,35.156,37.598,30.273,12.695,88.867,0
1583339067.415,40.039,38.086,30.273,14.648,112.305,0
1583339067.419,40.039,38.574,31.250,20.020,55.664,0
1583339067.423,30.762,41.504,32.227,19.043,-9.277,0
1583339067.427,30.273,41.504,30.273,20.020,21.973,0
1583339067.464,33.203,36.621,30.762,21.484,47.852,0
1583339067.468,30.273,32.715,31.250,23.438,6.836,0
1583339067.472,27.344,33.203,32.715,26.367,29.785,0
1583339067.476,30.762,36.621,38.086,28.809,41.016,0
1583339067.480,39.551,39.551,38.574,32.227,61.035,0
1583339067.484,41.016,41.992,36.133,31.738,41.016,0
1583339067.488,39.551,42.969,37.598,29.785,0.000,0
1583339067.491,40.527,41.992,38.574,32.227,13.184,0
1583339067.495,40.039,41.504,39.062,32.715,13.184,0
1583339067.499,36.133,40.039,39.551,30.273,24.902,0
1583339067.503,32.227,39.551,40.527,25.391,10.254,0
1583339067.507,32.227,38.086,38.086,18.555,-33.691,0
1583339067.506,35.156,33.203,36.133,20.020,-14.160,0
1583339067.510,34.180,38.086,38.086,20.508,6.348,0
1583339067.514,29.785,43.945,38.574,18.555,-66.406,0
1583339067.518,28.320,42.969,38.574,19.531,-84.473,0
1583339067.522,24.414,41.504,34.180,18.555,25.391,0
1583339067.526,23.438,39.062,30.273,18.555,44.922,0
1583339067.530,20.508,36.133,28.320,14.648,-2.930,0
1583339067.533,19.043,34.668,25.391,12.695,18.555,0
1583339067.537,22.461,39.062,29.785,16.602,51.758,0
1583339067.541,24.414,39.551,31.738,15.625,16.602,0
1583339067.545,25.391,38.086,30.273,15.137,-22.949,0
1583339067.549,25.391,39.551,29.297,17.090,32.227,0
1583339067.526,26.367,40.039,28.809,18.555,61.035,0
1583339067.530,25.391,37.109,28.809,18.066,68.848,0
1583339067.534,24.902,33.691,26.367,14.648,57.617,0
1583339067.538,19.531,31.250,25.879,13.184,9.766,0
1583339067.542,17.090,31.250,26.855,10.254,-3.418,0
1583339067.546,22.949,34.180,28.320,12.207,22.949,0
1583339067.550,24.902,33.691,32.715,16.602,76.172,0
1583339067.553,24.902,33.691,33.691,17.578,117.188,0
1583339067.557,29.785,34.180,27.832,16.602,135.254,0
1583339067.561,38.086,35.156,27.344,22.461,102.539,0
1583339067.565,33.691,35.156,35.156,23.926,30.762,0
1583339067.569,15.137,31.250,41.504,8.301,15.625,0
1583339067.584,10.742,26.855,41.504,-3.906,30.273,0
1583339067.588,16.602,22.949,40.527,2.441,46.875,0
1583339067.592,12.207,23.926,41.992,8.789,9.277,0
1583339067.596,11.230,26.367,41.016,4.883,-0.488,0
1583339067.600,10.254,23.926,41.016,5.859,24.414,0
1583339067.604,8.301,25.391,40.039,0.488,18.555,0
1583339067.608,18.066,30.762,38.574,-1.465,51.758,0
1583339067.611,20.020,29.785,38.086,5.371,42.480,0
1583339067.615,17.090,31.250,36.621,7.812,8.789,0
1583339067.619,19.531,31.738,33.203,8.301,14.648,0
1583339067.623,22.461,30.273,33.691,12.207,-8.789,0
1583339067.627,24.902,31.738,34.668,13.184,4.883,0
1583339067.623,29.785,35.645,33.203,18.555,7.812,0
1583339067.627,28.809,39.062,33.203,22.949,-5.371,0
1583339067.631,28.320,40.527,34.180,22.949,-5.859,0
1583339067.635,33.203,38.574,32.715,25.879,-7.324,0
1583339067.639,32.715,36.621,30.762,23.926,12.695,0
1583339067.643,33.203,39.062,36.621,21.973,-41.992,0
1583339067.647,34.180,41.016,39.062,22.461,-1.465,0
1583339067.650,34.668,39.551,40.527,23.926,69.336,0
1583339067.654,32.227,39.062,42.480,19.531,51.758,0
1583339067.658,28.320,38.086,39.551,10.254,41.504,0
1583339067.662,29.297,38.574,38.574,17.578,20.020,0
1583339067.666,31.250,40.039,39.062,21.484,49.316,0
1583339067.684,28.809,39.551,38.086,14.648,65.430,0
1583339067.688,25.879,37.109,36.621,13.672,18.066,0
1583339067.692,28.320,38.574,35.156,13.184,56.152,0
1583339067.696,30.762,41.992,35.645,10.742,67.871,0
1583339067.700,34.180,41.016,37.109,13.184,6.836,0
1583339067.704,39.551,41.992,37.598,18.066,2.930,0
1583339067.708,36.621,43.457,38.574,18.555,20.996,0
1583339067.711,32.715,42.480,35.645,13.184,48.828,0
1583339067.715,38.086,42.969,31.250,16.602,51.758,0
1583339067.719,42.969,44.922,34.668,25.391,31.250,0
1583339067.723,39.062,41.504,38.574,20.020,18.555,0
1583339067.727,35.645,41.504,36.621,12.695,30.273,0
1583339067.724,42.480,44.434,35.645,15.137,23.438,0
1583339067.728,41.016,42.969,37.598,21.484,1.953,0
1583339067.732,31.738,40.527,37.109,20.996,18.555,0
1583339067.736,29.785,41.504,35.645,18.066,52.734,0
1583339067.740,34.668,40.527,34.668,23.926,71.289,0
1583339067.744,36.621,36.621,34.180,27.344,42.969,0
1583339067.748,32.227,35.156,33.203,25.879,27.832,0
1583339067.751,33.203,36.621,31.250,27.344,56.152,0
1583339067.755,34.668,37.598,29.785,26.855,70.801,0
1583339067.759,32.227,37.109,30.273,26.367,97.656,0
1583339067.763,34.668,39.062,29.785,27.344,54.688,0
1583339067.767,34.668,40.039,27.832,24.414,17.578,0
1583339067.764,29.297,38.574,26.367,20.508,73.242,0
1583339067.768,30.273,36.621,28.809,20.508,63.965,0
1583339067.772,33.203,35.645,34.180,27.832,31.738,0
1583339067.776,26.855,36.621,35.156,20.508,52.734,0
1583339067.780,25.391,38.574,32.715,12.207,14.648,0
1583339067.784,29.297,40.039,33.203,19.531,-30.762,0
1583339067.788,23.438,39.551,34.180,15.625,-47.852,0
1583339067.791,17.578,37.109,35.156,11.230,-32.715,0
1583339067.795,21.973,36.621,37.598,11.719,4.883,0
1583339067.799,25.391,37.109,37.109,11.230,38.574,0
1583339067.803,24.414,36.133,35.645,19.531,63.477,0
1583339067.807,23.926,37.598,37.598,24.414,3.418,0
1583339067.824,23.438,37.598,37.598,22.461,-13.672,0
1583339067.828,24.902,34.668,33.203,17.090,90.332,0
1583339067.832,24.414,36.621,31.250,13.184,46.387,0
1583339067.836,21.484,37.598,32.715,10.742,-9.766,0
1583339067.840,17.090,35.156,29.785,6.348,53.711,0
1583339067.844,15.625,33.203,28.320,9.277,31.738,0
1583339067.848,19.531,33.691,29.785,9.277,35.645,0
1583339067.851,16.602,31.250,32.715,-0.977,64.941,0
1583339067.855,15.137,29.297,31.250,0.977,5.859,0
1583339067.859,17.578,32.227,30.273,9.766,-20.996,0
1583339067.863,20.020,34.668,35.645,14.160,23.926,0
1583339067.867,26.367,37.109,32.227,19.043,79.102,0
1583339067.864,31.250,38.086,25.391,24.902,45.410,0
1583339067.868,36.133,38.086,28.320,31.250,-32.715,0
1583339067.872,24.902,35.156,35.156,19.043,0.000,0
1583339067.876,13.672,32.227,35.645,3.906,47.363,0
1583339067.880,18.555,30.273,35.156,15.137,53.711,0
1583339067.884,16.113,27.344,38.574,20.996,-16.113,0
1583339067.888,13.672,30.273,39.062,19.531,-32.715,0
1583339067.891,20.020,31.738,38.574,21.484,30.762,0
1583339067.895,17.090,28.320,38.574,17.090,7.812,0
1583339067.899,21.973,32.227,39.062,22.461,34.180,0
1583339067.903,30.762,34.668,41.504,22.461,49.316,0
1583339067.907,28.809,33.691,41.992,20.020,4.883,0
1583339067.904,29.785,35.645,41.016,24.902,32.227,0
1583339067.908,34.668,36.133,40.527,26.855,30.273,0
1583339067.912,33.203,34.180,40.527,27.832,-8.789,0
1583339067.916,36.133,34.180,38.086,26.367,45.410,0
1583339067.920,37.109,33.691,36.133,26.855,72.754,0
1583339067.924,30.762,30.273,37.109,27.344,94.238,0
1583339067.928,30.762,30.762,37.109,24.414,108.398,0
1583339067.931,30.762,29.785,36.621,20.020,38.086,0
1583339067.935,28.320,27.832,38.086,17.578,43.457,0
1583339067.939,29.297,30.273,37.598,16.113,17.578,0
1583339067.943,30.273,30.762,34.668,19.043,47.852,0
1583339067.947,32.715,28.809,34.180,20.020,82.520,0
1583339067.984,38.086,30.762,35.645,21.973,24.902,0
1583339067.988,40.527,30.762,35.645,22.949,-10.742,0
1583339067.992,38.574,31.250,34.180,19.531,7.812,0
1583339067.996,39.551,33.691,32.715,19.531,2.930,0
1583339068.000,38.574,35.645,36.133,19.531,-14.160,0
1583339068.004,33.203,34.180,36.621,22.461,42.969,0
1583339068.008,27.344,31.738,34.180,20.020,25.879,0
1583339068.011,28.320,33.691,31.738,17.090,15.137,0
1583339068.015,28.320,34.668,30.762,21.484,11.719,0
1583339068.019,23.438,33.691,33.203,19.531,41.016,0
1583339068.023,20.020,34.668,35.645,14.648,46.387,0
1583339068.027,19.531,34.668,36.133,13.184,48.340,0
1583339068.004,21.973,30.273,35.156,17.578,58.105,0
1583339068.008,21.484,30.273,34.180,21.973,55.176,0
1583339068.012,20.020,28.809,34.180,21.484,73.242,0
1583339068.016,20.020,26.855,34.668,21.484,49.805,0
1583339068.020,21.484,31.738,37.109,27.344,23.926,0
1583339068.024,30.273,33.691,37.109,31.738,10.254,0
1583339068.028,30.273,31.738,36.621,27.344,-38.574,0
1583339068.031,23.438,31.738,36.621,21.484,-25.391,0
1583339068.035,26.855,33.203,34.180,19.043,22.949,0
1583339068.039,26.855,33.691,32.227,15.137,1.465,0
1583339068.043,21.484,35.156,32.227,11.719,13.672,0
1583339068.047,22.949,36.133,32.715,13.184,49.805,0
1583339068.045,25.391,34.668,33.203,16.602,27.832,0
1583339068.049,26.367,33.691,30.762,15.137,9.766,0
1583339068.053,25.879,31.738,29.785,15.137,11.230,0
1583339068.057,23.926,30.273,32.227,11.719,42.480,0
1583339068.061,22.461,30.762,31.250,12.207,66.895,0
1583339068.065,27.344,30.273,31.738,23.438,2.930,0
1583339068.069,33.691,32.227,34.180,28.320,-18.066,0
1583339068.072,30.762,34.668,32.715,25.879,7.324,0
1583339068.076,30.762,33.203,31.250,18.066,-29.785,0
1583339068.080,32.715,33.203,29.297,18.066,-15.625,0
1583339068.084,34.668,36.133,27.832,22.949,14.648,0
1583339068.088,34.668,33.203,28.809,23.438,42.969,0
1583339068.104,28.320,31.250,27.344,23.438,49.805,0
1583339068.108,29.297,37.109,26.855,24.414,17.578,0
1583339068.112,31.738,40.039,28.809,24.414,21.973,0
1583339068.116,27.832,37.598,28.809,20.508,34.668,0
1583339068.120,26.855,38.086,28.809,16.602,41.504,0
1583339068.124,30.273,39.551,28.809,18.066,48.828,0
1583339068.128,30.762,36.621,29.785,16.602,92.285,0
1583339068.131,30.273,31.738,28.320,11.719,102.051,0
1583339068.135,33.691,28.809,27.344,17.090,51.758,0
1583339068.139,32.715,30.273,28.809,19.531,18.555,0
1583339068.143,32.227,32.227,29.785,18.555,-5.371,0
1583339068.147,47.363,36.133,30.273,27.832,-9.277,0
1583339068.144,51.270,36.133,31.738,33.691,-4.883,0
1583339068.148,34.180,31.250,34.668,19.531,18.555,0
1583339068.152,30.273,31.738,38.574,15.625,36.133,0
1583339068.156,30.762,29.785,42.969,21.484,-11.230,0
1583339068.160,22.949,25.391,42.969,14.160,-0.488,0
1583339068.164,23.438,25.879,42.969,14.160,22.461,0
1583339068.168,24.902,26.367,47.363,17.578,49.805,0
1583339068.171,23.438,25.391,48.340,13.672,86.914,0
1583339068.175,18.555,22.949,44.434,10.742,81.055,0
1583339068.179,18.555,21.484,43.457,10.254,57.617,0
1583339068.183,21.973,22.461,43.457,6.348,59.570,0
1583339068.187,25.879,23.438,41.016,12.207,53.711,0
1583339068.206,29.297,21.973,41.992,21.973,42.480,0
1583339068.210,29.297,23.926,44.434,23.438,78.125,0
1583339068.214,30.762,30.762,45.898,21.973,86.914,0
1583339068.218,32.715,30.762,45.410,21.973,78.125,0
1583339068.222,37.109,28.320,42.969,24.414,47.363,0
1583339068.226,35.156,29.785,41.504,24.414,42.480,0
1583339068.230,27.832,29.297,38.574,19.043,54.199,0
1583339068.233,27.344,29.297,36.621,14.160,-0.977,0
1583339068.237,27.344,29.297,35.156,14.648,-17.578,0
1583339068.241,29.785,29.297,34.180,14.648,30.762,0
1583339068.245,29.785,33.203,34.668,12.695,72.754,0
1583339068.249,28.809,35.156,33.203,13.672,64.941,0
1583339068.244,34.668,35.156,33.691,13.184,44.434,0
1583339068.248,33.203,35.156,35.645,9.766,-19.043,0
1583339068.252,25.391,36.133,35.156,6.836,-16.113,0
1583339068.256,27.344,37.598,30.273,8.789,9.277,0
1583339068.260,31.250,38.574,28.320,11.230,4.395,0
1583339068.264,30.273,39.551,31.738,11.719,34.180,0
1583339068.268,29.785,39.551,30.762,10.254,51.270,0
1583339068.271,24.414,38.574,29.785,6.836,41.992,0
1583339068.275,21.973,37.598,30.762,7.812,28.809,0
1583339068.279,28.320,37.109,33.691,12.695,48.828,0
1583339068.283,29.297,38.574,36.621,18.066,30.273,0
1583339068.287,28.320,39.551,37.109,16.602,-16.602,0
1583339068.284,28.320,36.133,35.156,9.277,-7.812,0
1583339068.288,28.320,34.668,36.621,14.648,6.836,0
1583339068.292,25.391,33.691,38.086,19.043,36.133,0
1583339068.296,21.973,36.133,38.086,20.508,34.180,0
1583339068.300,24.414,39.062,41.504,19.531,87.402,0
1583339068.304,28.320,37.598,43.457,14.160,114.258,0
1583339068.308,28.320,38.574,41.992,18.066,30.273,0
1583339068.311,24.414,38.574,40.039,17.578,-18.555,0
1583339068.315,24.902,41.016,40.527,20.020,-16.602,0
1583339068.319,32.227,41.992,40.039,19.531,-16.113,0
1583339068.323,34.668,39.551,36.133,14.160,3.418,0
1583339068.327,29.297,39.551,35.645,20.020,51.758,0
1583339068.324,26.367,37.598,37.109,19.531,12.695,0
1583339068.328,29.785,39.551,36.621,19.043,0.488,0
1583339068.332,34.668,44.922,35.156,21.973,19.043,0
1583339068.336,33.203,48.340,35.645,20.996,1.465,0
1583339068.340,29.297,45.898,39.062,20.508,-17.578,0
1583339068.344,30.273,42.480,40.527,21.484,-13.184,0
1583339068.348,31.738,41.992,38.574,22.461,51.270,0
1583339068.351,36.621,43.945,40.039,28.809,67.383,0
1583339068.355,36.621,46.387,44.434,31.250,34.180,0
1583339068.359,32.227,46.387,46.875,36.133,-18.066,0
1583339068.363,42.480,44.434,45.898,49.805,22.949,0
1583339068.367,57.617,47.363,41.016,55.664,46.387,0
1583339068.404,53.711,53.711,37.109,46.875,21.973,0
1583339068.408,33.203,52.734,35.156,22.949,64.453,0
1583339068.412,30.273,52.734,28.320,14.648,39.551,0
1583339068.416,30.762,52.734,22.949,13.184,7.812,0
1583339068.420,21.484,52.246,18.066,7.812,39.062,0
1583339068.424,25.391,52.734,13.184,12.695,20.508,0
1583339068.428,23.926,53.711,11.230,1.953,26.367,0
1583339068.431,20.996,54.688,13.672,-2.930,53.223,0
1583339068.435,19.531,51.758,18.066,3.906,36.621,0
1583339068.439,19.043,50.293,17.578,4.395,7.812,0
1583339068.443,23.926,50.781,17.090,9.277,9.766,0
1583339068.447,31.250,50.293,17.578,12.695,19.531,0
1583339068.424,34.668,48.828,17.578,15.625,4.395,0
1583339068.428,30.273,44.922,18.066,17.090,32.715,0
1583339068.432,28.809,42.969,17.578,17.090,97.656,0
1583339068.436,36.621,46.875,16.602,22.461,99.609,0
1583339068.440,39.062,47.363,18.066,25.391,23.438,0
1583339068.444,32.715,47.363,20.508,20.996,51.758,0
1583339068.448,31.250,48.340,21.973,22.461,110.840,0
1583339068.451,30.273,45.898,22.949,23.926,68.359,0
1583339068.455,30.762,41.016,20.508,21.484,39.062,0
1583339068.459,33.691,41.992,21.484,21.973,14.160,0
1583339068.463,27.832,43.945,26.367,24.902,18.555,0
1583339068.467,27.832,42.969,27.832,25.391,57.617,0
1583339068.464,31.250,43.945,25.879,24.902,47.363,0
1583339068.468,29.785,41.016,22.949,25.879,38.574,0
1583339068.472,27.344,40.527,22.461,20.020,36.621,0
1583339068.476,25.879,39.062,21.484,13.672,-26.855,0
1583339068.480,25.879,37.109,23.926,16.113,-24.902,0
1583339068.484,28.809,38.086,26.367,19.043,78.125,0
1583339068.488,28.320,36.133,25.879,18.066,69.336,0
1583339068.491,27.344,36.133,29.297,13.672,42.480,0
1583339068.495,27.832,38.086,31.250,13.184,30.273,0
1583339068.499,26.367,38.086,30.762,18.555,23.438,0
1583339068.503,28.809,36.133,31.250,18.066,-15.625,0
1583339068.507,32.227,36.621,31.738,19.531,9.766,0
1583339068.524,32.227,38.086,31.738,20.508,15.137,0
1583339068.528,33.203,37.598,28.809,19.531,-22.949,0
1583339068.532,34.668,37.598,30.273,26.367,32.227,0
1583339068.536,32.715,39.062,31.738,27.344,30.762,0
1583339068.540,32.715,35.156,29.785,25.879,0.977,0
1583339068.544,32.715,34.668,29.785,27.344,35.156,0
1583339068.548,31.250,38.086,31.738,19.531,32.715,0
1583339068.551,26.855,37.109,31.250,17.578,-43.945,0
1583339068.555,25.391,36.133,29.785,24.414,-38.574,0
1583339068.559,28.809,33.203,30.273,28.809,43.945,0
1583339068.563,30.273,32.715,32.227,30.273,33.203,0
1583339068.567,31.250,35.156,29.785,23.926,43.945,0
1583339068.564,29.297,37.109,29.785,16.602,24.902,0
1583339068.568,24.414,33.203,32.227,11.719,-15.625,0
1583339068.572,28.320,29.785,30.273,9.277,3.418,0
1583339068.576,30.273,31.738,31.250,5.859,-0.488,0
1583339068.580,26.367,32.715,33.691,2.441,-3.418,0
1583339068.584,27.344,31.250,35.645,9.766,36.133,0
1583339068.588,35.645,33.691,30.273,15.625,44.922,0
1583339068.591,33.691,32.715,28.320,15.137,16.113,0
1583339068.595,26.855,30.762,34.668,17.578,65.430,0
1583339068.599,29.785,32.715,36.133,15.137,70.801,0
1583339068.603,33.203,35.156,38.086,17.090,16.113,0
1583339068.607,34.180,38.574,41.016,29.297,8.301,0
1583339068.604,27.832,36.621,42.480,27.832,31.250,0
1583339068.608,24.414,30.762,39.062,24.414,64.941,0
1583339068.612,28.809,33.691,35.645,24.902,14.648,0
1583339068.616,29.785,37.598,35.645,25.879,14.160,0
1583339068.620,28.809,39.062,34.668,24.414,11.230,0
1583339068.624,30.762,39.551,35.156,22.461,-27.832,0
1583339068.628,31.738,37.598,35.645,24.414,10.254,0
1583339068.631,34.668,38.574,33.203,24.902,14.648,0
1583339068.635,33.691,41.016,33.203,22.461,-1.953,0
1583339068.639,33.203,40.527,32.715,29.297,-19.043,0
1583339068.643,37.598,43.457,34.668,38.086,-3.906,0
1583339068.647,40.039,42.480,36.621,37.109,85.938,0
1583339068.664,42.969,42.969,38.086,40.527,59.082,0
1583339068.668,41.504,43.945,38.574,41.016,17.578,0
1583339068.672,41.016,41.992,36.133,38.086,8.301,0
1583339068.676,38.086,38.574,36.133,36.133,6.836,0
1583339068.680,38.574,36.621,35.645,36.133,63.477,0
1583339068.684,38.574,37.109,35.156,36.621,54.199,0
1583339068.688,36.133,37.109,34.180,34.180,3.418,0
1583339068.691,36.621,37.598,34.668,36.133,1.465,0
1583339068.695,38.086,39.062,34.180,35.156,30.762,0
1583339068.699,39.062,41.016,35.645,33.203,62.988,0
1583339068.703,37.598,40.039,36.133,31.738,57.617,0
1583339068.707,39.551,36.621,34.668,29.297,72.754,0
1583339068.704,45.410,41.992,34.668,29.785,49.805,0
1583339068.708,40.527,44.922,36.133,29.785,-20.996,0
1583339068.712,29.785,41.992,35.156,25.879,37.598,0
1583339068.716,28.320,40.527,37.598,25.879,63.477,0
1583339068.720,34.180,37.109,38.086,28.809,13.184,0
1583339068.724,35.645,33.691,34.180,28.809,36.621,0
1583339068.728,29.297,34.668,34.668,29.297,34.180,0
1583339068.731,26.855,39.062,35.156,24.902,24.902,0
1583339068.735,30.762,39.062,32.227,25.879,72.266,0
1583339068.739,29.785,38.574,32.227,28.320,101.562,0
1583339068.743,23.926,37.598,31.738,20.508,98.633,0
1583339068.747,23.926,36.133,31.738,21.484,23.438,0
1583339068.744,29.785,38.086,32.715,26.367,56.641,0
1583339068.748,27.832,39.551,32.227,23.926,108.887,0
1583339068.752,26.855,38.574,34.180,22.461,85.938,0
1583339068.756,25.879,35.645,33.203,25.879,7.324,0
1583339068.760,25.391,36.621,29.785,26.855,-52.246,0
1583339068.764,31.250,39.551,29.785,25.879,3.418,0
1583339068.768,33.691,39.062,34.668,31.738,35.645,0
1583339068.771,32.227,40.039,37.109,30.273,45.410,0
1583339068.775,33.203,38.086,35.156,26.855,62.500,0
1583339068.779,33.691,39.062,32.715,33.203,8.789,0
1583339068.783,34.180,40.039,30.273,33.691,22.949,0
1583339068.787,34.668,37.109,29.785,33.691,70.801,0
1583339068.823,31.738,36.133,26.855,33.203,16.602,0
1583339068.827,34.180,35.645,25.879,33.203,11.230,0
1583339068.831,33.691,33.691,32.227,34.668,50.293,0
1583339068.835,28.809,31.738,36.133,34.180,43.945,0
1583339068.839,30.762,34.668,34.180,33.203,20.508,0
1583339068.843,34.180,36.621,33.203,29.785,-26.367,0
1583339068.847,35.645,36.133,28.320,32.227,-28.809,0
1583339068.850,40.527,36.133,26.367,37.598,23.438,0
1583339068.854,29.297,31.738,29.785,27.344,11.230,0
1583339068.858,15.625,26.855,31.250,20.020,49.316,0
1583339068.862,21.484,27.344,33.691,23.438,34.180,0
1583339068.866,26.855,29.297,33.203,20.508,-40.039,0
1583339068.843,24.414,31.250,30.762,17.578,-21.484,0
1583339068.847,28.320,31.738,32.715,18.555,7.324,0
1583339068.851,38.574,27.832,33.203,23.926,4.883,0
1583339068.855,38.086,25.879,34.668,23.926,2.930,0
1583339068.859,33.203,31.250,34.668,21.484,5.859,0
1583339068.863,28.809,35.156,33.203,24.414,0.488,0
1583339068.867,30.273,35.645,33.691,30.762,0.000,0
1583339068.870,29.785,35.645,31.738,33.691,-22.949,0
1583339068.874,21.484,33.691,32.715,29.785,6.836,0
1583339068.878,24.414,35.156,32.227,29.297,40.039,0
1583339068.882,28.809,37.109,33.203,30.762,53.711,0
1583339068.886,28.809,33.691,35.156,32.715,0.000,0
1583339068.924,28.320,30.762,31.250,34.668,-8.789,0
1583339068.928,29.785,35.645,31.738,35.645,45.898,0
1583339068.932,28.320,37.598,35.156,28.809,30.273,0
1583339068.936,23.926,31.738,31.250,21.484,41.992,0
1583339068.940,24.902,33.691,29.297,25.391,30.273,0
1583339068.944,24.414,35.645,28.320,29.785,-4.395,0
1583339068.948,23.926,31.738,25.879,28.320,27.832,0
1583339068.951,29.297,34.180,24.902,24.414,75.195,0
1583339068.955,27.832,38.086,23.926,25.391,67.383,0
1583339068.959,26.855,38.574,24.902,25.391,11.230,0
1583339068.963,27.344,38.574,25.879,26.367,35.645,0
1583339068.967,25.391,38.086,27.344,30.762,66.406,0
1583339068.944,24.902,36.621,25.879,27.832,58.594,0
1583339068.948,21.973,35.645,25.391,25.879,44.922,0
1583339068.952,18.066,35.645,28.809,27.832,65.430,0
1583339068.956,17.578,34.180,30.762,29.297,45.898,0
1583339068.960,19.531,32.715,32.715,29.785,5.371,0
1583339068.964,19.043,32.715,35.156,29.297,62.988,0
1583339068.968,16.602,30.762,33.203,27.832,77.637,0
1583339068.971,19.531,29.785,32.715,24.414,15.625,0
1583339068.975,21.973,30.273,33.691,25.391,12.695,0
1583339068.979,25.391,31.250,33.203,27.344,21.484,0
1583339068.983,27.832,31.250,30.762,27.344,20.020,0
1583339068.987,25.879,34.180,31.250,27.344,66.895,0
1583339068.984,31.738,37.109,33.691,32.227,51.758,0
1583339068.988,36.133,35.645,32.715,36.621,5.859,0
1583339068.992,29.785,35.156,32.715,32.715,8.301,0
1583339068.996,28.320,36.621,32.227,30.273,66.895,0
1583339069.000,33.691,34.668,31.250,28.809,66.895,0
1583339069.004,34.668,34.668,32.715,34.180,41.016,0
1583339069.008,29.785,35.156,32.227,33.691,65.918,0
1583339069.011,30.273,33.691,27.832,29.785,26.855,0
1583339069.015,33.691,33.691,31.738,30.762,14.160,0
1583339069.019,34.180,34.668,35.645,23.926,2.441,0
1583339069.023,31.738,34.180,34.668,27.344,-38.086,0
1583339069.027,31.738,33.203,36.133,31.250,16.602,0
1583339069.024,33.203,36.621,35.645,27.344,55.176,0
1583339069.028,34.668,36.133,33.203,32.227,37.598,0
1583339069.032,29.785,33.203,33.203,29.785,67.871,0
1583339069.036,22.949,33.203,32.715,23.438,12.695,0
1583339069.040,24.902,35.156,29.297,19.531,-27.832,0
1583339069.044,24.414,37.598,26.855,18.066,-6.836,0
1583339069.048,20.996,37.109,25.391,16.602,5.371,0
1583339069.051,21.973,37.109,27.832,12.207,44.434,0
1583339069.055,19.531,37.109,26.855,10.742,24.414,0
1583339069.059,21.973,39.062,24.902,15.137,-7.324,0
1583339069.063,28.320,38.574,23.438,19.531,-11.719,0
1583339069.067,23.926,35.645,24.902,19.531,-10.254,0
1583339069.084,22.461,35.156,24.414,16.113,30.273,0
1583339069.088,26.855,34.180,21.484,18.555,42.969,0
1583339069.092,31.738,35.645,24.414,26.367,23.926,0
1583339069.096,29.785,36.133,28.320,28.320,29.785,0
1583339069.100,24.902,34.180,28.809,24.902,23.438,0
1583339069.104,29.297,34.180,26.367,23.438,16.113,0
1583339069.108,35.156,36.621,25.391,24.414,38.086,0
1583339069.111,34.668,35.645,25.879,23.438,30.273,0
1583339069.115,32.715,35.645,26.855,21.484,29.297,0
1583339069.119,34.180,36.621,29.785,24.902,16.602,0
1583339069.123,37.109,36.621,32.715,24.414,-11.719,0
1583339069.127,28.809,35.645,28.809,20.020,-17.578,0
1583339069.164,20.996,32.227,27.832,23.926,23.926,0
1583339069.168,22.461,30.762,33.691,27.344,53.711,0
1583339069.172,25.391,34.668,33.203,30.273,68.359,0
1583339069.176,28.809,38.086,26.855,27.832,19.043,0
1583339069.180,28.320,36.133,28.320,27.344,1.953,0
1583339069.184,22.949,35.156,32.715,28.320,38.574,0
1583339069.188,23.926,38.574,32.715,26.855,0.977,0
1583339069.191,29.785,41.016,31.250,28.320,37.598,0
1583339069.195,26.367,38.574,32.227,25.391,60.059,0
1583339069.199,19.531,36.133,32.227,20.508,57.617,0
1583339069.203,19.043,35.645,27.344,20.020,33.203,0
1583339069.207,18.066,33.691,27.832,20.508,26.367,0
1583339069.168,19.043,35.645,28.809,20.996,62.012,0
1583339069.172,21.484,36.133,26.855,20.020,100.098,0
1583339069.176,17.090,34.668,26.855,15.137,45.898,0
1583339069.180,18.066,35.645,26.855,13.672,9.277,0
1583339069.184,20.020,33.691,28.809,17.090,62.500,0
1583339069.188,17.578,35.156,27.832,14.160,50.293,0
1583339069.192,17.090,36.133,25.391,12.207,37.598,0
1583339069.195,20.020,33.203,27.344,18.066,16.602,0
1583339069.199,23.438,33.691,28.320,22.461,27.344,0
1583339069.203,19.531,32.715,29.785,19.531,79.590,0
1583339069.207,19.531,29.297,30.762,18.066,64.453,0
1583339069.211,22.949,27.832,30.273,20.020,10.742,0
1583339069.224,25.391,28.809,31.738,26.367,-11.230,0
1583339069.228,25.879,29.785,27.832,31.250,2.930,0
1583339069.232,26.367,30.762,26.367,31.250,-4.883,0
1583339069.236,23.926,32.227,26.367,28.809,34.180,0
1583339069.240,25.391,35.156,27.344,28.320,26.855,0
1583339069.244,26.367,35.645,28.320,19.531,12.207,0
1583339069.248,20.508,35.156,28.320,4.395,-13.184,0
1583339069.251,15.137,36.621,27.344,8.301,13.184,0
1583339069.255,11.719,35.645,24.902,15.625,20.508,0
1583339069.259,14.648,35.156,27.832,17.578,6.348,0
1583339069.263,17.578,34.180,32.715,17.090,7.324,0
1583339069.267,14.160,33.691,29.297,10.254,5.859,0
1583339069.264,15.625,31.738,29.297,9.766,41.016,0
1583339069.268,18.555,27.832,32.227,11.719,52.734,0
1583339069.272,17.090,31.250,32.227,13.184,20.996,0
1583339069.276,17.578,33.691,33.691,14.648,-4.883,0
1583339069.280,17.578,30.273,33.691,16.602,-26.367,0
1583339069.284,23.438,26.855,34.180,23.926,-49.805,0
1583339069.288,35.156,29.785,34.668,29.297,3.906,0
1583339069.291,34.668,34.180,32.227,30.762,37.598,0
1583339069.295,28.320,37.109,33.203,24.902,56.152,0
1583339069.299,25.879,38.574,30.273,15.137,28.809,0
1583339069.303,23.926,38.086,24.414,17.578,-2.930,0
1583339069.307,13.184,33.691,22.461,11.719,54.688,0
1583339069.324,5.859,31.738,26.367,9.766,31.250,0
1583339069.328,11.719,33.691,30.762,12.207,-2.441,0
1583339069.332,11.230,31.738,29.297,7.324,42.480,0
1583339069.336,6.348,31.738,26.367,7.812,18.066,0
1583339069.340,4.395,32.715,25.391,6.836,33.691,0
1583339069.344,11.719,34.180,25.879,6.348,74.219,0
1583339069.348,17.090,34.180,28.809,9.277,77.637,0
1583339069.351,13.672,32.227,28.320,7.812,35.156,0
1583339069.355,15.625,33.203,26.855,12.207,-7.812,0
1583339069.359,25.879,34.180,27.832,17.578,55.176,0
1583339069.363,35.156,35.156,29.297,21.484,68.848,0
1583339069.367,39.551,39.551,31.738,28.320,31.250,0
1583339069.366,36.621,39.551,30.762,28.320,-6.836,0
1583339069.370,37.109,37.598,33.691,29.785,-22.949,0
1583339069.374,39.551,38.574,36.621,35.156,27.344,0
1583339069.378,38.574,38.086,34.668,34.668,25.879,0
1583339069.382,34.668,37.109,34.668,29.785,17.090,0
1583339069.386,30.273,38.574,32.227,25.391,21.484,0
1583339069.390,33.691,39.551,31.738,24.414,8.789,0
1583339069.393,33.203,39.062,34.180,25.879,54.688,0
1583339069.397,25.391,39.062,33.203,24.902,29.785,0
1583339069.401,23.926,39.551,33.691,21.484,-50.781,0
1583339069.405,25.391,39.551,33.691,20.020,-44.434,0
1583339069.409,25.391,39.551,31.738,20.020,0.000,0
1583339069.404,23.926,36.621,31.250,19.531,37.598,0
1583339069.408,19.531,35.645,33.203,17.090,56.152,0
1583339069.412,19.043,37.598,31.250,18.555,73.730,0
1583339069.416,28.320,37.109,29.297,24.414,42.480,0
1583339069.420,31.738,37.598,29.785,27.344,-7.324,0
1583339069.424,27.344,38.086,29.297,23.926,62.500,0
1583339069.428,29.785,39.062,29.297,22.949,86.426,0
1583339069.431,35.156,39.062,28.809,27.832,50.293,0
1583339069.435,36.133,37.598,26.367,25.879,47.363,0
1583339069.439,31.250,36.621,24.902,16.602,49.316,0
1583339069.443,28.809,36.621,28.320,14.648,7.812,0
1583339069.447,29.297,35.645,29.297,16.113,9.766,0
1583339069.491,26.855,36.133,28.809,18.555,14.648,0
1583339069.495,28.320,38.086,28.320,20.508,27.344,0
1583339069.499,27.344,38.086,27.832,18.066,47.363,0
1583339069.503,24.902,36.621,27.344,16.113,35.156,0
1583339069.507,28.809,36.133,27.344,17.578,38.086,0
1583339069.511,31.738,36.621,27.832,18.555,40.039,0
1583339069.515,29.785,38.086,28.320,16.602,20.508,0
1583339069.518,25.391,38.086,32.227,11.719,41.992,0
1583339069.522,26.855,38.086,31.250,14.160,12.695,0
1583339069.526,32.227,37.598,28.809,20.996,0.488,0
1583339069.530,32.227,37.109,28.809,25.391,42.969,0
1583339069.534,30.273,37.598,26.855,26.855,25.879,0
1583339069.525,32.227,37.109,27.344,26.367,48.340,0
1583339069.529,36.621,39.062,31.250,25.879,66.406,0
1583339069.533,36.621,39.062,28.320,27.832,67.871,0
1583339069.537,34.180,37.109,28.320,29.785,48.828,0
1583339069.541,30.762,37.598,32.227,28.809,26.367,0
1583339069.545,28.809,37.598,31.250,26.855,18.555,0
1583339069.549,30.762,37.598,26.367,24.414,2.441,0
1583339069.552,26.367,38.086,27.832,23.438,82.031,0
1583339069.556,25.391,36.621,31.250,22.461,87.891,0
1583339069.560,24.902,38.086,30.762,20.508,16.602,0
1583339069.564,23.926,38.086,29.785,21.484,41.992,0
1583339069.568,25.391,39.551,31.738,20.996,53.711,0
1583339069.544,23.926,40.527,35.156,21.484,34.180,0
1583339069.548,25.391,39.551,32.227,23.926,37.598,0
1583339069.552,28.809,39.551,30.273,23.926,16.113,0
1583339069.556,32.227,41.016,32.227,20.996,33.691,0
1583339069.560,29.785,41.016,31.738,20.020,14.160,0
1583339069.564,30.762,38.574,27.344,19.043,2.441,0
1583339069.568,30.273,35.645,27.832,17.578,14.648,0
1583339069.571,26.367,37.109,30.273,17.578,0.977,0
1583339069.575,21.484,39.551,25.879,11.230,2.930,0
1583339069.579,19.531,39.551,24.902,9.766,24.902,0
1583339069.583,26.367,40.039,26.855,15.625,69.336,0
1583339069.587,28.320,41.992,27.344,23.438,62.988,0
1583339069.604,23.926,42.969,31.250,26.855,69.824,0
1583339069.608,21.484,41.016,33.691,20.508,102.051,0
1583339069.612,25.879,39.062,32.227,17.578,73.730,0
1583339069.616,23.438,38.086,29.785,23.926,49.805,0
1583339069.620,25.391,38.086,28.809,28.809,4.395,0
1583339069.624,34.668,39.062,31.250,33.691,-30.762,0
1583339069.628,32.715,40.039,34.668,34.668,12.695,0
1583339069.631,30.762,38.574,33.691,29.297,48.828,0
1583339069.635,31.738,36.621,32.227,28.809,20.996,0
1583339069.639,31.738,37.109,34.180,33.203,24.414,0
1583339069.643,32.715,38.086,35.645,36.621,35.645,0
1583339069.647,30.273,38.086,36.621,34.180,52.734,0
1583339069.644,25.391,37.598,35.645,29.785,27.344,0
1583339069.648,21.973,38.574,36.621,26.367,10.254,0
1583339069.652,21.484,38.086,37.598,28.320,56.152,0
1583339069.656,23.438,36.621,34.180,29.785,51.270,0
1583339069.660,28.809,38.574,34.180,28.320,70.801,0
1583339069.664,29.785,40.039,34.180,27.832,64.453,0
1583339069.668,25.391,37.598,35.156,20.508,9.766,0
1583339069.671,29.785,35.645,35.156,20.020,-2.441,0
1583339069.675,35.156,35.156,32.715,21.973,3.418,0
1583339069.679,36.133,37.598,32.227,17.578,57.129,0
1583339069.683,37.109,37.598,32.227,11.719,83.984,0
1583339069.687,43.457,36.133,32.227,13.184,61.035,0
1583339069.684,48.828,39.551,29.297,20.996,36.133,0
1583339069.688,41.992,40.527,27.832,24.414,10.742,0
1583339069.692,32.715,37.109,28.320,23.926,30.273,0
1583339069.696,35.645,38.086,29.297,22.949,15.625,0
1583339069.700,36.133,38.574,30.273,19.043,-6.348,0
1583339069.704,30.762,36.621,27.832,15.625,38.574,0
1583339069.708,25.879,36.621,26.855,13.672,-21.973,0
1583339069.711,21.484,36.621,28.809,14.648,-32.715,0
1583339069.715,24.414,35.645,30.762,19.043,4.395,0
1583339069.719,22.949,31.250,31.738,18.555,-5.859,0
1583339069.723,18.066,30.762,30.762,20.020,32.227,0
1583339069.727,20.020,34.180,28.809,23.926,19.043,0
1583339069.744,24.414,33.203,27.832,24.902,-28.809,0
1583339069.748,25.391,32.715,28.320,23.926,5.371,0
1583339069.752,21.484,33.691,31.738,20.508,33.691,0
1583339069.756,24.902,34.180,32.715,18.066,17.578,0
1583339069.760,28.809,34.180,32.715,20.020,30.273,0
1583339069.764,31.738,32.227,34.180,24.902,73.242,0
1583339069.768,30.273,31.250,32.227,24.902,20.996,0
1583339069.771,24.902,31.250,33.203,21.484,-3.418,0
1583339069.775,26.855,31.738,35.156,23.438,28.809,0
1583339069.779,33.203,31.738,33.691,27.344,30.273,0
1583339069.783,28.320,32.715,36.621,28.320,19.531,0
1583339069.787,16.602,31.738,40.039,20.020,16.602,0
1583339069.785,19.043,29.297,36.621,17.090,85.449,0
1583339069.789,30.762,30.273,34.668,30.762,96.191,0
1583339069.793,32.227,25.879,37.598,35.156,45.898,0
1583339069.797,17.090,21.973,41.992,24.414,63.477,0
1583339069.801,6.348,22.461,46.387,15.625,62.012,0
1583339069.805,7.324,20.020,48.828,13.184,43.945,0
1583339069.809,13.184,20.996,45.898,15.625,47.363,0
1583339069.812,15.625,22.461,41.504,18.066,47.363,0
1583339069.816,14.648,20.508,44.434,14.648,68.359,0
1583339069.820,14.160,23.438,45.410,11.719,64.941,0
1583339069.824,14.160,23.926,41.504,12.695,23.438,0
1583339069.828,14.160,23.926,39.062,14.160,71.777,0
1583339069.845,16.602,28.809,40.527,18.555,93.750,0
1583339069.849,24.414,30.762,37.598,21.973,24.902,0
1583339069.853,31.738,32.715,35.156,20.020,41.504,0
1583339069.857,31.250,33.203,34.180,15.625,83.984,0
1583339069.861,29.785,31.738,33.203,18.066,68.848,0
1583339069.865,29.785,32.715,33.691,23.438,-1.953,0
1583339069.869,24.414,33.203,29.785,19.043,-50.781,0
1583339069.872,25.879,34.180,26.367,11.719,-45.898,0
1583339069.876,30.762,36.133,27.344,14.160,-28.809,0
1583339069.880,31.738,37.109,29.297,18.555,-5.859,0
1583339069.884,27.832,35.156,29.785,18.066,13.672,0
1583339069.888,27.832,36.133,28.809,20.020,7.812,0
1583339069.904,34.180,41.016,32.227,23.926,49.316,0
1583339069.908,34.180,41.992,34.668,24.414,18.555,0
1583339069.912,31.250,41.992,35.645,23.926,22.949,0
1583339069.916,33.203,44.922,36.621,20.996,49.805,0
1583339069.920,31.738,43.945,33.691,22.949,57.129,0
1583339069.924,26.855,41.992,35.156,27.832,89.844,0
1583339069.928,27.832,42.480,35.156,28.320,54.688,0
1583339069.931,26.855,41.504,33.203,24.902,25.391,0
1583339069.935,29.297,43.457,33.203,25.391,36.621,0
1583339069.939,29.297,44.922,34.180,24.902,-1.465,0
1583339069.943,27.344,44.922,37.109,27.832,15.137,0
1583339069.947,33.203,41.504,38.574,29.785,68.359,0
1583339069.984,37.109,41.992,32.715,24.902,19.043,0
1583339069.988,27.832,43.945,30.273,26.367,-8.789,0
1583339069.992,30.762,44.922,30.762,28.809,32.227,0
1583339069.996,35.645,45.898,32.227,33.691,27.832,0
1583339070.000,31.738,44.922,33.203,31.738,-4.395,0
1583339070.004,32.227,44.922,32.227,26.367,-43.457,0
1583339070.008,34.668,45.410,31.738,29.297,-57.617,0
1583339070.011,34.668,45.410,31.738,28.320,24.902,0
1583339070.015,34.668,44.434,32.227,27.344,52.734,0
1583339070.019,30.273,44.434,33.691,25.391,34.180,0
1583339070.023,29.297,44.922,36.621,20.996,-0.488,0
1583339070.027,30.273,44.434,38.574,23.926,18.555,0
1583339070.008,27.344,44.922,35.156,26.855,5.859,0
1583339070.012,22.461,41.992,31.738,23.438,1.953,0
1583339070.016,20.996,40.527,31.738,21.973,118.652,0
1583339070.020,25.879,41.016,33.203,23.438,101.562,0
1583339070.024,27.344,40.039,33.203,27.344,16.602,0
1583339070.028,24.902,38.574,30.762,26.367,31.250,0
1583339070.032,23.926,39.551,30.762,28.809,50.781,0
1583339070.035,25.879,40.039,28.809,30.762,64.453,0
1583339070.039,27.832,39.551,24.414,28.320,89.355,0
1583339070.043,25.391,40.039,24.902,31.250,82.520,0
1583339070.047,25.391,38.574,25.879,33.203,65.918,0
1583339070.051,26.855,38.574,26.855,34.668,92.285,0
1583339070.013,30.762,41.992,30.273,40.039,32.227,0
1583339070.017,34.668,42.480,32.227,40.527,5.371,0
1583339070.021,35.645,41.504,31.250,35.645,3.906,0
1583339070.025,32.227,40.039,28.320,27.344,-3.906,0
1583339070.029,27.832,38.574,26.855,22.461,9.766,0
1583339070.033,30.762,39.062,29.785,22.949,14.648,0
1583339070.037,29.297,37.109,28.320,15.137,17.578,0
1583339070.040,24.414,34.180,24.902,10.742,24.414,0
1583339070.044,30.273,34.668,25.391,14.648,43.457,0
1583339070.048,34.180,37.598,26.367,16.113,23.438,0
1583339070.052,28.809,40.527,25.391,12.695,38.574,0
1583339070.056,25.879,41.504,26.367,4.883,8.789,0
1583339070.065,18.555,41.992,24.902,-7.324,35.156,0
1583339070.069,19.531,38.574,23.438,-6.348,41.016,0
1583339070.073,25.879,38.086,23.438,5.859,-11.230,0
1583339070.077,24.414,40.039,23.438,9.277,84.961,0
1583339070.081,26.367,40.039,25.879,5.371,94.727,0
1583339070.085,27.832,38.086,27.344,-0.977,19.043,0
1583339070.089,29.297,35.645,25.879,1.465,11.719,0
1583339070.092,32.227,37.598,23.438,10.254,-12.695,0
1583339070.096,27.344,38.086,26.367,14.160,6.836,0
1583339070.100,29.785,37.109,28.809,12.695,59.082,0
1583339070.104,34.668,39.062,26.855,14.648,17.578,0
1583339070.108,36.621,41.992,27.832,21.484,11.230,0
1583339070.105,39.551,43.457,31.250,25.391,47.363,0
1583339070.109,38.086,44.922,30.762,29.785,67.383,0
1583339070.113,40.039,44.922,30.273,30.762,53.223,0
1583339070.117,41.016,43.945,31.738,27.832,10.742,0
1583339070.121,35.156,44.434,31.738,23.926,9.766,0
1583339070.125,29.297,45.410,31.738,21.484,24.902,0
1583339070.129,26.855,41.504,29.297,20.996,4.883,0
1583339070.132,32.715,41.504,27.344,19.531,-3.418,0
1583339070.136,33.203,43.457,27.832,17.578,25.879,0
1583339070.140,25.391,40.039,28.809,15.137,-13.672,0
1583339070.144,31.738,41.016,27.344,16.113,-19.043,0
1583339070.148,38.574,39.062,25.879,19.043,70.801,0
1583339070.165,35.645,39.551,27.832,19.531,61.523,0
1583339070.169,33.691,41.016,27.832,17.578,35.156,0
1583339070.173,38.086,40.527,28.320,20.508,37.109,0
1583339070.177,42.480,42.480,28.320,25.879,31.738,0
1583339070.181,41.992,42.969,28.809,29.297,48.340,0
1583339070.185,33.691,40.039,32.715,27.832,93.750,0
1583339070.189,27.344,36.133,33.203,21.973,79.102,0
1583339070.192,31.250,35.645,30.273,23.438,1.465,0
1583339070.196,33.203,36.621,30.273,22.949,21.973,0
1583339070.200,27.344,36.621,29.785,16.113,2.441,0
1583339070.204,24.414,37.109,31.250,12.207,-11.230,0
1583339070.208,28.320,39.551,35.156,13.184,3.906,0
1583339070.204,28.320,39.062,32.227,14.160,-17.578,0
1583339070.208,23.926,40.039,29.785,13.184,0.977,0
1583339070.212,25.879,42.480,31.250,16.602,-0.488,0
1583339070.216,27.344,39.551,29.297,20.020,34.668,0
1583339070.220,28.320,38.574,29.297,12.695,58.105,0
1583339070.224,27.832,39.551,30.273,8.789,13.184,0
1583339070.228,28.320,41.016,29.297,12.695,-19.531,0
1583339070.231,28.809,42.480,29.785,17.578,-25.391,0
1583339070.235,31.250,43.457,32.227,22.949,27.344,0
1583339070.239,34.180,43.457,32.715,21.484,75.684,0
1583339070.243,32.715,43.945,33.691,19.531,71.777,0
1583339070.247,30.273,41.992,35.645,19.043,80.566,0
1583339070.245,30.762,41.504,35.645,20.020,46.387,0
1583339070.249,31.250,42.480,34.180,24.902,44.922,0
1583339070.253,27.344,42.969,31.250,20.508,36.621,0
1583339070.257,25.391,42.480,31.250,18.066,-29.785,0
1583339070.261,23.438,41.016,34.180,23.438,3.906,0
1583339070.265,21.973,39.062,35.645,25.879,44.434,0
1583339070.269,21.484,38.574,37.109,25.879,22.949,0
1583339070.272,22.461,41.504,37.109,22.949,76.172,0
1583339070.276,25.879,41.504,35.645,23.438,69.824,0
1583339070.280,27.832,40.039,37.598,26.367,39.551,0
1583339070.284,28.320,36.621,35.156,27.832,-0.488,0
1583339070.288,29.785,37.598,32.715,31.250,-16.113,0
1583339070.324,33.203,40.039,33.203,32.715,41.992,0
1583339070.328,44.434,40.039,30.762,35.156,51.758,0
1583339070.332,49.805,39.062,32.227,41.992,79.102,0
1583339070.336,33.691,32.715,36.621,34.668,11.230,0
1583339070.340,19.043,30.762,36.621,29.785,-15.137,0
1583339070.344,27.344,29.785,36.133,34.668,25.879,0
1583339070.348,30.273,26.855,37.109,21.484,27.344,0
1583339070.351,20.020,24.902,39.062,17.578,16.602,0
1583339070.355,20.996,25.879,38.086,30.273,24.414,0
1583339070.359,18.066,24.902,39.551,30.762,74.707,0
1583339070.363,15.137,22.949,40.039,30.762,52.734,0
1583339070.367,22.949,25.391,39.062,35.645,34.668,0
1583339070.364,26.855,29.297,39.062,40.527,7.812,0
1583339070.368,25.879,30.273,34.180,38.086,-9.277,0
1583339070.372,35.156,28.320,31.738,40.527,77.637,0
1583339070.376,40.039,29.785,34.180,46.875,119.141,0
1583339070.380,31.738,28.809,32.715,43.457,52.246,0
1583339070.384,30.273,30.273,32.227,45.410,3.906,0
1583339070.388,33.691,30.762,30.762,45.898,-3.418,0
1583339070.391,29.785,29.785,26.367,43.945,8.301,0
1583339070.395,28.320,33.691,29.785,46.387,49.316,0
1583339070.399,31.250,35.645,33.691,45.898,62.012,0
1583339070.403,34.180,37.109,33.203,44.922,67.871,0
1583339070.407,35.645,39.062,33.691,40.527,55.664,0
1583339070.426,32.227,38.086,34.180,39.062,29.785,0
1583339070.430,30.273,38.086,31.250,39.062,-25.391,0
1583339070.434,27.344,36.621,27.344,32.715,-16.113,0
1583339070.438,29.785,33.691,25.879,34.180,23.926,0
1583339070.442,25.879,32.715,28.320,38.574,-2.441,0
1583339070.446,20.996,32.715,30.273,40.039,-8.789,0
1583339070.450,26.367,33.203,30.762,39.551,32.227,0
1583339070.453,33.203,34.180,29.785,34.668,62.012,0
1583339070.457,36.133,35.156,30.762,35.156,39.551,0
1583339070.461,33.691,37.109,34.180,40.039,35.156,0
1583339070.465,33.203,37.598,33.203,40.527,40.039,0
1583339070.469,34.180,36.621,31.250,41.016,46.875,0
1583339070.446,35.156,33.691,31.738,41.016,80.566,0
1583339070.450,35.156,32.227,30.273,39.551,39.062,0
1583339070.454,29.785,30.762,30.273,35.156,3.418,0
1583339070.458,29.297,30.273,29.785,35.156,61.035,0
1583339070.462,31.738,31.738,29.297,39.551,38.086,0
1583339070.466,30.273,34.668,30.273,35.156,-42.969,0
1583339070.470,27.344,33.203,31.738,28.320,-10.254,0
1583339070.473,28.320,32.227,34.180,32.715,11.719,0
1583339070.477,23.438,31.250,36.621,42.480,7.812,0
1583339070.481,18.066,30.273,38.574,38.574,29.297,0
1583339070.485,17.578,35.156,40.039,32.227,66.895,0
1583339070.489,23.438,37.598,39.551,36.621,48.828,0
1583339070.484,31.738,37.598,39.062,35.156,36.621,0
1583339070.488,39.062,41.016,39.551,37.109,64.453,0
1583339070.492,45.898,43.945,37.598,38.086,83.496,0
1583339070.496,47.363,41.992,36.621,34.668,93.262,0
1583339070.500,43.457,38.574,35.645,31.250,74.707,0
1583339070.504,38.086,36.621,36.621,36.621,78.613,0
1583339070.508,33.203,35.645,34.180,36.133,63.477,0
1583339070.511,27.344,35.645,30.273,27.832,57.617,0
1583339070.515,27.832,36.133,30.762,27.344,47.852,0
1583339070.519,26.855,33.691,30.762,21.484,30.762,0
1583339070.523,18.555,31.738,25.879,16.602,41.992,0
1583339070.527,18.555,34.180,23.926,28.320,5.859,0
1583339070.524,34.180,38.574,27.832,39.062,-13.184,0
1583339070.528,41.504,42.480,24.902,40.527,5.371,0
1583339070.532,33.203,44.922,20.508,33.691,-4.395,0
1583339070.536,28.809,46.387,20.508,29.785,11.230,0
1583339070.540,21.484,42.969,24.902,32.227,13.672,0
1583339070.544,23.926,39.551,26.367,32.715,44.434,0
1583339070.548,35.156,41.992,23.926,31.250,7.324,0
1583339070.551,32.715,42.480,24.902,36.621,-16.602,0
1583339070.555,32.715,42.480,27.832,41.016,72.754,0
1583339070.559,38.086,42.480,30.762,41.992,52.734,0
1583339070.563,41.016,41.016,32.715,39.062,6.348,0
1583339070.567,37.598,40.527,31.250,38.086,-0.977,0
1583339070.583,35.645,37.109,27.832,38.086,5.371,0
1583339070.587,37.109,38.574,26.855,34.668,41.504,0
1583339070.591,36.133,41.504,25.391,33.691,47.363,0
1583339070.595,36.621,40.039,24.414,33.691,74.219,0
1583339070.599,36.133,39.551,25.391,32.227,87.402,0
1583339070.603,31.738,38.086,25.879,30.273,51.270,0
1583339070.607,30.762,37.598,28.809,33.691,23.438,0
1583339070.610,31.250,37.598,30.762,35.645,37.109,0
1583339070.614,27.344,35.645,26.367,30.273,62.012,0
1583339070.618,25.391,35.156,25.879,27.344,16.602,0
1583339070.622,28.320,34.180,28.320,25.879,-13.672,0
1583339070.626,29.785,33.691,27.832,21.484,12.207,0
1583339070.644,28.809,36.133,28.809,26.855,-26.855,0
1583339070.648,31.250,36.133,32.227,30.273,6.348,0
1583339070.652,32.227,35.645,31.250,32.227,23.438,0
1583339070.656,31.250,35.645,28.320,34.668,-21.484,0
1583339070.660,30.273,36.621,29.785,31.250,-4.883,0
1583339070.664,25.879,38.574,33.691,27.832,-8.789,0
1583339070.668,28.320,39.062,31.738,25.879,-18.555,0
1583339070.671,34.180,41.992,30.273,31.738,30.762,0
1583339070.675,33.203,41.504,31.250,33.203,70.312,0
1583339070.679,30.273,38.086,31.250,28.809,55.176,0
1583339070.683,31.250,38.086,29.785,30.273,51.758,0
1583339070.687,35.645,41.504,32.227,34.668,55.664,0
1583339070.667,36.621,40.527,32.227,35.156,45.898,0
1583339070.671,32.715,39.551,30.273,34.668,62.500,0
1583339070.675,30.273,41.504,31.250,30.273,32.715,0
1583339070.679,33.203,39.551,31.250,26.367,-16.602,0
1583339070.683,35.156,35.645,26.367,24.902,-3.906,0
1583339070.687,33.203,35.645,24.414,21.973,42.969,0
1583339070.691,31.738,35.645,28.320,25.391,65.918,0
1583339070.694,34.180,37.598,26.855,28.320,10.254,0
1583339070.698,30.762,38.086,29.297,27.344,46.875,0
1583339070.702,32.227,37.598,34.180,27.344,98.145,0
1583339070.706,32.715,39.062,31.250,28.809,45.898,0
1583339070.710,30.273,37.598,27.344,30.273,28.809,0
1583339070.744,36.133,38.086,29.297,33.203,23.438,0
1583339070.748,37.598,38.086,32.715,33.203,0.488,0
1583339070.752,32.227,37.598,35.645,30.762,7.324,0
1583339070.756,28.320,35.645,35.156,29.785,49.316,0
1583339070.760,26.367,34.668,35.645,26.855,83.496,0
1583339070.764,27.344,34.668,35.645,21.484,51.270,0
1583339070.768,27.344,33.203,31.250,18.555,28.809,0
1583339070.771,26.855,32.227,30.762,24.414,26.855,0
1583339070.775,29.297,33.691,34.180,28.320,11.719,0
1583339070.779,30.762,32.715,32.715,29.785,43.457,0
1583339070.783,33.203,32.715,30.762,31.250,72.754,0
1583339070.787,32.715,37.598,31.250,29.297,70.312,0
1583339070.784,37.598,40.039,32.715,32.227,39.551,0
1583339070.788,43.457,39.551,33.691,39.551,-2.441,0
1583339070.792,40.527,37.109,33.203,37.598,45.898,0
1583339070.796,40.527,36.621,32.715,32.227,69.336,0
1583339070.800,38.574,35.645,31.738,32.715,17.090,0
1583339070.804,35.156,31.738,33.203,33.691,-5.371,0
1583339070.808,34.668,34.668,30.762,28.809,-22.461,0
1583339070.811,30.273,35.156,28.809,21.973,-18.555,0
1583339070.815,27.832,34.180,33.691,22.949,-6.836,0
1583339070.819,29.297,37.109,35.156,27.344,8.789,0
1583339070.823,25.391,33.691,35.645,26.367,-1.953,0
1583339070.827,20.508,31.738,35.645,26.367,-12.207,0
1583339070.844,20.508,34.180,34.668,23.926,35.645,0
1583339070.848,22.949,33.203,35.156,21.484,18.066,0
1583339070.852,27.344,33.691,33.691,23.438,46.875,0
1583339070.856,25.879,35.156,33.203,24.902,101.074,0
1583339070.860,19.043,35.645,33.203,24.902,46.875,0
1583339070.864,20.996,33.691,30.273,26.367,20.020,0
1583339070.868,23.438,33.691,30.762,28.809,31.738,0
1583339070.871,20.508,34.180,33.203,24.414,51.758,0
1583339070.875,20.508,33.691,30.273,21.484,61.035,0
1583339070.879,24.414,35.156,32.715,25.879,10.742,0
1583339070.883,27.832,36.621,33.691,29.785,-32.715,0
1583339070.887,26.367,35.645,31.250,28.320,-9.277,0
1583339070.885,23.438,36.133,29.297,19.043,19.531,0
1583339070.889,20.508,36.621,30.273,17.090,43.457,0
1583339070.893,20.508,34.180,34.668,24.902,49.805,0
1583339070.897,23.926,35.645,35.645,28.809,-35.156,0
1583339070.901,23.438,40.527,36.621,25.391,-44.434,0
1583339070.905,21.484,40.527,36.133,25.879,-2.441,0
1583339070.909,25.391,40.039,34.668,29.297,1.465,0
1583339070.912,26.367,39.062,34.668,26.855,8.789,0
1583339070.916,24.414,35.156,33.203,27.344,15.137,0
1583339070.920,25.391,36.133,30.273,23.926,11.230,0
1583339070.924,26.855,35.645,28.320,17.090,42.480,0
1583339070.928,28.809,35.156,27.832,15.137,34.668,0
1583339070.904,24.414,37.109,29.297,18.066,33.691,0
1583339070.908,22.461,36.133,31.738,20.508,44.922,0
1583339070.912,24.902,38.086,33.203,22.461,29.785,0
1583339070.916,26.855,40.039,32.227,25.391,70.312,0
1583339070.920,30.762,39.551,30.762,27.344,68.359,0
1583339070.924,34.668,40.039,30.762,31.738,-2.441,0
1583339070.928,30.762,40.039,33.203,34.180,9.766,0
1583339070.931,28.320,41.992,32.715,32.715,12.695,0
1583339070.935,28.320,40.039,31.738,30.273,45.410,0
1583339070.939,29.297,33.691,31.738,32.715,56.152,0
1583339070.943,26.855,37.598,29.785,36.133,32.227,0
1583339070.947,19.043,39.551,29.785,30.762,45.410,0
1583339070.966,25.391,36.621,28.809,30.273,46.875,0
1583339070.970,29.297,39.551,29.297,31.250,57.617,0
1583339070.974,23.926,40.527,29.785,25.391,29.297,0
1583339070.978,25.391,38.574,26.855,26.367,32.715,0
1583339070.982,30.762,40.039,28.809,28.320,71.289,0
1583339070.986,33.203,40.527,33.203,32.715,46.387,0
1583339070.990,33.203,38.086,35.156,35.156,21.484,0
1583339070.993,37.109,38.574,33.203,34.668,-14.160,0
1583339070.997,45.410,42.480,32.227,38.574,5.371,0
1583339071.001,49.316,40.527,32.715,37.109,32.227,0
1583339071.005,34.180,36.621,29.297,30.273,-34.180,0
1583339071.009,29.297,37.598,29.785,30.273,35.645,0
1583339071.004,35.156,36.133,32.227,37.109,100.586,0
1583339071.008,38.086,33.691,32.227,38.086,56.641,0
1583339071.012,41.504,36.621,31.738,39.062,79.590,0
1583339071.016,36.621,38.574,31.250,37.109,38.086,0
1583339071.020,35.156,37.598,33.691,34.180,-6.836,0
1583339071.024,36.133,38.086,35.645,33.203,21.484,0
1583339071.028,33.203,38.086,35.156,34.180,-14.160,0
1583339071.031,30.273,36.133,35.156,35.156,-7.812,0
1583339071.035,28.809,38.086,33.691,33.203,12.695,0
1583339071.039,32.715,38.086,33.203,31.250,65.918,0
1583339071.043,33.203,36.133,33.203,24.902,87.891,0
1583339071.047,22.949,38.086,31.738,24.414,131.348,0
1583339071.068,22.461,40.527,34.180,34.180,103.027,0
1583339071.072,30.762,40.039,35.645,36.621,22.461,0
1583339071.076,34.668,41.016,35.645,29.785,29.785,0
1583339071.080,34.180,40.527,34.668,28.809,36.621,0
1583339071.084,30.762,39.551,33.203,30.273,40.527,0
1583339071.088,31.738,40.527,36.621,28.809,29.785,0
1583339071.092,33.691,39.062,35.645,31.738,26.367,0
1583339071.095,32.227,37.109,33.203,31.250,24.902,0
1583339071.099,31.250,37.109,34.668,27.832,61.035,0
1583339071.103,33.203,36.133,32.227,32.227,62.012,0
1583339071.107,31.738,35.645,30.762,33.691,1.465,0
1583339071.111,27.344,36.133,30.273,31.738,36.133,0
1583339071.086,22.949,35.156,31.250,25.879,21.973,0
1583339071.090,23.926,35.645,32.715,23.438,3.906,0
1583339071.094,28.809,36.133,28.809,26.367,47.363,0
1583339071.098,27.832,34.180,29.785,25.879,38.086,0
1583339071.102,21.973,33.691,32.227,26.855,35.156,0
1583339071.106,22.949,34.180,33.203,29.297,55.176,0
1583339071.110,26.855,35.645,33.203,29.785,48.828,0
1583339071.113,32.227,38.574,30.273,31.250,31.738,0
1583339071.117,31.738,37.598,33.203,28.320,13.672,0
1583339071.121,29.297,38.086,34.180,25.391,22.949,0
1583339071.125,32.715,40.527,31.250,28.320,5.371,0
1583339071.129,37.598,40.527,32.227,29.297,13.672,0
1583339071.164,37.109,40.039,32.715,24.902,62.012,0
1583339071.168,30.762,38.086,30.273,25.879,63.965,0
1583339071.172,30.762,37.109,31.250,31.738,38.574,0
1583339071.176,30.273,35.156,33.203,30.762,42.480,0
1583339071.180,28.809,36.621,34.180,28.809,45.410,0
1583339071.184,27.832,37.598,36.621,21.973,20.996,0
1583339071.188,27.832,36.621,34.180,26.367,3.418,0
1583339071.191,29.785,36.133,31.738,32.715,23.926,0
1583339071.195,32.715,37.598,31.738,26.367,59.082,0
1583339071.199,28.809,39.551,30.762,22.461,30.762,0
1583339071.203,23.438,38.086,30.273,22.949,-39.551,0
1583339071.207,29.297,35.156,27.832,28.320,-10.742,0
1583339071.244,31.738,31.250,27.832,32.715,77.148,0
1583339071.248,22.461,34.668,30.762,29.297,36.621,0
1583339071.252,25.391,39.062,30.762,25.879,-44.434,0
1583339071.256,26.367,39.062,29.297,25.391,-0.977,0
1583339071.260,27.832,40.039,31.738,31.250,3.906,0
1583339071.264,34.668,39.062,31.738,33.203,16.602,0
1583339071.268,30.273,37.598,31.738,27.344,82.031,0
1583339071.271,28.809,38.574,31.738,29.297,49.316,0
1583339071.275,35.645,41.016,27.344,29.297,16.602,0
1583339071.279,38.086,37.598,28.809,27.832,25.391,0
1583339071.283,37.109,35.156,33.691,27.344,52.734,0
1583339071.287,36.621,38.086,35.156,27.344,37.598,0
1583339071.305,39.062,39.062,33.203,32.715,49.316,0
1583339071.309,41.504,38.086,32.227,31.738,23.438,0
1583339071.313,36.621,37.598,30.762,24.902,18.066,0
1583339071.317,29.297,36.133,30.273,25.879,55.176,0
1583339071.321,26.367,35.156,30.762,25.879,63.477,0
1583339071.325,24.414,34.180,27.344,28.320,49.805,0
1583339071.329,21.484,33.203,24.902,24.902,4.395,0
1583339071.332,20.020,32.715,27.832,18.066,25.391,0
1583339071.336,16.602,31.738,29.297,20.996,84.473,0
1583339071.340,20.020,32.715,28.809,23.926,53.223,0
1583339071.344,22.461,33.203,29.297,24.902,39.551,0
1583339071.348,17.578,32.227,31.250,25.391,71.777,0
1583339071.325,20.020,33.203,31.250,25.879,47.852,0
1583339071.329,23.926,34.668,31.250,24.414,62.012,0
1583339071.333,28.320,36.133,30.273,25.391,78.125,0
1583339071.337,25.879,36.621,31.738,28.320,79.102,0
1583339071.341,26.367,37.109,30.762,25.879,70.801,0
1583339071.345,32.227,35.156,26.855,25.391,16.602,0
1583339071.349,29.297,28.809,26.367,25.391,14.160,0
1583339071.352,26.367,32.227,27.344,20.020,52.246,0
1583339071.356,22.949,36.621,30.762,22.949,12.695,0
1583339071.360,24.902,33.691,32.227,24.414,-5.859,0
1583339071.364,28.809,33.691,31.738,22.949,-3.906,0
1583339071.368,23.926,35.156,33.691,24.414,32.227,0
1583339071.403,19.043,34.668,34.668,22.949,11.230,0
1583339071.407,21.484,31.250,32.227,22.949,-58.105,0
1583339071.411,20.020,30.762,33.203,25.391,-11.719,0
1583339071.415,20.508,31.738,34.180,25.879,3.906,0
1583339071.419,20.996,29.785,31.738,24.414,40.527,0
1583339071.423,20.508,30.273,27.344,20.508,47.363,0
1583339071.427,23.926,32.715,27.344,19.531,15.625,0
1583339071.430,25.391,32.715,27.832,17.578,14.648,0
1583339071.434,22.949,34.180,25.879,15.137,4.883,0
1583339071.438,20.508,36.621,26.855,19.531,29.297,0
1583339071.442,25.879,36.133,29.297,21.973,83.496,0
1583339071.446,30.273,36.133,30.273,23.926,72.266,0
1583339071.407,26.855,34.180,26.855,23.438,-1.465,0
1583339071.411,23.926,31.738,27.832,15.137,28.809,0
1583339071.415,26.367,30.762,29.785,14.648,46.875,0
1583339071.419,27.832,32.227,30.273,20.020,-1.953,0
1583339071.423,26.367,34.668,29.785,19.531,54.688,0
1583339071.427,24.902,33.203,28.320,20.996,51.758,0
1583339071.431,21.484,28.320,29.297,20.020,14.648,0
1583339071.434,24.902,27.344,25.879,21.973,33.691,0
1583339071.438,28.320,27.832,24.414,30.273,11.719,0
1583339071.442,25.391,29.297,26.367,30.273,25.391,0
1583339071.446,26.855,31.250,26.855,27.832,50.781,0
1583339071.450,35.156,32.227,27.344,24.902,9.277,0
1583339071.504,32.715,31.250,25.879,26.367,20.508,0
1583339071.508,24.414,30.273,24.902,28.320,24.414,0
1583339071.512,26.367,31.250,28.809,25.879,10.254,0
1583339071.516,30.273,30.762,30.762,26.367,19.043,0
1583339071.520,31.738,31.738,33.691,28.809,-16.113,0
1583339071.524,31.250,33.203,36.621,31.250,10.254,0
1583339071.528,32.227,35.156,38.086,28.809,26.855,0
1583339071.531,34.180,36.621,35.645,29.785,7.324,0
1583339071.535,37.109,36.621,34.668,36.133,-3.418,0
1583339071.539,39.551,36.133,34.180,34.180,1.465,0
1583339071.543,35.645,35.645,32.227,30.273,-0.977,0
1583339071.547,36.133,37.109,34.180,31.738,-17.090,0
1583339071.584,37.598,37.109,35.645,32.227,33.203,0
1583339071.588,35.156,35.645,34.180,27.832,31.250,0
1583339071.592,32.715,35.645,34.668,23.438,46.875,0
1583339071.596,35.156,35.645,35.645,18.066,56.641,0
1583339071.600,37.598,34.180,31.738,18.066,5.371,0
1583339071.604,36.621,34.180,27.832,20.020,22.461,0
1583339071.608,36.133,34.180,30.273,20.020,17.090,0
1583339071.611,32.715,31.250,31.738,19.043,19.531,0
1583339071.615,29.297,29.297,30.273,16.113,51.758,0
1583339071.619,33.203,32.227,29.785,16.113,62.500,0
1583339071.623,31.738,32.715,30.273,18.555,54.199,0
1583339071.627,25.391,32.227,30.273,18.066,43.457,0
1583339071.607,27.344,32.715,31.738,15.625,97.656,0
1583339071.611,30.762,32.227,34.180,19.531,31.250,0
1583339071.615,32.715,33.691,33.691,28.809,-6.836,0
1583339071.619,25.391,34.180,30.273,27.832,64.453,0
1583339071.623,25.879,30.762,28.320,25.879,14.160,0
1583339071.627,31.738,29.297,28.320,27.344,35.156,0
1583339071.631,31.738,31.250,29.785,25.391,68.848,0
1583339071.634,24.902,33.203,33.203,26.855,62.012,0
1583339071.638,20.996,30.762,32.227,20.996,94.727,0
1583339071.642,21.973,26.855,27.344,13.672,71.777,0
1583339071.646,20.508,26.367,25.879,15.137,26.367,0
1583339071.650,20.996,25.879,27.832,12.695,-0.488,0
1583339071.611,20.996,26.855,31.250,15.625,3.418,0
1583339071.615,21.484,30.273,32.715,20.020,9.277,0
1583339071.619,22.949,28.320,30.762,16.113,53.223,0
1583339071.623,22.949,26.367,28.809,17.578,70.801,0
1583339071.627,19.531,26.367,31.250,15.625,53.223,0
1583339071.631,19.531,27.344,33.203,15.137,66.406,0
1583339071.635,26.367,28.809,32.227,23.926,78.125,0
1583339071.638,27.344,31.250,32.227,26.855,71.289,0
1583339071.642,25.879,32.227,29.785,26.367,18.555,0
1583339071.646,28.809,32.715,24.902,26.855,-3.906,0
1583339071.650,28.809,35.645,27.832,27.832,13.184,0
1583339071.654,23.926,36.621,30.273,28.809,1.953,0
1583339071.624,23.926,37.598,27.344,26.367,14.160,0
1583339071.628,24.902,38.086,27.832,24.902,73.242,0
1583339071.632,22.949,36.621,29.297,26.367,38.574,0
1583339071.636,28.320,35.645,25.391,27.344,8.301,0
1583339071.640,26.367,36.133,24.414,29.785,66.895,0
1583339071.644,23.438,34.668,26.367,27.832,110.352,0
1583339071.648,25.879,32.227,24.414,26.367,57.617,0
1583339071.651,28.809,35.645,24.902,25.879,31.738,0
1583339071.655,28.809,35.645,25.391,20.996,38.574,0
1583339071.659,23.438,33.203,24.902,21.484,38.574,0
1583339071.663,25.879,36.621,27.832,26.367,43.457,0
1583339071.667,32.227,38.574,28.809,31.250,47.852,0
1583339071.664,30.273,37.109,27.344,29.297,28.320,0
1583339071.668,29.785,38.086,25.879,26.367,30.273,0
1583339071.672,31.738,38.086,26.367,26.855,32.227,0
1583339071.676,35.156,37.598,29.297,29.297,41.016,0
1583339071.680,33.691,39.551,30.273,34.668,32.715,0
1583339071.684,31.250,42.969,31.250,30.273,37.109,0
1583339071.688,29.785,41.992,32.227,22.461,59.570,0
1583339071.691,30.762,39.062,31.250,18.555,-0.977,0
1583339071.695,35.645,41.992,27.344,20.508,0.977,0
1583339071.699,33.691,42.969,26.855,28.320,23.438,0
1583339071.703,32.227,41.992,28.809,32.715,67.383,0
1583339071.707,34.668,41.504,27.344,32.715,33.203,0
1583339071.724,34.668,37.598,25.391,31.250,-0.488,0
1583339071.728,33.691,39.551,26.855,33.203,28.809,0
1583339071.732,33.691,43.457,28.809,36.133,19.043,0
1583339071.736,34.180,41.016,31.250,36.621,-0.488,0
1583339071.740,37.109,41.504,32.715,39.062,0.977,0
1583339071.744,36.621,42.969,33.691,36.621,20.996,0
1583339071.748,31.738,39.062,33.203,33.691,15.137,0
1583339071.751,33.691,36.133,30.273,32.227,11.719,0
1583339071.755,32.715,35.645,27.832,28.320,57.617,0
1583339071.759,29.785,37.109,29.297,27.344,73.242,0
1583339071.763,28.809,36.133,28.809,26.855,28.809,0
1583339071.767,25.879,35.645,24.902,26.855,11.719,0
1583339071.767,27.832,36.133,26.367,24.902,5.371,0
1583339071.771,31.738,34.668,27.344,26.367,35.156,0
1583339071.775,32.227,30.762,25.879,29.785,32.715,0
1583339071.779,32.715,31.738,24.414,29.297,33.691,0
1583339071.783,31.250,30.273,27.344,31.250,17.090,0
1583339071.787,31.738,31.250,30.762,32.715,10.742,0
1583339071.791,31.738,37.109,31.250,31.738,-21.973,0
1583339071.794,29.785,37.598,31.250,29.785,-23.438,0
1583339071.798,32.715,35.156,29.297,25.879,35.645,0
1583339071.802,34.668,33.691,30.273,30.762,-13.184,0
1583339071.806,33.203,33.691,30.273,35.645,41.504,0
1583339071.810,27.832,34.180,28.809,32.715,105.957,0
1583339071.805,25.879,33.691,27.832,29.297,8.789,0
1583339071.809,29.297,33.203,26.367,30.762,-20.020,0
1583339071.813,30.273,31.250,27.832,33.203,35.645,0
1583339071.817,30.273,29.297,28.320,34.180,54.199,0
1583339071.821,32.715,31.250,30.273,34.180,30.762,0
1583339071.825,29.785,31.738,29.785,34.180,37.598,0
1583339071.829,26.855,29.785,27.344,34.180,71.289,0
1583339071.832,26.367,31.738,25.391,33.691,68.848,0
1583339071.836,28.320,34.668,22.461,32.715,64.453,0
1583339071.840,31.738,37.109,22.949,31.738,16.602,0
1583339071.844,33.203,34.180,28.320,31.738,25.391,0
1583339071.848,31.738,30.273,27.832,26.855,59.570,0
1583339071.844,26.855,32.227,25.391,21.484,12.207,0
1583339071.848,31.250,37.109,25.879,23.926,-14.648,0
1583339071.852,36.621,37.598,26.855,30.273,-3.906,0
1583339071.856,35.156,36.621,30.762,36.621,-43.457,0
1583339071.860,31.250,38.086,30.273,33.203,-26.855,0
1583339071.864,31.738,38.574,29.785,33.203,-2.930,0
1583339071.868,34.668,38.086,30.762,31.738,0.000,0
1583339071.871,35.645,37.598,29.785,28.320,36.133,0
1583339071.875,33.203,39.551,30.762,31.738,62.500,0
1583339071.879,29.785,41.992,31.250,30.762,59.082,0
1583339071.883,33.203,41.504,31.250,33.203,9.766,0
1583339071.887,33.691,41.016,31.738,37.109,79.102,0
1583339071.905,28.809,38.574,31.738,32.227,126.953,0
1583339071.909,29.785,39.062,33.203,30.762,111.816,0
1583339071.913,29.785,41.504,33.691,30.273,85.938,0
1583339071.917,28.320,40.527,32.715,29.297,21.484,0
1583339071.921,28.809,40.039,34.180,33.203,14.648,0
1583339071.925,25.391,41.992,37.598,32.227,-20.020,0
1583339071.929,25.879,41.016,35.645,30.273,-12.207,0
1583339071.932,30.273,38.086,33.203,25.391,0.488,0
1583339071.936,30.273,36.621,31.738,18.066,-7.324,0
1583339071.940,22.949,36.133,29.785,19.043,80.566,0
1583339071.944,23.438,39.062,29.297,22.949,59.570,0
1583339071.948,29.785,40.527,28.809,25.879,-12.695,0
1583339071.944,29.297,39.551,29.297,26.855,44.922,0
1583339071.948,26.855,39.062,32.715,28.320,50.293,0
1583339071.952,26.367,37.109,33.691,23.438,43.457,0
1583339071.956,22.949,39.062,33.203,20.996,60.059,0
1583339071.960,24.414,41.992,33.203,24.414,31.250,0
1583339071.964,24.902,38.574,29.785,22.949,57.129,0
1583339071.968,21.484,33.691,26.855,20.020,60.059,0
1583339071.971,21.484,35.156,26.855,18.555,54.688,0
1583339071.975,25.879,39.551,27.832,19.043,42.969,0
1583339071.979,26.855,39.551,29.297,21.484,58.594,0
1583339071.983,27.832,40.039,32.227,18.555,61.035,0
1583339071.987,36.133,41.016,29.297,16.113,7.324,0
1583339072.004,33.203,39.551,27.344,20.020,50.781,0
1583339072.008,26.367,39.062,31.738,20.020,77.637,0
1583339072.012,29.785,39.062,28.320,18.066,31.738,0
1583339072.016,30.273,38.574,26.367,15.137,-1.465,0
1583339072.020,29.785,36.621,28.320,16.602,-18.555,0
1583339072.024,26.367,34.668,29.297,22.949,-3.418,0
1583339072.028,23.438,32.227,26.367,20.508,33.203,0
1583339072.031,24.902,33.203,29.785,21.973,-20.996,0
1583339072.035,26.855,32.227,30.273,25.879,-26.855,0
1583339072.039,25.879,29.297,29.785,19.531,64.941,0
1583339072.043,22.461,28.809,33.203,16.602,107.422,0
1583339072.047,22.949,28.809,36.133,20.020,24.902,0
1583339072.064,22.949,26.367,37.598,23.926,20.020,0
1583339072.068,23.926,27.344,36.621,28.809,50.293,0
1583339072.072,26.855,32.715,35.156,32.227,13.184,0
1583339072.076,23.438,33.691,33.203,30.762,-5.859,0
1583339072.080,23.438,31.250,32.227,30.273,-17.578,0
1583339072.084,23.438,30.273,31.250,33.691,4.395,0
1583339072.088,24.902,33.203,30.762,36.621,48.828,0
1583339072.091,25.879,34.668,31.738,34.180,-27.832,0
1583339072.095,21.484,33.691,32.715,29.297,2.930,0
1583339072.099,21.973,36.621,33.691,27.344,43.945,0
1583339072.103,24.902,35.156,36.621,25.391,-3.906,0
1583339072.107,20.996,31.738,36.133,24.414,0.977,0
1583339072.084,17.578,35.156,33.691,20.508,22.949,0
1583339072.088,16.602,35.156,32.227,15.137,38.574,0
1583339072.092,18.066,34.180,32.227,18.555,-4.395,0
1583339072.096,20.996,36.133,30.762,22.949,25.391,0
1583339072.100,20.020,37.109,29.785,22.461,99.609,0
1583339072.104,18.066,35.645,33.691,18.555,73.242,0
1583339072.108,19.043,37.109,36.133,17.090,51.758,0
1583339072.111,20.508,37.109,35.645,19.531,47.852,0
1583339072.115,17.578,36.133,37.109,19.531,15.625,0
1583339072.119,17.090,36.621,35.645,16.113,7.812,0
1583339072.123,22.461,36.133,35.645,14.160,-38.086,0
1583339072.127,23.926,37.109,36.621,18.066,18.066,0
1583339072.144,19.531,37.109,38.086,20.020,49.316,0
1583339072.148,23.438,37.598,37.109,19.531,21.484,0
1583339072.152,26.855,37.598,38.086,18.555,71.777,0
1583339072.156,29.785,37.109,39.551,18.555,52.246,0
1583339072.160,29.297,36.133,33.203,16.113,21.484,0
1583339072.164,27.832,34.180,32.227,18.066,56.641,0
1583339072.168,30.762,34.180,34.668,19.531,37.598,0
1583339072.171,32.227,34.180,35.156,23.926,-16.602,0
1583339072.175,36.621,33.691,36.133,29.785,-5.371,0
1583339072.179,33.691,34.180,34.668,27.832,-10.254,0
1583339072.183,25.879,33.691,33.691,24.902,20.996,0
1583339072.187,25.879,35.156,34.180,24.902,59.082,0
1583339072.191,29.785,38.086,34.180,28.809,23.438,0
1583339072.195,30.273,40.527,35.645,26.855,22.949,0
1583339072.199,30.762,39.551,34.668,20.996,33.691,0
1583339072.203,30.762,35.156,34.180,23.926,50.781,0
1583339072.207,30.273,32.715,37.598,30.273,21.484,0
1583339072.211,29.785,35.645,38.086,28.809,6.836,0
1583339072.215,27.832,35.645,36.133,24.414,9.277,0
1583339072.218,27.832,32.227,34.668,20.996,17.090,0
1583339072.222,27.832,30.273,33.203,23.926,13.672,0
1583339072.226,27.344,31.250,33.691,27.832,33.203,0
1583339072.230,28.320,30.762,34.668,27.344,88.867,0
1583339072.234,30.762,30.762,35.645,31.250,55.664,0
1583339072.226,36.133,33.203,37.109,26.855,54.688,0
1583339072.230,36.621,30.273,37.109,22.461,57.129,0
1583339072.234,31.250,27.832,38.086,22.949,9.277,0
1583339072.238,35.156,30.273,39.062,23.926,-10.254,0
1583339072.242,36.621,28.809,35.645,26.855,26.855,0
1583339072.246,37.109,29.297,34.180,25.391,28.809,0
1583339072.250,35.156,30.762,35.156,25.391,6.348,0
1583339072.253,30.273,31.738,30.273,23.926,41.992,0
1583339072.257,33.691,34.668,31.250,22.949,62.500,0
1583339072.261,35.156,34.668,34.668,22.949,30.762,0
1583339072.265,40.039,38.574,34.180,24.902,22.461,0
1583339072.269,45.410,41.992,34.668,35.645,56.641,0
1583339072.265,38.086,37.109,39.551,36.133,73.730,0
1583339072.269,32.715,36.133,43.457,27.344,73.242,0
1583339072.273,37.598,42.480,38.574,25.879,79.102,0
1583339072.277,30.273,44.434,38.086,18.555,43.457,0
1583339072.281,25.391,43.945,38.086,14.160,3.418,0
1583339072.285,27.344,41.992,38.574,18.555,34.668,0
1583339072.289,26.855,41.504,40.039,21.484,22.461,0
1583339072.292,23.438,44.434,38.574,21.973,4.883,0
1583339072.296,20.996,43.457,37.109,20.508,4.883,0
1583339072.300,24.414,42.480,38.574,17.090,6.348,0
1583339072.304,24.902,40.527,39.551,20.996,21.973,0
1583339072.308,21.484,41.016,38.086,28.320,10.254,0
1583339072.323,19.531,41.016,37.109,30.273,-1.953,0
1583339072.327,17.090,40.039,38.086,23.438,-16.113,0
1583339072.331,21.484,39.551,37.109,20.508,5.371,0
1583339072.335,21.973,38.086,35.645,23.438,16.602,0
1583339072.339,18.066,37.109,35.645,24.414,24.414,0
1583339072.343,20.020,36.133,33.691,23.438,58.105,0
1583339072.347,20.996,37.109,32.715,20.020,54.199,0
1583339072.350,20.508,38.086,31.738,17.090,19.043,0
1583339072.354,19.531,37.598,31.738,19.043,14.648,0
1583339072.358,25.879,38.574,33.203,20.996,18.066,0
1583339072.362,29.297,38.086,32.715,21.484,21.484,0
1583339072.366,24.414,39.551,31.250,20.020,41.504,0
1583339072.363,21.973,40.039,29.785,18.066,32.715,0
1583339072.367,27.344,40.039,30.273,20.996,25.879,0
1583339072.371,31.738,40.039,30.273,23.438,0.488,0
1583339072.375,29.785,37.109,32.227,24.902,29.785,0
1583339072.379,29.297,37.598,30.273,26.855,37.109,0
1583339072.383,30.273,38.086,24.414,22.949,10.742,0
1583339072.387,32.715,37.598,25.879,25.391,33.203,0
1583339072.390,33.203,37.598,25.391,26.367,-3.418,0
1583339072.394,29.297,38.086,24.902,22.949,14.648,0
1583339072.398,24.902,37.109,28.809,22.461,93.750,0
1583339072.402,23.926,35.156,27.832,21.973,102.539,0
1583339072.406,22.949,34.180,28.320,21.484,20.996,0
1583339072.405,18.066,34.180,29.785,22.949,17.090,0
1583339072.409,13.184,34.668,31.250,24.902,117.188,0
1583339072.413,14.160,30.762,32.227,25.391,46.875,0
1583339072.417,15.625,30.762,30.273,18.555,-12.207,0
1583339072.421,14.160,30.273,28.320,19.043,61.523,0
1583339072.425,14.648,28.320,28.809,26.367,-19.531,0
1583339072.429,15.625,29.785,29.785,24.902,-38.574,0
1583339072.432,18.555,29.297,28.320,24.414,7.324,0
1583339072.436,16.602,29.785,25.391,18.555,2.441,0
1583339072.440,14.648,30.273,23.926,13.184,31.738,0
1583339072.444,17.578,29.297,24.902,21.973,103.027,0
1583339072.448,19.531,29.297,26.367,24.902,62.012,1
1583339072.484,22.949,26.855,25.391,24.414,-32.715,0
1583339072.488,24.902,26.855,22.949,22.949,34.668,0
1583339072.492,24.902,28.809,22.461,18.066,64.941,0
1583339072.496,26.855,33.203,23.438,21.484,65.430,0
1583339072.500,25.391,35.645,25.391,22.461,89.355,0
1583339072.504,25.879,31.738,23.926,17.090,17.090,0
1583339072.508,27.344,30.762,22.949,20.508,17.578,0
1583339072.511,25.391,30.762,20.996,22.461,59.570,0
1583339072.515,28.809,30.273,23.438,25.879,37.109,0
1583339072.519,33.691,33.691,27.344,31.250,14.648,0
1583339072.523,31.738,36.621,26.367,31.738,60.547,0
1583339072.527,32.227,37.598,26.855,32.715,40.527,0
1583339072.563,35.645,37.109,26.855,30.762,23.926,0
1583339072.567,33.203,33.691,25.879,29.785,11.719,0
1583339072.571,31.250,32.715,26.855,28.809,30.273,0
1583339072.575,30.273,34.668,28.320,30.762,65.918,0
1583339072.579,28.809,35.156,29.785,33.203,48.828,0
1583339072.583,29.785,33.203,29.785,28.809,4.395,0
1583339072.587,26.855,33.203,31.250,27.832,-23.926,0
1583339072.590,24.902,34.180,32.227,27.344,34.180,0
1583339072.594,25.391,35.156,29.785,24.414,83.496,0
1583339072.598,29.785,39.062,29.297,29.785,53.223,0
1583339072.602,31.250,38.086,31.250,33.691,34.180,0
1583339072.606,30.762,36.621,29.785,35.156,4.395,0
1583339072.567,41.016,40.527,26.367,37.598,6.348,0
1583339072.571,40.039,40.039,26.367,34.180,80.566,0
1583339072.575,29.297,35.156,28.809,24.902,87.402,0
1583339072.579,21.484,34.668,28.809,17.090,68.359,0
1583339072.583,18.555,37.109,30.273,21.484,75.684,0
1583339072.587,23.438,35.645,33.691,23.438,92.285,0
1583339072.591,27.832,35.645,34.180,20.508,47.363,0
1583339072.594,27.832,36.133,33.203,20.508,-38.574,0
1583339072.598,26.855,35.645,33.203,20.996,-2.441,0
1583339072.602,28.320,37.598,34.180,21.484,57.617,0
1583339072.606,31.250,38.086,33.691,21.484,20.996,0
1583339072.610,31.738,36.133,30.762,22.949,7.324,0
1583339072.585,33.203,36.133,30.762,27.832,2.930,0
1583339072.589,35.645,36.133,32.715,26.855,32.227,0
1583339072.593,35.645,33.691,29.785,21.973,48.340,0
1583339072.597,32.715,31.738,28.809,21.973,11.230,0
1583339072.601,32.715,37.109,29.785,22.949,-6.348,0
1583339072.605,30.273,40.039,32.227,24.414,37.109,0
1583339072.609,30.273,38.086,31.738,25.391,42.969,0
1583339072.612,34.180,37.109,33.203,25.879,85.449,0
1583339072.616,27.344,37.109,34.180,20.996,69.824,0
1583339072.620,27.344,40.039,33.691,19.531,-41.016,0
1583339072.624,33.203,36.621,32.715,22.949,6.836,0
1583339072.628,26.855,34.668,32.227,17.578,40.527,0
1583339072.643,25.391,40.039,31.738,11.230,5.859,0
1583339072.647,24.414,38.574,28.809,15.137,1.953,0
1583339072.651,22.949,38.574,28.809,21.484,15.625,0
1583339072.655,25.391,40.039,30.762,26.855,2.441,0
1583339072.659,25.391,40.039,32.715,27.832,19.043,0
1583339072.663,23.926,39.062,32.227,19.043,90.332,0
1583339072.667,18.555,34.668,30.762,15.625,80.566,0
1583339072.670,26.855,34.180,33.203,21.484,26.367,0
1583339072.674,32.227,34.180,33.691,24.902,-9.277,0
1583339072.678,23.438,33.691,34.180,20.996,11.719,0
1583339072.682,19.531,35.156,33.691,16.602,51.758,0
1583339072.686,19.043,33.691,33.203,20.020,11.719,0
1583339072.724,23.438,34.668,34.668,24.414,14.648,0
1583339072.728,22.461,34.180,33.203,21.973,36.133,0
1583339072.732,18.066,33.691,32.227,18.066,40.527,0
1583339072.736,20.996,34.180,30.762,20.020,62.012,0
1583339072.740,26.367,35.645,29.785,22.461,14.648,0
1583339072.744,24.414,36.133,28.809,21.484,-9.766,0
1583339072.748,22.461,34.668,28.809,22.949,60.547,0
1583339072.751,26.855,35.156,30.762,23.926,37.109,0
1583339072.755,29.785,32.715,29.785,21.973,67.871,0
1583339072.759,32.715,31.250,28.809,23.438,113.281,0
1583339072.763,33.691,33.203,28.809,25.391,37.598,0
1583339072.767,28.809,29.297,30.762,26.855,52.734,0
1583339072.728,29.785,25.879,31.250,31.250,62.012,0
1583339072.732,32.715,31.738,29.785,33.203,14.648,0
1583339072.736,30.762,35.645,31.738,32.715,18.555,0
1583339072.740,31.250,35.645,30.762,34.180,5.859,0
1583339072.744,31.250,36.133,26.855,35.645,-43.457,0
1583339072.748,35.156,37.598,26.855,33.203,7.812,0
1583339072.752,32.227,36.621,30.273,26.367,88.379,0
1583339072.755,26.367,36.621,32.227,21.484,55.176,0
1583339072.759,28.320,38.574,30.762,25.879,6.348,0
1583339072.763,30.762,35.645,31.738,29.297,-26.367,0
1583339072.767,27.344,37.598,31.738,29.785,-14.648,0
1583339072.771,29.297,41.016,32.715,28.320,41.992,0
1583339072.784,33.691,39.551,33.691,21.484,41.016,0
1583339072.788,37.109,39.062,32.715,23.438,6.348,0
1583339072.792,38.574,41.504,33.691,30.762,9.277,0
1583339072.796,34.668,41.016,34.180,29.785,43.945,0
1583339072.800,35.156,39.551,33.691,28.320,43.945,0
1583339072.804,35.645,39.551,34.668,21.484,7.324,0
1583339072.808,31.738,38.086,35.645,20.508,18.066,0
1583339072.811,35.156,39.062,36.133,28.809,22.949,0
1583339072.815,34.668,41.504,36.133,32.715,-9.766,0
1583339072.819,30.273,37.598,35.156,32.715,-21.973,0
1583339072.823,29.297,35.645,39.062,35.645,40.527,0
1583339072.827,26.855,36.621,40.527,32.715,40.039,0
1583339072.824,25.391,34.180,39.062,27.344,26.855,0
1583339072.828,24.902,35.645,38.574,28.320,41.016,0
1583339072.832,26.855,38.574,37.598,30.273,21.973,0
1583339072.836,27.344,34.180,39.062,29.785,38.086,0
1583339072.840,28.809,36.133,40.039,29.297,118.652,0
1583339072.844,29.785,44.434,39.062,28.809,71.777,0
1583339072.848,31.738,45.410,39.551,27.344,32.715,0
1583339072.851,33.691,43.457,40.527,30.762,62.012,0
1583339072.855,25.879,40.039,38.574,22.949,41.504,0
1583339072.859,22.461,39.551,36.621,15.625,-6.348,0
1583339072.863,24.414,38.574,36.133,20.996,-35.645,0
1583339072.867,24.902,37.598,34.668,22.949,-37.598,0
1583339072.884,25.879,39.062,34.180,20.996,0.488,0
1583339072.888,25.391,38.574,35.645,19.043,-9.277,0
1583339072.892,26.367,36.621,36.133,21.484,-21.484,0
1583339072.896,34.668,32.715,35.156,29.297,48.828,0
1583339072.900,42.480,35.156,33.691,31.738,62.012,0
1583339072.904,34.180,40.527,29.785,21.484,40.039,0
1583339072.908,28.809,40.039,31.738,13.184,35.645,0
1583339072.911,29.785,35.156,33.203,6.348,49.316,0
1583339072.915,26.855,32.715,30.273,7.324,54.688,0
1583339072.919,22.949,33.203,30.762,10.254,9.766,0
1583339072.923,20.996,34.180,32.227,12.207,16.602,0
1583339072.927,25.391,36.133,33.203,19.043,66.895,0
1583339072.924,25.879,35.156,33.691,20.508,19.531,0
1583339072.928,19.531,32.715,35.156,19.531,20.996,0
1583339072.932,16.602,31.250,35.156,16.602,74.707,0
1583339072.936,24.414,30.762,33.203,18.066,7.324,0
1583339072.940,27.344,30.762,32.715,20.020,30.273,0
1583339072.944,23.926,33.203,28.809,18.555,77.637,0
1583339072.948,21.973,35.645,25.391,19.531,30.273,0
1583339072.951,23.926,35.645,26.367,19.531,-10.254,0
1583339072.955,25.391,36.621,26.855,22.461,2.441,0
1583339072.959,25.391,36.621,25.391,20.508,23.438,0
1583339072.963,25.391,36.621,27.344,18.066,4.395,0
1583339072.967,26.367,36.133,30.273,24.414,-4.883,0
1583339072.965,29.297,37.598,31.738,32.227,42.480,0
1583339072.969,29.297,38.086,33.203,35.156,48.340,0
1583339072.973,30.273,38.086,34.180,33.203,-1.953,0
1583339072.977,33.203,38.086,32.715,31.738,13.672,0
1583339072.981,35.156,35.156,31.250,29.297,46.875,0
1583339072.985,33.203,35.156,33.203,28.320,66.895,0
1583339072.989,27.832,37.109,33.691,28.809,67.871,0
1583339072.992,25.879,37.109,34.180,27.344,4.883,0
1583339072.996,26.367,37.598,34.668,24.414,-20.508,0
1583339073.000,29.785,40.039,31.738,26.367,-3.418,0
1583339073.004,27.344,40.039,31.250,26.855,62.012,0
1583339073.008,25.391,39.551,32.227,24.902,88.867,0
1583339073.024,30.762,40.039,31.250,26.855,29.785,0
1583339073.028,29.785,38.574,30.273,27.832,46.875,0
1583339073.032,25.391,41.504,30.762,26.855,39.062,0
1583339073.036,27.344,43.945,29.297,28.320,12.207,0
1583339073.040,27.344,42.480,29.297,28.320,44.434,0
1583339073.044,28.320,41.504,31.738,25.879,60.547,0
1583339073.048,30.762,41.504,32.715,20.020,-6.836,0
1583339073.051,25.879,39.551,33.203,18.066,4.883,0
1583339073.055,22.949,37.109,32.227,18.066,62.012,0
1583339073.059,26.367,36.133,29.785,21.973,41.016,0
1583339073.063,30.273,39.062,30.273,26.855,42.480,0
1583339073.067,30.762,38.574,31.250,25.879,58.105,0
1583339073.064,33.203,36.621,32.227,26.855,13.184,0
1583339073.068,34.668,34.668,32.227,28.809,3.906,0
1583339073.072,31.250,30.762,32.715,29.785,-7.324,0
1583339073.076,34.668,30.762,35.645,34.668,35.156,0
1583339073.080,34.180,30.273,35.156,31.738,71.289,0
1583339073.084,33.203,31.250,31.250,27.832,46.875,0
1583339073.088,37.109,31.738,26.367,30.273,5.859,0
1583339073.091,34.180,31.250,23.438,29.297,11.719,0
1583339073.095,27.344,31.738,24.902,24.902,31.250,0
1583339073.099,32.715,34.668,24.902,20.020,-35.645,0
1583339073.103,33.203,34.668,24.414,17.578,-9.277,0
1583339073.107,29.785,33.203,22.949,20.020,15.137,0
1583339073.104,31.738,32.227,23.926,19.043,-49.805,0
1583339073.108,32.715,33.203,24.414,21.973,21.973,0
1583339073.112,34.180,37.109,22.949,29.297,104.004,0
1583339073.116,36.133,38.086,22.949,33.203,7.812,0
1583339073.120,33.691,39.551,22.949,27.832,-32.715,0
1583339073.124,34.180,40.527,22.949,21.484,41.016,0
1583339073.128,32.715,37.598,25.391,22.461,58.105,0
1583339073.131,32.227,36.133,26.855,22.949,31.250,0
1583339073.135,30.762,35.645,26.855,17.578,55.176,0
1583339073.139,25.879,35.645,26.855,20.508,24.902,0
1583339073.143,29.785,36.621,26.855,24.414,21.484,0
1583339073.147,34.180,36.621,27.344,24.414,75.684,0
1583339073.184,30.273,33.691,28.809,22.949,53.223,0
1583339073.188,25.391,33.203,24.902,20.996,-4.395,0
1583339073.192,21.973,33.691,22.949,20.020,22.949,0
1583339073.196,22.461,31.738,25.391,17.090,21.484,0
1583339073.200,20.508,31.250,25.879,17.090,3.906,0
1583339073.204,20.508,33.203,29.297,20.996,71.289,0
1583339073.208,23.438,33.691,32.227,20.020,43.945,0
1583339073.211,24.902,32.227,30.762,20.508,-12.207,0
1583339073.215,30.762,33.691,27.344,22.461,-8.789,0
1583339073.219,32.227,35.156,21.973,20.020,3.906,0
1583339073.223,31.738,38.086,24.902,19.531,3.906,0
1583339073.227,31.250,39.062,25.391,19.531,-17.578,0
1583339073.245,31.738,36.621,21.973,23.926,32.715,0
1583339073.249,31.738,36.621,24.902,25.391,94.238,0
1583339073.253,25.391,34.668,26.855,21.484,116.211,0
1583339073.257,26.855,36.133,28.320,26.367,79.590,0
1583339073.261,32.715,36.621,29.297,27.344,4.883,0
1583339073.265,32.715,35.156,32.715,24.902,-40.527,0
1583339073.269,32.227,35.156,35.645,25.879,-11.230,0
1583339073.272,31.738,35.645,35.156,24.902,41.504,0
1583339073.276,31.738,38.086,35.156,24.414,70.801,0
1583339073.280,35.156,41.016,36.133,25.879,64.941,0
1583339073.284,35.156,41.504,37.109,26.855,51.758,0
1583339073.288,26.855,40.039,36.133,24.414,54.688,0
1583339073.285,25.879,39.062,33.203,22.461,19.531,0
1583339073.289,28.809,38.086,32.227,23.926,3.418,0
1583339073.293,24.902,38.574,34.180,21.973,1.465,0
1583339073.297,17.578,38.574,33.203,19.531,16.602,0
1583339073.301,21.973,37.598,30.273,22.461,15.625,0
1583339073.305,30.273,38.086,27.344,22.949,-17.090,0
1583339073.309,23.438,38.086,25.879,18.555,-3.418,0
1583339073.312,18.555,36.621,30.273,16.602,41.992,0
1583339073.316,22.461,36.133,31.250,23.438,58.105,0
1583339073.320,25.879,38.574,32.227,27.344,70.801,0
1583339073.324,31.250,41.016,31.250,25.879,16.602,0
1583339073.328,35.645,40.527,26.367,30.273,-14.160,0
1583339073.364,36.133,39.062,29.785,32.715,36.621,0
1583339073.368,36.133,39.551,29.785,29.785,70.801,0
1583339073.372,38.086,40.039,23.926,31.250,98.145,0
1583339073.376,33.203,37.109,28.320,30.762,83.496,0
1583339073.380,24.902,33.203,29.785,27.832,32.715,0
1583339073.384,31.250,31.738,29.785,25.879,51.758,0
1583339073.388,30.762,35.645,29.785,19.043,87.891,0
1583339073.391,21.484,38.086,26.855,18.555,76.660,0
1583339073.395,23.438,38.574,27.344,24.414,-5.859,0
1583339073.399,25.391,40.527,27.344,23.926,-60.547,0
1583339073.403,24.902,40.527,28.320,23.438,-22.461,0
1583339073.407,25.879,41.016,28.320,21.973,21.484,0
1583339073.404,25.391,41.992,25.879,17.578,33.203,0
1583339073.408,26.367,40.039,23.438,20.508,35.156,0
1583339073.412,25.879,41.504,25.879,26.855,40.039,0
1583339073.416,24.902,42.969,30.762,24.902,15.625,0
1583339073.420,25.391,41.016,27.832,17.578,-6.836,0
1583339073.424,25.391,41.504,25.879,18.066,2.441,0
1583339073.428,22.949,39.551,25.879,19.043,35.156,0
1583339073.431,24.414,39.062,25.879,17.578,-10.254,0
1583339073.435,29.297,41.016,26.855,18.066,-16.113,0
1583339073.439,25.879,38.574,25.879,15.137,43.945,0
1583339073.443,29.785,38.574,28.320,18.066,22.461,0
1583339073.447,33.203,39.062,30.273,21.484,7.812,0
1583339073.446,30.273,36.621,28.320,21.973,36.621,0
1583339073.450,35.156,38.574,27.832,24.902,-14.160,0
1583339073.454,32.227,37.109,29.297,23.438,16.602,0
1583339073.458,23.926,33.203,30.273,19.043,75.195,0
1583339073.462,29.297,31.738,29.297,22.461,19.531,0
1583339073.466,29.297,30.273,31.738,23.926,6.836,0
1583339073.470,21.973,31.738,31.738,19.531,42.480,0
1583339073.473,23.926,33.691,32.227,21.973,60.547,0
1583339073.477,23.438,34.180,37.598,24.414,28.320,0
1583339073.481,24.414,33.691,36.621,25.879,33.691,0
1583339073.485,23.438,31.738,34.668,23.926,40.039,0
1583339073.489,22.949,32.227,36.621,23.926,86.426,0
1583339073.450,26.855,34.668,36.133,25.879,100.098,0
1583339073.454,23.438,33.691,36.133,25.879,87.891,0
1583339073.458,16.602,29.785,35.645,26.367,113.281,0
1583339073.462,19.531,27.344,32.715,25.879,52.734,0
1583339073.466,22.461,29.785,31.738,29.297,6.836,0
1583339073.470,22.949,32.715,34.668,27.344,52.734,0
1583339073.474,21.973,30.273,31.250,19.531,31.738,0
1583339073.477,21.484,29.297,28.809,21.973,40.527,0
1583339073.481,29.297,30.762,30.273,29.785,36.133,0
1583339073.485,31.738,31.738,30.273,33.203,-15.137,0
1583339073.489,34.180,33.203,29.785,31.250,20.996,0
1583339073.493,36.133,31.738,28.320,29.297,25.391,0
1583339073.484,38.086,33.203,27.832,33.203,-5.371,0
1583339073.488,37.109,34.668,27.832,35.645,13.184,0
1583339073.492,35.156,34.668,25.391,36.621,65.918,0
1583339073.496,38.086,35.156,24.902,37.598,58.105,0
1583339073.500,34.668,32.715,28.809,32.715,14.160,0
1583339073.504,27.832,34.180,31.250,29.785,38.086,0
1583339073.508,26.855,37.109,30.762,32.227,72.754,0
1583339073.511,24.902,35.156,30.762,30.762,35.156,0
1583339073.515,23.926,34.180,33.203,30.762,29.785,0
1583339073.519,28.320,35.645,34.668,35.645,20.020,0
1583339073.523,28.809,36.133,34.180,30.273,5.859,0
1583339073.527,24.902,34.668,35.645,23.438,12.207,0
1583339073.524,26.855,33.691,35.645,24.414,43.457,0
1583339073.528,30.273,34.180,33.691,24.414,37.598,0
1583339073.532,26.855,35.156,31.738,23.438,6.836,0
1583339073.536,20.020,34.180,29.785,20.508,39.551,0
1583339073.540,20.996,33.691,31.738,21.484,72.266,0
1583339073.544,25.391,34.180,33.203,24.902,54.688,0
1583339073.548,25.391,34.180,30.762,24.902,59.570,0
1583339073.551,24.414,36.133,28.320,20.996,62.988,0
1583339073.555,22.949,37.598,27.832,17.578,26.855,0
1583339073.559,24.902,39.062,27.344,20.996,-27.344,0
1583339073.563,33.203,41.504,27.344,28.320,17.090,0
1583339073.567,31.738,40.527,29.785,29.297,87.891,0
1583339073.584,27.832,36.621,30.762,25.879,23.926,0
1583339073.588,29.785,36.621,32.715,30.762,41.016,0
1583339073.592,30.273,35.645,33.691,31.738,75.684,0
1583339073.596,35.645,34.668,29.785,30.273,-8.789,0
1583339073.600,32.715,35.156,25.879,31.250,-39.551,0
1583339073.604,27.832,34.180,22.949,28.809,-6.836,0
1583339073.608,29.297,33.203,22.949,24.414,19.043,0
1583339073.611,26.855,32.227,21.973,22.949,30.762,1
1583339073.615,22.461,34.180,23.926,24.414,54.688,0
1583339073.619,21.484,32.227,25.879,27.832,41.992,0
1583339073.623,22.461,32.715,26.855,25.391,25.879,0
1583339073.627,19.043,35.156,27.832,18.555,19.531,0
1583339073.623,15.137,34.180,23.438,18.555,-2.441,0
1583339073.627,14.160,35.156,25.391,18.555,-41.992,0
1583339073.631,19.531,36.133,28.320,17.090,14.648,0
1583339073.635,23.926,33.691,25.879,21.484,17.090,0
1583339073.639,25.879,33.203,28.320,26.367,-6.348,0
1583339073.643,25.879,33.691,31.250,30.273,36.133,0
1583339073.647,22.461,30.273,32.227,30.273,37.598,0
1583339073.650,24.902,28.320,30.762,27.832,32.715,0
1583339073.654,30.762,30.762,30.273,27.832,-0.977,0
1583339073.658,32.227,32.715,34.668,30.273,-10.254,0
1583339073.662,32.227,31.250,33.691,33.691,25.391,0
1583339073.666,32.715,29.785,31.250,32.715,98.633,0
1583339073.663,32.715,31.738,31.250,29.785,55.664,0
1583339073.667,34.668,34.180,29.297,30.762,35.156,0
1583339073.671,33.203,32.715,28.320,26.855,75.684,0
1583339073.675,30.762,35.156,29.785,27.344,19.043,0
1583339073.679,29.297,35.156,28.809,30.762,35.645,0
1583339073.683,25.391,32.715,28.809,27.344,20.996,0
1583339073.687,23.438,34.180,30.762,23.926,-64.453,0
1583339073.690,26.367,34.180,30.762,20.020,-18.555,0
1583339073.694,30.273,31.738,27.832,21.484,65.430,0
1583339073.698,30.273,30.762,26.367,26.855,21.973,0
1583339073.702,27.832,32.715,30.273,27.344,15.137,0
1583339073.706,30.273,34.668,33.203,27.344,21.973,0
1583339073.725,34.668,36.133,33.691,29.297,35.156,0
1583339073.729,35.156,36.133,31.738,31.738,57.129,0
1583339073.733,30.762,34.668,29.785,31.250,14.160,0
1583339073.737,29.297,33.691,32.715,32.715,14.648,0
1583339073.741,38.574,36.133,32.227,34.180,67.383,0
1583339073.745,38.574,38.086,29.785,31.250,33.691,0
1583339073.749,31.250,37.598,27.344,28.809,43.945,0
1583339073.752,30.273,37.109,25.391,29.297,98.145,0
1583339073.756,38.086,39.062,26.855,32.227,56.641,0
1583339073.760,41.504,40.527,29.297,31.250,70.801,0
1583339073.764,35.645,39.062,30.762,30.273,35.645,0
1583339073.768,34.668,40.039,30.273,27.832,-2.441,0
1583339073.764,37.109,38.086,29.297,27.832,71.777,0
1583339073.768,40.039,37.598,28.320,31.250,98.145,0
1583339073.772,37.109,39.551,28.320,29.785,51.270,0
1583339073.776,32.227,39.062,30.762,25.391,45.898,0
1583339073.780,34.180,39.551,30.762,26.855,62.988,0
1583339073.784,36.621,38.574,28.809,33.203,43.945,0
1583339073.788,35.156,37.109,28.320,33.691,14.160,0
1583339073.791,30.273,38.086,26.855,30.762,-8.789,0
1583339073.795,28.320,37.109,27.832,26.855,23.926,0
1583339073.799,31.250,35.645,30.762,21.973,35.645,0
1583339073.803,27.832,34.180,30.273,21.484,29.297,0
1583339073.807,23.438,34.668,30.762,23.438,42.480,0
1583339073.824,22.949,37.109,33.691,20.996,28.809,0
1583339073.828,24.902,37.598,32.227,16.113,47.363,0
1583339073.832,26.367,38.086,31.738,16.602,-4.395,0
1583339073.836,23.438,38.574,30.762,18.555,36.133,0
1583339073.840,16.602,38.086,28.320,17.090,55.664,0
1583339073.844,13.672,33.203,28.320,19.043,24.414,0
1583339073.848,19.531,32.715,27.832,25.391,71.289,0
1583339073.851,25.391,40.039,27.344,21.484,33.203,0
1583339073.855,22.949,43.945,28.809,19.531,53.223,0
1583339073.859,21.973,40.527,26.855,19.043,90.332,0
1583339073.863,25.879,39.551,26.855,18.555,25.879,0
1583339073.867,24.414,39.551,29.785,20.020,-13.672,0
1583339073.865,23.438,36.621,29.297,16.113,23.926,0
1583339073.869,26.855,36.621,28.809,15.625,60.547,0
1583339073.873,29.297,39.062,32.227,20.508,68.848,0
1583339073.877,29.785,38.086,30.273,26.367,82.031,0
1583339073.881,27.832,38.086,27.832,26.855,36.621,0
1583339073.885,27.344,39.062,30.762,20.020,30.762,0
1583339073.889,32.227,40.039,33.691,23.438,25.391,0
1583339073.892,36.133,37.598,33.691,29.297,29.297,0
1583339073.896,34.668,36.133,33.691,27.344,63.477,0
1583339073.900,33.203,35.156,33.691,28.320,7.812,0
1583339073.904,38.086,35.645,34.668,25.879,24.902,0
1583339073.908,40.039,39.062,35.645,25.391,43.457,0
1583339073.944,36.133,39.062,35.645,28.320,45.410,0
1583339073.948,33.203,36.621,35.645,30.273,52.246,0
1583339073.952,27.832,35.156,38.574,26.855,25.391,0
1583339073.956,30.762,34.668,39.062,22.461,8.301,0
1583339073.960,33.691,36.621,39.062,23.438,42.969,0
1583339073.964,28.320,37.598,38.574,25.391,51.758,0
1583339073.968,27.832,35.645,38.574,26.367,20.508,0
1583339073.971,28.809,32.227,36.621,21.484,26.855,0
1583339073.975,25.391,31.250,34.668,18.066,59.082,0
1583339073.979,23.926,37.598,34.668,19.043,58.594,0
1583339073.983,31.250,43.457,31.738,23.926,24.902,0
1583339073.987,36.621,41.504,29.785,25.391,15.625,0
1583339073.984,31.738,39.062,29.297,26.855,52.734,0
1583339073.988,30.273,40.039,33.691,23.926,65.430,0
1583339073.992,35.156,38.574,31.738,18.066,35.645,0
1583339073.996,35.156,37.598,27.832,20.020,10.742,0
1583339074.000,31.738,38.574,27.832,22.461,-34.180,0
1583339074.004,31.738,38.574,28.809,25.879,-34.180,0
1583339074.008,29.785,35.645,30.273,24.902,15.137,0
1583339074.011,24.902,32.715,29.785,17.578,55.664,0
1583339074.015,30.762,34.180,30.762,20.508,26.855,0
1583339074.019,33.691,35.645,31.738,25.879,19.531,0
1583339074.023,23.926,32.715,33.203,23.438,82.031,0
1583339074.027,22.461,32.227,36.621,21.484,27.832,0
1583339074.024,24.902,31.250,37.109,21.484,37.109,0
1583339074.028,23.438,29.297,36.133,19.531,31.250,0
1583339074.032,23.438,30.273,36.133,15.625,-40.039,0
1583339074.036,23.926,32.227,38.086,15.625,0.000,0
1583339074.040,26.855,33.203,35.645,15.625,44.434,0
1583339074.044,33.691,34.668,34.668,14.648,24.414,0
1583339074.048,34.180,35.156,36.621,18.066,-2.930,0
1583339074.051,36.133,30.273,35.645,19.043,-34.180,0
1583339074.055,41.016,31.250,37.109,18.555,-9.277,0
1583339074.059,37.109,37.109,40.039,25.391,38.086,0
1583339074.063,35.156,35.645,38.574,21.973,20.508,0
1583339074.067,30.762,33.691,38.574,18.066,-4.883,0
1583339074.044,26.855,33.203,39.062,28.320,13.184,0
1583339074.048,37.109,34.180,37.598,39.062,88.379,0
1583339074.052,42.480,33.203,39.062,42.969,44.434,0
1583339074.056,23.926,29.297,41.504,27.832,0.000,0
1583339074.060,14.160,27.344,42.969,17.578,6.836,0
1583339074.064,18.066,27.344,41.504,21.484,-10.742,0
1583339074.068,19.531,29.785,38.574,20.020,-5.859,0
1583339074.071,18.066,29.785,38.574,16.113,4.883,0
1583339074.075,14.160,28.809,36.621,12.207,54.688,0
1583339074.079,19.043,29.297,32.227,14.648,63.477,0
1583339074.083,27.344,29.297,33.203,20.996,46.387,0
1583339074.087,24.902,27.344,35.645,20.508,53.711,0
1583339074.104,19.531,29.297,38.086,21.484,48.340,0
1583339074.108,19.043,33.691,37.598,20.996,31.250,0
1583339074.112,20.020,33.203,37.598,14.160,19.531,0
1583339074.116,20.508,35.645,38.574,14.648,73.242,0
1583339074.120,22.949,38.574,38.086,15.137,52.246,0
1583339074.124,26.367,38.574,38.086,18.066,16.113,0
1583339074.128,29.785,39.551,36.621,16.113,51.758,0
1583339074.131,30.273,40.527,34.668,10.254,37.598,0
1583339074.135,29.785,38.086,34.668,15.137,6.836,0
1583339074.139,26.855,35.645,34.668,20.508,35.645,0
1583339074.143,26.367,38.086,34.668,23.438,42.969,0
1583339074.147,31.250,41.504,39.062,20.996,-8.789,0
1583339074.144,28.809,41.992,40.039,21.973,33.203,0
1583339074.148,22.949,41.016,35.645,22.949,77.637,0
1583339074.152,24.902,36.621,33.691,18.555,-5.859,0
1583339074.156,28.320,34.668,34.180,22.461,-29.297,0
1583339074.160,28.320,37.109,37.598,23.438,37.598,0
1583339074.164,29.785,37.598,36.621,20.996,69.824,0
1583339074.168,31.250,37.109,36.133,23.926,56.641,0
1583339074.171,36.133,36.621,38.086,28.320,83.008,0
1583339074.175,38.574,37.109,38.086,34.180,95.703,0
1583339074.179,36.133,39.062,41.504,29.785,41.016,0
1583339074.183,32.715,39.551,41.504,25.391,9.766,0
1583339074.187,33.691,40.039,39.062,32.227,42.480,0
1583339074.186,38.574,40.527,36.621,32.227,21.484,0
1583339074.190,35.156,39.551,36.133,26.855,44.922,0
1583339074.194,31.738,38.574,37.109,24.902,109.863,0
1583339074.198,34.180,39.062,36.133,21.484,24.902,0
1583339074.202,34.180,37.598,37.109,24.414,-18.066,0
1583339074.206,32.715,35.156,38.574,28.320,9.277,0
1583339074.210,29.297,37.598,38.574,29.297,58.594,0
1583339074.213,26.855,40.527,40.527,30.273,145.508,0
1583339074.217,31.738,40.527,39.551,24.414,77.148,0
1583339074.221,34.668,39.551,39.062,22.461,27.832,0
1583339074.225,34.180,36.621,40.039,19.531,14.648,0
1583339074.229,30.762,36.133,39.551,18.066,4.883,0
1583339074.244,33.691,39.062,41.504,19.531,28.809,0
1583339074.248,33.691,37.109,41.504,15.625,23.438,0
1583339074.252,30.762,33.203,36.133,11.719,52.734,0
1583339074.256,32.227,33.691,33.691,13.184,44.922,0
1583339074.260,36.133,34.180,35.645,15.625,41.016,0
1583339074.264,35.156,32.715,35.645,18.066,-1.953,0
1583339074.268,31.738,32.227,36.133,20.996,10.254,0
1583339074.271,29.297,32.715,35.645,17.578,-12.207,0
1583339074.275,24.902,32.227,33.203,10.742,12.207,0
1583339074.279,23.438,29.785,32.227,10.742,18.555,0
1583339074.283,21.973,24.902,31.738,12.207,2.441,0
1583339074.287,23.926,28.809,34.180,21.484,25.391,0
1583339074.284,25.391,34.668,33.203,25.879,45.410,0
1583339074.288,25.879,32.227,34.668,22.461,20.996,0
1583339074.292,29.785,33.203,38.574,25.391,3.906,0
1583339074.296,28.809,37.598,37.109,21.973,52.246,0
1583339074.300,25.879,36.133,32.715,13.184,7.812,0
1583339074.304,29.297,37.598,32.227,18.066,-13.672,0
1583339074.308,27.832,38.086,34.180,21.484,41.504,0
1583339074.311,20.996,36.621,34.668,16.113,0.488,0
1583339074.315,19.531,38.086,34.668,13.672,-26.855,0
1583339074.319,23.926,38.574,35.156,13.672,30.273,0
1583339074.323,24.414,33.691,34.180,8.789,10.742,0
1583339074.327,20.508,31.738,35.645,12.207,-46.387,0
1583339074.365,16.602,32.227,35.645,17.578,-41.992,0
1583339074.369,18.555,30.762,33.203,11.719,18.066,0
1583339074.373,29.297,33.203,31.250,11.230,-9.277,0
1583339074.377,30.762,34.180,29.297,16.113,3.906,0
1583339074.381,23.926,32.227,32.715,18.555,85.449,0
1583339074.385,26.367,31.738,36.133,23.926,84.961,0
1583339074.389,31.250,34.668,37.109,24.902,70.801,0
1583339074.392,32.715,36.621,37.109,26.367,79.590,0
1583339074.396,28.320,36.133,38.086,22.461,34.668,0
1583339074.400,24.414,34.180,35.645,18.555,5.859,0
1583339074.404,24.414,33.691,35.156,20.508,43.457,0
1583339074.408,23.438,34.668,34.668,17.578,42.969,0
1583339074.385,20.996,35.156,35.645,18.555,64.941,0
1583339074.389,20.508,31.738,36.621,21.484,64.941,0
1583339074.393,22.949,30.273,34.668,20.508,47.363,0
1583339074.397,24.902,27.832,35.156,20.996,77.148,0
1583339074.401,23.438,25.391,37.109,22.461,80.078,0
1583339074.405,20.996,29.785,38.086,23.926,12.695,0
1583339074.409,20.508,30.762,36.133,22.461,8.301,0
1583339074.412,23.438,30.273,34.668,20.508,15.625,0
1583339074.416,25.391,32.715,35.156,21.484,26.367,0
1583339074.420,22.949,31.738,34.180,19.531,17.090,0
1583339074.424,22.461,31.738,31.738,18.555,-32.227,0
1583339074.428,21.484,29.297,29.297,14.648,0.488,0
1583339074.445,25.391,28.320,26.367,10.742,16.602,0
1583339074.449,26.367,30.762,23.926,13.672,-45.898,0
1583339074.453,26.855,32.227,17.090,16.113,-55.176,0
1583339074.457,30.762,34.180,11.719,18.555,27.344,0
1583339074.461,34.180,33.691,14.160,18.066,75.684,0
1583339074.465,28.320,33.691,14.648,12.695,36.133,0
1583339074.469,23.926,32.227,12.695,16.113,32.715,0
1583339074.472,24.414,31.738,11.719,18.555,56.152,0
1583339074.476,20.996,30.273,14.160,17.090,40.039,0
1583339074.480,19.531,28.809,17.090,18.555,63.477,0
1583339074.484,20.508,28.320,20.508,14.160,64.941,0
1583339074.488,16.602,27.832,22.461,13.672,61.523,0
1583339074.465,20.020,27.832,20.996,18.066,39.062,0
1583339074.469,27.344,29.785,20.020,20.996,40.527,0
1583339074.473,29.297,32.227,20.020,23.438,-11.230,0
1583339074.477,25.879,32.227,20.996,23.926,-3.906,0
1583339074.481,27.344,30.762,22.461,25.391,74.707,0
1583339074.485,29.785,28.320,21.484,25.391,49.316,0
1583339074.489,24.414,30.273,18.066,22.461,94.727,0
1583339074.492,22.461,36.621,20.508,20.996,118.652,0
