timestamps,TP9,AF7,AF8,TP10,Right AUX,Marker0
1583424140.797,-100.586,-223.145,29.297,30.273,60.059,0
1583424140.801,-67.383,-289.551,26.367,43.457,50.293,0
1583424140.805,-76.172,-377.930,17.578,46.875,40.527,0
1583424140.809,-106.445,-357.910,15.625,22.461,42.480,0
1583424140.813,-125.000,-303.223,20.508,31.738,7.812,0
1583424140.817,-95.703,-442.871,13.672,48.828,51.270,0
1583424140.821,-26.855,-455.566,17.578,28.809,55.176,0
1583424140.824,-47.363,-520.508,7.812,30.273,26.855,0
1583424140.828,-89.844,-805.664,5.371,41.016,73.242,0
1583424140.832,41.992,-596.191,22.949,41.992,55.664,0
1583424140.836,153.320,-368.652,22.949,45.898,19.531,0
1583424140.840,156.250,-295.410,20.020,26.367,63.477,0
1583424140.857,95.215,-331.543,14.160,20.508,103.516,0
1583424140.861,100.098,-419.922,11.719,41.992,67.871,0
1583424140.865,159.668,-298.828,14.160,43.457,37.109,0
1583424140.869,136.230,-244.141,13.184,33.691,82.520,0
1583424140.873,48.828,-395.020,10.742,27.344,53.711,0
1583424140.877,-20.020,-601.562,7.324,25.879,16.602,0
1583424140.881,-34.180,-861.328,14.160,26.855,56.152,0
1583424140.884,20.020,-708.008,30.273,35.645,110.352,0
1583424140.888,14.648,-453.125,30.273,32.227,100.098,0
1583424140.892,-46.875,-576.660,20.996,21.484,-11.230,0
1583424140.896,-27.344,-658.203,17.090,30.762,-44.434,0
1583424140.900,4.395,-692.871,18.555,38.574,30.273,0
1583424140.897,3.418,-610.840,26.367,37.598,77.148,0
1583424140.901,-62.012,-623.535,18.555,24.902,69.824,0
1583424140.905,-50.781,-752.441,12.207,24.414,-30.273,0
1583424140.909,10.254,-741.211,16.113,37.598,-20.508,0
1583424140.913,-13.672,-799.805,18.066,47.852,27.832,0
1583424140.917,-72.754,-872.559,24.414,39.062,72.754,0
1583424140.921,-91.309,-887.207,20.996,36.133,101.074,0
1583424140.924,-62.012,-970.215,20.996,39.551,-7.324,0
1583424140.928,-38.574,-877.441,31.250,40.527,-12.207,0
1583424140.932,-168.945,-882.812,19.043,25.879,21.484,0
1583424140.936,-244.629,-945.801,18.555,15.137,24.902,0
1583424140.940,-159.180,-797.363,33.691,35.645,45.898,0
1583424140.937,-173.828,-784.180,28.320,47.363,9.277,0
1583424140.941,-236.328,-795.898,26.367,24.902,0.977,0
1583424140.945,-317.383,-892.578,22.949,9.766,18.066,0
1583424140.949,-308.594,-892.578,22.949,31.250,49.805,0
1583424140.953,-275.879,-747.070,26.367,48.340,110.840,0
1583424140.957,-372.070,-879.883,20.508,42.969,38.574,0
1583424140.961,-462.402,-980.957,23.438,35.645,-18.555,0
1583424140.964,-478.027,-965.820,18.555,40.039,22.461,0
1583424140.968,-441.895,-966.309,17.578,40.039,9.766,0
1583424140.972,-393.066,-876.953,31.250,23.926,7.324,0
1583424140.976,-464.844,-939.941,17.090,22.949,-23.438,0
1583424140.980,-479.980,-877.930,20.020,19.531,-6.348,0
1583424140.997,-494.629,-812.500,20.020,31.250,56.641,0
1583424141.001,-551.758,-867.676,7.324,31.738,44.434,0
1583424141.005,-582.520,-806.152,6.836,12.207,27.344,0
1583424141.009,-610.352,-794.922,9.277,38.574,59.570,0
1583424141.013,-566.895,-778.320,18.555,45.410,73.242,0
1583424141.017,-597.168,-919.922,8.789,19.043,42.969,0
1583424141.021,-661.621,-966.797,4.395,15.137,33.691,0
1583424141.024,-663.086,-842.285,20.020,18.066,29.297,0
1583424141.028,-659.668,-778.320,18.066,16.602,32.227,0
1583424141.032,-650.391,-747.559,17.578,20.996,37.109,0
1583424141.036,-745.605,-815.918,10.742,1.953,69.336,0
1583424141.040,-887.207,-951.172,6.348,-16.113,88.867,0
1583424141.037,-936.523,-950.684,15.137,-0.488,83.984,0
1583424141.041,-964.355,-961.426,9.766,8.789,43.457,0
1583424141.045,-969.238,-971.680,12.695,3.906,-0.977,0
1583424141.049,-967.285,-967.285,5.371,7.324,-8.789,0
1583424141.053,-969.238,-968.750,0.977,18.066,-22.461,0
1583424141.057,-964.355,-968.750,12.695,10.742,-16.113,0
1583424141.061,-971.191,-968.262,12.695,14.160,-6.836,0
1583424141.064,-941.406,-968.262,16.602,36.133,4.395,0
1583424141.068,-782.715,-968.750,22.949,41.504,13.184,0
1583424141.072,-638.672,-968.262,11.719,33.203,8.789,0
1583424141.076,-451.660,-968.750,17.090,20.996,-8.789,0
1583424141.080,-242.676,-968.750,32.227,17.090,32.227,0
1583424141.078,-116.699,-968.750,20.996,3.418,2.441,0
1583424141.082,71.289,-968.262,19.531,13.672,6.836,0
1583424141.086,233.398,-968.262,16.113,8.789,59.570,0
1583424141.090,339.355,-968.750,9.766,10.254,74.219,0
1583424141.094,415.039,-968.750,13.672,29.785,28.809,0
1583424141.098,519.043,-968.750,17.090,18.555,10.254,0
1583424141.102,722.656,-968.262,17.578,19.043,91.309,0
1583424141.105,866.211,-968.262,9.277,20.020,87.402,0
1583424141.109,953.613,-968.750,13.672,21.484,18.555,0
1583424141.113,-996.094,-968.750,22.461,32.715,14.648,0
1583424141.117,996.094,-968.262,12.207,41.992,0.488,0
1583424141.121,999.512,-969.238,16.113,39.551,19.043,0
1583424141.137,999.512,-965.332,11.719,38.086,26.367,0
1583424141.141,999.512,-969.727,14.648,45.898,-22.949,0
1583424141.145,999.512,-955.566,29.785,61.523,-15.625,0
1583424141.149,999.512,-858.398,25.391,70.312,-1.953,0
1583424141.153,999.512,-747.559,21.973,60.547,-45.898,0
1583424141.157,999.512,-868.652,14.160,55.664,-81.055,0
1583424141.161,999.512,-977.051,16.113,62.012,-33.691,0
1583424141.164,999.512,-596.680,42.480,74.707,32.715,0
1583424141.168,999.512,-301.758,44.434,74.707,0.488,0
1583424141.172,999.512,-242.676,38.574,65.430,0.000,0
1583424141.176,999.512,-280.273,32.715,67.383,52.734,0
1583424141.180,999.512,-368.164,30.762,71.777,5.371,0
1583424141.177,999.512,-229.980,41.504,74.219,12.695,0
1583424141.181,999.512,-233.398,34.668,60.059,37.598,0
1583424141.185,999.512,-320.801,24.902,66.406,-10.742,0
1583424141.189,999.512,-409.668,23.438,80.078,54.199,0
1583424141.193,999.512,-538.574,22.949,62.500,109.375,0
1583424141.197,-999.512,-664.551,21.973,57.129,82.031,0
1583424141.201,995.117,-844.238,22.949,60.059,87.402,0
1583424141.204,996.094,-806.641,28.809,60.059,123.047,0
1583424141.208,995.117,-766.113,20.020,62.988,117.188,0
1583424141.212,764.160,-947.266,2.930,60.547,0.977,0
1583424141.216,453.613,-954.590,16.602,55.664,-6.348,0
1583424141.220,133.301,-837.402,27.832,52.734,63.477,0
1583424141.217,-291.504,-718.262,23.438,50.781,107.422,0
1583424141.221,-742.676,-721.191,22.461,51.758,109.375,0
1583424141.225,-976.562,-838.379,21.973,54.199,88.867,0
1583424141.229,-959.473,-814.453,23.926,58.594,23.926,0
1583424141.233,-965.820,-730.957,25.391,62.988,4.395,0
1583424141.237,-969.727,-774.414,23.438,63.965,63.965,0
1583424141.241,-968.262,-894.531,23.926,54.199,44.922,0
1583424141.244,-968.262,-963.867,11.719,46.875,41.504,0
1583424141.248,-968.750,-889.648,17.090,49.805,20.996,0
1583424141.252,-968.750,-655.762,36.621,39.551,35.645,0
1583424141.256,-968.262,-635.254,24.902,45.410,32.715,0
1583424141.260,-968.262,-678.223,19.043,51.758,58.594,0
1583424141.278,-968.750,-823.242,20.508,30.273,67.871,0
1583424141.282,-968.262,-933.105,20.996,38.086,56.152,0
1583424141.286,-968.262,-928.711,17.578,43.945,51.270,0
1583424141.290,-968.750,-974.121,13.672,26.855,62.500,0
1583424141.294,-968.262,-966.309,16.113,35.645,41.504,0
1583424141.298,-968.262,-968.750,4.883,37.598,-32.715,0
1583424141.302,-968.750,-968.750,7.324,24.902,-6.836,0
1583424141.305,-968.750,-968.750,20.020,17.090,27.832,0
1583424141.309,-968.262,-968.750,13.672,23.926,14.648,0
1583424141.313,-968.750,-968.750,21.484,42.969,79.102,0
1583424141.317,-968.750,-968.262,10.254,35.156,57.617,0
1583424141.321,-968.262,-968.262,2.441,10.254,-30.273,0
1583424141.338,-968.262,-968.750,23.438,11.719,5.859,0
1583424141.342,-968.750,-968.750,20.508,22.949,-11.230,0
1583424141.346,-968.750,-968.750,20.508,26.367,44.922,0
1583424141.350,-968.750,-968.750,17.090,34.180,82.031,0
1583424141.354,-968.262,-968.750,14.648,33.691,9.277,0
1583424141.358,-968.262,-968.262,15.625,29.297,-30.273,0
1583424141.362,-969.238,-968.750,20.508,31.250,18.555,0
1583424141.365,-966.309,-968.262,24.414,10.254,62.988,0
1583424141.369,-966.797,-968.750,8.301,-2.441,20.996,0
1583424141.373,-962.402,-968.750,2.441,13.672,15.137,0
1583424141.377,-836.426,-968.262,18.555,20.508,28.809,0
1583424141.381,-648.438,-968.750,19.043,20.508,24.414,0
1583424141.357,-512.695,-967.285,17.090,11.230,0.977,0
1583424141.361,-401.367,-964.844,27.832,7.324,53.223,0
1583424141.365,-229.004,-975.098,26.367,15.137,83.984,0
1583424141.369,27.344,-877.441,23.926,4.883,34.668,0
1583424141.373,126.465,-757.324,20.508,-14.160,34.180,0
1583424141.377,158.691,-842.773,13.184,-28.320,25.879,0
1583424141.381,260.742,-953.613,20.020,-32.227,-24.414,0
1583424141.384,341.797,-866.211,29.785,-27.344,5.859,0
1583424141.388,319.336,-595.215,34.180,-38.574,87.891,0
1583424141.392,178.223,-562.500,29.297,-36.621,60.059,0
1583424141.396,205.566,-624.512,27.832,-39.062,78.125,0
1583424141.400,389.160,-499.023,25.879,-41.992,93.262,0
1583424141.417,447.266,-767.090,17.578,-21.484,-2.930,0
1583424141.421,482.910,-872.070,25.879,-33.203,14.160,0
1583424141.425,612.793,-525.391,34.668,-46.875,78.613,0
1583424141.429,681.152,-490.723,20.996,-53.223,31.738,0
1583424141.433,681.152,-564.941,27.832,-43.945,-12.695,0
1583424141.437,557.129,-764.648,29.785,-41.016,47.852,0
1583424141.441,414.551,-854.492,16.602,-39.551,77.637,0
1583424141.444,305.664,-689.941,20.996,-20.508,71.777,0
1583424141.448,31.738,-689.941,19.043,-31.738,99.609,0
1583424141.452,-291.992,-890.137,3.418,-26.855,83.008,0
1583424141.456,-468.262,-955.078,-10.742,-12.207,44.922,0
1583424141.460,-584.961,-964.355,-3.418,-11.719,51.758,0
1583424141.457,-622.559,-623.535,11.719,7.324,72.754,0
1583424141.461,-517.090,477.051,11.230,11.230,48.340,0
1583424141.465,-424.316,-952.148,12.207,16.113,49.316,0
1583424141.469,-289.062,967.285,4.395,33.691,27.832,0
1583424141.473,72.266,995.117,0.977,43.945,46.875,0
1583424141.477,439.941,-998.535,5.859,53.223,47.363,0
1583424141.481,652.832,999.512,10.254,57.129,17.090,0
1583424141.484,878.418,999.512,15.625,59.082,8.301,0
1583424141.488,-993.164,999.512,-8.789,75.195,-2.441,0
1583424141.492,994.141,999.512,-13.672,80.566,-16.602,0
1583424141.496,998.047,999.512,8.301,74.707,-3.906,0
1583424141.500,-1000.000,999.512,2.930,76.660,16.113,0
1583424141.537,999.512,999.512,6.348,86.426,-13.672,0
1583424141.541,999.512,999.512,8.789,89.355,-23.438,0
1583424141.545,999.512,999.512,10.742,92.285,53.711,0
1583424141.549,999.512,999.512,23.926,85.449,78.613,0
1583424141.553,999.512,999.512,20.996,77.148,20.020,0
1583424141.557,999.512,999.512,8.301,75.684,7.324,0
1583424141.561,999.512,999.512,-14.160,65.918,32.715,0
1583424141.564,999.512,999.512,-20.020,67.871,106.934,0
1583424141.568,999.512,999.512,-8.301,68.848,89.355,0
1583424141.572,999.512,999.512,-8.301,66.406,44.434,0
1583424141.576,999.512,999.512,-4.883,62.012,17.090,0
1583424141.580,999.512,999.512,-0.977,60.059,0.000,0
1583424141.557,999.512,999.512,-0.977,69.824,-5.859,0
1583424141.561,999.512,999.512,9.766,79.590,51.758,0
1583424141.565,999.512,999.512,1.465,72.266,107.910,0
1583424141.569,999.512,999.512,0.977,67.383,55.176,0
1583424141.573,999.512,999.512,5.371,74.219,45.898,0
1583424141.577,999.512,999.512,-10.742,80.078,13.672,0
1583424141.581,999.512,999.512,-2.930,79.102,8.301,0
1583424141.584,999.512,999.512,2.930,71.289,77.637,0
1583424141.588,999.512,999.512,2.930,73.730,56.152,0
1583424141.592,999.512,999.512,13.672,76.172,72.754,0
1583424141.596,999.512,999.512,12.207,79.102,94.727,0
1583424141.600,999.512,999.512,11.230,73.730,77.148,0
1583424141.597,999.512,999.512,9.766,72.266,101.562,0
1583424141.601,999.512,999.512,8.301,93.262,59.570,0
1583424141.605,999.512,999.512,13.672,83.496,26.855,0
1583424141.609,999.512,999.512,0.488,63.477,48.340,0
1583424141.613,999.512,999.512,-0.977,53.711,64.453,0
1583424141.617,-999.512,999.512,9.766,55.176,28.809,0
1583424141.621,993.164,999.512,3.418,64.453,-7.324,0
1583424141.624,-994.141,999.512,7.812,65.430,53.711,0
1583424141.628,976.562,999.512,5.859,56.152,55.176,0
1583424141.632,802.246,999.512,4.395,41.016,35.156,0
1583424141.636,727.051,999.512,11.719,44.922,62.988,0
1583424141.640,694.824,999.512,11.230,50.293,61.523,0
1583424141.657,570.312,999.512,8.301,45.898,85.449,0
1583424141.661,385.742,999.512,3.418,43.457,114.746,0
1583424141.665,263.184,999.512,1.465,42.969,66.406,0
1583424141.669,258.789,999.512,1.953,40.039,68.359,0
1583424141.673,192.383,999.512,0.977,36.621,46.875,0
1583424141.677,49.805,999.512,8.789,32.227,23.438,0
1583424141.681,-85.449,999.512,15.137,41.504,52.246,0
1583424141.684,-185.547,999.512,37.598,52.246,3.418,0
1583424141.688,-222.656,999.512,52.734,46.875,14.648,0
1583424141.692,-336.914,999.512,30.762,41.992,23.438,0
1583424141.696,-433.594,999.512,40.527,43.457,9.766,0
1583424141.700,-473.633,999.512,58.594,47.852,46.875,0
1583424141.697,-503.418,999.512,57.617,45.898,54.199,0
1583424141.701,-526.855,999.512,49.805,33.691,33.203,0
1583424141.705,-605.957,999.512,69.336,28.809,33.691,0
1583424141.709,-627.930,999.512,100.098,33.203,8.789,0
1583424141.713,-675.781,999.512,129.883,35.645,13.672,0
1583424141.717,-815.918,999.512,154.297,25.879,58.105,0
1583424141.721,-939.453,999.512,171.387,24.414,31.250,0
1583424141.724,-969.238,999.512,190.430,42.480,-7.324,0
1583424141.728,-965.820,999.512,169.922,38.574,-34.180,0
1583424141.732,-968.262,999.512,202.148,28.809,1.953,0
1583424141.736,-968.750,999.512,265.625,30.273,75.684,0
1583424141.740,-968.750,999.512,304.199,41.504,57.617,0
1583424141.737,-968.750,999.512,360.352,38.086,0.488,0
1583424141.741,-968.262,999.512,444.336,20.508,24.902,0
1583424141.745,-965.820,999.512,544.434,5.859,42.480,0
1583424141.749,-977.539,999.512,659.180,3.906,48.828,0
1583424141.753,-928.711,999.512,775.879,0.977,109.863,0
1583424141.757,-911.133,999.512,916.992,-6.348,58.594,0
1583424141.761,-970.215,999.512,-999.512,-16.602,31.250,0
1583424141.764,-969.238,999.512,997.559,-31.738,88.867,0
1583424141.768,-966.797,999.512,997.559,-36.621,32.227,0
1583424141.772,-968.750,999.512,-1000.000,-43.457,-43.457,0
1583424141.776,-968.262,999.512,999.512,-67.871,-27.832,0
1583424141.780,-968.750,999.512,999.512,-89.844,-22.461,0
1583424141.797,-968.750,999.512,999.512,-80.078,-26.367,0
1583424141.801,-968.750,999.512,999.512,-86.426,-19.043,0
1583424141.805,-969.238,999.512,999.512,-114.258,-15.625,0
1583424141.809,-965.332,999.512,999.512,-127.930,20.996,0
1583424141.813,-970.215,999.512,999.512,-141.602,-9.766,0
1583424141.817,-955.078,999.512,999.512,-151.855,4.395,0
1583424141.821,-836.426,999.512,999.512,-157.715,37.598,0
1583424141.824,-683.105,999.512,999.512,-171.387,-13.184,0
1583424141.828,-363.770,999.512,999.512,-152.344,-11.230,0
1583424141.832,146.484,999.512,999.512,-131.348,12.695,0
1583424141.836,560.059,999.512,999.512,-137.207,40.039,0
1583424141.840,785.156,999.512,999.512,-137.207,46.875,0
1583424141.838,883.789,999.512,999.512,-125.488,44.922,0
1583424141.842,940.918,999.512,999.512,-118.652,58.594,0
1583424141.846,977.051,999.512,999.512,-112.793,10.742,0
1583424141.850,999.023,999.512,999.512,-110.352,-14.160,0
1583424141.854,997.559,999.512,999.512,-102.051,-17.578,0
1583424141.858,998.535,999.512,997.559,-84.473,-2.930,0
1583424141.862,976.562,999.512,-997.559,-73.242,63.477,0
1583424141.865,896.973,999.512,979.492,-63.965,82.031,0
1583424141.869,760.742,999.512,934.082,-66.406,51.758,0
1583424141.873,705.566,999.512,884.766,-62.500,91.797,0
1583424141.877,677.246,-999.512,823.730,-43.945,119.629,0
1583424141.881,602.051,991.699,808.594,-35.645,40.527,0
1583424141.877,455.566,996.582,788.086,-35.645,32.227,0
1583424141.881,320.801,939.453,758.301,-19.531,92.285,0
1583424141.885,319.336,536.133,722.656,-9.766,51.270,0
1583424141.889,346.191,-66.895,691.406,-5.371,7.812,0
1583424141.893,307.617,-565.918,691.406,-1.465,5.371,0
1583424141.897,96.680,-929.688,669.434,-4.395,-44.922,0
1583424141.901,-20.020,-973.633,654.297,2.930,-10.742,0
1583424141.904,-10.254,-957.520,637.695,10.254,10.254,0
1583424141.908,-139.160,-971.191,585.938,-6.348,-51.270,0
1583424141.912,-177.734,-968.262,577.148,-21.484,31.738,0
1583424141.916,-86.426,-968.750,580.566,-12.695,83.008,0
1583424141.920,-75.195,-968.750,551.270,-1.953,-1.465,0
1583424141.938,-106.445,-968.262,533.203,-2.441,-17.578,0
1583424141.942,-152.344,-968.262,521.484,-10.254,35.156,0
1583424141.946,-131.836,-968.750,524.414,-8.789,80.078,0
1583424141.950,-81.543,-968.750,514.648,5.859,90.820,0
1583424141.954,-71.777,-968.750,491.211,3.906,31.738,0
1583424141.958,-75.684,-968.750,479.980,-3.418,26.855,0
1583424141.962,-68.359,-968.750,475.586,-2.930,69.336,0
1583424141.965,70.312,-971.680,491.211,2.441,77.637,0
1583424141.969,227.051,-952.148,490.723,0.000,79.102,0
1583424141.973,297.363,-975.586,463.867,-0.977,45.410,0
1583424141.977,361.816,-859.375,459.473,0.000,6.836,0
1583424141.981,416.016,-293.457,444.336,6.836,11.230,0
1583424141.977,539.062,589.355,446.289,15.137,30.762,0
1583424141.981,698.242,-971.680,461.426,6.836,51.758,0
1583424141.985,718.262,977.051,452.637,1.465,41.992,0
1583424141.989,752.930,995.117,445.801,1.465,-18.555,0
1583424141.993,837.891,-999.023,441.406,20.020,-4.395,0
1583424141.997,857.422,999.512,438.965,23.438,-2.930,0
1583424142.001,833.496,999.512,438.477,8.789,-27.344,0
1583424142.004,850.586,999.512,445.801,4.395,23.438,0
1583424142.008,958.008,999.512,455.078,6.836,81.055,0
1583424142.012,-996.094,999.512,434.082,12.695,10.254,0
1583424142.016,996.094,999.512,419.434,7.324,-56.641,0
1583424142.020,999.023,999.512,433.105,9.766,-29.785,0
1583424142.017,999.512,999.512,433.594,26.855,-1.465,0
1583424142.021,999.512,999.512,434.082,19.531,36.133,0
1583424142.025,999.512,999.512,415.039,-8.301,69.336,0
1583424142.029,999.512,999.512,399.414,-10.742,84.473,0
1583424142.033,999.512,999.512,407.715,2.930,74.707,0
1583424142.037,999.512,999.512,402.832,6.836,48.340,0
1583424142.041,999.512,999.512,405.762,10.254,46.387,0
1583424142.044,999.512,999.512,407.715,5.371,55.664,0
1583424142.048,999.512,999.512,391.113,22.949,63.477,0
1583424142.052,999.512,999.512,401.367,23.926,66.895,0
1583424142.056,999.512,999.512,407.227,16.113,29.785,0
1583424142.060,999.512,999.512,394.531,29.785,19.043,0
1583424142.077,999.512,999.512,385.742,29.297,10.254,0
1583424142.081,999.512,999.512,381.836,29.785,-10.742,0
1583424142.085,999.512,999.512,381.348,43.945,-4.395,0
1583424142.089,999.512,999.512,373.535,43.945,33.203,0
1583424142.093,999.512,999.512,353.027,34.668,11.719,0
1583424142.097,999.512,999.512,340.820,42.969,-18.555,0
1583424142.101,999.512,999.512,321.777,42.480,37.598,0
1583424142.104,999.512,999.512,316.406,30.762,30.762,0
1583424142.108,-1000.000,999.512,326.172,30.762,31.738,0
1583424142.112,982.422,999.512,310.547,29.785,17.578,0
1583424142.116,-979.980,999.512,300.293,31.738,29.785,0
1583424142.120,814.941,999.512,275.879,27.832,62.012,0
1583424142.117,248.535,999.512,254.395,16.113,14.648,0
1583424142.121,-177.734,999.512,250.977,15.137,9.766,0
1583424142.125,-369.141,999.512,243.164,14.160,39.551,0
1583424142.129,-537.109,999.512,239.258,13.184,73.242,0
1583424142.133,-821.777,999.512,222.656,17.578,34.668,0
1583424142.137,-978.027,999.512,197.754,19.043,-48.828,0
1583424142.141,-961.914,999.512,185.059,28.320,23.438,0
1583424142.144,-966.797,999.512,157.715,35.645,32.715,0
1583424142.148,-969.238,999.512,148.438,30.273,-18.555,0
1583424142.152,-968.750,999.512,127.930,30.762,67.871,0
1583424142.156,-968.750,999.512,96.680,43.945,66.895,0
1583424142.160,-969.238,999.512,115.234,39.062,37.109,0
1583424142.158,-956.543,999.512,113.770,24.902,41.504,0
1583424142.162,-979.492,999.512,93.750,32.715,5.859,0
1583424142.166,-850.098,999.512,82.520,44.434,27.832,0
1583424142.170,-396.973,999.512,87.402,38.086,52.734,0
1583424142.174,20.020,999.512,88.867,27.344,48.828,0
1583424142.178,254.883,999.512,74.707,23.926,47.363,0
1583424142.182,588.867,999.512,70.801,25.391,55.176,0
1583424142.185,935.059,999.512,68.359,36.133,10.254,0
1583424142.189,-996.582,999.512,62.500,33.203,-16.602,0
1583424142.193,990.723,999.512,65.918,24.902,7.812,0
1583424142.197,-999.512,999.512,53.711,23.926,17.090,0
1583424142.201,999.512,999.512,50.781,36.133,1.953,0
1583424142.217,999.512,999.512,57.129,36.621,18.555,0
1583424142.221,-999.512,999.512,34.180,21.973,6.836,0
1583424142.225,995.605,999.512,31.250,28.809,-30.762,0
1583424142.229,999.023,999.512,41.016,44.434,19.043,0
1583424142.233,984.375,999.512,30.762,46.387,20.020,0
1583424142.237,841.797,999.512,18.555,42.969,-26.367,0
1583424142.241,577.637,999.512,9.277,24.902,-27.344,0
1583424142.244,408.203,999.512,38.574,12.695,0.977,0
1583424142.248,332.520,999.512,62.988,33.691,74.219,0
1583424142.252,176.270,999.512,41.016,26.855,95.215,0
1583424142.256,-53.711,999.512,35.156,12.695,96.191,0
1583424142.260,-253.906,999.512,44.922,17.090,76.660,0
1583424142.258,-354.980,999.512,55.176,23.926,98.633,0
1583424142.262,-496.094,999.512,41.992,19.043,125.000,0
1583424142.266,-668.457,999.512,33.691,8.789,58.105,0
1583424142.270,-761.719,999.512,42.480,13.184,-9.766,0
1583424142.274,-773.926,999.512,37.598,28.809,26.855,0
1583424142.278,-788.086,999.512,29.785,26.855,48.340,0
1583424142.282,-845.215,999.512,26.367,17.578,24.414,0
1583424142.285,-902.832,999.512,31.250,17.090,19.043,0
1583424142.289,-860.352,999.512,35.156,9.766,4.883,0
1583424142.293,-886.719,999.512,17.090,24.414,64.453,0
1583424142.297,-972.656,999.512,12.695,22.461,27.344,0
1583424142.301,-968.262,999.512,16.113,8.301,-21.484,0
1583424142.309,-966.309,999.512,5.859,20.020,-0.977,0
1583424142.313,-969.238,999.512,12.695,40.527,21.484,0
1583424142.317,-968.750,999.512,4.883,37.109,39.551,0
1583424142.321,-968.750,999.512,10.742,5.859,23.926,0
1583424142.325,-968.750,999.512,20.508,2.441,31.738,0
1583424142.329,-968.750,999.512,14.160,25.879,12.695,0
1583424142.333,-968.262,999.512,26.367,33.691,-33.203,0
1583424142.336,-968.750,999.512,12.207,22.461,-14.160,0
1583424142.340,-968.750,999.512,4.395,19.531,18.555,0
1583424142.344,-968.750,999.512,17.578,25.879,-39.062,0
1583424142.348,-968.750,999.512,17.578,29.785,-1.953,0
1583424142.352,-968.750,999.512,12.207,27.344,82.031,0
1583424142.357,-968.750,999.512,-15.625,33.691,18.066,0
1583424142.361,-968.750,999.512,-18.555,42.480,21.973,0
1583424142.365,-968.262,999.512,2.441,53.711,45.410,0
1583424142.369,-968.262,999.512,-3.906,51.270,22.949,0
1583424142.373,-968.750,999.512,-11.719,41.992,59.082,0
1583424142.377,-968.750,999.512,-28.320,55.664,42.480,0
1583424142.381,-968.750,999.512,-41.016,54.688,34.668,0
1583424142.384,-968.750,999.512,-23.438,50.293,69.824,0
1583424142.388,-968.750,999.512,-15.137,54.199,84.473,0
1583424142.392,-968.750,999.512,-24.902,65.430,47.363,0
1583424142.396,-968.750,999.512,-34.180,74.707,-10.742,0
1583424142.400,-968.750,999.512,-40.039,46.387,28.809,0
1583424142.397,-968.262,999.512,-43.945,21.484,69.336,0
1583424142.401,-968.750,999.512,-54.688,34.668,-11.230,0
1583424142.405,-968.750,999.512,-49.316,61.523,-17.090,0
1583424142.409,-968.750,999.512,-46.875,61.035,22.949,0
1583424142.413,-968.750,999.512,-46.875,59.570,20.508,0
1583424142.417,-968.262,999.512,-46.387,64.453,39.062,0
1583424142.421,-968.750,999.512,-49.805,70.801,58.105,0
1583424142.424,-968.750,999.512,-42.969,78.613,32.227,0
1583424142.428,-968.750,999.512,-42.969,72.266,10.254,0
1583424142.432,-968.750,999.512,-69.824,55.176,22.949,0
1583424142.436,-968.750,999.512,-79.102,59.082,28.320,0
1583424142.440,-968.750,999.512,-62.988,71.777,69.824,0
1583424142.437,-968.750,999.512,-69.336,61.523,103.516,0
1583424142.441,-968.750,999.512,-81.543,54.688,66.406,0
1583424142.445,-968.750,999.512,-101.074,47.852,14.648,0
1583424142.449,-968.750,999.512,-102.051,55.664,13.184,0
1583424142.453,-968.750,999.512,-95.703,70.312,5.371,0
1583424142.457,-968.750,999.512,-105.469,65.430,1.465,0
1583424142.461,-968.750,999.512,-96.680,64.453,4.883,0
1583424142.464,-968.750,999.512,-100.586,63.477,3.906,0
1583424142.468,-968.750,999.512,-92.285,62.988,65.918,0
1583424142.472,-968.750,999.512,-69.824,62.012,49.805,0
1583424142.476,-968.750,999.512,-81.055,63.477,15.137,0
1583424142.480,-968.750,999.512,-80.566,66.406,16.113,0
1583424142.497,-968.750,999.512,-75.684,60.547,39.551,0
1583424142.501,-969.238,999.512,-75.195,52.246,8.789,0
1583424142.505,-964.844,999.512,-65.918,41.992,5.371,0
1583424142.509,-973.145,999.512,-67.871,46.387,39.062,0
1583424142.513,-938.965,999.512,-67.383,66.406,-18.555,0
1583424142.517,-823.242,999.512,-70.801,67.383,-11.719,0
1583424142.521,-701.660,999.512,-65.430,55.176,81.055,0
1583424142.524,-527.344,999.512,-42.480,50.781,84.961,0
1583424142.528,-362.793,999.512,-44.434,53.711,36.133,0
1583424142.532,-252.441,999.512,-55.664,52.246,39.062,0
1583424142.536,-178.223,999.512,-60.547,50.781,68.848,0
1583424142.540,-148.926,999.512,-64.453,46.875,52.734,0
1583424142.537,-84.473,999.512,-62.012,47.852,30.762,0
1583424142.541,11.719,999.512,-60.547,57.617,24.902,0
1583424142.545,87.402,999.512,-62.012,50.293,55.176,0
1583424142.549,25.879,999.512,-76.172,44.922,13.184,0
1583424142.553,-46.387,999.512,-79.590,50.781,-34.668,0
1583424142.557,-67.871,999.512,-72.754,42.480,-11.230,0
1583424142.561,-271.973,999.512,-68.848,46.875,48.828,0
1583424142.564,-503.418,999.512,-66.406,34.180,57.617,0
1583424142.568,-554.199,999.512,-72.266,19.531,-33.203,0
1583424142.572,-557.617,999.512,-91.797,36.133,-15.625,0
1583424142.576,-449.707,999.512,-86.914,36.621,71.777,0
1583424142.580,-244.629,999.512,-67.383,28.320,104.980,0
1583424142.577,-122.070,999.512,-70.312,37.109,73.242,0
1583424142.581,-9.766,999.512,-74.219,32.227,29.297,0
1583424142.585,108.887,999.512,-75.195,26.855,45.898,0
1583424142.589,262.207,999.512,-73.730,33.691,22.461,0
1583424142.593,388.184,999.512,-78.125,31.250,26.855,0
1583424142.597,478.516,999.512,-82.031,40.527,56.641,0
1583424142.601,589.355,999.512,-68.848,41.504,57.617,0
1583424142.604,624.023,999.512,-81.055,25.879,57.617,0
1583424142.608,636.719,999.512,-82.520,26.855,57.617,0
1583424142.612,707.031,999.512,-62.988,33.203,63.477,0
1583424142.616,681.152,999.512,-74.219,33.691,65.430,0
1583424142.620,606.445,999.512,-81.543,23.926,37.109,0
1583424142.637,520.020,999.512,-86.426,19.043,-15.137,0
1583424142.641,451.660,999.512,-85.449,22.461,-13.184,0
1583424142.645,454.102,999.512,-87.891,27.832,8.301,0
1583424142.649,452.637,999.512,-101.562,20.508,-2.441,0
1583424142.653,450.195,999.512,-100.098,17.090,29.785,0
1583424142.657,391.113,999.512,-114.258,16.602,80.566,0
1583424142.661,415.039,999.512,-110.352,17.090,42.480,0
1583424142.664,537.598,999.512,-84.473,30.762,57.129,0
1583424142.668,555.664,999.512,-86.426,32.227,111.328,0
1583424142.672,512.207,999.512,-93.750,22.461,83.496,0
1583424142.676,473.633,999.512,-106.934,39.062,-37.109,0
1583424142.680,531.738,999.512,-94.238,43.457,-6.348,0
1583424142.677,609.863,999.512,-74.219,28.320,33.691,0
1583424142.681,555.664,999.512,-82.031,22.461,21.484,0
1583424142.685,512.695,999.512,-83.984,29.785,35.645,0
1583424142.689,515.625,999.512,-86.914,49.316,6.836,0
1583424142.693,484.863,999.512,-87.891,41.992,34.180,0
1583424142.697,409.180,999.512,-89.844,28.809,25.879,0
1583424142.701,361.328,999.512,-83.984,24.414,24.414,0
1583424142.704,417.480,999.512,-62.500,33.691,62.500,0
1583424142.708,444.824,999.512,-69.824,48.828,57.129,0
1583424142.712,375.977,999.512,-92.285,34.180,22.949,0
1583424142.716,365.723,999.512,-77.148,20.020,35.645,0
1583424142.720,429.688,999.512,-68.359,22.461,52.246,0
1583424142.717,442.871,999.512,-77.148,32.715,24.902,0
1583424142.721,420.898,999.512,-81.055,27.344,-3.906,0
1583424142.725,395.996,999.512,-74.707,24.902,13.184,0
1583424142.729,400.879,999.512,-67.871,25.879,63.477,0
1583424142.733,417.969,999.512,-78.613,21.973,80.566,0
1583424142.737,376.953,999.512,-80.078,22.949,22.461,0
1583424142.741,320.801,999.512,-67.871,30.273,29.297,0
1583424142.744,286.133,999.512,-71.777,33.691,101.562,0
1583424142.748,332.031,999.512,-63.477,26.367,77.148,0
1583424142.752,414.062,999.512,-49.316,30.273,64.453,0
1583424142.756,410.645,999.512,-59.082,24.414,72.754,0
1583424142.760,389.160,999.512,-65.430,16.602,34.668,0
1583424142.777,390.625,999.512,-68.359,35.645,29.297,0
1583424142.781,419.434,999.512,-65.430,33.203,44.434,0
1583424142.785,417.969,999.512,-62.500,22.461,28.809,0
1583424142.789,339.355,999.512,-71.289,25.879,2.930,0
1583424142.793,350.098,999.512,-70.801,32.227,62.988,0
1583424142.797,336.426,999.512,-79.590,40.527,63.965,0
1583424142.801,299.316,999.512,-73.242,35.645,36.621,0
1583424142.804,298.340,999.512,-57.617,38.574,22.461,0
1583424142.808,248.535,999.512,-65.918,33.691,19.531,0
1583424142.812,248.535,999.512,-67.871,15.625,-15.625,0
1583424142.816,194.824,999.512,-76.172,15.625,4.883,0
1583424142.820,128.418,999.512,-74.219,17.578,35.156,0
1583424142.817,118.652,999.512,-71.777,22.461,23.926,0
1583424142.821,101.074,999.512,-83.496,27.832,-35.645,0
1583424142.825,81.055,999.512,-78.613,25.879,-64.453,0
1583424142.829,-4.883,999.512,-89.355,15.137,-7.324,0
1583424142.833,-93.262,999.512,-83.984,16.602,-4.883,0
1583424142.837,-81.543,999.512,-65.430,25.879,16.602,0
1583424142.841,-62.500,999.512,-74.707,32.715,79.590,0
1583424142.844,-76.172,999.512,-72.266,34.668,87.891,0
1583424142.848,-147.461,999.512,-81.543,34.180,32.715,0
1583424142.852,-179.688,999.512,-83.984,44.434,13.672,0
1583424142.856,-105.469,999.512,-62.012,42.480,50.293,0
1583424142.860,-85.938,999.512,-64.453,40.039,38.086,0
1583424142.857,-120.605,999.512,-69.336,51.270,23.926,0
1583424142.861,-127.441,999.512,-75.195,53.711,48.828,0
1583424142.865,-106.445,999.512,-71.289,49.805,52.734,0
1583424142.869,-71.289,999.512,-63.477,46.387,50.781,0
1583424142.873,-94.727,999.512,-72.266,44.922,7.324,0
1583424142.877,-106.934,999.512,-69.336,42.480,26.367,0
1583424142.881,-62.988,999.512,-65.430,46.875,48.340,0
1583424142.884,-17.578,999.512,-56.152,57.129,54.199,0
1583424142.888,15.625,999.512,-48.340,41.992,61.035,0
1583424142.892,3.906,999.512,-45.410,26.367,53.223,0
1583424142.896,39.551,999.512,-40.527,39.062,30.273,0
1583424142.900,113.281,999.512,-44.434,42.480,23.926,0
1583424142.917,98.633,999.512,-61.035,35.645,13.672,0
1583424142.921,113.770,999.512,-50.781,35.645,-33.203,0
1583424142.925,192.871,999.512,-43.457,41.504,2.441,0
1583424142.929,240.723,999.512,-57.617,46.387,-18.555,0
1583424142.933,263.184,999.512,-60.547,49.805,6.348,0
1583424142.937,193.359,999.512,-67.871,42.480,9.766,0
1583424142.941,164.551,999.512,-65.430,42.480,0.000,0
1583424142.944,241.699,999.512,-58.594,54.199,10.742,0
1583424142.948,277.344,999.512,-55.664,56.152,24.902,0
1583424142.952,256.348,999.512,-62.988,51.270,-1.465,0
1583424142.956,170.410,999.512,-83.008,40.527,-49.805,0
1583424142.960,181.152,999.512,-72.754,42.480,29.297,0
1583424142.957,258.301,999.512,-60.059,54.199,-1.953,0
1583424142.961,234.863,999.512,-58.105,36.133,-36.621,0
1583424142.965,210.938,999.512,-51.758,27.344,55.664,0
1583424142.969,208.008,999.512,-54.199,38.086,47.852,0
1583424142.973,243.164,999.512,-47.363,26.367,13.672,0
1583424142.977,236.816,999.512,-52.246,12.695,25.879,0
1583424142.981,196.777,999.512,-52.734,17.578,35.156,0
1583424142.984,260.254,999.512,-40.527,29.297,43.457,0
1583424142.988,269.531,999.512,-56.152,26.367,52.734,0
1583424142.992,202.637,999.512,-68.359,-1.465,81.543,0
1583424142.996,231.934,999.512,-49.805,-15.137,87.891,0
1583424143.000,254.883,999.512,-47.363,21.973,63.965,0
1583424143.017,297.363,999.512,-53.711,41.016,69.824,0
1583424143.021,292.969,999.512,-66.406,35.645,79.102,0
1583424143.025,246.094,999.512,-67.871,32.715,78.613,0
1583424143.029,230.957,999.512,-62.500,25.879,67.383,0
1583424143.033,262.695,999.512,-62.012,38.574,33.691,0
1583424143.037,300.293,999.512,-63.965,55.664,73.730,0
1583424143.041,296.387,999.512,-75.195,47.363,60.547,0
1583424143.044,252.441,999.512,-77.637,40.527,60.547,0
1583424143.048,318.848,999.512,-57.617,52.246,65.430,0
1583424143.052,410.156,999.512,-54.688,50.293,8.789,0
1583424143.056,406.250,999.512,-61.035,45.898,1.465,0
1583424143.060,387.207,999.512,-62.500,51.758,13.672,0
1583424143.059,391.113,999.512,-63.965,47.363,38.086,0
1583424143.063,474.121,999.512,-55.176,53.711,76.172,0
1583424143.067,517.578,999.512,-57.129,49.316,87.891,0
1583424143.071,498.535,999.512,-58.594,36.621,56.152,0
1583424143.075,468.262,999.512,-56.152,42.480,17.090,0
1583424143.079,449.219,999.512,-65.918,45.410,2.930,0
1583424143.083,466.797,999.512,-63.477,40.039,-8.301,0
1583424143.086,511.719,999.512,-46.875,37.109,78.613,0
1583424143.090,513.184,999.512,-52.734,32.715,100.586,0
1583424143.094,533.691,999.512,-59.082,32.227,22.949,0
1583424143.098,500.000,999.512,-70.312,20.996,12.207,0
1583424143.102,489.258,999.512,-67.871,0.000,3.418,0
1583424143.118,540.527,999.512,-54.199,9.277,-26.855,0
1583424143.122,527.832,999.512,-53.223,22.461,-39.062,0
1583424143.126,535.156,999.512,-50.293,25.391,70.801,0
1583424143.130,493.164,999.512,-58.105,26.367,62.500,0
1583424143.134,430.664,999.512,-57.617,19.531,23.438,0
1583424143.138,411.621,999.512,-54.688,31.738,46.387,0
1583424143.142,449.219,999.512,-53.711,40.527,32.227,0
1583424143.145,487.793,999.512,-45.898,29.785,6.836,0
1583424143.149,405.273,999.512,-52.734,24.902,10.254,0
1583424143.153,378.418,999.512,-51.758,27.832,105.957,0
1583424143.157,469.727,999.512,-43.945,41.992,133.789,0
1583424143.161,509.766,999.512,-58.594,42.480,17.090,0
1583424143.160,533.691,999.512,-55.176,33.203,53.223,0
1583424143.164,438.477,999.512,-60.547,34.180,115.234,0
1583424143.168,369.141,999.512,-61.035,34.668,54.688,0
1583424143.172,417.969,999.512,-47.363,44.434,24.414,0
1583424143.176,401.367,999.512,-52.246,45.410,10.742,0
1583424143.180,312.988,999.512,-54.199,27.344,33.691,0
1583424143.184,255.859,999.512,-62.012,26.367,60.059,0
1583424143.187,309.570,999.512,-61.523,38.086,50.293,0
1583424143.191,360.352,999.512,-55.176,22.461,-13.672,0
1583424143.195,325.195,999.512,-56.152,3.418,-6.836,0
1583424143.199,296.387,999.512,-53.223,12.695,6.836,0
1583424143.203,271.484,999.512,-59.082,10.742,12.207,0
1583424143.197,208.984,999.512,-77.637,6.348,100.586,0
1583424143.201,235.840,999.512,-61.523,9.277,100.098,0
1583424143.205,270.508,999.512,-44.922,4.883,23.926,0
1583424143.209,286.133,999.512,-50.781,4.883,12.207,0
1583424143.213,318.359,999.512,-54.199,4.395,15.137,0
1583424143.217,280.273,999.512,-51.270,5.859,110.840,0
1583424143.221,231.934,999.512,-55.176,11.230,99.609,0
1583424143.224,229.004,999.023,-50.293,20.508,25.391,0
1583424143.228,234.375,997.559,-36.133,23.438,71.289,0
1583424143.232,200.195,-993.652,-37.598,8.789,74.219,0
1583424143.236,52.246,961.426,-56.641,6.348,45.898,0
1583424143.240,-16.602,961.426,-48.340,14.160,36.133,0
1583424143.237,15.625,-993.652,-34.668,10.742,-14.160,0
1583424143.241,-11.719,997.559,-35.645,34.668,12.695,0
1583424143.245,-98.633,999.023,-40.039,36.621,31.250,0
1583424143.249,-143.066,999.512,-43.457,5.859,4.395,0
1583424143.253,-68.848,999.512,-35.645,13.672,31.250,0
1583424143.257,-75.684,999.023,-41.992,28.320,2.930,0
1583424143.261,-124.023,999.512,-43.457,16.602,-1.953,0
1583424143.264,-155.273,999.512,-41.992,1.465,58.594,0
1583424143.268,-152.832,997.070,-49.805,11.230,61.035,0
1583424143.272,-39.062,998.535,-33.691,20.996,58.594,0
1583424143.276,48.340,-1000.000,-27.832,20.020,64.453,0
1583424143.280,-1.953,999.023,-39.062,11.719,18.555,0
1583424143.297,13.184,-1000.000,-34.180,12.695,26.367,0
1583424143.301,31.250,997.559,-49.805,10.254,44.434,0
1583424143.305,35.645,997.070,-50.293,7.812,3.906,0
1583424143.309,51.758,-1000.000,-28.320,17.578,12.207,0
1583424143.313,28.809,998.047,-45.410,18.555,11.230,0
1583424143.317,64.453,-998.047,-48.828,21.484,-15.137,0
1583424143.321,60.059,993.164,-42.480,51.758,11.719,0
1583424143.324,17.090,980.957,-31.250,42.969,97.656,0
1583424143.328,22.949,998.047,-17.090,5.859,87.402,0
1583424143.332,35.156,-999.512,-23.926,-2.930,22.949,0
1583424143.336,35.156,998.535,-21.973,-20.996,28.809,0
1583424143.340,-9.766,999.512,-31.738,-27.832,24.902,0
1583424143.337,-47.852,999.512,-32.715,-34.180,4.395,0
1583424143.341,-21.973,999.512,-10.742,-25.391,31.250,0
1583424143.345,-3.418,999.512,-26.367,-14.648,40.039,0
1583424143.349,-41.016,999.512,-36.621,-26.855,-28.320,0
1583424143.353,-87.891,999.512,-22.461,-3.906,23.438,0
1583424143.357,-86.914,999.512,-26.367,16.113,44.434,0
1583424143.361,-16.602,999.512,-23.926,20.020,-27.344,0
1583424143.364,61.035,999.512,-12.695,13.184,46.387,0
1583424143.368,78.613,999.512,-16.113,7.324,66.895,0
1583424143.372,89.844,999.512,-29.297,-0.977,43.945,0
1583424143.376,130.371,999.512,-33.691,-22.461,72.754,0
1583424143.380,162.109,999.512,-32.715,-20.996,38.086,0
1583424143.397,120.605,999.023,-11.230,-0.488,37.109,0
1583424143.401,74.219,-1000.000,-16.113,1.953,61.523,0
1583424143.405,102.539,999.512,-18.066,21.973,57.617,0
1583424143.409,72.266,989.746,-25.391,-4.395,71.777,0
1583424143.413,8.301,995.605,-40.527,4.883,19.043,0
1583424143.417,-43.457,-999.023,-16.602,36.621,30.273,0
1583424143.421,-35.645,985.840,-14.648,24.902,107.910,0
1583424143.424,17.578,-961.426,-23.926,27.344,62.500,0
1583424143.428,-62.012,827.148,-41.504,26.367,25.879,0
1583424143.432,-131.348,764.160,-35.156,42.480,29.785,0
1583424143.436,-73.730,-981.934,-24.902,29.785,50.293,0
1583424143.440,-80.566,-999.512,-38.574,21.484,48.828,0
1583424143.438,-119.141,993.164,-27.344,36.133,82.031,0
1583424143.442,-189.941,999.023,-26.367,26.367,87.891,0
1583424143.446,-246.582,998.535,-26.367,14.648,75.684,0
1583424143.450,-229.004,999.023,-27.344,17.090,106.934,0
1583424143.454,-215.820,999.512,-29.785,28.320,53.711,0
1583424143.458,-292.480,996.582,-17.578,29.785,40.039,0
1583424143.462,-386.230,966.309,-22.461,22.461,107.910,0
1583424143.465,-398.926,978.027,-23.438,26.855,62.012,0
1583424143.469,-448.242,-991.211,-11.719,38.574,37.598,0
1583424143.473,-560.059,974.121,-22.461,43.457,14.160,0
1583424143.477,-651.367,976.562,-29.297,27.832,-5.859,0
1583424143.481,-717.773,782.715,-41.016,25.879,45.898,0
1583424143.477,-722.168,678.223,-35.645,34.668,20.508,0
1583424143.481,-726.074,868.652,-29.297,24.902,-3.906,0
1583424143.485,-813.965,816.895,-44.434,9.277,29.785,0
1583424143.489,-834.961,887.695,-31.250,29.785,40.527,0
1583424143.493,-831.055,842.773,-29.785,59.082,53.223,0
1583424143.497,-846.680,701.660,-35.645,34.180,101.562,0
1583424143.501,-846.680,838.867,-28.320,20.020,116.699,0
1583424143.504,-808.105,938.477,-31.250,40.527,74.219,0
1583424143.508,-706.543,-992.676,-33.691,33.691,15.625,0
1583424143.512,-642.090,975.098,-42.480,43.457,-7.324,0
1583424143.516,-638.672,729.980,-59.570,40.039,42.480,0
1583424143.520,-551.270,837.891,-42.969,18.066,72.754,0
1583424143.517,-398.438,-972.656,-32.715,49.316,46.875,0
1583424143.521,-304.199,995.605,-34.180,47.852,17.090,0
1583424143.525,-257.324,976.562,-38.574,40.527,28.809,0
1583424143.529,-209.473,940.430,-46.387,43.945,81.055,0
1583424143.533,-108.887,935.547,-40.039,55.176,63.477,0
1583424143.537,-40.527,768.555,-43.457,65.430,-16.602,0
1583424143.541,22.949,677.246,-42.969,40.039,-9.277,0
1583424143.544,60.547,705.566,-41.504,29.785,14.648,0
1583424143.548,71.777,500.977,-50.781,53.223,10.742,0
1583424143.552,204.102,592.285,-40.039,63.965,8.301,0
1583424143.556,340.332,911.621,-29.785,54.688,18.066,0
1583424143.560,342.285,894.043,-36.133,56.152,20.508,0
1583424143.577,345.215,826.172,-35.645,52.734,-4.395,0
1583424143.581,403.320,755.859,-36.133,42.480,10.254,0
1583424143.585,467.285,746.094,-34.180,44.434,-8.789,0
1583424143.589,479.492,791.016,-29.785,37.598,5.859,0
1583424143.593,466.309,766.602,-31.738,43.457,1.465,0
1583424143.597,485.352,665.039,-44.434,60.547,9.766,0
1583424143.601,511.719,564.941,-40.039,51.758,54.688,0
1583424143.604,520.508,592.773,-26.855,42.969,20.996,0
1583424143.608,504.395,682.129,-24.902,41.504,27.344,0
1583424143.612,528.809,739.258,-26.855,39.062,45.898,0
1583424143.616,569.336,729.004,-29.785,62.988,5.371,0
1583424143.620,539.551,614.258,-35.645,59.082,29.297,0
1583424143.617,507.812,603.516,-32.715,38.086,54.688,0
1583424143.621,511.230,703.613,-24.902,43.945,62.012,0
1583424143.625,527.832,656.250,-27.832,54.688,48.828,0
1583424143.629,549.805,666.992,-28.809,40.039,27.832,0
1583424143.633,463.867,500.488,-40.527,22.949,76.660,0
1583424143.637,403.320,307.129,-41.504,48.340,80.078,0
1583424143.641,482.422,443.848,-28.320,53.711,5.859,0
1583424143.644,527.344,544.434,-26.855,39.062,-41.016,0
1583424143.648,535.645,705.566,-18.555,43.457,64.941,0
1583424143.652,460.449,549.316,-30.273,36.133,101.562,0
1583424143.656,440.430,287.109,-33.203,25.391,29.297,0
1583424143.660,536.133,484.863,-11.719,25.391,71.777,0
1583424143.657,573.730,654.297,-10.742,29.297,117.676,0
1583424143.661,559.082,645.508,-28.809,24.902,55.664,0
1583424143.665,524.902,492.188,-41.992,29.297,20.020,0
1583424143.669,536.621,443.848,-33.203,34.180,56.152,0
1583424143.673,579.102,568.359,-23.926,34.180,50.293,0
1583424143.677,518.066,441.406,-31.250,38.086,61.035,0
1583424143.681,531.738,417.969,-36.133,47.363,45.410,0
1583424143.684,613.770,506.836,-31.250,61.035,29.297,0
1583424143.688,561.523,261.230,-31.738,36.621,65.918,0
1583424143.692,553.223,361.816,-20.996,16.113,62.012,0
1583424143.696,568.848,608.398,-16.602,26.367,33.203,0
1583424143.700,604.980,615.234,-21.973,41.504,24.414,0
1583424143.717,652.832,641.113,-11.230,43.945,36.621,0
1583424143.721,605.469,479.004,-15.625,43.457,-6.836,0
1583424143.725,617.188,496.582,-15.625,47.852,-17.578,0
1583424143.729,675.781,669.434,-7.324,47.363,43.945,0
1583424143.733,694.824,620.117,-15.137,58.105,20.508,0
1583424143.737,697.266,572.266,-20.020,42.480,1.465,0
1583424143.741,624.023,340.820,-30.273,30.273,7.324,0
1583424143.744,658.691,454.590,-20.508,39.551,55.664,0
1583424143.748,760.742,796.387,-10.254,37.109,52.246,0
1583424143.752,767.578,772.949,-21.973,31.738,14.648,0
1583424143.756,772.949,735.352,-24.902,37.598,19.043,0
1583424143.760,827.637,665.039,-21.484,49.805,31.738,0
1583424143.760,958.496,685.059,-19.531,56.641,18.555,0
1583424143.764,-995.117,712.402,-23.926,65.430,-28.320,0
1583424143.768,995.117,712.891,-27.344,56.152,0.000,0
1583424143.772,-1000.000,741.699,-27.832,48.828,35.645,0
1583424143.776,997.070,640.625,-30.273,65.918,12.695,0
1583424143.780,-998.535,546.387,-32.227,64.941,9.766,0
1583424143.784,983.398,625.488,-28.320,47.852,3.418,0
1583424143.787,895.508,739.746,-21.973,41.016,16.602,0
1583424143.791,831.543,814.941,-21.973,44.922,30.273,0
1583424143.795,725.586,580.566,-36.621,50.293,-8.301,0
1583424143.799,613.770,433.105,-36.133,39.551,25.879,0
1583424143.803,559.570,708.008,-22.461,31.738,29.785,0
1583424143.797,478.516,782.715,-25.391,34.180,6.836,0
1583424143.801,412.109,792.969,-26.367,33.691,40.039,0
1583424143.805,285.156,681.641,-37.109,38.574,28.320,0
1583424143.809,130.371,648.926,-39.062,29.785,20.508,0
1583424143.813,6.348,726.562,-36.133,23.438,5.371,0
1583424143.817,-122.559,614.258,-35.156,23.926,42.969,0
1583424143.821,-200.684,691.406,-30.273,20.020,119.629,0
1583424143.824,-323.730,654.297,-45.898,21.973,96.191,0
1583424143.828,-446.777,533.203,-46.387,22.461,52.734,0
1583424143.832,-416.504,771.973,-31.250,25.879,42.480,0
1583424143.836,-402.344,871.582,-34.180,31.738,76.660,0
1583424143.840,-418.945,860.840,-37.598,17.578,60.547,0
1583424143.857,-482.910,736.328,-47.852,13.672,-11.719,0
1583424143.861,-497.070,619.629,-46.875,25.391,14.160,0
1583424143.865,-414.062,805.176,-24.902,22.949,57.617,0
1583424143.869,-391.113,864.746,-27.832,18.066,21.973,0
1583424143.873,-413.086,802.734,-27.832,13.184,-0.488,0
1583424143.877,-403.320,740.723,-25.391,11.230,57.129,0
1583424143.881,-364.258,494.629,-33.691,24.902,83.008,0
1583424143.884,-280.762,604.004,-22.461,17.090,65.430,0
1583424143.888,-209.473,841.797,-12.207,13.672,36.133,0
1583424143.892,-167.969,791.992,-15.137,26.367,17.578,0
1583424143.896,-102.051,646.484,-22.461,30.273,8.301,0
1583424143.900,-32.715,579.590,-20.020,20.508,48.828,0
1583424143.897,3.906,688.477,-12.695,19.531,52.246,0
1583424143.901,-3.418,690.918,-20.508,40.039,30.273,0
1583424143.905,21.973,664.551,-23.438,33.203,43.457,0
1583424143.909,41.016,615.723,-28.320,19.043,0.488,0
1583424143.913,26.367,542.969,-27.832,18.066,22.949,0
1583424143.917,-18.066,447.266,-35.156,9.277,29.785,0
1583424143.921,-16.602,428.711,-35.156,18.555,33.203,0
1583424143.924,23.438,482.422,-24.902,18.555,51.270,0
1583424143.928,55.664,618.652,-22.949,8.301,30.762,0
1583424143.932,-59.082,386.230,-42.480,13.672,31.738,0
1583424143.936,-127.441,238.281,-40.039,4.395,30.762,0
1583424143.940,-28.320,578.613,-12.695,20.508,35.645,0
1583424143.937,-47.852,588.379,-22.949,33.203,17.090,0
1583424143.941,-114.746,495.605,-28.320,20.996,30.273,0
1583424143.945,-166.504,369.141,-30.273,27.832,7.812,0
1583424143.949,-171.387,417.969,-25.879,39.062,26.367,0
1583424143.953,-161.133,536.621,-23.438,35.645,58.105,0
1583424143.957,-253.418,337.891,-34.180,23.926,27.832,0
1583424143.961,-311.035,402.832,-24.414,17.578,107.422,0
1583424143.964,-341.797,312.012,-34.180,32.715,71.289,0
1583424143.968,-380.371,59.570,-37.598,38.574,-0.488,0
1583424143.972,-361.816,289.551,-13.672,23.926,6.348,0
1583424143.976,-407.227,350.586,-11.719,21.484,0.000,0
1583424143.980,-408.691,315.430,-14.648,27.344,32.227,0
1583424143.997,-402.832,225.098,-21.484,38.086,46.875,0
1583424144.001,-424.316,156.738,-26.855,26.855,34.668,0
1583424144.005,-459.473,246.094,-22.461,16.602,28.809,0
1583424144.009,-502.930,288.086,-14.648,30.762,90.820,0
1583424144.013,-484.863,224.121,-17.578,34.180,55.664,0
1583424144.017,-483.398,100.098,-29.297,26.855,5.859,0
1583424144.021,-529.785,-42.969,-35.156,22.949,27.832,0
1583424144.024,-498.047,216.797,-10.742,13.672,57.129,0
1583424144.028,-413.086,459.473,-8.789,19.531,62.988,0
1583424144.032,-377.930,443.359,-19.043,26.855,34.668,0
1583424144.036,-384.277,399.414,-21.973,24.414,43.945,0
1583424144.040,-410.645,270.996,-24.902,16.602,-7.324,0
1583424144.038,-353.027,384.277,-10.254,23.926,22.949,0
1583424144.042,-291.504,436.035,-12.695,36.621,68.359,0
1583424144.046,-277.344,398.438,-19.043,28.320,26.367,0
1583424144.050,-303.711,365.723,-22.949,17.090,4.883,0
1583424144.054,-308.594,273.438,-26.855,16.602,-31.250,0
1583424144.058,-267.090,273.926,-17.578,21.973,17.578,0
1583424144.062,-247.559,303.711,-12.695,24.414,66.895,0
1583424144.065,-257.812,317.871,-10.742,30.273,62.012,0
1583424144.069,-254.395,362.793,-10.742,29.785,33.691,0
1583424144.073,-223.145,261.230,-21.484,29.297,27.832,0
1583424144.077,-187.500,274.414,-20.508,18.555,21.484,0
1583424144.081,-195.801,425.293,-17.578,1.465,35.156,0
1583424144.077,-234.863,417.480,-17.578,-1.953,66.406,0
1583424144.081,-211.426,435.059,-14.160,12.695,41.504,0
1583424144.085,-214.844,281.250,-19.043,22.461,56.641,0
1583424144.089,-229.492,233.398,-20.020,20.020,7.324,0
1583424144.093,-222.656,413.086,-16.602,19.043,-1.953,0
1583424144.097,-223.633,322.754,-20.508,21.484,40.039,0
1583424144.101,-176.758,336.426,-16.602,14.160,51.270,0
1583424144.104,-191.895,240.723,-26.367,16.602,32.227,0
1583424144.108,-229.980,94.238,-28.320,16.602,25.391,0
1583424144.112,-154.785,392.090,-12.207,18.066,25.879,0
1583424144.116,-125.488,456.543,-11.719,24.414,0.000,0
1583424144.120,-111.328,497.070,-7.812,22.461,30.273,0
1583424144.137,-136.230,433.594,-17.090,18.555,19.043,0
1583424144.141,-141.113,399.902,-16.602,22.949,43.945,0
1583424144.145,-66.406,518.555,-10.254,29.297,94.238,0
1583424144.149,-28.809,458.984,-18.555,30.762,81.055,0
1583424144.153,-38.086,379.395,-18.555,34.180,27.344,0
1583424144.157,-96.191,196.777,-18.555,28.809,-11.230,0
1583424144.161,-99.609,63.965,-20.508,21.484,7.324,0
1583424144.164,3.418,357.422,-4.395,16.602,3.418,0
1583424144.168,52.246,527.832,0.000,18.555,23.926,0
1583424144.172,29.297,478.027,-6.836,20.020,4.395,0
1583424144.176,5.371,411.621,-13.184,29.785,41.016,0
1583424144.180,41.504,416.016,-10.742,39.551,89.355,0
1583424144.197,58.594,443.359,-8.789,20.508,31.250,0
1583424144.201,13.672,386.719,-13.184,1.465,10.254,0
1583424144.205,38.086,477.051,-7.324,14.648,-7.812,0
1583424144.209,76.172,472.168,-12.207,31.250,-1.465,0
1583424144.213,82.031,381.348,-22.461,23.438,-19.531,0
1583424144.217,64.941,359.375,-22.461,4.883,-14.648,0
1583424144.221,55.664,384.766,-18.066,16.113,37.598,0
1583424144.224,109.863,505.859,-10.254,25.879,8.301,0
1583424144.228,130.371,524.414,-13.672,17.578,0.000,0
1583424144.232,86.914,368.652,-18.555,15.137,46.875,0
1583424144.236,62.012,369.629,-15.625,6.348,1.953,0
1583424144.240,87.891,480.957,-14.648,14.648,10.742,0
1583424144.217,121.094,485.840,-12.207,34.180,39.062,0
1583424144.221,102.539,491.211,-11.719,28.320,38.574,0
1583424144.225,16.113,291.016,-23.438,24.414,67.383,0
1583424144.229,7.812,206.543,-24.902,31.250,39.062,0
1583424144.233,71.777,379.395,-12.207,23.438,65.430,0
1583424144.237,81.055,359.375,-10.742,19.531,45.898,0
1583424144.241,39.062,287.109,-11.719,20.020,35.156,0
1583424144.244,31.738,309.082,-6.348,24.414,70.312,0
1583424144.248,81.055,418.945,-4.883,32.715,5.859,0
1583424144.252,102.051,529.785,-4.883,24.414,10.742,0
1583424144.256,62.500,491.699,-7.812,17.090,42.480,0
1583424144.260,20.996,498.535,-7.812,15.137,14.648,0
1583424144.297,-17.090,285.645,-17.578,14.160,47.852,0
1583424144.301,-24.902,103.027,-19.043,25.391,39.062,0
1583424144.305,4.883,401.367,-0.488,16.113,6.836,0
1583424144.309,-17.578,485.352,-4.395,11.230,35.645,0
1583424144.313,10.742,493.164,-14.160,27.832,38.086,0
1583424144.317,-40.527,247.070,-32.715,33.691,7.324,0
1583424144.321,-107.422,24.902,-29.297,21.973,-30.273,0
1583424144.324,-62.500,355.957,-7.812,30.273,-23.438,0
1583424144.328,-54.688,561.523,-3.418,32.715,33.203,0
1583424144.332,-65.430,571.777,-15.625,19.043,55.176,0
1583424144.336,-97.656,452.637,-24.414,25.879,34.668,0
1583424144.340,-140.625,429.199,-9.277,20.996,59.570,0
1583424144.317,-117.676,503.906,-8.789,20.996,26.367,0
1583424144.321,-57.617,479.492,-15.137,27.832,8.789,0
1583424144.325,-40.039,483.398,-9.277,20.508,21.484,0
1583424144.329,-101.562,379.395,-13.184,14.648,49.805,0
1583424144.333,-149.902,298.828,-20.020,19.043,44.922,0
1583424144.337,-128.906,236.816,-18.555,31.738,-30.273,0
1583424144.341,-91.309,247.559,-13.184,27.344,1.953,0
1583424144.344,-61.035,427.246,-4.883,17.578,22.461,0
1583424144.348,-99.121,388.184,-9.277,26.367,5.371,0
1583424144.352,-101.562,255.859,-11.230,31.738,73.730,0
1583424144.356,-41.992,260.742,-12.695,24.414,66.895,0
1583424144.360,-15.625,343.750,-13.184,16.113,23.926,0
1583424144.378,-26.855,405.762,-8.789,7.324,33.203,0
1583424144.382,-28.809,375.977,-9.766,12.207,29.785,0
1583424144.386,-43.945,63.477,-19.531,23.438,66.406,0
1583424144.390,-1.465,102.539,-10.742,13.672,72.754,0
1583424144.394,32.715,355.469,-3.906,6.836,3.906,0
1583424144.398,-10.742,177.246,-13.184,17.578,-14.160,0
1583424144.402,37.109,197.754,-2.930,27.832,-27.344,0
1583424144.405,36.621,68.359,-7.324,21.973,-3.906,0
1583424144.409,28.320,77.637,-4.883,6.348,32.227,0
1583424144.413,73.730,419.434,9.277,3.906,25.879,0
1583424144.417,104.492,429.688,3.906,20.508,20.508,0
1583424144.421,136.230,412.109,-3.906,26.367,25.391,0
1583424144.417,110.352,306.152,-7.812,19.043,37.109,0
1583424144.421,85.449,256.836,-11.230,22.949,-14.648,0
1583424144.425,96.191,358.887,-3.906,28.809,7.324,0
1583424144.429,99.609,381.348,1.953,22.949,53.711,0
1583424144.433,70.801,365.723,-0.488,14.648,50.293,0
1583424144.437,-21.484,183.594,-9.277,19.043,72.266,0
1583424144.441,-62.500,183.594,-5.371,27.832,93.262,0
1583424144.444,-23.438,339.844,-0.977,28.320,44.922,0
1583424144.448,-2.930,271.973,-1.465,26.855,-10.742,0
1583424144.452,-28.320,228.027,1.465,33.203,9.277,0
1583424144.456,-95.215,30.273,-6.836,38.574,34.668,0
1583424144.460,-67.871,-9.277,-5.371,31.738,82.031,0
1583424144.457,-16.113,127.441,-0.488,29.297,113.281,0
1583424144.461,-64.453,16.113,-1.465,29.297,69.824,0
1583424144.465,-102.051,4.395,2.441,21.973,76.172,0
1583424144.469,-122.559,-244.629,-12.207,33.691,86.426,0
1583424144.473,-115.234,-515.625,-13.672,45.410,22.461,0
1583424144.477,-79.590,-361.328,0.488,33.691,3.906,0
1583424144.481,-114.746,-358.887,1.953,32.715,48.828,0
1583424144.484,-84.961,-241.699,11.230,41.016,127.930,0
1583424144.488,-58.594,-259.277,0.977,48.340,129.395,0
1583424144.492,-116.211,-624.023,-10.254,40.527,61.035,0
1583424144.496,-108.887,-498.535,7.324,31.250,7.324,0
1583424144.500,-88.867,-266.113,8.301,36.133,49.805,0
1583424144.497,-73.242,-257.324,2.441,39.062,99.121,0
1583424144.501,-83.008,-372.559,-1.465,43.945,90.332,0
1583424144.505,-114.258,-514.648,-9.766,44.922,57.129,0
1583424144.509,-104.004,-457.520,-8.301,37.109,17.090,0
1583424144.513,-79.590,-425.293,-6.348,46.875,44.434,0
1583424144.517,-63.965,-555.664,-16.602,49.316,44.922,0
1583424144.521,-76.172,-616.211,-17.578,39.062,47.363,0
1583424144.524,-142.578,-807.129,-25.391,25.879,52.246,0
1583424144.528,-88.379,-683.594,-11.230,25.879,32.715,0
1583424144.532,0.488,-333.496,0.000,33.203,49.316,0
1583424144.536,-13.184,-323.242,-11.719,16.602,63.477,0
1583424144.540,-56.152,-411.133,-20.508,21.973,0.977,0
1583424144.577,-65.430,-514.648,-20.508,37.109,-51.270,0
1583424144.581,6.348,-378.418,-9.277,37.598,22.461,0
1583424144.585,40.039,-300.781,-7.812,42.969,63.965,0
1583424144.589,0.977,-405.273,-10.742,36.133,5.371,0
1583424144.593,-37.109,-522.461,-17.090,36.621,-40.039,0
1583424144.597,-29.297,-615.234,-15.137,43.457,-19.043,0
1583424144.601,-25.879,-646.484,-9.766,41.504,-20.996,0
1583424144.604,-45.410,-512.695,-3.906,31.738,-28.809,0
1583424144.608,-91.309,-403.320,-5.371,20.996,46.875,0
1583424144.612,-99.609,-432.129,-6.836,28.320,44.434,0
1583424144.616,-122.559,-668.457,-16.113,31.250,36.621,0
1583424144.620,-138.672,-713.379,-11.719,18.066,50.781,0
1583424144.597,-109.863,-395.996,3.906,13.184,44.434,0
1583424144.601,-95.703,-378.906,-1.953,20.508,8.789,0
1583424144.605,-51.758,-372.559,-3.418,30.762,-13.184,0
1583424144.609,-58.594,-395.020,-6.348,21.973,16.113,0
1583424144.613,-88.867,-388.672,-10.254,8.301,16.602,0
1583424144.617,-79.590,-398.926,-13.184,11.230,30.273,0
1583424144.621,-34.668,-369.629,-6.348,14.648,65.918,0
1583424144.624,17.578,-177.734,-0.488,15.625,35.645,0
1583424144.628,-24.902,-272.461,-9.766,13.184,31.250,0
1583424144.632,-57.129,-345.215,-11.719,7.812,6.348,0
1583424144.636,16.113,-130.371,-4.395,12.695,2.930,0
1583424144.640,37.598,-188.965,-11.719,16.602,-0.488,0
1583424144.677,46.875,-211.914,-10.254,15.625,0.488,0
1583424144.681,24.902,-215.820,-15.625,16.602,26.855,0
1583424144.685,19.043,-413.574,-20.996,24.414,75.684,0
1583424144.689,133.789,-164.551,-1.953,30.762,92.773,0
1583424144.693,148.438,15.137,-2.441,18.066,76.172,0
1583424144.697,67.383,-187.012,-16.113,6.836,27.832,0
1583424144.701,47.363,-376.953,-17.578,17.090,-8.301,0
1583424144.704,93.262,-409.668,-12.207,30.273,-24.414,0
1583424144.708,133.301,-190.918,-8.789,28.320,-21.484,0
1583424144.712,102.539,-76.172,-10.254,18.066,50.293,0
1583424144.716,99.609,-67.871,-6.348,21.484,59.570,0
1583424144.720,118.652,-107.422,-14.648,24.902,61.035,0
1583424144.697,106.445,-293.945,-26.367,27.344,68.848,0
1583424144.701,116.211,-231.934,-11.230,24.414,6.836,0
1583424144.705,115.234,-136.230,-8.789,19.043,16.113,0
1583424144.709,121.094,-253.906,-15.625,26.367,16.602,0
1583424144.713,137.207,-223.145,-13.184,31.250,-5.371,0
1583424144.717,88.867,-323.242,-19.043,20.020,-13.184,0
1583424144.721,51.270,-312.012,-13.184,9.766,10.254,0
1583424144.724,85.938,-106.445,-6.836,17.578,38.574,0
1583424144.728,107.422,-89.844,-10.254,21.484,2.930,0
1583424144.732,92.773,-81.543,-7.812,23.438,13.184,0
1583424144.736,50.293,-151.855,-4.395,21.484,54.199,0
1583424144.740,76.172,-82.031,0.977,23.438,66.406,0
1583424144.737,133.301,66.895,-0.488,32.715,99.609,0
1583424144.741,143.555,22.461,-4.883,41.504,66.406,0
1583424144.745,130.859,75.684,-9.277,26.855,53.711,0
1583424144.749,53.711,-199.707,-23.926,6.348,48.828,0
1583424144.753,73.730,-334.961,-17.578,7.812,35.156,0
1583424144.757,168.457,-15.625,-0.488,10.254,48.828,0
1583424144.761,168.457,23.438,-5.371,2.930,76.172,0
1583424144.764,181.641,121.582,-5.859,1.465,-7.324,0
1583424144.768,188.477,36.133,-9.766,5.371,-5.371,0
1583424144.772,181.152,-102.539,-9.766,5.371,64.453,0
1583424144.776,206.543,106.445,-2.930,7.812,38.574,0
1583424144.780,187.988,191.895,-10.742,6.836,29.297,0
1583424144.797,198.242,214.355,-14.648,7.812,21.484,0
1583424144.801,205.078,66.406,-18.555,15.625,-9.766,0
1583424144.805,193.359,19.531,-16.113,15.137,-7.324,0
1583424144.809,166.504,152.344,-12.695,11.719,23.438,0
1583424144.813,158.203,107.910,-13.184,22.949,22.949,0
1583424144.817,186.523,12.207,-13.672,31.250,40.527,0
1583424144.821,149.414,-150.879,-21.973,29.785,65.430,0
1583424144.824,101.074,-286.133,-20.020,17.578,40.039,0
1583424144.828,144.043,-60.059,-2.441,18.555,63.477,0
1583424144.832,201.172,56.641,-6.348,35.156,20.996,0
1583424144.836,234.863,152.832,-1.465,28.320,-20.020,0
1583424144.840,189.453,104.004,-9.277,10.254,-19.043,0
1583424144.837,142.578,49.805,-11.719,10.742,-5.859,0
1583424144.841,191.406,229.492,1.953,21.973,48.828,0
1583424144.845,216.309,244.141,-1.465,28.320,60.059,0
1583424144.849,198.730,190.918,-8.789,22.949,13.184,0
1583424144.853,142.578,102.051,-14.648,16.113,8.301,0
1583424144.857,120.117,-4.395,-12.695,29.297,61.035,0
1583424144.861,157.715,-52.246,-9.277,28.320,40.527,0
1583424144.864,166.504,22.949,-1.953,21.484,62.500,0
1583424144.868,144.043,162.598,3.418,26.367,77.637,0
1583424144.872,119.141,174.316,-4.395,30.273,39.062,0
1583424144.876,86.426,-182.129,-16.602,32.227,-5.859,0
1583424144.880,111.328,-227.539,-9.766,16.113,12.207,0
1583424144.878,133.789,85.449,-1.465,13.184,38.086,0
1583424144.882,133.789,208.496,1.465,23.438,22.461,0
1583424144.886,164.551,289.062,0.977,30.273,74.219,0
1583424144.890,163.574,201.660,-8.789,20.996,68.359,0
1583424144.894,146.973,210.449,-7.324,21.973,31.250,0
1583424144.898,89.844,127.441,-5.371,19.531,33.203,0
1583424144.902,89.844,62.500,-2.930,8.789,-22.461,0
1583424144.905,155.273,261.230,1.953,5.371,-44.434,0
1583424144.909,101.074,131.348,-3.906,-12.695,-6.348,0
1583424144.913,62.988,145.996,3.418,-26.855,31.738,0
1583424144.917,95.703,419.922,17.578,-38.574,56.152,0
1583424144.921,87.402,487.793,21.973,-51.758,57.129,0
1583424144.937,63.965,637.207,23.438,-61.523,57.617,0
1583424144.941,-38.086,517.090,3.906,-94.238,43.945,0
1583424144.945,-98.633,458.008,-1.465,-122.070,16.113,0
1583424144.949,-35.645,814.941,18.066,-132.324,2.441,0
1583424144.953,-37.598,995.117,21.484,-153.320,26.855,0
1583424144.957,-113.770,997.070,14.160,-165.039,45.898,0
1583424144.961,-193.848,977.051,4.883,-175.781,48.828,0
1583424144.964,-169.922,978.516,11.230,-195.801,44.922,0
1583424144.968,-107.422,-997.070,19.531,-211.426,44.434,0
1583424144.972,-132.324,998.535,17.578,-202.637,53.711,0
1583424144.976,-166.504,999.023,13.672,-194.336,11.719,0
1583424144.980,-182.129,999.512,-3.418,-186.523,-4.395,0
1583424144.977,-170.410,999.512,0.000,-178.711,29.297,0
1583424144.981,-109.863,999.512,18.555,-183.594,50.293,0
1583424144.985,-98.633,999.023,11.230,-168.457,80.566,0
1583424144.989,-91.309,999.023,5.371,-146.973,49.316,0
1583424144.993,-77.637,992.188,0.488,-129.883,16.113,0
1583424144.997,-63.965,992.188,1.465,-115.234,42.480,0
1583424145.001,-63.965,857.422,4.883,-103.027,11.719,0
1583424145.004,-48.828,671.875,1.465,-77.148,26.855,0
1583424145.008,35.645,716.797,9.766,-62.500,89.844,0
1583424145.012,61.523,564.453,3.418,-53.711,107.910,0
1583424145.016,20.996,118.652,-7.324,-35.645,75.684,0
1583424145.020,41.992,15.625,5.371,-18.066,13.184,0
1583424145.037,93.262,-50.781,1.465,3.418,-2.930,0
1583424145.041,126.465,-206.543,2.441,11.230,3.906,0
1583424145.045,100.098,-394.043,-2.441,8.789,20.996,0
1583424145.049,41.016,-816.406,-13.672,20.508,-31.250,0
1583424145.053,86.426,-875.000,1.465,39.551,-16.602,0
1583424145.057,124.512,-878.906,-0.977,52.734,23.926,0
1583424145.061,109.375,-985.840,-0.977,58.594,47.852,0
1583424145.064,105.469,-963.379,2.441,57.129,81.543,0
1583424145.068,41.016,-968.262,-19.531,70.801,10.742,0
1583424145.072,69.824,-968.262,-13.672,81.543,-32.227,0
1583424145.076,160.645,-968.262,-0.488,77.148,-20.020,0
1583424145.080,125.000,-968.750,-4.883,86.426,35.645,0
1583424145.077,98.633,-968.262,-3.906,92.285,109.375,0
1583424145.081,104.980,-968.262,-6.348,95.215,88.379,0
1583424145.085,107.910,-968.262,-8.301,94.238,11.719,0
1583424145.089,73.242,-968.262,-6.836,85.938,-57.129,0
1583424145.093,50.781,-968.750,-4.395,92.773,6.836,0
1583424145.097,53.711,-968.262,-12.207,102.539,53.711,0
1583424145.101,54.199,-968.750,-14.648,97.656,3.906,0
1583424145.104,73.242,-968.750,-11.719,88.867,7.324,0
1583424145.108,57.617,-968.750,-6.836,90.820,73.242,0
1583424145.112,63.477,-968.262,-7.812,99.609,62.988,0
1583424145.116,121.094,-968.262,-8.789,100.586,66.406,0
1583424145.120,57.129,-968.750,-20.020,104.980,91.309,0
1583424145.118,-9.277,-968.750,-19.043,91.309,20.020,0
1583424145.122,71.289,-968.262,0.977,85.449,10.742,0
1583424145.126,113.770,-968.750,2.441,101.074,99.609,0
1583424145.130,120.117,-968.750,-3.418,107.422,115.723,0
1583424145.134,70.801,-968.262,-16.602,95.215,42.969,0
1583424145.138,37.109,-968.262,-16.113,95.215,26.367,0
1583424145.142,83.984,-968.262,-9.277,107.910,9.277,0
1583424145.145,128.906,-968.262,-10.254,104.980,-19.531,0
1583424145.149,156.738,-968.750,-2.441,93.750,17.578,0
1583424145.153,120.605,-968.750,-14.648,92.773,-12.207,0
1583424145.157,150.391,-968.750,-15.625,101.074,-15.137,0
1583424145.161,246.094,-968.750,2.930,102.539,25.391,0
1583424145.159,242.676,-968.262,-1.465,104.980,-18.066,0
1583424145.163,214.355,-968.262,-0.488,102.051,7.324,0
1583424145.167,183.105,-968.262,-10.742,97.656,50.781,0
1583424145.171,189.453,-968.262,-8.301,98.145,13.672,0
1583424145.175,239.746,-968.262,9.277,94.727,-10.742,0
1583424145.179,179.199,-968.750,-3.906,96.191,17.090,0
1583424145.183,150.391,-968.262,-2.930,100.098,40.527,0
1583424145.186,202.148,-968.750,3.418,100.098,35.156,0
1583424145.190,137.207,-968.750,-15.625,91.309,22.949,0
1583424145.194,105.469,-968.750,-4.883,79.102,-13.672,0
1583424145.198,141.113,-968.262,8.789,77.637,23.438,0
1583424145.202,169.922,-968.750,4.883,80.078,83.496,0
1583424145.218,175.293,-968.750,4.395,88.379,45.410,0
1583424145.222,126.465,-968.262,3.418,83.496,26.855,0
1583424145.226,104.492,-968.262,3.418,77.637,32.227,0
1583424145.230,128.418,-968.750,4.883,86.914,32.227,0
1583424145.234,140.625,-968.750,0.000,85.449,19.043,0
1583424145.238,127.441,-968.750,-8.301,79.102,7.812,0
1583424145.242,55.664,-968.750,-16.113,66.406,29.785,0
1583424145.245,71.289,-968.750,-3.906,76.660,23.926,0
1583424145.249,182.617,-968.262,9.766,86.426,17.090,0
1583424145.253,200.195,-968.262,4.395,66.406,43.457,0
1583424145.257,168.945,-968.262,0.488,65.430,30.762,0
1583424145.261,146.484,-968.262,-3.418,75.684,13.184,0
1583424145.257,172.852,-968.262,1.465,64.453,24.414,0
1583424145.261,179.199,-968.750,2.930,68.359,32.227,0
1583424145.265,147.461,-968.750,-1.465,64.453,29.297,0
1583424145.269,143.555,-968.750,-2.930,62.988,86.426,0
1583424145.273,155.273,-968.750,-7.812,69.824,77.637,0
1583424145.277,150.391,-968.750,-12.695,55.176,-2.930,0
1583424145.281,143.066,-968.262,-6.836,51.270,3.906,0
1583424145.284,114.746,-968.750,-8.301,52.734,64.941,0
1583424145.288,139.648,-968.750,-2.930,58.105,25.879,0
1583424145.292,137.207,-968.262,-5.859,66.406,-2.930,0
1583424145.296,90.332,-968.262,-10.254,56.641,56.641,0
1583424145.300,101.562,-968.262,3.906,42.480,66.895,0
1583424145.297,103.516,-968.750,-6.348,53.223,-5.371,0
1583424145.301,120.605,-968.750,-7.324,61.523,1.953,0
1583424145.305,85.449,-968.750,-11.230,52.246,64.453,0
1583424145.309,34.180,-968.750,-9.766,41.016,5.371,0
1583424145.313,52.246,-968.262,2.441,44.922,2.441,0
1583424145.317,57.129,-968.262,-9.277,57.617,8.301,0
1583424145.321,62.012,-968.750,-6.836,54.199,27.344,0
1583424145.324,50.293,-968.750,-3.906,46.387,42.969,0
1583424145.328,-13.184,-968.262,-5.371,44.922,28.320,0
1583424145.332,56.152,-968.262,8.789,45.410,40.039,0
1583424145.336,100.098,-968.750,8.789,55.664,3.418,0
1583424145.340,50.781,-968.262,10.742,50.781,-33.203,0
1583424145.357,28.320,-968.262,9.277,36.621,8.789,0
1583424145.361,20.508,-968.262,10.254,49.805,20.508,0
1583424145.365,45.410,-968.750,20.020,57.129,54.688,0
1583424145.369,49.805,-968.750,9.766,42.969,116.699,0
1583424145.373,9.766,-968.750,1.465,32.227,58.594,0
1583424145.377,-27.344,-968.750,1.465,36.133,46.387,0
1583424145.381,-4.883,-968.750,7.812,45.410,69.824,0
1583424145.384,48.828,-968.750,10.742,41.016,27.344,0
1583424145.388,27.832,-968.262,7.324,29.785,66.406,0
1583424145.392,0.977,-968.262,7.812,37.109,52.246,0
1583424145.396,25.391,-968.262,5.371,49.316,1.953,0
1583424145.400,-10.254,-968.750,-1.953,41.504,-24.414,0
1583424145.417,-28.809,-968.262,6.836,30.762,-35.156,0
1583424145.421,-49.805,-968.262,6.348,22.461,24.414,0
1583424145.425,-48.340,-968.262,3.906,24.414,82.520,0
1583424145.429,-3.418,-968.262,5.859,33.691,67.871,0
1583424145.433,-34.668,-968.262,-1.953,35.156,18.066,0
1583424145.437,-86.426,-968.262,0.977,25.391,22.949,0
1583424145.441,-82.520,-968.750,5.371,30.762,22.949,0
1583424145.444,-39.551,-968.262,7.812,47.852,7.812,0
1583424145.448,-14.648,-968.262,8.301,40.039,3.418,0
1583424145.452,-107.422,-968.262,-6.348,22.949,27.344,0
1583424145.456,-138.184,-968.262,-2.930,26.367,86.426,0
1583424145.460,-24.902,-968.262,12.207,43.945,45.898,0
1583424145.439,-6.836,-968.750,11.230,45.410,7.324,0
1583424145.443,-48.340,-968.262,4.883,35.645,41.016,0
1583424145.447,-87.402,-968.262,-0.488,30.762,39.551,0
1583424145.451,-56.641,-968.262,7.812,38.574,25.391,0
1583424145.455,-23.438,-968.262,7.812,64.941,-1.465,0
1583424145.459,-63.477,-968.262,6.836,57.617,36.133,0
1583424145.463,-110.840,-968.262,8.301,23.926,71.289,0
1583424145.466,-116.211,-968.262,3.906,29.297,30.273,0
1583424145.470,-59.570,-968.262,10.742,32.227,21.973,0
1583424145.474,-30.273,-968.262,14.160,30.762,38.086,0
1583424145.478,-77.148,-968.262,2.930,33.691,45.410,0
1583424145.482,-63.965,-968.750,2.441,40.039,64.941,0
1583424145.517,-76.660,-968.750,-2.930,43.945,34.180,0
1583424145.521,-96.191,-968.750,-7.812,35.156,13.184,0
1583424145.525,-79.102,-968.750,-4.883,26.855,26.855,0
1583424145.529,-90.332,-968.262,-4.395,33.203,40.527,0
1583424145.533,-66.895,-968.750,0.977,44.922,68.359,0
1583424145.537,-84.961,-968.750,-5.371,48.340,96.191,0
1583424145.541,-177.734,-968.750,-16.113,43.945,70.801,0
1583424145.544,-187.500,-968.750,-8.789,34.668,5.371,0
1583424145.548,-77.637,-968.750,8.789,43.945,23.926,0
1583424145.552,-29.785,-968.262,6.836,39.551,55.176,0
1583424145.556,-60.059,-968.262,-4.395,35.156,63.965,0
1583424145.560,-99.121,-968.262,-9.277,31.738,65.918,0
1583424145.537,-58.105,-968.750,1.465,38.086,41.016,0
1583424145.541,-16.113,-968.750,3.418,44.922,6.836,0
1583424145.545,-28.320,-968.262,2.930,30.273,25.391,0
1583424145.549,-65.918,-968.262,0.488,31.738,59.570,0
1583424145.553,-68.848,-968.262,-6.836,41.992,35.645,0
1583424145.557,-36.621,-968.262,-2.441,44.434,-20.508,0
1583424145.561,-19.043,-968.750,-2.441,36.621,-21.973,0
1583424145.564,-19.531,-968.750,-4.395,22.461,23.438,0
1583424145.568,-16.113,-968.262,2.441,36.133,71.289,0
1583424145.572,-9.277,-968.262,-3.906,42.969,58.105,0
1583424145.576,0.000,-968.750,-7.324,26.855,59.570,0
1583424145.580,-5.859,-968.750,-4.883,18.555,18.555,0
1583424145.578,-26.855,-968.750,-5.371,20.996,-16.113,0
1583424145.582,17.578,-968.262,1.953,34.180,33.203,0
1583424145.586,-2.441,-968.262,-17.090,33.691,39.551,0
1583424145.590,-17.578,-968.262,-17.578,27.344,0.977,0
1583424145.594,53.223,-968.262,5.371,32.715,18.555,0
1583424145.598,50.781,-968.262,-3.418,35.156,48.828,0
1583424145.602,78.613,-968.262,2.441,41.504,47.363,0
1583424145.605,55.176,-968.262,-1.953,36.621,68.848,0
1583424145.609,1.953,-968.262,-1.953,28.320,53.711,0
1583424145.613,33.203,-968.262,3.906,34.668,-4.883,0
1583424145.617,57.617,-968.262,-1.953,47.363,29.297,0
1583424145.621,95.215,-968.262,7.812,51.270,41.504,0
1583424145.637,21.973,-968.262,-1.953,37.598,44.434,0
1583424145.641,-25.391,-968.262,-7.812,40.527,64.453,0
1583424145.645,78.125,-968.262,9.766,39.551,65.918,0
1583424145.649,111.328,-968.750,8.301,35.645,61.523,0
1583424145.653,99.121,-968.750,-1.953,42.969,35.156,0
1583424145.657,58.594,-968.262,-14.160,35.156,60.059,0
1583424145.661,74.707,-968.750,-12.207,30.273,12.695,0
1583424145.664,166.016,-968.750,4.883,39.062,6.348,0
1583424145.668,162.598,-968.750,-0.488,24.902,31.738,0
1583424145.672,129.883,-968.262,0.000,11.230,53.711,0
1583424145.676,132.812,-968.750,-3.418,23.438,67.383,0
1583424145.680,131.348,-968.750,-8.301,30.273,67.871,0
1583424145.677,168.457,-968.750,5.371,23.926,73.242,0
1583424145.681,164.062,-968.750,5.859,31.250,61.035,0
1583424145.685,160.645,-968.750,4.395,38.086,45.898,0
1583424145.689,169.922,-968.750,0.488,32.227,23.438,0
1583424145.693,154.297,-968.262,-4.395,27.344,-16.602,0
1583424145.697,137.207,-968.262,-2.441,33.691,7.812,0
1583424145.701,113.770,-968.750,-3.906,38.574,33.691,0
1583424145.704,145.996,-968.750,6.348,33.691,30.273,0
1583424145.708,175.781,-968.262,5.859,32.227,35.645,0
1583424145.712,76.172,-968.750,-17.578,27.344,-0.977,0
1583424145.716,45.410,-968.262,-9.277,23.926,-3.418,0
1583424145.720,129.395,-968.262,3.418,38.574,-41.016,0
1583424145.717,150.391,-968.750,0.000,34.180,-59.570,0
1583424145.721,134.277,-968.750,-0.488,31.738,20.020,0
1583424145.725,76.660,-968.262,-3.418,37.598,0.488,0
1583424145.729,85.449,-968.262,6.348,33.691,-18.555,0
1583424145.733,117.188,-968.262,12.207,34.180,28.320,0
1583424145.737,76.172,-968.750,1.953,32.227,-0.488,0
1583424145.741,31.250,-968.750,0.977,24.414,25.391,0
1583424145.744,-17.578,-964.355,-4.883,24.902,44.434,0
1583424145.748,14.160,-978.027,2.930,25.879,8.301,0
1583424145.752,88.379,-922.363,21.973,25.391,65.918,0
1583424145.756,53.711,-875.000,18.555,36.621,81.543,0
1583424145.760,30.762,-889.648,13.672,40.039,75.195,0
1583424145.777,32.227,-919.434,2.930,42.969,24.902,0
1583424145.781,50.781,-977.539,11.230,43.945,-26.367,0
1583424145.785,45.410,-920.898,19.043,27.832,76.660,0
1583424145.789,-0.977,-877.930,12.207,21.484,99.121,0
1583424145.793,22.461,-877.930,10.254,26.367,111.816,0
1583424145.797,-10.742,-941.406,-1.953,28.809,69.336,0
1583424145.801,-42.969,-974.121,2.441,22.461,48.340,0
1583424145.804,-0.977,-905.762,15.625,19.043,96.191,0
1583424145.808,9.766,-899.414,11.230,32.227,38.086,0
1583424145.812,5.371,-951.660,7.324,42.480,2.930,0
1583424145.816,-24.902,-968.750,-0.488,37.598,-15.137,0
1583424145.820,-44.434,-968.750,6.836,20.996,-32.227,0
1583424145.818,-31.250,-957.520,14.160,25.391,28.320,0
1583424145.822,-10.254,-943.359,9.277,36.621,45.898,0
1583424145.826,-4.883,-909.180,16.113,30.273,84.961,0
1583424145.830,-57.617,-928.223,10.742,30.273,134.766,0
1583424145.834,-106.934,-974.121,-0.488,36.133,33.691,0
1583424145.838,-62.988,-967.285,3.418,33.203,-72.266,0
1583424145.842,-33.203,-968.262,7.812,28.320,8.789,0
1583424145.845,-19.531,-968.750,9.277,20.508,48.828,0
1583424145.849,-27.344,-968.262,-1.465,14.648,56.152,0
1583424145.853,-31.738,-968.750,-11.230,21.973,48.828,0
1583424145.857,52.246,-968.750,0.977,31.738,-16.602,0
1583424145.861,96.191,-968.262,14.648,40.527,39.062,0
1583424145.857,50.781,-968.262,11.719,34.668,48.828,0
1583424145.861,50.781,-968.262,4.883,34.180,-21.973,0
1583424145.865,90.820,-968.750,10.254,38.086,-0.488,0
1583424145.869,138.672,-968.750,21.484,30.273,46.387,0
1583424145.873,130.859,-968.262,26.855,22.949,80.566,0
1583424145.877,67.383,-968.262,9.766,32.227,59.570,0
1583424145.881,102.051,-968.750,4.883,36.621,11.230,0
1583424145.884,105.957,-968.750,6.348,26.855,74.707,0
1583424145.888,82.031,-968.262,1.953,22.949,58.594,0
1583424145.892,118.652,-968.750,14.648,22.949,1.465,0
1583424145.896,150.391,-968.750,11.719,26.367,13.672,0
1583424145.900,167.480,-968.750,4.395,36.133,-6.348,0
1583424145.918,138.184,-968.262,4.883,30.273,-9.766,0
1583424145.922,103.027,-968.262,8.789,19.043,12.207,0
1583424145.926,121.582,-968.262,16.602,27.344,49.805,0
1583424145.930,129.883,-968.750,9.766,37.109,79.102,0
1583424145.934,114.746,-968.262,1.953,41.992,36.133,0
1583424145.938,39.551,-968.262,-5.371,33.691,15.137,0
1583424145.942,22.949,-968.262,-1.465,23.926,-22.461,0
1583424145.945,117.676,-968.262,12.695,32.227,3.906,0
1583424145.949,117.188,-968.750,3.906,29.297,0.488,0
1583424145.953,84.473,-968.750,8.789,26.367,-10.742,0
1583424145.957,30.762,-968.750,-1.465,29.785,29.297,0
1583424145.961,69.336,-968.750,-1.953,40.039,10.254,0
1583424145.957,131.348,-968.750,18.555,40.039,-20.020,0
1583424145.961,89.355,-968.750,20.020,26.855,-24.414,0
1583424145.965,56.152,-968.750,19.043,21.484,-2.441,0
1583424145.969,64.453,-968.262,17.090,37.598,31.250,0
1583424145.973,92.773,-968.262,20.996,39.062,63.477,0
1583424145.977,80.566,-968.750,18.066,19.531,75.684,0
1583424145.981,25.391,-968.750,11.719,14.160,62.988,0
1583424145.984,56.641,-968.262,20.020,32.227,15.625,0
1583424145.988,78.613,-968.262,20.020,42.969,5.859,0
1583424145.992,17.578,-968.750,6.836,27.344,14.648,0
1583424145.996,38.086,-968.262,26.855,23.438,40.527,0
1583424146.000,66.895,-967.773,38.574,30.762,106.934,0
1583424145.997,74.707,-968.262,27.344,29.785,42.969,0
1583424146.001,70.801,-968.750,14.648,26.855,-14.648,0
1583424146.005,43.945,-968.262,14.160,28.809,48.340,0
1583424146.009,41.992,-968.750,21.973,28.809,37.109,0
1583424146.013,65.918,-968.750,18.555,23.926,41.504,0
1583424146.017,54.688,-967.773,8.301,31.250,-1.953,0
1583424146.021,25.391,-968.262,12.207,29.785,-44.434,0
1583424146.024,-45.898,-970.703,9.277,17.090,33.203,0
1583424146.028,-6.348,-952.637,18.066,24.414,114.746,0
1583424146.032,74.707,-956.055,21.973,32.715,78.613,0
1583424146.036,52.246,-971.680,16.602,25.879,-17.578,0
1583424146.040,26.367,-967.285,25.879,26.855,-4.883,0
1583424146.058,11.230,-968.750,21.484,42.969,11.230,0
1583424146.062,37.109,-968.750,22.461,37.109,-43.457,0
1583424146.066,47.852,-968.262,20.996,33.203,-31.250,0
1583424146.070,28.809,-968.262,17.578,35.645,18.066,0
1583424146.074,5.371,-968.262,14.648,32.715,27.832,0
1583424146.078,-7.812,-968.750,10.742,40.039,33.691,0
1583424146.082,3.906,-968.750,17.578,34.180,47.363,0
1583424146.085,10.742,-968.262,19.531,29.785,39.551,0
1583424146.089,-9.766,-968.262,18.066,42.969,83.496,0
1583424146.093,4.883,-968.262,17.090,55.664,40.527,0
1583424146.097,-15.625,-968.750,9.277,46.875,25.879,0
1583424146.101,-19.043,-956.543,7.812,29.785,50.781,0
1583424146.097,-29.297,-970.703,6.836,24.414,-2.930,0
1583424146.101,-26.367,-911.133,9.766,36.621,26.367,0
1583424146.105,0.977,-823.242,14.160,48.340,44.922,0
1583424146.109,-41.992,-899.902,5.371,44.922,32.227,0
1583424146.113,-87.402,-959.473,11.230,34.180,65.918,0
1583424146.117,-103.027,-955.078,14.648,32.227,67.383,0
1583424146.121,-81.055,-969.727,6.348,35.156,38.086,0
1583424146.124,-44.434,-968.262,15.137,26.855,-10.742,0
1583424146.128,-98.633,-968.750,8.789,31.250,-21.973,0
1583424146.132,-181.152,-968.262,-0.977,38.086,18.066,0
1583424146.136,-94.727,-968.262,22.461,41.504,32.715,0
1583424146.140,-27.344,-968.262,27.832,39.062,24.902,0
1583424146.157,-76.660,-968.262,21.484,36.133,44.434,0
1583424146.161,-138.184,-968.262,17.090,36.133,6.348,0
1583424146.165,-124.023,-968.750,12.695,31.738,-42.480,0
1583424146.169,-70.312,-968.262,17.578,37.598,-9.766,0
1583424146.173,-76.660,-968.750,20.508,33.203,36.133,0
1583424146.177,-131.836,-968.750,17.090,21.484,46.387,0
1583424146.181,-138.184,-968.262,10.742,26.367,61.035,0
1583424146.184,-131.836,-968.750,8.301,27.344,71.289,0
1583424146.188,-87.402,-968.750,19.043,15.625,89.844,0
1583424146.192,-67.871,-968.750,15.137,12.695,71.777,0
1583424146.196,-83.496,-968.750,10.254,22.949,31.250,0
1583424146.200,-63.965,-968.750,8.301,29.785,2.441,0
1583424146.197,-53.223,-968.750,9.277,23.438,37.109,0
1583424146.201,-56.152,-968.750,15.137,21.484,92.773,0
1583424146.205,-58.594,-968.262,10.254,29.785,46.387,0
1583424146.209,-2.441,-968.262,7.812,38.574,12.207,0
1583424146.213,18.066,-968.262,7.812,27.344,4.883,0
1583424146.217,-41.992,-968.262,-0.488,17.578,-15.137,0
1583424146.221,-56.152,-968.750,5.859,30.273,67.871,0
1583424146.224,14.160,-968.262,15.625,39.551,99.121,0
1583424146.228,54.688,-968.262,13.672,29.785,31.250,0
1583424146.232,49.316,-968.750,12.695,30.273,23.926,0
1583424146.236,-10.254,-968.262,9.277,35.645,6.348,0
1583424146.240,4.883,-968.750,17.578,36.133,-10.742,0
1583424146.237,75.684,-968.750,26.855,36.133,42.480,0
1583424146.241,86.426,-965.820,23.438,29.785,94.238,0
1583424146.245,79.590,-967.285,16.602,26.367,89.355,0
1583424146.249,32.715,-968.750,4.883,34.180,54.688,0
1583424146.253,50.781,-968.262,4.395,37.598,-22.949,0
1583424146.257,102.539,-968.750,12.695,34.180,-9.277,0
1583424146.261,72.754,-968.750,10.742,26.367,41.992,0
1583424146.264,75.684,-967.773,16.602,27.832,32.227,0
1583424146.268,68.848,-966.797,7.812,32.227,12.207,0
1583424146.272,66.406,-971.191,5.859,29.785,23.438,0
1583424146.276,113.770,-924.805,25.391,29.785,36.621,0
1583424146.280,98.145,-854.980,22.461,28.320,57.129,0
1583424146.297,104.980,-816.406,14.648,21.484,78.125,0
1583424146.301,109.375,-886.230,9.766,27.832,40.039,0
1583424146.305,102.539,-993.164,10.742,32.227,-38.086,0
1583424146.309,105.957,-898.926,16.113,22.461,5.371,0
1583424146.313,114.258,-801.758,15.625,31.250,80.078,0
1583424146.317,129.395,-925.293,12.207,59.570,-15.625,0
1583424146.321,100.098,-988.281,4.883,51.270,-61.523,0
1583424146.324,79.102,-919.922,10.254,20.020,27.344,0
1583424146.328,121.094,-796.875,16.602,22.949,60.059,0
1583424146.332,145.508,-760.742,7.812,35.645,15.625,0
1583424146.336,172.852,-664.551,7.812,39.551,47.363,0
1583424146.340,133.789,-718.262,-2.441,39.062,80.566,0
1583424146.337,94.727,-916.016,-5.371,43.945,59.082,0
1583424146.341,161.133,-766.113,1.953,36.133,54.199,0
1583424146.345,206.543,-665.527,-1.953,44.434,49.805,0
1583424146.349,214.355,-668.457,-0.977,55.664,57.617,0
1583424146.353,165.039,-701.660,-6.348,49.805,77.148,0
1583424146.357,147.949,-912.109,-13.672,62.500,46.875,0
1583424146.361,189.453,-983.398,-8.301,56.641,30.762,0
1583424146.364,223.633,-820.801,3.906,53.711,37.109,0
1583424146.368,209.473,-661.133,13.672,62.500,78.125,0
1583424146.372,195.312,-639.648,11.230,63.965,98.633,0
1583424146.376,160.645,-879.395,-5.859,70.801,39.551,0
1583424146.380,186.523,-895.996,4.395,63.965,51.270,0
1583424146.377,224.121,-686.035,17.090,54.199,110.352,0
1583424146.381,176.270,-700.684,8.301,56.152,67.871,0
1583424146.385,160.156,-798.340,4.883,62.500,81.055,0
1583424146.389,165.039,-888.672,5.859,60.547,123.047,0
1583424146.393,154.785,-860.840,8.789,49.316,54.199,0
1583424146.397,93.750,-928.711,3.906,55.176,-21.973,0
1583424146.401,99.121,-981.934,6.348,62.500,-42.969,0
1583424146.404,142.090,-958.008,13.672,59.570,-44.434,0
1583424146.408,52.734,-960.449,1.465,45.898,-36.621,0
1583424146.412,-18.555,-968.262,3.418,36.133,-29.785,0
1583424146.416,51.758,-973.145,21.973,40.039,-27.832,0
1583424146.420,78.125,-941.406,15.625,41.992,5.371,0
1583424146.437,46.875,-942.383,11.719,41.504,43.457,0
1583424146.441,-27.344,-973.145,9.277,40.039,32.715,0
1583424146.445,-24.902,-967.285,12.207,51.270,56.641,0
1583424146.449,12.207,-967.773,14.160,60.547,41.016,0
1583424146.453,-2.930,-968.262,9.277,55.664,8.301,0
1583424146.457,-46.875,-968.750,9.766,43.945,20.996,0
1583424146.461,-96.680,-968.750,7.812,41.016,35.156,0
1583424146.464,-66.895,-968.750,15.137,41.992,-17.578,0
1583424146.468,36.621,-968.262,28.809,39.062,-28.809,0
1583424146.472,43.945,-968.262,20.508,35.645,0.977,0
1583424146.476,10.742,-966.309,21.484,41.504,-3.906,0
1583424146.480,11.719,-969.727,22.461,51.270,28.320,0
1583424146.477,24.902,-954.102,15.625,45.898,45.898,0
1583424146.481,49.805,-865.234,19.531,45.410,67.871,0
1583424146.485,24.902,-834.961,17.578,41.504,91.309,0
1583424146.489,33.691,-883.301,13.672,35.156,36.133,0
1583424146.493,50.293,-919.434,10.254,37.109,-1.953,0
1583424146.497,37.598,-965.820,12.695,31.250,15.625,0
1583424146.501,22.461,-975.586,21.484,30.762,58.105,0
1583424146.504,44.434,-940.430,20.996,40.039,74.219,0
1583424146.508,86.914,-934.082,19.531,48.828,35.645,0
1583424146.512,65.918,-970.215,23.926,40.039,-21.973,0
1583424146.516,-48.340,-968.750,23.438,7.812,19.043,0
1583424146.520,-68.359,-961.914,36.621,-13.672,27.832,0
1583424146.538,4.883,-863.770,46.387,-9.277,80.566,0
1583424146.542,8.301,-808.105,44.434,-26.855,107.910,0
1583424146.546,-38.574,-889.648,41.504,-56.641,44.434,0
1583424146.550,-100.098,-968.262,41.016,-67.383,-3.906,0
1583424146.554,-66.895,-893.555,43.945,-64.453,31.250,0
1583424146.558,-46.875,-901.855,41.016,-60.547,75.195,0
1583424146.562,-83.984,-990.234,46.875,-90.332,40.039,0
1583424146.565,-104.492,-826.660,45.410,-100.586,41.992,0
1583424146.569,-113.281,-831.055,41.992,-95.703,81.543,0
1583424146.573,-74.219,-793.945,53.711,-98.633,46.387,0
1583424146.577,-64.941,-611.328,58.105,-101.562,-7.324,0
1583424146.581,-122.070,-688.477,45.410,-108.398,-26.855,0
1583424146.577,-122.070,-592.773,47.363,-96.680,14.648,0
1583424146.581,-109.375,-602.051,51.270,-96.191,9.277,0
1583424146.585,-73.730,-580.078,45.898,-97.656,6.836,0
1583424146.589,-67.871,-444.336,47.363,-86.426,7.812,0
1583424146.593,-109.863,-458.008,46.387,-90.820,-9.766,0
1583424146.597,-94.238,-495.605,41.992,-83.496,50.293,0
1583424146.601,-111.816,-700.684,34.180,-69.824,104.980,0
1583424146.604,-104.492,-648.926,41.504,-60.547,91.797,0
1583424146.608,-83.984,-350.098,53.223,-53.223,95.703,0
1583424146.612,-87.891,-342.285,42.480,-43.457,102.539,0
1583424146.616,-58.105,-312.012,37.598,-34.180,70.312,0
1583424146.620,-111.328,-524.902,24.902,-30.762,75.684,0
1583424146.617,-178.711,-900.879,26.855,-26.855,68.848,0
1583424146.621,-112.793,-638.184,47.363,-17.090,49.316,0
1583424146.625,-77.148,-515.625,37.598,2.930,2.441,0
1583424146.629,-73.730,-539.062,34.668,6.348,-64.941,0
1583424146.633,-105.957,-501.465,29.785,0.000,8.789,0
1583424146.637,-139.648,-680.664,21.973,10.742,30.273,0
1583424146.641,-85.938,-702.637,25.391,12.207,28.809,0
1583424146.644,-39.551,-653.809,27.344,9.277,64.941,0
1583424146.648,-30.762,-552.734,32.227,10.742,52.246,0
1583424146.652,-72.754,-669.434,22.949,15.137,22.949,0
1583424146.656,-109.375,-966.797,14.648,22.461,38.086,0
1583424146.660,-39.551,-831.055,34.668,25.879,78.613,0
1583424146.657,-22.461,-727.051,29.785,26.855,39.551,0
1583424146.661,-75.684,-853.516,23.438,24.902,-5.371,0
1583424146.665,-82.031,-898.926,22.949,31.738,24.414,0
1583424146.669,-52.246,-958.984,20.020,42.969,68.848,0
1583424146.673,-42.480,-965.820,23.438,35.156,87.402,0
1583424146.677,-89.355,-967.285,15.137,29.785,34.668,0
1583424146.681,-80.078,-968.750,15.137,40.039,57.129,0
1583424146.684,-41.504,-968.750,12.207,51.270,-1.465,0
1583424146.688,-90.820,-968.750,10.254,60.547,-21.973,0
1583424146.692,-82.031,-964.844,30.273,40.527,39.551,0
1583424146.696,-32.715,-977.539,35.645,40.039,43.457,0
1583424146.700,-24.414,-935.547,26.855,55.176,60.547,0
1583424146.717,-5.859,-887.207,23.926,47.363,48.828,0
1583424146.721,-37.109,-939.453,14.160,44.434,51.758,0
1583424146.725,-58.105,-900.879,15.137,44.922,105.957,0
1583424146.729,-28.320,-916.992,17.090,45.410,77.148,0
1583424146.733,-16.602,-976.562,14.648,54.688,22.949,0
1583424146.737,-41.016,-966.309,14.648,56.641,64.453,0
1583424146.741,-111.328,-968.262,6.348,50.293,42.480,0
1583424146.744,-97.168,-968.750,15.137,52.734,19.043,0
1583424146.748,-9.277,-968.750,30.762,61.523,71.289,0
1583424146.752,9.766,-968.750,22.949,54.688,-7.324,0
1583424146.756,-13.184,-968.262,24.902,42.480,-39.062,0
1583424146.760,-21.973,-968.750,26.367,39.062,-22.461,0
1583424146.758,38.086,-968.750,24.902,40.039,-22.949,0
1583424146.762,70.312,-968.262,24.902,44.922,11.719,0
1583424146.766,39.062,-968.262,22.949,42.969,-5.371,0
1583424146.770,20.996,-968.750,21.973,41.504,10.742,0
1583424146.774,29.785,-968.262,18.066,51.758,18.066,0
1583424146.778,56.641,-968.750,20.020,53.711,26.367,0
1583424146.782,62.012,-968.262,22.949,46.387,3.418,0
1583424146.785,47.852,-968.262,26.855,40.039,-16.602,0
1583424146.789,87.402,-968.262,27.344,44.434,27.344,0
1583424146.793,81.055,-968.750,16.602,43.457,47.363,0
1583424146.797,57.129,-968.750,15.137,30.273,47.852,0
1583424146.801,78.125,-968.262,20.508,32.715,65.918,0
1583424146.797,92.773,-968.262,20.020,36.133,62.988,0
1583424146.801,131.348,-968.262,21.484,41.016,28.809,0
1583424146.805,104.980,-968.750,12.207,42.969,82.031,0
1583424146.809,51.270,-968.262,10.254,31.738,95.215,0
1583424146.813,86.426,-968.262,20.508,42.480,6.348,0
1583424146.817,95.215,-968.262,12.695,56.152,-21.484,0
1583424146.821,121.582,-968.262,17.090,42.480,11.719,0
1583424146.824,122.070,-968.750,20.508,33.691,54.199,0
1583424146.828,32.715,-968.262,10.742,38.574,86.914,0
1583424146.832,107.910,-968.750,24.902,38.086,28.809,0
1583424146.836,217.773,-968.750,32.715,40.039,35.156,0
1583424146.840,198.730,-968.262,25.879,30.762,67.871,0
1583424146.857,171.387,-968.262,25.879,27.832,97.168,0
1583424146.861,154.297,-968.262,9.277,40.039,71.777,0
1583424146.865,186.035,-968.750,12.695,36.621,-49.316,0
1583424146.869,213.867,-968.750,23.438,28.809,-73.730,0
1583424146.873,182.129,-969.238,16.602,31.250,-16.113,0
1583424146.877,163.086,-966.797,13.184,41.016,46.387,0
1583424146.881,150.391,-968.262,10.742,42.480,54.199,0
1583424146.884,200.684,-966.797,20.508,32.715,15.625,0
1583424146.888,245.117,-886.230,26.367,19.043,20.996,0
1583424146.892,215.820,-831.055,19.043,25.879,48.828,0
1583424146.896,229.492,-931.641,13.672,38.086,-5.371,0
1583424146.900,244.629,-979.492,14.160,33.203,-10.742,0
1583424146.897,232.422,-898.438,17.578,36.133,27.344,0
1583424146.901,221.680,-832.520,20.508,35.645,34.180,0
1583424146.905,233.887,-813.965,22.461,42.480,41.504,0
1583424146.909,249.512,-830.078,19.043,53.223,13.672,0
1583424146.913,212.402,-916.016,10.742,43.457,5.859,0
1583424146.917,161.133,-970.703,9.277,36.133,-43.457,0
1583424146.921,187.012,-967.773,16.113,24.902,-39.062,0
1583424146.924,232.910,-964.844,16.602,21.973,-15.137,0
1583424146.928,252.441,-893.555,23.438,21.973,-0.488,0
1583424146.932,166.504,-912.598,7.812,21.973,31.738,0
1583424146.936,130.859,-963.379,6.836,30.273,33.691,0
1583424146.940,216.797,-897.461,27.832,24.414,68.848,0
1583424146.937,209.473,-933.105,16.602,17.578,0.488,0
1583424146.941,168.945,-972.168,19.531,27.832,-10.254,0
1583424146.945,115.234,-972.168,11.230,20.996,12.695,0
1583424146.949,140.625,-949.219,13.672,22.949,56.641,0
1583424146.953,191.406,-917.969,22.949,29.297,115.234,0
1583424146.957,129.883,-959.961,4.883,26.855,28.320,0
1583424146.961,112.793,-972.656,9.766,24.902,8.789,0
1583424146.964,124.512,-964.844,8.301,28.809,50.293,0
1583424146.968,100.098,-971.191,0.488,28.320,-6.836,0
1583424146.972,148.438,-961.914,20.020,21.973,6.348,0
1583424146.976,124.512,-960.449,22.949,25.391,36.133,0
1583424146.980,95.215,-937.012,17.090,37.109,33.691,0
1583424146.997,93.750,-918.457,14.648,39.551,95.703,0
1583424147.001,78.125,-968.262,14.160,28.320,76.172,0
1583424147.005,63.477,-969.238,20.508,28.320,65.918,0
1583424147.009,46.387,-962.891,22.949,38.086,68.848,0
1583424147.013,69.336,-968.750,18.066,54.688,11.230,0
1583424147.017,23.438,-968.750,9.766,43.457,24.902,0
1583424147.021,-35.156,-968.262,11.230,14.648,63.477,0
1583424147.024,0.000,-968.750,15.625,12.695,36.133,0
1583424147.028,47.363,-968.750,16.602,38.086,-17.578,0
1583424147.032,57.129,-968.750,13.672,31.738,39.062,0
1583424147.036,1.465,-968.262,3.418,14.160,50.781,0
1583424147.040,-55.664,-968.262,3.906,20.020,-1.465,0
1583424147.037,6.836,-968.262,12.695,22.461,51.758,0
1583424147.041,51.270,-959.961,8.789,18.555,91.309,0
1583424147.045,20.508,-956.543,4.883,12.207,70.801,0
1583424147.049,-13.184,-967.773,1.465,21.973,53.223,0
1583424147.053,-10.742,-969.238,4.395,28.320,87.891,0
1583424147.057,6.836,-967.773,9.766,38.574,90.332,0
1583424147.061,-5.371,-968.750,8.301,40.039,20.508,0
1583424147.064,-33.203,-968.750,10.254,19.043,-14.648,0
1583424147.068,-20.996,-968.750,18.555,20.020,-10.742,0
1583424147.072,-54.199,-968.262,5.371,35.156,8.301,0
1583424147.076,-73.242,-968.262,4.395,26.855,12.695,0
1583424147.080,-28.809,-968.262,24.902,22.949,7.812,0
1583424147.077,-70.312,-968.750,19.531,20.996,23.926,0
1583424147.081,-77.148,-968.750,8.301,16.602,20.996,0
1583424147.085,-54.199,-968.262,7.812,23.926,6.836,0
1583424147.089,-71.777,-968.750,17.090,19.531,32.715,0
1583424147.093,-113.770,-968.750,11.230,22.461,28.809,0
1583424147.097,-111.328,-968.750,3.418,29.297,15.137,0
1583424147.101,-72.266,-968.750,15.137,31.250,28.809,0
1583424147.104,-89.844,-965.820,9.766,27.832,28.809,0
1583424147.108,-143.555,-973.145,9.766,20.020,61.035,0
1583424147.112,-82.520,-938.965,27.832,21.484,91.309,0
1583424147.116,-24.414,-878.418,24.414,35.156,75.684,0
1583424147.120,-8.301,-833.984,20.508,40.527,86.426,0
1583424147.157,-46.875,-881.348,9.277,31.738,79.590,0
1583424147.161,-62.012,-950.684,8.301,22.461,42.969,0
1583424147.165,-0.977,-844.727,18.066,29.297,59.082,0
1583424147.169,14.648,-802.734,11.230,35.156,42.480,0
1583424147.173,-9.766,-869.141,18.555,35.645,67.871,0
1583424147.177,-61.523,-948.242,13.672,43.945,55.176,0
1583424147.181,-52.246,-955.078,8.301,52.246,-5.859,0
1583424147.184,20.508,-832.520,25.391,44.434,-3.418,0
1583424147.188,14.648,-755.859,22.949,32.715,20.020,0
1583424147.192,-15.137,-715.332,21.484,32.715,57.129,0
1583424147.196,-19.531,-782.227,17.578,33.691,38.086,0
1583424147.200,-23.438,-941.895,12.695,34.668,45.410,0
1583424147.177,10.742,-887.207,20.996,27.344,32.715,0
1583424147.181,-1.953,-821.777,25.391,17.090,22.949,0
1583424147.185,-2.441,-792.480,31.250,21.484,101.562,0
1583424147.189,20.996,-867.188,19.043,27.344,45.410,0
1583424147.193,-0.977,-972.656,9.277,32.227,-62.988,0
1583424147.197,-22.949,-967.285,13.672,24.414,-37.598,0
1583424147.201,-23.926,-965.820,16.113,11.719,-7.812,0
1583424147.204,35.156,-972.656,21.973,21.973,-4.883,0
1583424147.208,85.938,-943.848,24.902,18.066,52.246,0
1583424147.212,62.012,-956.543,14.648,19.043,8.301,0
1583424147.216,57.129,-954.102,18.066,23.926,-24.414,0
1583424147.220,106.934,-880.371,22.949,27.832,23.926,0
1583424147.217,141.602,-862.305,20.020,33.203,-14.160,0
1583424147.221,147.949,-791.504,24.902,20.508,17.578,0
1583424147.225,62.500,-880.371,2.930,12.695,48.340,0
1583424147.229,67.383,-953.125,7.324,22.949,18.066,0
1583424147.233,189.941,-755.371,31.250,34.668,41.504,0
1583424147.237,172.852,-819.336,13.672,25.879,41.016,0
1583424147.241,121.094,-930.664,11.230,14.160,34.180,0
1583424147.244,94.727,-921.387,3.418,17.578,44.922,0
1583424147.248,123.047,-937.012,7.324,24.414,9.766,0
1583424147.252,186.035,-776.367,25.879,24.414,31.738,0
1583424147.256,152.344,-761.230,15.137,17.578,88.379,0
1583424147.260,138.672,-757.812,14.160,16.113,67.383,0
1583424147.277,142.578,-837.891,11.230,28.320,30.762,0
1583424147.281,144.531,-887.207,18.555,33.203,38.086,0
1583424147.285,141.113,-772.461,22.461,17.090,44.434,0
1583424147.289,107.422,-795.410,18.555,16.602,33.691,0
1583424147.293,124.512,-808.594,23.926,31.738,28.809,0
1583424147.297,87.891,-928.711,11.230,27.344,22.949,0
1583424147.301,48.340,-980.957,7.812,19.531,86.914,0
1583424147.304,72.754,-924.805,23.438,17.578,53.223,0
1583424147.308,97.168,-805.664,28.320,19.531,59.570,0
1583424147.312,123.047,-780.273,18.555,30.762,60.547,0
1583424147.316,91.309,-935.547,9.766,35.156,54.199,0
1583424147.320,58.105,-954.102,22.461,18.066,67.871,0
1583424147.317,68.848,-839.355,25.391,26.855,50.293,0
1583424147.321,79.102,-902.344,13.672,38.574,84.473,0
1583424147.325,100.098,-884.277,18.555,25.879,50.293,0
1583424147.329,75.195,-845.703,22.461,33.203,45.898,0
1583424147.333,29.785,-920.410,19.043,34.668,83.008,0
1583424147.337,45.410,-937.012,15.625,31.738,79.102,0
1583424147.341,63.965,-970.215,17.090,32.227,51.758,0
1583424147.344,66.895,-968.750,23.438,23.438,20.996,0
1583424147.348,30.762,-963.379,23.438,24.902,-39.062,0
1583424147.352,-19.043,-977.051,15.137,29.785,-30.762,0
1583424147.356,35.645,-921.875,28.809,24.414,50.781,0
1583424147.360,92.773,-804.199,38.086,26.367,79.102,0
1583424147.357,58.105,-796.387,35.156,27.344,74.219,0
1583424147.361,32.715,-873.535,26.367,27.832,34.180,0
1583424147.365,50.293,-941.895,23.438,38.574,47.852,0
1583424147.369,60.547,-958.496,26.855,37.109,46.387,0
1583424147.373,22.949,-959.473,20.508,26.367,11.719,0
1583424147.377,1.953,-965.820,22.949,31.250,25.879,0
1583424147.381,20.996,-967.285,29.297,42.969,25.879,0
1583424147.384,17.578,-970.703,29.297,36.621,20.020,0
1583424147.388,9.766,-953.613,35.156,31.738,66.895,0
1583424147.392,13.184,-889.160,36.621,32.227,101.074,0
1583424147.396,20.020,-895.020,29.785,41.016,96.191,0
1583424147.400,34.180,-963.867,25.391,36.621,24.902,0
1583424147.417,-26.855,-970.703,15.137,19.531,41.016,0
1583424147.421,-62.500,-965.820,20.020,15.625,41.016,0
1583424147.425,-6.348,-969.238,30.762,19.043,-10.742,0
1583424147.429,20.508,-968.262,23.926,24.902,-16.602,0
1583424147.433,31.738,-968.262,20.508,26.855,17.578,0
1583424147.437,-51.270,-967.773,7.812,28.809,44.434,0
1583424147.441,-73.730,-968.750,8.789,34.180,22.461,0
1583424147.444,31.250,-968.262,27.344,36.133,33.203,0
1583424147.448,54.688,-952.637,29.785,37.598,27.344,0
1583424147.452,40.527,-933.105,27.344,28.320,17.090,0
1583424147.456,-3.906,-934.082,19.043,30.273,48.340,0
1583424147.460,2.930,-967.285,21.973,43.457,42.969,0
1583424147.458,61.523,-970.215,33.203,32.227,9.766,0
1583424147.462,34.180,-966.797,27.832,26.367,-18.555,0
1583424147.466,11.719,-968.750,28.320,29.785,33.203,0
1583424147.470,21.484,-968.262,24.902,35.645,44.922,0
1583424147.474,47.852,-968.750,21.973,38.574,34.180,0
1583424147.478,43.945,-968.750,17.578,35.645,27.832,0
1583424147.482,-4.883,-968.750,19.043,32.715,-17.578,0
1583424147.485,27.344,-968.750,33.691,28.809,-14.648,0
1583424147.489,52.246,-967.773,25.879,35.645,29.785,0
1583424147.493,5.371,-968.262,15.137,31.738,66.895,0
1583424147.497,12.695,-969.727,25.391,26.855,53.711,0
1583424147.501,36.133,-937.012,30.273,33.691,87.402,0
1583424147.497,54.199,-901.367,29.785,39.062,72.266,0
1583424147.501,36.621,-918.457,22.949,34.668,75.684,0
1583424147.505,-24.414,-966.309,14.160,22.949,74.707,0
1583424147.509,-9.277,-970.703,26.855,34.180,35.156,0
1583424147.513,15.625,-963.867,32.715,32.227,68.359,0
1583424147.517,9.277,-967.285,28.809,25.879,91.309,0
1583424147.521,-23.926,-964.844,20.020,29.297,59.082,0
1583424147.524,-74.219,-975.586,19.531,17.578,31.250,0
1583424147.528,-20.508,-922.852,31.738,25.879,43.945,0
1583424147.532,34.180,-815.918,25.391,34.668,76.172,0
1583424147.536,12.695,-807.129,17.090,17.090,62.500,0
1583424147.540,-20.508,-835.449,20.508,12.695,44.434,0
1583424147.557,-74.219,-929.688,8.789,29.297,58.105,0
1583424147.561,-26.367,-958.008,18.066,34.180,31.738,0
1583424147.565,31.738,-840.820,33.203,21.484,42.969,0
1583424147.569,-0.488,-825.195,22.461,15.137,43.945,0
1583424147.573,-6.836,-869.141,20.020,20.508,24.414,0
1583424147.577,2.930,-926.270,21.973,28.320,62.988,0
1583424147.581,28.320,-971.680,19.531,33.691,79.590,0
1583424147.584,34.668,-916.016,20.508,22.949,61.523,0
1583424147.588,20.996,-852.051,19.531,25.879,53.711,0
1583424147.592,72.266,-828.613,21.973,46.875,86.426,0
1583424147.596,41.016,-905.273,9.766,48.828,45.898,0
1583424147.600,-15.625,-985.840,7.324,21.484,-3.906,0
1583424147.597,17.090,-920.898,28.320,18.555,65.430,0
1583424147.601,44.434,-841.797,31.250,43.945,128.906,0
1583424147.605,67.871,-925.293,26.855,43.457,16.602,0
1583424147.609,29.785,-977.539,16.113,36.133,-67.871,0
1583424147.613,-6.836,-964.355,17.578,37.109,-54.688,0
1583424147.617,19.043,-968.262,23.438,41.992,-35.645,0
1583424147.621,47.363,-968.750,21.484,32.715,5.371,0
1583424147.624,67.871,-968.262,26.855,27.832,-0.977,0
1583424147.628,13.672,-968.262,16.602,25.879,-15.137,0
1583424147.632,-38.086,-968.750,8.301,23.438,-22.461,0
1583424147.636,55.664,-968.750,32.227,37.109,-40.527,0
1583424147.640,103.516,-968.750,29.297,34.180,-30.762,0
1583424147.657,67.383,-966.797,25.391,23.438,20.020,0
1583424147.661,17.578,-968.262,22.949,28.320,27.832,0
1583424147.665,41.504,-973.145,22.461,30.273,3.418,0
1583424147.669,105.469,-899.414,33.691,26.855,104.980,0
1583424147.673,82.520,-906.250,23.438,24.414,68.359,0
1583424147.677,35.645,-976.562,14.648,29.297,-4.883,0
1583424147.681,52.734,-965.332,22.949,26.855,62.500,0
1583424147.684,43.945,-970.215,20.020,25.391,49.316,0
1583424147.688,76.660,-959.961,26.855,26.367,39.551,0
1583424147.692,80.566,-926.758,22.949,21.973,67.871,0
1583424147.696,53.223,-949.707,14.160,24.414,15.625,0
1583424147.700,92.285,-958.496,20.508,39.551,36.621,0
1583424147.698,82.520,-958.496,19.531,48.828,79.102,0
1583424147.702,54.199,-971.191,19.531,41.992,-9.766,0
1583424147.706,52.246,-967.285,25.391,30.762,7.812,0
1583424147.710,88.379,-968.750,25.879,42.480,23.438,0
1583424147.714,103.516,-967.773,22.949,51.270,-32.715,0
1583424147.718,46.875,-965.820,19.531,36.133,-7.324,0
1583424147.722,29.297,-976.074,21.973,40.039,65.430,0
1583424147.725,82.520,-918.945,32.715,39.551,123.047,0
1583424147.729,101.074,-852.051,31.738,21.973,101.074,0
1583424147.733,71.777,-930.176,25.391,21.484,63.477,0
1583424147.737,4.883,-977.539,16.602,20.020,56.641,0
1583424147.741,34.180,-961.914,20.020,26.367,24.414,0
1583424147.738,100.586,-908.691,29.785,36.133,1.953,0
1583424147.742,78.613,-856.445,27.832,35.645,38.086,0
1583424147.746,34.180,-881.836,24.902,25.391,23.438,0
1583424147.750,-9.766,-944.824,20.020,25.391,0.488,0
1583424147.754,16.113,-972.168,21.973,33.691,-12.207,0
1583424147.758,57.129,-964.355,26.855,23.926,5.859,0
1583424147.762,17.578,-972.168,22.949,20.996,43.457,0
1583424147.765,22.461,-959.961,22.461,26.367,81.543,0
1583424147.769,25.391,-936.523,12.207,24.414,68.848,0
1583424147.773,-5.859,-980.957,7.812,39.551,13.184,0
1583424147.777,35.645,-891.113,29.297,23.926,45.410,0
1583424147.781,34.180,-841.309,26.855,13.672,82.520,0
1583424147.797,39.551,-923.828,23.438,35.645,58.594,0
1583424147.801,62.500,-934.570,21.973,37.598,30.273,0
1583424147.805,45.898,-950.684,19.531,30.762,22.949,0
1583424147.809,27.832,-908.691,21.973,19.531,6.348,0
1583424147.813,41.016,-899.902,16.602,25.391,-5.371,0
1583424147.817,61.035,-942.871,20.020,38.086,-28.809,0
1583424147.821,37.598,-969.238,18.555,45.898,-28.320,0
1583424147.824,-18.066,-978.027,17.090,26.367,14.160,0
1583424147.828,29.785,-846.191,34.180,25.879,57.617,0
1583424147.832,94.727,-772.949,23.438,41.504,9.277,0
1583424147.836,112.305,-799.316,17.578,31.738,-73.730,0
1583424147.840,96.680,-817.871,20.508,32.715,-16.602,0
1583424147.837,58.594,-882.812,15.625,36.133,26.367,0
1583424147.841,92.285,-688.477,22.949,29.785,69.824,0
1583424147.845,91.797,-666.504,20.508,33.203,109.863,0
1583424147.849,56.152,-775.391,17.090,34.668,58.105,0
1583424147.853,16.602,-748.535,16.602,29.785,11.230,0
1583424147.857,-1.953,-851.074,11.719,33.691,42.969,0
1583424147.861,38.574,-935.059,9.277,49.805,42.969,0
1583424147.864,37.109,-929.688,19.531,36.133,-7.324,0
1583424147.868,-10.742,-880.859,29.297,23.926,-64.941,0
1583424147.872,-4.395,-802.246,26.367,33.691,-18.066,0
1583424147.876,-36.621,-913.086,14.648,38.086,48.828,0
1583424147.880,-40.039,-940.918,26.855,42.480,75.195,0
1583424147.877,-29.297,-803.711,41.992,28.320,100.586,0
1583424147.881,-57.129,-832.031,29.785,33.203,63.965,0
1583424147.885,-18.066,-899.414,30.273,56.641,-8.789,0
1583424147.889,-11.719,-945.312,34.180,49.316,13.672,0
1583424147.893,-17.090,-937.500,31.738,36.621,44.434,0
1583424147.897,-47.852,-943.359,27.344,33.203,36.621,0
1583424147.901,-37.598,-983.398,32.715,33.691,39.062,0
1583424147.904,31.738,-936.523,44.922,46.387,68.848,0
1583424147.908,-20.020,-925.293,29.297,35.156,59.082,0
1583424147.912,-76.660,-936.035,26.367,24.414,-14.648,0
1583424147.916,22.949,-770.508,46.875,40.527,21.484,0
1583424147.920,73.730,-700.684,41.016,50.781,6.348,0
1583424147.937,66.895,-694.336,37.109,42.480,-11.230,0
1583424147.941,22.461,-730.957,35.645,40.039,83.496,0
1583424147.945,17.090,-790.527,31.738,40.527,63.965,0
1583424147.949,44.434,-767.578,29.297,42.969,8.301,0
1583424147.953,29.297,-791.504,28.809,41.016,75.684,0
1583424147.957,-18.555,-899.902,22.949,24.902,54.688,0
1583424147.961,-62.500,-988.281,19.531,28.320,43.945,0
1583424147.964,-2.930,-906.738,28.320,34.180,63.965,0
1583424147.968,39.062,-867.188,32.715,38.086,61.523,0
1583424147.972,-7.812,-940.430,25.879,33.691,63.965,0
1583424147.976,-9.277,-838.867,30.273,25.879,66.406,0
1583424147.980,-13.184,-854.492,20.508,38.574,69.336,0
1583424147.997,-16.602,-964.844,21.484,48.340,40.527,0
1583424148.001,9.766,-916.992,31.738,38.574,-1.953,0
1583424148.005,-18.066,-874.023,20.996,29.297,-6.836,0
1583424148.009,-4.883,-793.457,25.879,38.086,52.246,0
1583424148.013,6.348,-820.312,17.090,43.457,63.477,0
1583424148.017,-31.250,-975.586,7.324,38.086,-16.602,0
1583424148.021,-22.949,-916.992,28.320,35.156,5.371,0
1583424148.024,-9.766,-819.336,31.738,38.086,47.852,0
1583424148.028,17.090,-791.992,25.391,35.645,16.602,0
1583424148.032,28.320,-824.219,21.973,32.715,19.531,0
1583424148.036,-48.340,-937.988,9.277,42.969,10.254,0
1583424148.040,-52.734,-989.746,19.043,40.039,-38.574,0
1583424148.017,40.039,-868.164,33.691,33.691,6.348,0
1583424148.021,76.660,-697.266,32.227,35.645,51.758,0
1583424148.025,47.852,-722.168,27.832,27.832,41.992,0
1583424148.029,6.348,-826.172,24.414,28.809,44.434,0
1583424148.033,24.902,-810.547,23.926,40.039,5.859,0
1583424148.037,21.484,-902.344,15.625,34.180,-32.227,0
1583424148.041,16.602,-942.383,21.973,29.785,-9.766,0
1583424148.044,19.043,-767.090,30.762,34.180,55.176,0
1583424148.048,9.766,-878.906,22.949,29.785,22.949,0
1583424148.052,62.012,-884.766,31.738,32.227,21.973,0
1583424148.056,90.820,-776.855,34.668,26.367,20.508,0
1583424148.060,45.410,-820.312,27.344,20.996,10.254,0
1583424148.077,64.941,-798.828,30.762,39.551,10.742,3
1583424148.081,58.105,-877.441,23.438,49.805,52.734,0
1583424148.085,18.066,-993.164,22.949,35.156,24.902,0
1583424148.089,62.988,-899.902,40.039,25.391,-16.113,0
1583424148.093,80.566,-721.680,41.016,35.156,83.496,0
1583424148.097,85.449,-830.566,24.414,43.457,48.340,0
1583424148.101,62.500,-982.910,19.531,43.945,79.102,0
1583424148.104,57.617,-878.906,26.855,41.016,126.465,0
1583424148.108,66.406,-734.863,35.645,27.344,70.312,0
1583424148.112,66.895,-741.699,31.738,41.504,32.227,0
1583424148.116,107.422,-706.543,29.297,42.480,36.621,0
1583424148.120,53.223,-821.777,16.602,25.391,62.500,0
1583424148.117,-7.324,-931.641,18.066,22.461,72.754,0
1583424148.121,59.082,-799.805,32.227,24.902,19.043,0
1583424148.125,80.566,-704.590,27.832,31.250,39.062,0
1583424148.129,60.547,-677.246,25.391,30.762,54.688,0
1583424148.133,6.348,-810.059,19.043,19.043,33.691,0
1583424148.137,-32.715,-966.309,15.137,21.484,-1.953,0
1583424148.141,3.906,-969.238,20.020,40.039,-36.133,0
1583424148.144,15.625,-966.797,25.879,33.691,19.043,0
1583424148.148,12.207,-833.008,31.250,13.184,54.688,0
1583424148.152,-37.598,-825.195,21.973,19.531,5.371,0
1583424148.156,-75.195,-979.980,16.602,21.973,-5.371,0
1583424148.160,4.883,-851.074,38.086,30.273,60.547,0
1583424148.157,19.531,-724.121,40.527,31.738,87.891,0
1583424148.161,-29.297,-762.207,27.832,22.949,46.875,0
1583424148.165,-33.691,-869.141,17.090,21.973,6.348,0
1583424148.169,-11.230,-927.246,18.555,30.762,29.297,0
1583424148.173,8.301,-860.352,20.996,35.156,26.855,0
1583424148.177,-50.293,-926.270,13.672,28.320,0.488,0
1583424148.181,-49.805,-980.957,22.461,28.809,-23.438,0
1583424148.184,20.020,-918.945,24.414,25.391,-20.508,0
1583424148.188,-26.367,-951.172,13.672,28.809,18.555,0
1583424148.192,-31.250,-948.242,30.762,25.391,27.344,0
1583424148.196,14.648,-831.543,43.945,18.555,20.020,0
1583424148.200,31.738,-775.391,32.715,30.762,30.762,0
1583424148.217,55.176,-778.809,24.414,34.180,40.527,0
1583424148.221,21.973,-874.023,23.926,22.461,48.828,0
1583424148.225,12.695,-863.770,27.344,30.273,45.410,0
1583424148.229,51.758,-797.852,28.320,32.715,19.531,0
1583424148.233,75.684,-824.219,22.949,28.809,1.465,0
1583424148.237,58.594,-918.945,18.066,32.715,24.414,0
1583424148.241,-23.438,-990.234,11.719,20.996,31.250,0
1583424148.244,8.789,-895.020,20.020,29.785,85.449,0
1583424148.248,116.699,-740.723,37.598,39.551,102.051,0
1583424148.252,114.258,-703.613,37.598,24.902,73.730,0
1583424148.256,79.590,-701.172,32.715,20.508,93.262,0
1583424148.260,49.805,-870.605,24.414,22.461,57.617,0
1583424148.258,96.191,-883.789,29.785,28.320,40.527,0
1583424148.262,137.695,-723.145,32.715,31.738,76.660,0
1583424148.266,109.863,-744.141,33.203,29.785,72.754,0
1583424148.270,92.285,-755.371,37.109,19.531,50.781,0
1583424148.274,110.840,-803.223,29.297,34.668,104.980,0
1583424148.278,117.676,-937.988,22.949,52.734,82.520,0
1583424148.282,82.520,-973.145,30.762,28.320,29.785,0
1583424148.285,59.082,-963.379,31.250,10.254,22.461,0
1583424148.289,111.328,-838.867,33.691,6.348,26.367,0
1583424148.293,108.887,-850.586,19.043,13.672,0.000,0
1583424148.297,61.035,-979.492,12.695,15.137,-23.926,0
1583424148.301,83.008,-847.656,33.203,7.324,36.621,0
1583424148.297,118.164,-715.820,36.621,28.320,48.828,0
1583424148.301,137.207,-762.207,30.762,37.109,-38.086,0
1583424148.305,112.305,-922.363,24.902,26.855,-33.691,0
1583424148.309,81.055,-902.344,31.250,25.391,46.875,0
1583424148.313,82.520,-731.445,35.645,28.809,43.457,0
1583424148.317,75.684,-887.207,29.297,29.297,15.137,0
1583424148.321,92.285,-916.992,35.645,22.949,15.625,0
1583424148.324,74.219,-792.969,33.691,24.902,56.152,0
1583424148.328,21.973,-889.648,32.715,24.414,53.711,0
1583424148.332,79.590,-780.762,45.898,32.715,37.598,0
1583424148.336,118.164,-663.574,44.434,39.551,43.945,0
1583424148.340,83.008,-674.805,39.551,28.809,38.574,0
1583424148.377,32.715,-754.395,31.250,23.926,-10.254,0
1583424148.381,23.438,-903.320,29.785,35.645,16.602,0
1583424148.385,83.008,-830.566,42.480,34.668,16.602,0
1583424148.389,88.379,-700.684,40.039,27.344,10.742,0
1583424148.393,16.602,-829.590,29.785,28.809,12.207,0
1583424148.397,13.184,-896.484,34.180,45.410,63.965,0
1583424148.401,11.719,-937.500,23.926,47.852,67.383,0
1583424148.404,27.344,-904.297,29.297,23.438,-30.273,0
1583424148.408,54.688,-648.926,44.922,17.090,52.246,0
1583424148.412,52.734,-550.293,34.180,36.133,117.676,0
1583424148.416,70.801,-631.836,26.855,42.480,18.066,0
1583424148.420,59.082,-712.891,28.809,34.668,19.043,0
1583424148.418,33.691,-744.141,27.832,28.809,-7.324,0
1583424148.422,21.484,-666.992,25.879,33.691,11.719,0
1583424148.426,55.664,-572.266,31.738,42.969,123.047,0
1583424148.430,72.266,-562.012,34.668,41.016,104.004,0
1583424148.434,28.809,-743.652,25.879,36.621,19.043,0
1583424148.438,-8.301,-875.000,28.809,37.598,45.410,0
1583424148.442,4.883,-883.789,32.227,37.598,55.664,0
1583424148.445,31.738,-860.840,27.344,43.945,25.391,0
1583424148.449,36.621,-803.711,27.344,47.363,39.551,0
1583424148.453,-11.230,-880.371,29.785,42.480,43.945,0
1583424148.457,5.371,-799.316,37.109,42.969,71.289,0
1583424148.461,61.523,-626.465,36.133,39.551,64.453,0
1583424148.438,60.547,-693.359,29.297,37.598,-9.277,0
1583424148.442,43.457,-684.570,29.297,34.180,-6.348,0
1583424148.446,-9.766,-781.738,19.043,37.598,46.875,0
1583424148.450,6.348,-924.316,20.996,41.016,-8.301,0
1583424148.454,59.570,-791.504,34.668,37.598,-35.156,0
1583424148.458,4.395,-871.582,24.414,27.832,11.230,0
1583424148.462,-24.414,-969.727,21.973,18.066,32.227,0
1583424148.465,-17.090,-972.168,21.484,30.762,24.902,0
1583424148.469,5.371,-931.152,23.926,27.832,20.020,0
1583424148.473,51.270,-729.004,38.574,25.391,29.785,0
1583424148.477,0.000,-775.879,31.738,36.133,15.137,0
1583424148.481,6.348,-813.477,27.344,30.273,24.414,0
1583424148.497,59.082,-720.215,20.996,37.109,31.250,0
1583424148.501,-18.555,-944.336,7.812,35.156,31.250,0
1583424148.505,-29.297,-871.094,24.902,16.113,53.223,0
1583424148.509,38.086,-616.211,36.621,22.949,30.762,0
1583424148.513,75.195,-577.637,30.762,17.578,4.883,0
1583424148.517,54.199,-662.109,22.461,13.184,47.363,0
1583424148.521,-29.297,-909.180,24.414,21.973,92.773,0
1583424148.524,-16.602,-815.918,39.551,17.090,69.336,0
1583424148.528,62.012,-580.078,40.039,28.320,-1.465,0
1583424148.532,70.801,-529.785,37.598,34.180,3.418,0
1583424148.536,28.809,-530.273,32.715,30.273,41.504,0
1583424148.540,-19.531,-647.949,24.414,30.762,69.824,0
1583424148.537,6.348,-574.219,32.227,27.344,97.656,0
1583424148.541,11.719,-641.602,25.879,33.203,62.988,0
1583424148.545,-12.695,-770.508,22.461,27.344,44.922,0
1583424148.549,-26.367,-682.129,24.902,17.090,40.527,0
1583424148.553,-47.363,-778.320,19.531,23.926,10.254,0
1583424148.557,-39.551,-913.574,22.949,27.832,19.531,0
1583424148.561,-58.105,-966.309,17.090,24.902,-35.156,0
1583424148.564,-93.262,-944.824,20.996,16.602,-56.152,0
1583424148.568,-70.801,-761.230,35.645,21.484,54.199,0
1583424148.572,-77.637,-843.750,19.531,33.203,41.504,0
1583424148.576,-73.730,-901.367,20.508,22.461,59.082,0
1583424148.580,-54.688,-736.328,33.203,16.113,81.055,0
1583424148.577,-71.777,-740.234,24.414,20.020,25.879,0
1583424148.581,-24.902,-685.547,20.020,22.949,29.785,0
1583424148.585,-34.180,-836.426,14.648,23.438,10.254,0
1583424148.589,-40.527,-880.859,23.438,18.555,33.203,0
1583424148.593,-9.277,-740.234,28.320,16.113,60.547,0
1583424148.597,-4.883,-830.566,21.484,17.578,52.246,0
1583424148.601,38.574,-851.074,30.273,21.973,30.762,0
1583424148.604,20.996,-920.898,20.020,23.438,20.508,0
1583424148.608,-5.859,-944.336,22.461,23.926,59.570,0
1583424148.612,75.684,-785.645,35.645,30.273,15.625,0
1583424148.616,143.066,-692.383,28.320,33.691,-26.367,0
1583424148.620,151.367,-632.812,32.715,26.367,22.949,0
1583424148.637,88.867,-748.535,28.809,23.926,43.457,0
1583424148.641,75.684,-830.566,27.832,25.391,48.340,0
1583424148.645,132.324,-746.582,29.785,29.785,13.184,0
1583424148.649,151.855,-699.707,34.668,24.902,37.109,0
1583424148.653,145.508,-719.727,31.738,18.066,45.410,0
1583424148.657,86.914,-899.902,15.625,26.367,-6.836,0
1583424148.661,67.871,-983.398,18.066,28.809,-6.836,0
1583424148.664,135.254,-940.430,39.062,28.809,20.020,0
1583424148.668,157.715,-812.988,44.434,25.879,28.809,0
1583424148.672,112.305,-674.805,41.504,20.996,43.945,0
1583424148.676,100.586,-711.426,35.156,36.621,62.012,0
1583424148.680,121.582,-804.199,37.109,41.504,54.199,0
1583424148.678,126.465,-700.195,43.457,30.762,65.430,0
1583424148.682,84.473,-728.516,37.598,26.855,2.441,0
1583424148.686,75.684,-749.023,37.598,21.484,-14.648,0
1583424148.690,95.215,-718.262,29.297,26.855,37.109,0
1583424148.694,88.867,-813.477,19.531,36.621,28.320,0
1583424148.698,52.734,-915.527,20.996,36.133,-13.184,0
1583424148.702,30.762,-962.891,23.926,38.574,16.602,0
1583424148.705,83.008,-840.820,28.320,34.180,7.812,0
1583424148.709,115.234,-689.453,36.133,32.715,-14.160,0
1583424148.713,26.367,-820.312,21.484,25.391,114.258,0
1583424148.717,-25.391,-980.469,12.695,14.160,115.234,0
1583424148.721,59.082,-833.984,33.203,30.762,-18.555,0
1583424148.737,100.586,-700.684,38.086,27.344,-24.902,0
1583424148.741,95.215,-674.805,34.668,20.020,1.465,0
1583424148.745,53.223,-736.328,38.086,28.320,59.082,0
1583424148.749,62.988,-734.863,35.156,34.180,68.848,0
1583424148.753,106.445,-646.484,28.320,36.133,64.941,0
1583424148.757,60.547,-840.820,15.137,30.273,32.227,0
1583424148.761,34.668,-920.898,20.020,24.902,-22.461,0
1583424148.764,20.020,-874.023,18.066,27.832,13.672,0
1583424148.768,29.297,-908.203,18.555,25.879,44.922,0
1583424148.772,102.539,-689.941,37.598,32.715,67.871,0
1583424148.776,66.895,-624.023,29.785,27.832,48.828,0
1583424148.780,39.062,-595.703,33.691,24.902,89.844,0
1583424148.777,45.898,-704.102,26.367,38.574,94.238,0
1583424148.781,46.875,-912.598,17.578,38.086,17.090,0
1583424148.785,52.246,-799.316,23.438,23.438,20.020,0
1583424148.789,29.785,-730.469,18.066,20.508,53.223,0
1583424148.793,46.387,-765.625,21.484,25.391,87.891,0
1583424148.797,41.016,-848.633,18.066,26.367,131.348,0
1583424148.801,28.320,-974.609,19.043,26.367,54.688,0
1583424148.804,39.062,-863.281,26.855,18.555,4.395,0
1583424148.808,32.227,-771.484,20.996,18.066,0.488,0
1583424148.812,83.984,-683.594,27.344,26.367,44.434,0
1583424148.816,76.172,-737.793,21.484,24.414,76.172,0
1583424148.820,-18.555,-971.680,9.277,25.391,6.348,0
1583424148.817,27.832,-876.465,29.297,36.621,-8.789,0
1583424148.821,99.121,-718.262,34.668,46.875,8.301,0
1583424148.825,101.074,-661.133,32.715,33.203,37.109,0
1583424148.829,53.223,-710.938,27.832,18.555,79.590,0
1583424148.833,-9.277,-920.898,20.508,28.809,22.949,0
1583424148.837,2.441,-985.352,28.320,40.039,-26.367,0
1583424148.841,40.527,-930.176,36.133,31.250,19.531,0
1583424148.844,50.781,-808.594,41.016,22.461,20.020,0
1583424148.848,11.719,-790.527,33.203,25.391,9.766,0
1583424148.852,-45.410,-949.707,20.996,33.691,-19.531,0
1583424148.856,6.836,-899.414,36.621,27.832,3.906,0
1583424148.860,59.570,-784.180,41.016,20.508,9.766,0
1583424148.857,4.395,-823.242,35.645,19.043,-34.180,0
1583424148.861,-1.465,-844.727,32.715,22.461,-23.438,0
1583424148.865,10.254,-910.645,27.832,31.738,10.254,0
1583424148.869,11.719,-842.285,33.203,24.902,52.734,0
1583424148.873,-16.113,-789.062,29.297,17.090,51.758,0
1583424148.877,-78.125,-923.828,25.879,17.090,46.875,0
1583424148.881,-49.805,-977.051,32.715,23.438,1.465,0
1583424148.884,-55.176,-960.938,27.344,29.297,-39.062,0
1583424148.888,-83.008,-959.473,30.762,22.461,-14.648,0
1583424148.892,-45.410,-879.883,36.621,16.602,-19.043,0
1583424148.896,-15.137,-736.816,33.691,27.832,61.523,0
1583424148.900,4.395,-714.355,33.203,32.715,66.406,0
1583424148.917,-41.504,-868.164,27.344,20.020,6.348,0
1583424148.921,-73.242,-900.879,29.785,17.090,3.418,0
1583424148.925,-47.363,-810.059,34.668,31.250,-5.371,0
1583424148.929,-13.672,-776.367,35.156,41.016,17.090,0
1583424148.933,-1.465,-764.648,36.621,27.832,46.875,0
1583424148.937,-84.961,-890.625,22.461,26.367,55.176,0
1583424148.941,-97.656,-975.098,22.461,35.156,4.395,0
1583424148.944,5.859,-876.953,38.086,32.227,-29.785,0
1583424148.948,25.879,-751.953,34.180,24.902,39.551,0
1583424148.952,-15.625,-802.246,27.832,24.902,66.895,0
1583424148.956,-66.406,-972.656,17.578,41.016,-26.367,0
1583424148.960,-21.973,-936.035,24.902,43.457,-40.527,0
1583424148.957,39.062,-789.551,34.180,35.645,40.527,0
1583424148.961,14.160,-787.598,28.320,26.367,36.621,0
1583424148.965,-10.254,-819.824,26.855,25.391,-0.977,0
1583424148.969,2.930,-860.352,26.855,39.551,32.715,0
1583424148.973,23.438,-934.082,27.832,38.086,20.508,0
1583424148.977,17.578,-946.289,25.879,27.344,12.695,0
1583424148.981,-12.207,-978.516,24.902,19.043,50.293,0
1583424148.984,39.062,-844.727,39.062,35.645,76.660,0
1583424148.988,67.871,-796.875,31.738,49.316,36.621,0
1583424148.992,1.465,-971.680,15.137,41.992,25.391,0
1583424148.996,5.859,-919.434,30.273,28.809,83.496,0
1583424149.000,54.199,-710.938,38.086,20.508,89.355,0
1583424148.997,52.734,-722.168,28.320,29.297,70.312,0
1583424149.001,41.504,-874.023,24.414,44.434,35.156,0
1583424149.005,23.926,-854.980,28.809,37.598,38.086,0
1583424149.009,13.184,-717.285,36.133,33.691,43.945,0
1583424149.013,26.367,-691.406,35.645,34.180,14.160,0
1583424149.017,25.391,-783.691,30.273,36.621,53.711,0
1583424149.021,-9.766,-905.273,23.926,32.227,52.734,0
1583424149.024,-44.922,-977.051,20.996,19.043,7.812,0
1583424149.028,14.160,-812.500,28.320,23.438,23.926,0
1583424149.032,71.289,-670.410,27.832,28.809,18.555,0
1583424149.036,40.527,-702.148,28.809,21.973,-4.883,0
1583424149.040,3.418,-674.805,26.367,26.367,6.836,0
1583424149.057,-25.879,-846.191,15.625,33.691,12.207,0
1583424149.061,11.230,-858.398,28.320,32.227,39.062,0
1583424149.065,60.547,-629.883,30.273,32.227,49.805,0
1583424149.069,4.395,-726.562,20.020,25.879,36.621,0
1583424149.073,13.672,-767.090,24.414,28.320,83.008,0
1583424149.077,24.414,-859.375,14.160,29.297,25.879,0
1583424149.081,33.691,-912.109,16.113,24.414,-20.020,0
1583424149.084,84.473,-675.781,33.203,19.043,57.129,0
1583424149.088,66.895,-610.352,25.879,20.020,84.961,0
1583424149.092,86.914,-610.352,23.926,32.227,56.152,0
1583424149.096,82.520,-755.371,25.391,30.762,38.574,0
1583424149.100,72.754,-784.180,27.344,30.762,64.941,4
1583424149.117,70.801,-659.180,29.297,33.691,65.430,0
1583424149.121,85.449,-702.637,20.020,29.785,18.066,0
1583424149.125,122.559,-695.801,17.578,34.180,-1.953,0
1583424149.129,96.191,-783.203,21.484,32.715,19.043,0
1583424149.133,48.340,-876.465,20.020,31.250,-7.324,0
1583424149.137,45.410,-909.668,20.020,28.809,-20.020,0
1583424149.141,70.801,-966.309,27.344,28.809,17.090,0
1583424149.144,100.098,-916.016,38.574,28.809,47.363,0
1583424149.148,58.105,-918.457,25.391,22.949,47.852,0
1583424149.152,18.555,-971.680,20.020,31.738,19.043,0
1583424149.156,103.027,-809.082,41.016,32.715,24.414,0
1583424149.160,137.207,-661.133,36.133,27.344,38.086,0
1583424149.137,99.609,-649.414,26.367,20.996,31.738,0
1583424149.141,54.688,-729.492,20.508,29.297,55.664,0
1583424149.145,61.523,-829.590,18.555,40.527,42.480,0
1583424149.149,109.863,-681.152,27.832,35.156,76.172,0
1583424149.153,71.289,-624.023,27.344,36.133,129.883,0
1583424149.157,2.930,-825.195,24.902,38.086,87.891,0
1583424149.161,8.789,-924.805,28.320,36.133,72.754,0
1583424149.164,33.691,-897.949,29.297,28.809,27.344,0
1583424149.168,43.457,-801.758,28.320,15.137,-10.742,0
1583424149.172,13.184,-790.527,22.461,24.414,23.926,0
1583424149.176,18.555,-756.348,28.320,32.715,47.363,0
1583424149.180,53.223,-665.527,34.668,34.180,34.668,0
1583424149.197,-7.812,-877.441,22.461,34.180,59.082,0
1583424149.201,-32.227,-917.969,27.344,15.137,66.895,0
1583424149.205,22.461,-668.945,41.504,17.090,57.129,0
