timestamps,TP9,AF7,AF8,TP10,Right AUX,Marker0
1583423305.137,64.941,99.609,55.664,84.473,22.949,0
1583423305.141,61.035,95.215,57.617,64.941,91.309,0
1583423305.145,62.988,92.285,55.664,50.293,100.098,0
1583423305.149,49.805,98.633,54.688,66.895,60.059,0
1583423305.153,54.199,96.191,58.594,77.148,56.641,0
1583423305.157,47.363,96.680,61.035,72.754,28.320,0
1583423305.161,19.043,89.355,65.918,55.664,13.184,0
1583423305.164,9.766,74.707,53.711,62.012,37.109,0
1583423305.168,-11.230,84.961,52.734,94.727,53.711,0
1583423305.172,-39.062,104.492,65.430,78.125,77.148,0
1583423305.176,-45.898,123.047,60.547,51.758,72.266,0
1583423305.180,-57.617,115.723,55.664,55.176,43.457,0
1583423305.176,-79.102,108.398,55.664,76.660,22.949,0
1583423305.180,-90.820,101.074,56.152,66.406,-2.930,0
1583423305.184,-92.773,95.703,58.594,30.273,-5.859,0
1583423305.188,-81.543,98.145,55.664,30.273,22.461,0
1583423305.192,-61.035,90.332,50.781,62.012,95.215,0
1583423305.196,-51.758,80.078,54.688,51.758,68.359,0
1583423305.200,-21.484,87.402,61.035,31.738,37.598,0
1583423305.203,14.648,96.680,62.012,37.598,73.242,0
1583423305.207,43.457,97.168,54.688,52.734,46.387,0
1583423305.211,67.383,94.238,53.711,60.059,51.758,0
1583423305.215,54.688,93.750,51.270,25.879,69.824,0
1583423305.219,48.340,86.426,41.992,-3.906,79.590,0
1583423305.236,44.434,80.078,45.898,7.324,46.387,0
1583423305.240,35.645,93.750,50.781,14.160,0.977,0
1583423305.244,52.734,100.586,41.504,-2.930,24.414,0
1583423305.248,70.312,98.633,30.273,-10.254,98.145,0
1583423305.252,59.570,97.656,42.480,4.883,56.152,0
1583423305.256,18.555,92.773,53.223,-4.883,53.223,0
1583423305.260,6.348,97.168,44.922,-29.785,91.309,0
1583423305.263,8.789,111.328,33.203,-73.730,34.668,0
1583423305.267,-5.371,93.750,37.109,-107.910,59.082,0
1583423305.271,1.953,74.707,35.156,-101.562,79.590,0
1583423305.275,12.207,86.426,32.227,-107.910,48.340,0
1583423305.279,-31.738,83.008,39.551,-165.039,17.090,0
1583423305.278,-69.336,83.008,36.621,-215.820,74.219,0
1583423305.282,-49.805,67.871,40.527,-187.500,90.820,0
1583423305.286,-22.949,31.250,47.852,-153.320,71.777,0
1583423305.290,-26.367,12.695,45.410,-164.062,100.586,0
1583423305.294,-18.555,25.879,46.875,-177.246,70.801,0
1583423305.298,12.695,53.711,45.898,-171.875,46.875,0
1583423305.302,37.598,60.059,47.363,-143.066,78.125,0
1583423305.305,49.805,62.500,50.293,-139.648,15.625,0
1583423305.309,67.871,56.152,48.828,-150.879,-6.836,0
1583423305.313,80.566,36.133,56.641,-104.492,89.844,0
1583423305.317,105.957,30.762,59.082,-60.059,124.023,0
1583423305.321,158.203,19.531,55.176,-33.691,56.152,0
1583423305.316,190.918,3.906,54.688,-34.180,12.695,0
1583423305.320,171.387,-1.465,53.223,-38.086,64.453,0
1583423305.324,184.570,13.184,43.457,-0.977,23.438,0
1583423305.328,219.727,25.879,37.109,-4.395,-4.883,0
1583423305.332,216.309,12.695,38.574,-25.879,17.090,0
1583423305.336,223.633,2.930,41.992,5.859,7.812,0
1583423305.340,236.328,-8.789,48.828,56.641,63.477,0
1583423305.343,248.047,-10.742,47.852,66.895,95.215,0
1583423305.347,270.020,8.301,44.434,35.156,84.961,0
1583423305.351,276.855,-16.113,43.457,12.695,53.223,0
1583423305.355,292.969,-41.992,47.852,62.012,30.273,0
1583423305.359,308.594,-20.996,49.316,93.262,54.688,0
1583423305.356,318.359,-3.418,46.875,46.875,53.223,0
1583423305.360,330.078,18.555,45.410,23.438,28.809,0
1583423305.364,304.688,25.391,47.363,-7.324,31.738,0
1583423305.368,317.871,20.020,54.688,32.715,58.105,0
1583423305.372,337.402,16.113,47.363,99.609,39.551,0
1583423305.376,317.383,3.906,45.898,61.523,39.551,0
1583423305.380,307.129,10.254,40.527,16.113,26.855,0
1583423305.383,287.598,9.277,38.086,49.805,6.836,0
1583423305.387,286.133,2.930,42.480,68.848,24.902,0
1583423305.391,291.992,0.488,41.504,25.879,25.391,0
1583423305.395,264.648,-2.930,42.969,20.996,36.621,0
1583423305.399,255.859,8.789,37.109,32.227,56.152,0
1583423305.417,260.742,16.113,36.133,44.922,86.914,0
1583423305.421,252.441,16.113,38.086,35.156,87.402,0
1583423305.425,240.723,31.250,34.668,-11.719,49.316,0
1583423305.429,250.000,49.805,37.598,-4.883,47.363,0
1583423305.433,271.973,61.523,39.551,6.836,73.730,0
1583423305.437,261.230,56.641,43.945,-1.953,57.617,0
1583423305.441,241.699,56.641,42.480,-22.461,29.785,0
1583423305.444,235.352,66.406,39.551,-51.758,50.781,0
1583423305.448,212.402,64.941,40.527,-21.484,70.312,0
1583423305.452,204.590,67.871,39.551,-29.297,73.242,0
1583423305.456,197.266,71.289,39.551,-56.641,72.266,0
1583423305.460,193.848,72.266,37.109,-48.340,19.531,0
1583423305.456,209.961,72.266,36.621,-36.133,35.645,0
1583423305.460,186.523,66.895,42.480,-26.367,44.922,0
1583423305.464,172.852,72.754,41.504,-47.363,45.410,0
1583423305.468,174.316,80.078,38.574,-82.031,42.480,0
1583423305.472,168.457,78.613,41.992,-60.547,43.457,0
1583423305.476,171.875,75.195,45.410,-29.297,60.059,0
1583423305.480,195.312,68.359,51.758,-45.410,20.508,0
1583423305.483,187.988,56.152,53.223,-89.844,58.105,0
1583423305.487,162.109,65.430,53.711,-95.703,117.676,0
1583423305.491,178.711,94.727,51.270,-77.148,43.457,0
1583423305.495,211.914,111.328,38.574,-82.520,3.418,0
1583423305.499,227.539,102.539,39.551,-99.609,34.668,0
1583423305.497,210.449,95.215,43.457,-94.238,85.449,0
1583423305.501,217.285,105.469,39.062,-61.035,40.527,0
1583423305.505,230.957,98.145,38.574,-42.969,-28.809,0
1583423305.509,219.238,97.168,38.574,-57.617,33.203,0
1583423305.513,223.145,93.262,40.039,-57.617,98.633,0
1583423305.517,254.395,70.801,44.434,-28.809,39.551,0
1583423305.521,285.645,76.172,47.852,-4.395,-18.066,0
1583423305.524,288.086,96.191,50.781,-3.906,15.137,0
1583423305.528,305.176,94.727,55.176,-16.602,48.828,0
1583423305.532,349.609,84.961,54.688,-12.207,80.566,0
1583423305.536,384.277,78.613,55.664,13.672,60.547,0
1583423305.540,422.852,81.543,55.176,35.645,37.598,0
1583423305.556,446.289,84.473,54.199,32.715,-12.695,0
1583423305.560,479.004,88.379,56.152,48.340,21.484,0
1583423305.564,554.688,87.402,52.734,87.891,105.469,0
1583423305.568,610.352,83.496,55.664,92.285,57.129,0
1583423305.572,690.430,87.891,55.176,59.082,75.684,0
1583423305.576,783.203,81.543,47.852,74.219,89.355,0
1583423305.580,838.379,79.102,51.270,110.352,30.762,0
1583423305.583,892.090,85.449,53.711,119.141,7.324,0
1583423305.587,902.832,67.871,59.082,103.027,67.383,0
1583423305.591,865.234,63.477,61.035,89.844,93.750,0
1583423305.595,838.379,61.523,65.918,118.164,54.199,0
1583423305.599,802.734,45.898,70.312,166.504,38.574,0
1583423305.597,732.422,54.688,62.500,166.992,65.918,0
1583423305.601,617.188,59.082,56.152,114.258,82.031,0
1583423305.605,524.414,63.965,54.199,110.352,81.055,0
1583423305.609,482.910,65.430,47.363,112.793,41.992,0
1583423305.613,423.828,55.664,48.828,127.930,2.930,0
1583423305.617,342.773,58.105,52.734,130.371,11.719,0
1583423305.621,266.113,70.312,52.734,100.586,10.254,0
1583423305.624,218.750,77.148,54.688,87.891,-8.789,0
1583423305.628,166.016,63.477,56.641,102.051,50.293,0
1583423305.632,89.355,48.828,55.664,90.820,96.191,0
1583423305.636,36.133,56.641,52.734,59.082,40.527,0
1583423305.640,19.531,55.176,51.270,70.801,25.879,0
1583423305.656,-4.395,57.129,48.340,85.449,41.016,0
1583423305.660,-62.988,62.012,47.363,60.059,-5.859,0
1583423305.664,-115.234,57.129,50.781,48.340,57.617,0
1583423305.668,-137.207,62.012,53.223,73.730,125.977,0
1583423305.672,-165.039,57.617,51.270,72.266,42.969,0
1583423305.676,-184.082,60.059,51.270,65.430,38.086,0
1583423305.680,-193.359,62.988,52.246,62.988,80.078,0
1583423305.683,-209.961,62.988,52.246,80.566,63.965,0
1583423305.687,-207.520,63.477,46.875,107.910,10.254,0
1583423305.691,-213.379,44.434,46.387,96.191,9.277,0
1583423305.695,-241.699,38.574,50.781,82.520,34.668,0
1583423305.699,-242.676,53.711,58.105,95.703,35.156,0
1583423305.677,-247.559,51.270,62.500,120.605,69.824,0
1583423305.681,-252.930,42.969,55.664,124.512,91.309,0
1583423305.685,-240.723,33.203,54.688,111.328,55.664,0
1583423305.689,-255.371,35.156,56.152,106.934,16.602,0
1583423305.693,-260.742,53.711,53.223,132.812,43.457,0
1583423305.697,-263.184,55.664,56.152,135.254,39.551,0
1583423305.701,-280.762,54.688,56.641,113.281,30.762,0
1583423305.704,-297.363,59.082,55.176,104.980,94.238,0
1583423305.708,-304.199,59.570,57.617,110.840,85.938,0
1583423305.712,-301.270,61.523,58.105,134.766,49.805,0
1583423305.716,-310.547,60.547,53.223,124.512,-16.602,0
1583423305.720,-283.203,53.223,52.246,105.957,45.410,0
1583423305.756,-282.715,54.199,54.688,126.465,91.309,0
1583423305.760,-333.984,60.547,57.129,135.254,66.406,0
1583423305.764,-336.914,67.871,62.500,122.070,86.914,0
1583423305.768,-341.797,75.195,62.012,102.539,23.438,0
1583423305.772,-339.355,72.754,60.547,108.398,27.344,0
1583423305.776,-343.262,56.641,62.012,124.512,102.539,0
1583423305.780,-375.977,37.109,62.500,128.906,72.754,0
1583423305.783,-369.141,44.922,60.547,120.605,34.668,0
1583423305.787,-370.605,62.012,63.477,104.492,34.180,0
1583423305.791,-396.484,58.594,61.523,103.027,16.602,0
1583423305.795,-395.020,49.805,56.641,101.562,7.812,0
1583423305.799,-389.648,52.246,57.129,99.121,64.941,0
1583423305.776,-393.555,60.059,57.617,92.285,89.355,0
1583423305.780,-397.461,59.570,58.594,97.656,75.684,0
1583423305.784,-415.039,49.316,56.152,80.566,98.145,0
1583423305.788,-425.293,47.363,57.617,57.129,68.359,0
1583423305.792,-435.059,45.898,62.012,44.434,27.344,0
1583423305.796,-441.895,44.922,59.570,38.086,-9.277,0
1583423305.800,-454.102,52.246,58.594,71.777,6.348,0
1583423305.803,-466.309,40.527,51.270,53.711,68.359,0
1583423305.807,-462.402,28.809,58.594,28.809,76.660,0
1583423305.811,-472.168,29.297,68.359,34.668,64.941,0
1583423305.815,-483.887,38.574,60.547,36.133,33.203,0
1583423305.819,-488.281,45.898,58.594,60.547,75.195,0
1583423305.816,-489.746,36.621,60.059,53.711,94.727,0
1583423305.820,-489.746,39.551,54.199,17.090,47.852,0
1583423305.824,-491.699,42.969,48.340,34.180,28.809,0
1583423305.828,-481.445,34.668,54.688,69.824,-6.836,0
1583423305.832,-439.941,36.621,50.293,63.477,3.418,0
1583423305.836,-409.180,33.691,41.504,44.922,62.500,0
1583423305.840,-420.898,28.320,42.969,62.500,113.770,0
1583423305.843,-427.734,25.879,44.922,98.145,101.562,0
1583423305.847,-405.762,36.133,40.527,76.660,93.262,0
1583423305.851,-389.160,55.664,39.551,50.293,60.059,0
1583423305.855,-408.203,51.758,48.828,47.852,34.668,0
1583423305.859,-391.113,47.852,57.129,78.613,78.125,0
1583423305.877,-373.047,49.316,57.617,88.867,88.867,0
1583423305.881,-367.188,41.504,60.059,55.176,50.781,0
1583423305.885,-337.402,45.898,55.664,40.527,72.754,0
1583423305.889,-315.918,42.480,51.270,41.016,51.758,0
1583423305.893,-297.363,34.180,53.711,49.316,-11.719,0
1583423305.897,-277.344,37.109,51.758,46.875,32.715,0
1583423305.901,-244.141,41.504,49.316,28.320,35.156,0
1583423305.904,-223.633,39.062,53.223,38.086,58.105,0
1583423305.908,-235.352,27.344,55.176,29.785,66.895,0
1583423305.912,-229.004,36.133,47.852,17.578,19.043,0
1583423305.916,-232.910,28.809,49.316,20.020,-8.301,0
1583423305.920,-230.957,24.902,46.387,18.066,33.203,0
1583423305.916,-216.309,36.621,43.457,31.250,69.336,0
1583423305.920,-202.148,36.621,50.293,11.230,24.414,0
1583423305.924,-182.129,48.828,50.293,12.695,56.641,0
1583423305.928,-170.410,49.316,41.992,20.508,56.152,0
1583423305.932,-173.828,29.297,43.457,17.578,41.016,0
1583423305.936,-166.016,22.949,50.293,29.785,27.344,0
1583423305.940,-131.348,28.320,43.457,7.324,39.551,0
1583423305.943,-101.074,28.320,40.527,-9.766,46.875,0
1583423305.947,-95.215,36.133,41.016,18.555,26.367,0
1583423305.951,-81.543,25.879,46.875,24.414,17.090,0
1583423305.955,-69.336,23.926,50.293,19.531,29.297,0
1583423305.959,-72.266,40.039,49.805,5.371,100.098,0
1583423305.956,-78.613,39.551,46.875,8.789,110.840,0
1583423305.960,-66.406,35.645,37.598,12.695,58.105,0
1583423305.964,-56.152,31.250,40.527,9.277,7.812,0
1583423305.968,-61.523,26.367,41.992,26.367,27.344,0
1583423305.972,-40.039,20.996,34.180,37.598,79.102,0
1583423305.976,-9.277,24.414,34.668,45.898,55.176,0
1583423305.980,15.625,30.273,36.621,30.762,30.762,0
1583423305.983,-26.855,22.461,43.945,3.906,5.859,0
1583423305.987,-16.602,23.438,36.133,-7.812,34.668,0
1583423305.991,32.715,28.320,26.367,0.977,56.152,0
1583423305.995,-13.184,16.113,40.039,31.738,45.898,0
1583423305.999,-21.484,19.043,60.059,43.945,31.738,0
1583423306.016,12.207,13.672,53.223,-18.555,-4.395,0
1583423306.020,51.758,6.348,39.551,-1.465,42.480,0
1583423306.024,41.016,0.977,56.641,37.598,29.297,0
1583423306.028,26.367,7.324,52.246,12.695,21.484,0
1583423306.032,38.574,24.414,44.922,-2.441,37.598,0
1583423306.036,42.969,10.254,56.152,15.625,28.320,0
1583423306.040,57.617,-0.977,46.875,19.043,41.992,0
1583423306.043,89.844,15.625,42.969,-0.488,-4.883,0
1583423306.047,122.559,23.926,38.086,-9.766,-26.855,0
1583423306.051,117.188,24.902,43.457,-24.414,16.113,0
1583423306.055,121.094,27.344,53.711,21.484,29.297,0
1583423306.059,126.953,27.344,47.363,35.156,84.961,0
1583423306.056,133.789,29.785,47.363,-36.133,110.840,0
1583423306.060,245.605,37.109,47.852,20.508,54.199,0
1583423306.064,305.664,51.270,41.992,94.238,61.035,0
1583423306.068,256.836,49.805,43.945,20.508,75.684,0
1583423306.072,230.469,50.781,46.387,-27.344,65.430,0
1583423306.076,231.445,56.152,53.223,-41.504,29.785,0
1583423306.080,222.656,55.176,58.105,-19.043,-17.090,0
1583423306.083,235.840,63.477,58.105,7.324,67.383,0
1583423306.087,265.625,67.383,54.199,-53.711,68.848,0
1583423306.091,271.484,58.594,62.012,-80.566,10.742,0
1583423306.095,280.273,66.406,64.941,-53.223,96.191,0
1583423306.099,307.617,66.895,61.035,2.441,104.492,0
1583423306.097,354.004,55.664,61.523,18.555,83.008,0
1583423306.101,388.672,67.383,50.781,-47.852,45.898,0
1583423306.105,397.949,65.430,44.922,-36.133,5.859,0
1583423306.109,387.207,63.965,43.457,0.000,-9.277,0
1583423306.113,399.414,73.730,43.945,-12.695,38.574,0
1583423306.117,430.664,74.219,44.434,-7.812,36.621,0
1583423306.121,432.129,73.242,47.363,12.207,-9.766,0
1583423306.124,410.645,78.613,39.551,9.277,39.551,0
1583423306.128,405.273,75.684,43.945,24.414,52.734,0
1583423306.132,405.762,76.660,60.547,21.484,-13.672,0
1583423306.136,429.688,83.984,59.570,5.859,23.438,0
1583423306.140,423.828,86.426,48.828,47.852,38.574,0
1583423306.157,352.051,77.637,54.688,71.289,36.133,0
1583423306.161,328.125,78.125,68.848,27.344,44.434,0
1583423306.165,324.707,110.352,82.031,31.250,7.812,0
1583423306.169,350.098,139.648,99.121,124.023,2.441,0
1583423306.173,385.254,162.598,118.164,251.953,72.754,0
1583423306.177,401.855,155.762,131.836,235.840,65.918,0
1583423306.181,443.359,142.090,107.910,187.988,74.219,0
1583423306.184,460.449,124.023,69.336,222.168,45.410,0
1583423306.188,436.523,109.863,63.965,233.398,53.223,0
1583423306.192,435.059,113.770,62.988,272.949,89.355,0
1583423306.196,437.988,118.652,50.781,290.039,56.641,0
1583423306.200,419.922,120.117,44.434,277.832,30.762,0
1583423306.197,446.777,120.117,51.270,345.703,37.109,0
1583423306.201,457.520,156.738,46.387,392.578,54.688,0
1583423306.205,459.961,190.430,47.363,408.203,35.156,0
1583423306.209,452.637,169.434,47.363,402.344,32.227,0
1583423306.213,437.988,167.969,39.062,399.902,45.898,0
1583423306.217,437.500,183.105,37.598,393.066,17.578,0
1583423306.221,443.359,198.730,20.996,403.320,65.430,0
1583423306.224,468.262,199.219,27.344,429.199,85.449,0
1583423306.228,490.723,202.637,34.180,421.387,55.176,0
1583423306.232,469.727,227.539,31.250,424.805,91.309,0
1583423306.236,441.406,239.746,37.109,409.668,70.312,0
1583423306.240,452.637,235.352,31.738,366.211,19.531,0
1583423306.237,453.613,227.051,23.438,350.586,49.316,0
1583423306.241,439.453,209.961,27.832,371.094,71.289,0
1583423306.245,420.410,167.480,37.109,370.117,82.031,0
1583423306.249,462.891,137.207,34.668,315.918,26.367,0
1583423306.253,526.855,131.348,42.969,306.641,28.320,0
1583423306.257,529.785,111.328,52.246,379.883,70.312,0
1583423306.261,533.203,126.465,43.945,405.273,62.988,0
1583423306.264,550.293,130.371,49.316,378.418,79.590,0
1583423306.268,564.941,114.258,48.340,393.555,86.914,0
1583423306.272,593.262,109.863,42.480,421.387,74.707,0
1583423306.276,604.492,84.961,45.898,436.035,89.844,0
1583423306.280,615.723,72.754,40.527,432.129,92.773,0
1583423306.296,638.672,50.293,40.527,434.570,67.871,0
1583423306.300,639.648,63.477,45.898,514.648,74.219,0
1583423306.304,587.891,106.445,44.922,493.652,45.898,0
1583423306.308,500.977,107.910,50.781,406.250,76.172,0
1583423306.312,448.730,96.191,54.688,368.652,104.004,0
1583423306.316,413.086,94.727,41.504,325.684,41.504,0
1583423306.320,363.770,98.633,47.852,328.125,74.707,0
1583423306.323,306.641,116.699,49.805,314.453,103.027,0
1583423306.327,235.840,124.023,41.504,265.625,100.098,0
1583423306.331,159.180,123.535,39.551,209.473,129.883,0
1583423306.335,120.117,131.348,28.320,158.691,140.625,0
1583423306.339,91.309,152.344,21.973,114.258,108.398,0
1583423306.337,27.832,156.738,40.039,86.914,57.129,0
1583423306.341,-28.809,157.715,53.711,104.492,72.266,0
1583423306.345,-70.312,155.273,54.199,73.242,75.195,0
1583423306.349,-113.281,129.395,53.223,28.809,92.773,0
1583423306.353,-118.164,136.230,56.152,43.457,78.125,0
1583423306.357,-83.984,145.508,61.035,27.344,72.266,0
1583423306.361,-63.965,182.129,63.965,29.785,97.168,0
1583423306.364,-47.852,252.930,67.383,57.129,88.867,0
1583423306.368,-41.016,228.027,68.848,58.594,46.387,0
1583423306.372,-39.062,178.223,69.824,51.270,83.496,0
1583423306.376,-29.297,216.309,66.406,62.012,120.605,0
1583423306.380,-23.926,331.543,68.848,93.262,54.199,0
1583423306.377,-24.414,395.020,69.824,84.473,93.262,0
1583423306.381,-45.410,334.473,68.359,46.875,59.570,0
1583423306.385,-85.938,252.930,66.895,35.645,-35.645,0
1583423306.389,-57.129,208.984,64.453,36.621,17.090,0
1583423306.393,-53.711,164.062,63.965,29.297,4.395,0
1583423306.397,-82.031,134.766,63.965,-3.906,21.484,0
1583423306.401,-81.055,117.676,68.848,-61.523,60.059,0
1583423306.404,-138.184,87.891,67.871,-77.148,-2.441,0
1583423306.408,-202.148,80.566,65.918,-102.051,-22.461,0
1583423306.412,-230.957,77.148,67.871,-136.719,29.785,0
1583423306.416,-293.457,58.105,61.523,-206.543,92.285,0
1583423306.420,-374.023,45.410,60.547,-264.160,73.730,0
1583423306.436,-474.609,28.809,67.383,-289.062,43.945,0
1583423306.440,-591.309,15.625,62.988,-365.723,13.672,0
1583423306.444,-729.004,1.953,62.988,-472.168,-0.488,0
1583423306.448,-894.043,-3.418,76.660,-562.012,37.598,0
1583423306.452,-972.656,-0.488,80.566,-681.641,21.973,0
1583423306.456,-964.844,-16.113,70.801,-811.523,32.227,0
1583423306.460,-967.773,-23.438,63.477,-890.625,14.160,0
1583423306.463,-968.750,-12.207,54.199,-898.438,-1.953,0
1583423306.467,-968.750,-14.160,43.945,-833.008,26.367,0
1583423306.471,-968.750,-20.508,47.363,-747.559,36.133,0
1583423306.475,-965.332,-26.855,51.270,-699.707,17.578,0
1583423306.479,-975.098,-21.973,55.664,-662.598,-4.883,0
1583423306.477,-931.641,-5.371,56.152,-587.891,38.574,0
1583423306.481,-865.234,-10.742,45.410,-590.332,91.309,0
1583423306.485,-839.355,-18.555,42.480,-601.562,81.543,0
1583423306.489,-806.641,-24.414,42.480,-565.918,42.969,0
1583423306.493,-799.316,-28.809,39.062,-573.730,27.344,0
1583423306.497,-826.660,-59.082,45.410,-578.613,18.555,0
1583423306.501,-865.234,-113.281,49.316,-588.867,10.254,0
1583423306.504,-866.699,-118.652,42.969,-633.301,5.371,0
1583423306.508,-863.281,-109.863,46.387,-663.086,-1.953,0
1583423306.512,-869.629,-111.328,47.363,-650.879,-16.113,0
1583423306.516,-816.406,-83.496,40.527,-604.492,0.977,0
1583423306.520,-735.840,-56.152,43.457,-576.660,57.129,0
1583423306.516,-681.641,-39.062,42.480,-555.664,66.406,0
1583423306.520,-633.789,-26.367,43.457,-476.562,62.500,0
1583423306.524,-585.938,-28.809,45.410,-407.227,34.180,0
1583423306.528,-538.574,-40.527,48.828,-368.164,38.574,0
1583423306.532,-484.863,-65.430,46.387,-347.168,93.750,0
1583423306.536,-426.758,-85.938,44.922,-300.293,94.727,0
1583423306.540,-353.027,-83.984,51.270,-241.211,62.012,0
1583423306.543,-281.738,-75.195,45.410,-197.754,63.477,0
1583423306.547,-194.824,-83.496,39.062,-141.602,67.383,0
1583423306.551,-110.352,-104.492,43.457,-90.820,69.824,0
1583423306.555,-68.848,-132.812,41.992,-35.645,54.688,0
1583423306.559,-16.113,-162.598,39.551,7.812,39.062,0
1583423306.577,55.176,-191.895,47.852,26.855,19.531,0
1583423306.581,102.539,-212.402,48.340,21.973,26.855,0
1583423306.585,155.762,-190.918,48.340,52.734,58.105,0
1583423306.589,195.801,-169.922,55.664,105.957,65.430,0
1583423306.593,245.117,-193.359,62.500,124.512,51.758,0
1583423306.597,291.016,-216.309,64.453,128.906,29.297,0
1583423306.601,327.637,-229.980,59.570,145.996,44.434,0
1583423306.604,366.699,-238.770,56.152,159.180,29.785,0
1583423306.608,381.836,-249.512,58.105,146.973,-10.254,0
1583423306.612,393.555,-242.188,61.035,128.906,11.230,0
1583423306.616,386.230,-250.488,59.082,125.000,28.809,0
1583423306.620,370.605,-190.430,56.641,132.324,46.875,0
1583423306.616,362.793,-43.945,54.199,117.676,75.195,0
1583423306.620,354.492,-31.250,58.594,103.516,67.871,0
1583423306.624,354.004,-69.336,63.477,112.793,53.711,0
1583423306.628,381.348,-80.078,67.871,141.113,44.434,0
1583423306.632,381.836,-64.453,69.336,153.320,25.391,0
1583423306.636,365.234,-71.289,66.895,123.047,31.738,0
1583423306.640,375.488,-117.188,68.848,110.840,46.875,0
1583423306.643,387.207,-137.695,68.359,113.281,88.867,0
1583423306.647,443.359,-162.109,65.430,162.109,60.059,0
1583423306.651,547.852,-179.688,62.500,290.527,40.039,0
1583423306.655,644.043,-178.711,56.641,357.910,41.504,0
1583423306.659,639.160,-186.523,56.641,382.324,28.320,0
1583423306.656,737.793,-190.918,52.734,492.188,86.914,0
1583423306.660,948.730,-201.660,52.734,686.523,78.613,0
1583423306.664,-993.652,-213.867,63.477,770.996,8.789,0
1583423306.668,923.828,-221.191,58.105,699.707,19.043,0
1583423306.672,794.434,-226.562,58.105,655.273,66.895,0
1583423306.676,695.312,-218.750,61.035,598.145,63.477,0
1583423306.680,610.840,-229.980,62.500,506.348,65.430,0
1583423306.683,540.527,-232.910,65.918,449.219,29.297,0
1583423306.687,474.121,-201.660,62.012,432.129,11.719,0
1583423306.691,429.688,-217.285,58.105,410.156,9.766,0
1583423306.695,401.367,-222.168,58.105,358.887,49.316,0
1583423306.699,353.516,-85.938,62.988,305.176,51.758,0
1583423306.717,333.496,59.082,61.035,296.387,34.180,0
1583423306.721,338.867,57.129,60.547,295.410,53.223,0
1583423306.725,295.410,-39.551,65.918,258.301,5.859,0
1583423306.729,261.230,-15.625,65.918,221.680,37.598,0
1583423306.733,258.301,62.500,65.430,215.332,28.809,0
1583423306.737,265.137,81.055,62.012,215.820,54.199,0
1583423306.741,259.277,54.688,59.570,179.688,53.711,0
1583423306.744,242.188,-19.043,64.941,137.207,-3.418,0
1583423306.748,230.469,-57.129,70.312,143.066,12.207,0
1583423306.752,240.723,-82.031,78.125,176.758,60.547,0
1583423306.756,238.281,-114.258,83.008,164.551,91.797,0
1583423306.760,201.660,-121.094,78.125,98.145,83.984,0
1583423306.758,169.434,-112.793,63.477,61.035,105.469,0
1583423306.762,170.898,-118.164,46.387,70.312,61.035,0
1583423306.766,176.758,-131.348,48.828,95.215,20.996,0
1583423306.770,172.852,-137.207,51.758,56.641,126.953,0
1583423306.774,166.504,-142.578,53.711,4.395,109.863,0
1583423306.778,150.879,-155.273,59.082,22.461,-24.902,0
1583423306.782,143.555,-156.738,58.105,40.527,-21.973,0
1583423306.785,136.719,-156.738,59.570,41.016,41.992,0
1583423306.789,116.699,-174.316,62.500,20.508,32.715,0
1583423306.793,117.188,-173.340,62.012,9.277,13.672,0
1583423306.797,123.047,-153.320,60.547,44.434,61.035,0
1583423306.801,99.609,-153.809,60.547,51.270,73.242,0
1583423306.816,86.914,-154.297,60.059,23.926,49.805,0
1583423306.820,94.238,-153.809,60.547,21.484,13.184,0
1583423306.824,103.516,-153.809,56.152,41.016,24.902,0
1583423306.828,100.098,-151.367,57.129,65.430,48.340,0
1583423306.832,96.680,-145.020,58.594,28.809,13.184,0
1583423306.836,90.332,-135.742,57.129,-1.465,-7.812,0
1583423306.840,81.543,-133.301,59.082,18.555,56.152,0
1583423306.843,77.637,-124.023,56.152,4.395,87.891,0
1583423306.847,75.684,-111.816,58.105,-25.879,64.453,0
1583423306.851,62.012,-117.188,59.570,-49.316,73.730,0
1583423306.855,86.426,-113.770,56.152,-34.668,51.758,0
1583423306.859,107.910,-115.234,61.035,-19.043,17.578,0
1583423306.857,84.473,-116.211,59.570,-55.664,31.250,0
1583423306.861,69.824,-104.980,56.152,-82.031,6.836,0
1583423306.865,80.566,-101.074,62.012,-61.523,55.176,0
1583423306.869,79.102,-103.516,62.500,-40.039,32.227,0
1583423306.873,61.035,-105.469,62.988,-61.035,-22.949,0
1583423306.877,51.758,-102.539,58.594,-100.586,50.293,0
1583423306.881,40.039,-100.098,54.688,-106.445,41.504,0
1583423306.884,44.434,-93.750,57.617,-79.590,20.996,0
1583423306.888,49.805,-87.891,56.152,-67.383,48.828,0
1583423306.892,36.621,-82.520,61.035,-104.004,-1.953,0
1583423306.896,33.691,-72.754,60.059,-140.625,-16.113,0
1583423306.900,28.320,-59.570,53.711,-146.484,33.691,0
1583423306.898,-9.766,-50.293,51.270,-151.367,29.297,0
1583423306.902,-88.867,-45.410,43.457,-207.520,92.285,0
1583423306.906,-169.922,-43.945,46.387,-278.809,91.797,0
1583423306.910,-198.242,-49.316,49.805,-288.574,53.711,0
1583423306.914,-201.172,-43.457,44.922,-267.578,64.941,0
1583423306.918,-203.613,-39.551,39.062,-286.621,78.125,0
1583423306.922,-210.449,-36.621,41.016,-309.082,94.238,0
1583423306.925,-217.285,-33.203,45.410,-286.133,87.891,0
1583423306.929,-199.707,-47.852,46.387,-250.000,-8.301,0
1583423306.933,-179.688,-45.898,50.781,-209.961,-26.367,0
1583423306.937,-197.754,-33.691,51.758,-209.961,22.949,0
1583423306.941,-198.242,-33.691,47.852,-217.285,31.250,0
1583423306.956,-145.020,-29.297,52.734,-156.250,28.809,0
1583423306.960,-111.328,-28.809,57.129,-102.539,-1.953,0
1583423306.964,-93.262,-29.297,59.082,-87.402,33.691,0
1583423306.968,-68.359,-28.809,59.570,-85.938,47.363,0
1583423306.972,-45.898,-32.227,62.500,-35.156,47.363,0
1583423306.976,-12.695,-38.086,64.941,31.738,43.945,0
1583423306.980,14.648,-42.969,67.383,50.781,22.461,0
1583423306.983,12.695,-44.922,68.359,51.270,45.410,0
1583423306.987,38.086,-41.504,70.312,78.125,14.648,0
1583423306.991,61.035,-47.363,66.895,128.418,58.594,0
1583423306.995,58.105,-57.617,61.035,132.324,52.246,0
1583423306.999,47.852,-65.918,67.871,124.512,41.992,0
1583423306.996,64.941,-63.965,65.918,150.879,37.598,0
1583423307.000,99.609,-52.734,64.453,169.922,49.805,0
1583423307.004,92.285,-48.828,60.059,166.504,82.520,0
1583423307.008,91.309,-42.969,60.059,159.180,50.781,0
1583423307.012,90.820,-63.965,63.477,131.348,-32.715,0
1583423307.016,81.055,0.000,60.547,160.156,-33.691,0
1583423307.020,67.871,77.637,62.012,174.805,76.660,0
1583423307.023,13.672,28.809,63.965,119.629,109.375,0
1583423307.027,-37.109,1.465,63.477,82.031,102.539,0
1583423307.031,-54.199,-13.184,67.383,99.121,79.102,0
1583423307.035,-45.410,-23.926,66.406,115.723,116.699,0
1583423307.039,-47.852,-22.949,67.383,105.957,116.211,0
1583423307.037,-56.641,-7.812,71.289,78.613,52.246,0
1583423307.041,-20.508,46.875,66.406,99.121,62.500,0
1583423307.045,12.695,58.105,70.312,149.902,91.309,0
1583423307.049,36.621,122.559,64.453,141.602,79.590,0
1583423307.053,46.875,217.285,58.105,111.328,102.539,0
1583423307.057,58.105,203.125,61.035,116.211,78.125,0
1583423307.061,90.332,190.918,63.477,137.695,-18.066,0
1583423307.064,103.516,161.133,60.059,126.465,45.898,0
1583423307.068,105.957,135.254,64.453,108.887,40.527,0
1583423307.072,125.000,124.512,64.941,117.676,-19.043,0
1583423307.076,129.395,105.469,57.129,137.695,30.762,0
1583423307.080,145.996,91.797,56.641,137.207,28.809,0
1583423307.096,177.246,108.887,62.500,131.836,8.301,0
1583423307.100,178.711,124.512,69.336,110.840,28.809,0
1583423307.104,176.758,100.098,63.477,120.605,30.273,0
1583423307.108,208.984,74.219,63.477,152.832,25.879,0
1583423307.112,194.336,49.805,61.523,129.395,35.645,0
1583423307.116,160.645,31.738,61.035,102.539,51.270,0
1583423307.120,164.551,52.246,57.617,99.121,54.199,0
1583423307.123,170.410,118.164,55.664,108.887,33.691,0
1583423307.127,175.293,159.180,59.082,95.703,50.781,0
1583423307.131,160.645,143.066,59.082,61.035,55.664,0
1583423307.135,153.320,102.051,59.570,48.828,52.734,0
1583423307.139,155.762,62.988,54.688,78.613,73.730,0
1583423307.136,148.438,47.852,48.340,87.891,63.477,0
1583423307.140,129.883,33.691,41.992,66.406,68.848,0
1583423307.144,129.883,17.090,44.922,48.340,60.547,0
1583423307.148,133.789,7.812,41.504,64.941,-0.977,0
1583423307.152,128.906,-5.371,40.039,80.078,35.156,0
1583423307.156,123.047,-17.578,47.852,59.082,61.035,0
1583423307.160,121.582,-18.555,49.805,27.832,20.020,0
1583423307.163,117.188,-16.113,46.875,34.668,31.738,0
1583423307.167,109.863,-16.602,46.875,53.223,24.414,0
1583423307.171,110.840,-32.227,49.805,54.199,41.016,0
1583423307.175,105.957,-45.898,46.387,43.457,49.316,0
1583423307.179,103.516,-35.645,48.828,44.922,28.809,0
1583423307.176,124.512,-32.715,55.664,53.711,27.832,0
1583423307.180,137.695,-29.297,50.293,49.316,33.691,0
1583423307.184,129.395,-27.344,46.387,37.598,58.105,0
1583423307.188,109.375,-28.320,47.852,22.461,65.430,0
1583423307.192,111.816,-22.949,44.434,53.223,106.445,0
1583423307.196,126.953,-31.250,48.340,71.289,69.336,0
1583423307.200,133.301,-32.715,49.805,52.246,34.180,0
1583423307.203,129.883,-25.879,50.293,40.039,72.266,0
1583423307.207,131.836,-26.855,53.711,59.082,119.629,0
1583423307.211,169.434,-18.066,50.781,52.246,95.703,0
1583423307.215,162.109,-13.672,46.875,9.277,29.297,0
1583423307.219,112.793,-15.625,49.805,-11.230,21.973,0
1583423307.236,139.648,-9.766,59.570,0.000,22.949,0
1583423307.240,178.711,-2.441,66.895,32.227,24.414,0
1583423307.244,149.414,5.859,69.824,22.461,47.852,0
1583423307.248,102.051,-2.441,71.289,-24.902,79.102,0
1583423307.252,76.172,-11.719,73.242,-19.043,79.102,0
1583423307.256,70.801,-9.277,69.336,16.602,42.480,0
1583423307.260,84.473,-6.836,69.824,22.461,-11.230,0
1583423307.263,92.285,6.348,67.383,-9.766,47.363,0
1583423307.267,106.445,12.695,59.082,-19.043,48.828,0
1583423307.271,131.836,6.348,62.012,2.441,11.230,0
1583423307.275,127.441,4.883,63.965,10.254,8.301,0
1583423307.279,106.934,2.930,62.500,-0.488,15.137,0
1583423307.277,95.703,7.812,54.199,-48.828,38.574,0
1583423307.281,79.590,13.672,56.641,-87.402,38.574,0
1583423307.285,73.242,16.113,56.641,-71.289,37.598,0
1583423307.289,67.871,21.484,47.852,-86.914,38.086,0
1583423307.293,67.383,18.066,54.199,-130.371,71.289,0
1583423307.297,78.613,24.902,56.641,-143.555,101.562,0
1583423307.301,89.844,30.762,57.617,-129.395,55.176,0
1583423307.304,100.586,29.785,55.664,-170.898,-5.859,0
1583423307.308,97.656,41.504,48.828,-234.863,-6.836,0
1583423307.312,49.805,34.180,52.734,-215.332,15.625,0
1583423307.316,24.902,31.250,53.711,-199.219,9.277,0
1583423307.320,62.012,41.992,45.898,-207.520,41.992,0
1583423307.316,78.613,35.156,47.363,-205.078,79.102,0
1583423307.320,66.406,40.527,41.016,-221.191,74.707,0
1583423307.324,67.383,34.180,45.410,-180.176,50.781,0
1583423307.328,67.871,30.273,48.828,-154.297,22.949,0
1583423307.332,59.570,40.039,42.969,-176.270,92.285,0
1583423307.336,37.598,38.086,42.969,-159.668,97.656,0
1583423307.340,75.195,43.945,43.945,-119.629,94.238,0
1583423307.343,128.418,40.527,44.434,-80.078,112.793,0
1583423307.347,101.074,28.809,45.898,-87.891,83.008,0
1583423307.351,98.145,41.504,53.711,-110.352,83.984,0
1583423307.355,126.953,50.781,52.246,-82.520,66.895,0
1583423307.359,127.441,58.594,39.062,-35.645,77.148,0
1583423307.376,101.562,56.641,49.805,-18.555,65.430,0
1583423307.380,75.195,51.270,56.641,-62.988,20.508,0
1583423307.384,64.941,59.082,41.504,-85.449,20.508,0
1583423307.388,62.988,57.617,45.410,-46.387,39.551,0
1583423307.392,40.039,66.406,44.922,-24.414,70.801,0
1583423307.396,16.113,68.848,43.945,-40.527,75.684,0
1583423307.400,0.488,53.223,53.223,-67.871,67.383,0
1583423307.403,-7.812,71.289,48.340,-43.945,48.340,0
1583423307.407,10.742,85.938,47.363,-14.648,69.824,0
1583423307.411,-5.371,105.469,46.875,-19.043,59.570,0
1583423307.415,-42.480,137.207,45.898,-7.324,22.949,0
1583423307.419,-33.691,118.652,49.805,15.625,24.414,0
1583423307.416,-25.879,103.516,47.363,53.223,54.199,0
1583423307.420,-37.598,99.609,45.898,76.660,67.871,0
1583423307.424,-51.270,141.113,53.711,67.871,16.113,0
1583423307.428,-56.641,212.891,52.246,85.449,16.602,0
1583423307.432,-79.102,240.234,46.387,100.098,6.836,0
1583423307.436,-123.535,239.746,52.246,88.867,12.207,0
1583423307.440,-170.898,255.371,54.688,86.426,75.195,0
1583423307.443,-197.754,256.836,51.758,56.641,87.402,0
1583423307.447,-202.148,250.488,44.434,51.758,96.680,0
1583423307.451,-238.770,239.258,47.363,48.828,109.863,0
1583423307.455,-280.273,232.422,48.828,-4.883,109.863,0
1583423307.459,-294.434,235.352,47.363,-8.789,59.570,0
1583423307.476,-313.477,231.934,53.711,14.648,76.172,0
1583423307.480,-328.125,224.609,54.199,18.066,58.594,0
1583423307.484,-344.238,212.891,47.363,-2.930,7.324,0
1583423307.488,-332.520,200.684,50.781,0.000,-13.672,0
1583423307.492,-293.457,178.711,55.176,19.531,20.996,0
1583423307.496,-252.441,157.227,47.852,12.695,54.199,0
1583423307.500,-204.590,156.250,44.434,27.344,57.617,0
1583423307.503,-125.977,155.273,47.852,8.789,74.707,0
1583423307.507,-53.711,143.066,51.758,7.812,46.875,0
1583423307.511,-15.625,149.902,49.805,76.172,80.078,0
1583423307.515,0.488,148.438,47.852,92.285,72.266,0
1583423307.519,-4.395,136.230,54.199,98.145,30.762,0
1583423307.516,-31.738,135.254,55.176,116.699,52.734,0
1583423307.520,-21.484,142.090,50.781,143.555,61.523,0
1583423307.524,15.625,147.461,58.105,153.809,46.875,0
1583423307.528,42.480,148.438,59.570,154.785,34.668,0
1583423307.532,64.453,152.344,50.293,175.781,36.133,0
1583423307.536,64.453,145.020,52.246,171.875,60.059,0
1583423307.540,66.895,140.625,54.688,187.988,62.012,0
1583423307.543,71.777,139.648,57.617,208.496,34.668,0
1583423307.547,63.477,125.000,53.711,194.336,14.160,0
1583423307.551,29.785,98.633,48.828,199.707,20.996,0
1583423307.555,10.742,77.148,58.594,220.215,57.617,0
1583423307.559,17.090,65.918,58.594,215.332,25.879,0
1583423307.557,10.742,68.848,53.711,210.938,24.902,0
1583423307.561,-9.766,72.266,62.012,202.637,65.918,0
1583423307.565,-12.207,70.312,59.570,216.797,69.336,0
1583423307.569,5.859,60.059,62.988,194.824,92.773,0
1583423307.573,-9.277,62.500,71.289,172.363,80.566,0
1583423307.577,-24.902,96.191,65.430,176.270,11.230,0
1583423307.581,-14.648,105.469,61.523,171.875,44.922,0
1583423307.584,-13.184,92.773,63.965,216.797,102.051,0
1583423307.588,-24.414,78.613,70.801,209.473,87.402,0
1583423307.592,-63.965,63.477,71.777,162.598,60.547,0
1583423307.596,-81.055,72.754,63.477,183.594,38.086,0
1583423307.600,-40.039,81.543,62.500,215.820,-9.766,0
1583423307.596,-13.672,74.707,63.965,203.613,15.137,0
1583423307.600,-28.320,80.566,62.988,170.410,85.449,0
1583423307.604,-38.086,78.613,68.848,167.969,-11.230,0
1583423307.608,-35.156,71.289,71.777,208.984,22.461,0
1583423307.612,-22.461,66.406,65.918,207.031,97.656,0
1583423307.616,-25.879,57.129,65.918,169.922,24.902,0
1583423307.620,-30.762,51.758,64.453,155.273,35.645,0
1583423307.623,8.789,34.180,68.848,202.637,79.590,0
1583423307.627,28.809,27.344,63.965,203.125,68.359,0
1583423307.631,13.672,27.832,55.176,157.227,29.785,0
1583423307.635,30.273,20.996,61.035,166.504,35.645,0
1583423307.639,52.734,22.949,62.988,156.250,73.242,0
1583423307.656,67.383,18.555,56.641,149.414,87.891,0
1583423307.660,48.828,15.137,55.176,143.066,80.566,0
1583423307.664,44.922,19.531,53.711,101.074,48.828,0
1583423307.668,56.641,28.809,48.340,91.309,28.320,0
1583423307.672,63.477,24.902,49.805,112.305,44.922,0
1583423307.676,94.238,16.113,49.805,112.793,67.383,0
1583423307.680,129.395,21.484,46.387,78.125,46.875,0
1583423307.683,149.414,23.926,43.945,74.219,63.477,0
1583423307.687,163.086,41.016,49.316,82.031,50.781,0
1583423307.691,159.668,69.824,46.875,64.941,44.434,0
1583423307.695,161.621,73.242,37.109,44.434,67.383,0
1583423307.699,159.668,64.941,41.992,50.293,-8.301,0
1583423307.696,169.434,62.012,48.340,76.660,16.602,0
1583423307.700,180.664,59.082,44.922,86.426,59.082,0
1583423307.704,170.410,47.363,47.363,68.848,83.008,0
1583423307.708,169.922,30.273,51.758,75.195,88.379,0
1583423307.712,176.758,33.691,47.852,97.168,19.531,0
1583423307.716,168.945,52.734,38.086,109.375,-1.953,0
1583423307.720,161.621,55.176,30.273,100.098,51.270,0
1583423307.723,164.062,49.805,29.297,75.195,66.406,0
1583423307.727,163.574,57.129,31.250,93.750,49.316,0
1583423307.731,143.066,44.922,31.738,99.121,65.918,0
1583423307.735,140.137,29.785,27.344,87.402,70.801,0
1583423307.739,152.344,28.320,27.344,83.984,57.129,0
1583423307.736,164.551,19.043,36.133,66.895,3.906,0
1583423307.740,170.410,16.602,41.992,99.609,12.695,0
1583423307.744,172.852,21.973,46.875,96.191,31.738,0
1583423307.748,163.574,28.320,43.945,93.262,21.973,0
1583423307.752,159.668,24.902,37.109,93.750,63.477,0
1583423307.756,153.320,15.625,37.109,93.750,30.762,0
1583423307.760,162.598,18.555,36.621,118.164,41.016,0
1583423307.763,165.039,20.020,37.598,106.445,95.215,0
1583423307.767,140.625,22.949,42.969,98.633,85.449,0
1583423307.771,133.301,33.691,41.016,105.957,83.984,0
1583423307.775,125.000,25.879,34.180,107.910,82.031,0
1583423307.779,115.234,16.602,38.086,103.516,56.152,0
1583423307.797,116.211,17.090,38.086,99.609,56.641,0
1583423307.801,97.656,17.090,34.180,88.379,12.695,0
1583423307.805,93.750,20.508,38.086,95.215,28.809,0
1583423307.809,94.727,21.484,44.434,95.215,56.641,0
1583423307.813,77.148,26.855,47.852,72.754,2.441,0
1583423307.817,61.523,30.273,34.668,54.688,9.766,0
1583423307.821,66.406,28.320,17.578,53.711,17.578,0
1583423307.824,72.266,34.180,20.996,48.828,34.180,0
1583423307.828,14.160,24.414,41.504,17.578,28.809,0
1583423307.832,-39.062,22.949,42.969,-25.391,30.762,0
1583423307.836,-57.617,20.020,41.504,-28.320,52.734,0
1583423307.840,-62.988,10.254,41.016,-22.461,57.617,0
1583423307.837,-57.617,15.625,43.945,-41.016,96.191,0
1583423307.841,-56.152,23.438,49.805,-72.266,92.285,0
1583423307.845,-48.340,28.320,42.480,-43.945,88.379,0
1583423307.849,-43.457,24.414,39.062,1.465,81.543,0
1583423307.853,-21.484,23.926,40.039,0.977,16.602,0
1583423307.857,16.602,18.066,38.574,-2.441,-1.465,0
1583423307.861,40.039,15.137,40.527,9.766,7.324,0
1583423307.864,82.031,24.902,40.039,52.734,-0.977,0
1583423307.868,113.770,20.508,38.086,59.570,30.273,0
1583423307.872,94.727,1.465,42.480,45.410,16.602,0
1583423307.876,84.473,15.137,42.969,47.363,21.484,0
1583423307.880,99.609,36.621,39.062,73.730,45.898,0
1583423307.877,106.934,35.645,45.410,91.309,40.527,0
1583423307.881,117.188,32.715,43.945,63.477,43.945,0
1583423307.885,127.441,29.785,43.945,51.270,43.945,0
1583423307.889,132.324,26.855,44.922,65.918,53.223,0
1583423307.893,134.277,19.043,33.691,72.754,19.043,0
1583423307.897,136.719,15.625,34.180,75.195,49.805,0
1583423307.901,106.934,10.742,38.086,50.781,87.402,0
1583423307.904,77.148,15.137,37.598,46.387,25.391,0
1583423307.908,75.195,30.273,40.527,69.336,21.973,0
1583423307.912,82.520,24.902,45.898,53.711,50.781,0
1583423307.916,72.754,19.531,46.387,41.504,50.781,0
1583423307.920,75.195,30.762,44.434,49.316,68.848,0
1583423307.936,83.984,25.391,45.410,63.477,68.359,0
1583423307.940,44.434,26.367,46.875,48.828,8.789,0
1583423307.944,-11.719,31.738,51.270,23.438,58.105,0
1583423307.948,-0.977,28.809,52.734,27.344,104.492,0
1583423307.952,4.883,32.227,52.734,44.434,44.434,0
1583423307.956,-26.367,24.902,54.199,53.223,35.156,0
1583423307.960,-20.996,24.414,54.199,20.508,56.152,0
1583423307.963,-31.738,33.691,55.176,-2.441,7.324,0
1583423307.967,-53.223,31.250,58.105,-1.953,-12.207,0
1583423307.971,-64.453,30.273,57.617,6.836,22.461,0
1583423307.975,-51.270,39.551,56.152,8.789,88.867,0
1583423307.979,-74.707,45.898,56.641,-32.715,79.590,0
1583423307.977,-119.141,55.664,54.688,-37.109,51.270,0
1583423307.981,-119.629,62.012,48.340,-12.695,63.965,0
1583423307.985,-125.488,61.035,47.852,-23.438,45.898,0
1583423307.989,-102.051,59.082,46.875,-54.199,61.035,0
1583423307.993,-130.859,55.664,46.875,-68.359,60.547,0
1583423307.997,-201.660,48.340,51.758,-42.480,33.691,0
1583423308.001,-171.875,38.086,57.129,-15.625,-20.508,0
1583423308.004,-147.461,44.434,58.594,-40.039,23.926,0
1583423308.008,-199.219,41.992,56.152,-55.664,74.219,0
1583423308.012,-218.750,38.086,51.758,-36.621,55.176,0
1583423308.016,-187.988,47.363,47.363,-15.137,92.285,0
1583423308.020,-190.430,45.410,47.852,-17.578,67.871,0
1583423308.017,-192.871,41.992,56.152,-33.203,55.176,0
1583423308.021,-194.336,44.434,61.035,-25.879,41.016,0
1583423308.025,-194.824,46.387,61.035,-8.301,96.680,0
1583423308.029,-185.547,52.246,59.570,-26.367,73.242,0
1583423308.033,-196.777,58.594,59.082,-56.641,-20.996,0
1583423308.037,-176.270,64.941,59.082,-50.293,17.090,0
1583423308.041,-114.258,68.848,58.105,-13.184,66.895,0
1583423308.044,-108.887,69.336,57.129,-8.301,69.824,0
1583423308.048,-169.434,74.219,54.688,-45.410,52.734,0
1583423308.052,-176.270,74.219,55.664,-55.664,-6.836,0
1583423308.056,-177.246,82.031,56.641,-20.996,-28.320,0
1583423308.060,-142.090,88.867,56.641,2.930,70.312,0
1583423308.077,-103.516,83.984,59.570,-5.859,171.875,0
1583423308.081,-73.242,81.543,56.152,2.930,92.773,0
1583423308.085,-16.602,81.055,55.176,28.320,13.184,0
1583423308.089,13.184,83.008,58.105,70.801,95.215,0
1583423308.093,64.941,87.891,51.270,88.867,82.031,0
1583423308.097,99.609,79.590,49.316,75.195,46.875,0
1583423308.101,83.984,79.102,52.246,119.629,90.820,0
1583423308.104,86.426,90.332,46.387,164.062,50.293,0
1583423308.108,97.168,91.309,46.875,166.992,19.043,0
1583423308.112,113.770,91.797,47.852,159.180,72.754,0
1583423308.116,134.766,92.285,45.410,154.785,46.387,0
1583423308.120,143.066,93.262,45.410,192.871,13.184,0
1583423308.116,156.738,93.262,48.340,206.055,34.668,0
1583423308.120,174.316,98.145,48.828,175.781,35.645,0
1583423308.124,162.109,102.051,44.434,168.457,29.785,0
1583423308.128,174.316,97.656,45.898,187.500,32.715,0
1583423308.132,199.707,97.168,49.805,211.914,35.156,0
1583423308.136,175.781,92.285,51.270,196.289,11.230,0
1583423308.140,143.555,93.750,53.223,201.172,6.348,0
1583423308.143,145.508,105.957,54.199,232.422,53.711,0
1583423308.147,126.465,97.168,55.664,247.070,64.941,0
1583423308.151,74.707,91.797,59.082,239.746,72.266,0
1583423308.155,40.527,104.004,54.688,201.172,89.355,0
1583423308.159,20.996,107.422,46.875,198.730,75.684,0
1583423308.156,6.348,98.633,48.828,207.520,87.402,0
1583423308.160,-4.883,78.125,50.293,202.148,69.336,0
1583423308.164,1.953,69.824,46.875,204.102,43.945,0
1583423308.168,-7.812,66.895,57.129,192.383,44.922,0
1583423308.172,-41.992,106.934,66.406,182.129,19.531,0
1583423308.176,-41.504,118.652,65.430,184.082,-5.859,0
1583423308.180,-29.785,103.027,65.430,173.828,15.137,0
1583423308.183,-40.527,135.254,69.336,146.973,33.691,0
1583423308.187,-34.180,151.367,66.895,132.812,19.531,0
1583423308.191,-31.250,150.391,63.965,133.301,32.715,0
1583423308.195,-55.664,144.043,64.453,112.793,61.523,0
1583423308.199,-74.707,120.605,65.918,71.289,15.625,0
1583423308.217,-65.918,125.977,63.965,70.312,-9.766,0
1583423308.221,-28.320,132.812,62.012,104.492,60.059,0
1583423308.225,-2.441,113.770,65.430,70.801,48.828,0
1583423308.229,-10.742,103.027,68.848,29.785,36.133,0
1583423308.233,3.418,106.445,66.895,44.922,29.297,0
1583423308.237,32.227,108.398,61.523,71.289,30.762,0
1583423308.241,45.410,107.910,62.500,70.801,43.945,0
1583423308.244,71.777,94.727,61.035,16.602,25.879,0
1583423308.248,90.332,69.336,58.105,-16.113,73.242,0
1583423308.252,57.617,51.270,59.082,3.418,83.008,0
1583423308.256,16.602,36.621,62.012,-20.508,66.895,0
1583423308.260,42.480,30.273,65.430,-51.758,67.871,0
1583423308.256,75.684,24.414,67.871,-60.547,20.996,0
1583423308.260,75.684,10.742,69.336,-40.527,57.129,0
1583423308.264,93.750,-6.836,67.871,-20.996,41.992,0
1583423308.268,86.914,-25.879,66.406,-47.852,-5.859,0
1583423308.272,95.215,-36.621,63.477,-78.613,61.523,0
1583423308.276,141.113,-53.223,61.523,-78.125,47.852,0
1583423308.280,162.109,-66.406,62.988,-47.852,74.219,0
1583423308.283,157.715,-73.242,58.594,-74.219,94.238,0
1583423308.287,143.066,-96.191,61.523,-121.582,37.109,0
1583423308.291,148.438,-101.562,62.500,-100.586,18.066,0
1583423308.295,165.039,-88.867,55.176,-67.383,12.207,0
1583423308.299,157.227,-98.145,56.152,-87.891,37.109,0
1583423308.316,167.480,-107.422,55.176,-117.676,47.852,0
1583423308.320,170.410,-120.605,59.082,-99.609,46.387,0
1583423308.324,178.223,-117.188,58.105,-63.965,58.105,0
1583423308.328,206.543,-105.469,49.316,-60.547,38.086,0
1583423308.332,211.914,-117.188,54.199,-92.773,90.332,0
1583423308.336,233.887,-118.652,57.129,-119.629,100.098,0
1583423308.340,266.113,-119.141,55.176,-106.934,32.227,0
1583423308.343,295.410,-113.770,52.734,-83.496,26.855,0
1583423308.347,301.758,-92.285,50.293,-97.656,34.668,0
1583423308.351,262.207,-93.262,57.617,-145.508,67.383,0
1583423308.355,225.098,-108.398,67.383,-131.836,48.340,0
1583423308.359,227.539,-117.676,64.941,-83.496,52.734,0
1583423308.356,219.238,-118.164,63.965,-102.539,70.312,0
1583423308.360,213.867,-108.887,62.988,-120.117,79.102,0
1583423308.364,229.980,-110.840,59.570,-112.305,48.828,0
1583423308.368,248.047,-116.699,61.523,-83.984,51.758,0
1583423308.372,267.578,-115.723,60.059,-67.383,57.129,0
1583423308.376,281.250,-116.211,59.082,-92.773,58.105,0
1583423308.380,274.414,-115.234,61.035,-90.332,43.457,0
1583423308.383,277.344,-107.422,58.594,-62.012,41.992,0
1583423308.387,295.410,-111.328,56.641,-40.527,98.633,0
1583423308.391,282.715,-91.797,57.617,-41.016,-0.488,0
1583423308.395,237.305,-60.059,60.547,-55.664,-22.461,0
1583423308.399,227.051,-53.223,60.547,-40.527,58.594,0
1583423308.396,234.375,-32.715,59.082,-29.785,63.965,0
1583423308.400,231.445,-32.715,55.664,-52.734,99.121,0
1583423308.404,229.980,-42.969,53.223,-64.453,95.703,0
1583423308.408,229.004,-50.293,55.664,-58.594,56.152,0
1583423308.412,232.422,-45.898,53.223,-36.621,28.809,0
1583423308.416,223.145,-39.551,55.176,-57.129,-13.184,0
1583423308.420,224.609,-38.086,54.199,-97.656,29.785,0
1583423308.423,233.887,-33.691,52.246,-68.848,144.531,0
1583423308.427,231.445,-42.969,57.129,-40.527,77.637,0
1583423308.431,236.816,-19.531,59.082,-41.992,15.625,0
1583423308.435,252.930,7.812,56.641,-77.637,92.285,0
1583423308.439,246.582,4.395,54.688,-86.914,110.352,0
1583423308.456,259.277,4.395,48.828,-44.434,50.293,0
1583423308.460,267.090,32.227,47.852,-32.715,-12.207,0
1583423308.464,255.859,51.758,52.246,-43.945,14.160,0
1583423308.468,263.672,32.227,52.246,-49.805,72.754,0
1583423308.472,270.020,5.371,54.199,-27.832,40.527,0
1583423308.476,260.254,-21.484,62.012,10.742,4.883,0
1583423308.480,250.000,-51.758,62.500,17.090,28.809,0
1583423308.483,255.371,-56.152,58.594,-7.324,67.871,0
1583423308.487,268.555,-57.129,58.105,-18.555,83.496,0
1583423308.491,283.691,-81.543,56.641,-7.812,18.066,0
1583423308.495,261.719,-91.797,52.246,-4.883,20.996,0
1583423308.499,234.375,-94.238,49.805,-21.484,66.406,0
1583423308.496,244.629,-97.168,52.734,-26.855,31.250,0
1583423308.500,253.906,-95.215,55.176,-7.812,22.461,0
1583423308.504,242.188,-89.355,54.688,8.789,89.844,0
1583423308.508,219.727,-84.473,57.129,-21.973,85.938,0
1583423308.512,217.773,-89.355,55.664,-63.965,47.363,0
1583423308.516,225.586,-87.402,51.270,-34.180,80.078,0
1583423308.520,238.770,-78.613,50.781,-16.113,131.348,0
1583423308.523,253.906,-68.359,50.781,-56.152,131.348,0
1583423308.527,245.117,-50.781,45.410,-75.684,86.426,0
1583423308.531,230.469,-48.340,47.363,-42.969,56.152,0
1583423308.535,230.469,-53.223,51.270,6.836,61.035,0
1583423308.539,228.516,-36.133,51.270,-8.789,77.148,0
1583423308.536,213.379,-31.250,49.805,-50.293,44.434,0
1583423308.540,196.289,-33.691,50.293,-26.367,63.477,0
1583423308.544,180.176,-29.297,55.176,21.973,99.121,0
1583423308.548,157.227,-22.949,55.664,41.504,77.637,0
1583423308.552,137.695,-19.043,55.664,23.438,6.348,0
1583423308.556,131.836,-26.367,57.617,28.809,46.875,0
1583423308.560,128.418,-25.391,56.152,81.543,113.281,0
1583423308.563,128.418,-18.066,59.570,104.492,85.938,0
1583423308.567,112.305,-23.926,59.082,76.660,39.062,0
1583423308.571,103.516,-13.184,56.641,53.711,27.344,0
1583423308.575,90.332,3.906,59.082,88.867,42.480,0
1583423308.579,64.941,2.441,59.570,122.559,37.109,0
1583423308.596,66.406,2.441,59.082,91.797,31.738,0
1583423308.600,45.898,4.883,59.570,75.684,50.293,0
1583423308.604,31.738,8.789,59.570,89.355,57.617,0
1583423308.608,48.340,7.324,58.594,96.191,77.148,0
1583423308.612,39.551,2.441,62.012,75.684,65.918,0
1583423308.616,18.555,2.930,61.523,35.156,39.062,0
1583423308.620,20.508,9.277,56.152,35.156,22.949,0
1583423308.623,32.715,14.648,52.734,65.430,23.438,0
1583423308.627,42.969,10.742,47.852,64.453,5.371,0
1583423308.631,24.902,7.324,48.828,20.508,17.578,0
1583423308.635,-2.930,2.930,54.688,-0.488,30.273,0
1583423308.639,-4.883,-11.719,59.570,33.203,2.930,0
1583423308.637,8.789,-6.836,60.547,34.668,11.230,0
1583423308.641,13.184,6.348,56.641,6.836,46.875,0
1583423308.645,18.555,6.348,52.734,-12.207,45.898,0
1583423308.649,35.156,9.277,55.664,16.602,43.457,0
1583423308.653,20.996,-0.977,62.988,29.297,46.875,0
1583423308.657,20.020,-6.836,59.082,3.418,16.113,0
1583423308.661,14.648,0.488,51.270,-16.602,60.547,0
1583423308.664,5.859,0.000,50.781,0.977,67.383,0
1583423308.668,19.043,-6.836,54.199,35.156,7.324,0
1583423308.672,12.207,-13.672,50.293,39.551,20.020,0
1583423308.676,-13.184,-20.508,44.922,5.859,38.086,0
1583423308.680,-8.789,-17.090,43.945,19.043,22.461,0
1583423308.677,16.113,-9.277,41.016,75.195,28.320,0
1583423308.681,20.508,3.418,43.457,77.148,21.973,0
1583423308.685,10.254,0.000,44.922,38.574,32.227,0
1583423308.689,11.719,1.465,44.434,28.320,96.191,0
1583423308.693,25.391,11.719,51.270,53.223,77.148,0
1583423308.697,20.996,7.812,54.688,55.664,37.598,0
1583423308.701,29.785,8.301,52.246,46.875,55.664,0
1583423308.704,38.086,10.742,45.410,38.574,42.480,0
1583423308.708,6.836,-2.441,48.340,50.781,38.574,0
1583423308.712,19.043,2.930,49.805,81.055,21.973,0
1583423308.716,44.434,23.438,45.898,69.824,21.973,0
1583423308.720,39.062,23.438,54.199,47.852,60.059,0
1583423308.736,41.016,20.020,52.734,59.570,-13.672,0
1583423308.740,53.711,19.531,46.387,84.961,35.645,0
1583423308.744,69.824,9.277,47.852,83.984,66.895,0
1583423308.748,66.895,8.789,52.734,50.781,44.922,0
1583423308.752,65.430,18.066,52.734,56.152,39.551,0
1583423308.756,69.336,22.461,51.758,93.262,31.250,0
1583423308.760,63.965,17.578,56.641,82.031,51.270,0
1583423308.763,52.734,19.043,56.152,39.551,63.477,0
1583423308.767,40.039,25.391,55.664,33.203,85.938,0
1583423308.771,38.574,20.020,58.594,71.289,53.223,0
1583423308.775,65.918,9.766,66.895,106.445,44.922,0
1583423308.779,79.102,7.812,70.801,99.121,68.848,0
1583423308.776,43.945,33.203,50.781,64.941,47.852,0
1583423308.780,13.672,50.293,37.109,68.848,59.082,0
1583423308.784,7.324,52.734,41.504,84.473,40.527,0
1583423308.788,-1.953,50.781,49.805,63.965,13.672,0
1583423308.792,-23.438,45.898,46.875,30.273,-5.371,0
1583423308.796,-53.223,46.387,37.109,22.949,15.625,0
1583423308.800,-63.965,56.152,33.691,44.434,44.434,0
1583423308.803,-59.082,55.664,37.598,40.527,36.621,0
1583423308.807,-78.125,54.688,34.668,-7.812,67.871,0
1583423308.811,-84.473,53.711,30.762,-20.508,63.965,0
1583423308.815,-71.777,48.828,36.621,8.789,39.062,0
1583423308.819,-67.871,55.664,41.016,17.090,46.387,0
1583423308.818,-77.637,51.270,44.434,-5.371,44.434,0
1583423308.822,-87.402,38.574,46.387,-25.391,84.473,0
1583423308.826,-81.055,28.320,43.457,0.488,120.605,0
1583423308.830,-75.684,28.320,42.480,20.020,72.266,0
1583423308.834,-70.801,26.367,47.363,0.977,3.906,0
1583423308.838,-69.824,21.973,49.316,-17.578,-24.414,0
1583423308.842,-69.824,30.273,44.434,5.371,39.062,0
1583423308.845,-55.176,34.668,43.457,31.250,57.617,0
1583423308.849,-46.875,34.180,50.293,28.320,-5.859,0
1583423308.853,-53.223,37.109,56.641,7.324,24.902,0
1583423308.857,-41.992,28.320,52.734,11.230,41.016,0
1583423308.861,-27.344,25.879,52.734,49.316,11.719,0
1583423308.876,-24.902,22.461,54.688,52.734,50.781,0
1583423308.880,-35.645,20.020,53.711,30.762,89.355,0
1583423308.884,-39.551,29.297,55.176,23.926,41.504,0
1583423308.888,-19.043,31.250,47.363,46.387,10.742,0
1583423308.892,3.906,37.109,41.992,49.316,56.152,0
1583423308.896,0.488,40.527,47.363,13.184,40.527,0
1583423308.900,-8.301,36.133,47.363,-1.953,-0.977,0
1583423308.903,7.812,42.969,48.828,25.391,35.156,0
1583423308.907,29.297,54.199,52.734,57.617,87.891,0
1583423308.911,37.109,51.758,53.711,51.758,83.496,0
1583423308.915,31.250,48.340,54.199,25.879,60.547,0
1583423308.919,31.738,47.363,51.270,52.246,97.656,0
1583423308.916,46.875,45.898,50.293,75.195,87.891,0
1583423308.920,51.270,45.898,49.805,60.547,57.129,0
1583423308.924,45.410,36.621,50.781,30.273,100.586,0
1583423308.928,55.176,26.855,57.617,32.715,62.012,0
1583423308.932,76.660,42.480,58.105,71.289,18.555,0
1583423308.936,83.008,52.246,52.246,72.266,31.250,0
1583423308.940,93.262,37.109,50.293,66.406,42.480,0
1583423308.943,93.750,25.391,54.199,79.102,41.992,0
1583423308.947,77.148,41.016,49.805,81.055,48.828,0
1583423308.951,56.641,50.293,40.527,67.871,39.551,0
1583423308.955,49.316,52.734,34.668,48.340,38.086,0
1583423308.959,60.059,63.965,36.133,40.039,57.129,0
1583423308.956,68.848,59.570,44.434,61.523,4.883,0
1583423308.960,81.543,57.129,45.898,83.984,-10.742,0
1583423308.964,67.871,47.363,49.805,76.660,70.312,0
1583423308.968,59.082,40.527,50.293,51.758,34.668,0
1583423308.972,84.473,48.828,47.852,64.453,7.324,0
1583423308.976,92.773,50.781,47.363,83.984,11.719,0
1583423308.980,85.449,61.523,43.945,79.102,73.242,0
1583423308.983,92.285,60.547,45.410,53.223,72.754,0
1583423308.987,77.637,59.082,49.805,41.504,15.137,0
1583423308.991,74.707,78.125,45.898,76.660,60.059,0
1583423308.995,78.125,74.219,47.363,89.355,98.145,0
1583423308.999,65.430,68.359,53.223,54.688,68.359,0
1583423309.016,62.988,64.453,55.176,46.387,28.320,0
1583423309.020,73.242,50.781,58.105,87.891,42.969,0
1583423309.024,77.637,50.293,56.641,96.191,70.312,0
1583423309.028,68.848,58.594,58.105,58.105,60.059,0
1583423309.032,63.477,70.312,58.105,41.992,64.941,0
1583423309.036,62.988,74.219,51.758,63.477,82.520,0
1583423309.040,61.035,66.895,56.152,81.055,53.223,0
1583423309.043,57.129,79.590,50.781,68.848,35.156,0
1583423309.047,49.805,81.543,41.504,29.785,94.238,0
1583423309.051,44.434,67.871,46.875,30.273,109.863,0
1583423309.055,45.410,67.871,49.805,61.523,17.578,0
1583423309.059,55.176,68.359,53.711,62.012,31.250,0
1583423309.057,50.293,71.289,56.152,39.551,47.363,0
1583423309.061,44.434,62.500,59.082,30.273,56.152,0
1583423309.065,52.246,44.434,60.547,60.547,79.102,0
1583423309.069,48.828,45.410,55.176,78.125,46.875,0
1583423309.073,33.203,62.012,50.781,49.805,17.090,0
1583423309.077,23.438,71.777,46.875,28.320,30.762,0
1583423309.081,18.066,76.660,50.781,50.293,24.902,0
1583423309.084,10.742,79.590,54.199,76.660,23.926,0
1583423309.088,6.836,78.125,50.293,67.871,61.523,0
1583423309.092,-7.812,66.895,50.781,39.551,18.555,0
1583423309.096,-5.371,62.988,54.688,50.293,15.137,0
1583423309.100,26.367,59.082,51.758,70.312,40.039,0
1583423309.096,32.715,43.457,49.316,58.105,29.297,0
1583423309.100,15.137,46.875,47.363,40.527,45.898,0
1583423309.104,8.789,52.246,46.387,41.992,47.363,0
1583423309.108,28.809,70.312,43.945,65.918,44.434,0
1583423309.112,47.852,71.289,43.945,60.059,23.438,0
1583423309.116,48.828,43.457,49.316,38.574,0.977,0
1583423309.120,46.875,60.059,51.758,42.480,52.246,0
1583423309.123,50.293,62.988,59.570,75.195,78.613,0
1583423309.127,46.387,48.828,55.664,75.684,71.289,0
1583423309.131,36.621,63.477,43.457,26.855,42.480,0
1583423309.135,30.762,58.105,47.363,8.789,9.277,0
1583423309.139,39.062,59.082,46.387,34.668,41.992,0
1583423309.157,45.898,55.176,43.945,51.758,52.734,0
1583423309.161,47.852,47.363,47.363,50.293,69.824,0
1583423309.165,45.410,47.852,49.805,24.902,114.258,0
1583423309.169,51.270,57.129,55.176,46.387,96.191,0
1583423309.173,70.312,68.848,52.734,86.426,51.758,0
1583423309.177,76.172,60.547,45.898,78.125,27.832,0
1583423309.181,70.312,49.805,43.945,43.457,19.531,0
1583423309.184,78.613,50.781,51.758,41.504,34.668,0
1583423309.188,81.543,44.922,59.570,75.684,0.488,0
1583423309.192,69.824,42.480,55.176,68.359,-23.438,0
1583423309.196,58.105,44.922,55.664,41.504,41.504,0
1583423309.200,43.457,40.039,68.359,44.434,90.820,0
1583423309.197,52.734,37.598,64.941,68.848,37.109,0
1583423309.201,54.199,39.062,55.176,84.473,13.184,0
1583423309.205,34.180,48.340,55.664,48.828,16.113,0
1583423309.209,42.480,54.199,55.664,12.207,34.668,0
1583423309.213,58.105,48.340,53.711,45.410,15.137,0
1583423309.217,63.477,50.293,49.805,77.637,49.316,0
1583423309.221,59.570,58.105,53.223,62.988,96.191,0
1583423309.224,54.199,60.547,57.617,40.527,32.227,0
1583423309.228,65.430,64.453,57.129,54.199,37.598,0
1583423309.232,66.406,61.035,59.570,78.613,120.117,0
1583423309.236,63.477,62.500,57.129,55.664,81.055,0
1583423309.240,65.918,66.406,54.199,17.578,-0.977,0
1583423309.237,49.805,64.941,59.570,19.043,20.996,0
1583423309.241,46.875,64.453,63.477,57.617,32.715,0
1583423309.245,58.594,56.152,63.477,62.988,28.809,0
1583423309.249,59.570,57.617,62.012,38.574,26.855,0
1583423309.253,51.758,66.895,59.082,34.668,30.762,0
1583423309.257,47.363,56.641,60.547,64.941,48.340,0
1583423309.261,50.781,50.781,64.941,73.730,-2.441,0
1583423309.264,52.246,51.758,62.500,50.293,28.320,0
1583423309.268,48.828,58.594,61.523,15.137,74.707,0
1583423309.272,50.293,78.125,59.570,24.414,81.055,0
1583423309.276,51.758,71.777,58.594,62.988,109.375,0
1583423309.280,51.758,63.477,61.035,51.270,46.875,0
1583423309.297,51.758,64.941,62.012,28.320,71.289,0
1583423309.301,65.430,69.824,60.547,27.344,129.883,0
1583423309.305,73.730,71.289,55.176,54.688,103.516,0
1583423309.309,74.219,69.824,52.734,48.828,62.500,0
1583423309.313,63.477,69.336,55.664,19.043,39.062,0
1583423309.317,41.504,62.500,62.012,21.484,10.742,0
1583423309.321,44.922,63.477,58.594,38.086,10.254,0
1583423309.324,52.246,70.312,52.246,46.387,46.875,0
1583423309.328,49.316,70.801,52.246,26.367,67.383,0
1583423309.332,49.316,72.754,50.781,11.230,68.848,0
1583423309.336,55.176,67.871,47.852,28.809,39.062,0
1583423309.340,52.734,67.871,44.922,45.898,55.664,0
1583423309.336,37.109,70.801,59.082,34.180,103.516,0
1583423309.340,9.277,60.547,69.336,-4.883,129.395,0
1583423309.344,10.742,59.570,63.477,10.254,96.191,0
1583423309.348,15.137,60.547,64.453,45.898,16.602,0
1583423309.352,26.855,59.570,59.570,10.254,-7.812,0
1583423309.356,36.133,61.523,56.152,-18.555,44.434,0
1583423309.360,15.625,57.617,63.477,3.418,18.555,0
1583423309.363,21.484,62.500,64.941,31.250,22.461,0
1583423309.367,25.879,62.500,63.965,35.156,101.562,0
1583423309.371,11.230,48.340,64.941,-2.441,71.777,0
1583423309.375,7.324,54.199,60.547,-6.348,50.293,0
1583423309.379,30.762,59.570,52.734,20.508,38.086,0
1583423309.376,41.504,54.688,47.363,20.020,13.672,0
1583423309.380,41.016,57.617,44.434,-4.395,54.199,0
1583423309.384,32.227,52.246,49.316,-27.832,44.434,0
1583423309.388,27.344,56.152,52.246,9.766,10.254,0
1583423309.392,40.527,60.547,49.805,35.645,30.273,0
1583423309.396,34.180,55.176,45.898,24.414,114.746,0
1583423309.400,16.113,53.223,42.480,1.465,103.516,0
1583423309.403,8.789,45.898,45.410,-2.930,32.715,0
1583423309.407,11.230,51.270,46.387,32.227,14.160,0
1583423309.411,24.902,65.430,43.457,22.949,37.598,0
1583423309.415,15.137,57.617,43.945,9.277,68.848,0
1583423309.419,10.742,41.016,42.969,13.672,35.645,0
1583423309.436,18.555,40.039,43.945,11.719,17.090,0
1583423309.440,40.039,54.688,46.875,20.996,14.160,0
1583423309.444,64.941,54.688,45.898,6.348,45.898,0
1583423309.448,56.152,48.340,44.434,-5.371,19.531,0
1583423309.452,52.246,58.105,41.016,1.953,6.836,0
1583423309.456,33.691,54.688,43.945,19.531,54.199,0
1583423309.460,0.000,54.199,48.828,3.418,6.836,0
1583423309.463,5.859,62.012,41.504,-32.227,-12.207,0
1583423309.467,0.977,57.129,40.527,-19.531,4.883,0
1583423309.471,-13.184,62.500,43.945,4.883,62.500,0
1583423309.475,-20.996,60.059,46.387,-6.348,90.332,0
1583423309.479,-30.762,53.223,46.387,-36.133,54.688,0
1583423309.477,-46.875,60.547,44.434,-42.480,25.391,0
1583423309.481,-73.242,72.266,48.828,-32.715,22.461,0
1583423309.485,-87.891,79.102,47.363,-51.758,26.855,0
1583423309.489,-100.098,70.801,47.852,-73.242,-9.766,0
1583423309.493,-113.770,63.965,49.316,-79.590,18.555,0
1583423309.497,-130.371,63.477,43.945,-70.312,6.348,0
1583423309.501,-137.207,73.730,43.457,-50.293,-6.836,0
1583423309.504,-120.605,86.426,45.410,-73.242,7.324,0
1583423309.508,-96.680,85.938,49.805,-82.031,19.043,0
1583423309.512,-102.051,82.031,55.664,-39.551,42.969,0
1583423309.516,-97.656,90.332,59.082,-17.090,45.898,0
1583423309.520,-101.074,92.773,56.641,-36.621,55.176,0
1583423309.516,-119.141,85.449,62.012,-66.895,59.570,0
1583423309.520,-127.930,75.684,68.359,-46.387,68.848,0
1583423309.524,-137.695,69.336,65.918,-4.395,74.707,0
1583423309.528,-140.137,82.520,60.547,-23.438,79.590,0
1583423309.532,-152.832,86.914,61.523,-55.176,42.969,0
1583423309.536,-157.227,85.449,60.547,-66.895,46.387,0
1583423309.540,-146.973,88.867,55.664,-60.059,57.129,0
1583423309.543,-163.086,91.797,61.035,-53.711,10.742,0
1583423309.547,-177.734,104.980,57.129,-89.355,17.090,0
1583423309.551,-181.152,100.586,62.500,-125.000,36.133,0
1583423309.555,-182.129,96.680,62.012,-125.488,15.137,0
1583423309.559,-169.434,96.191,53.223,-117.188,21.973,0
1583423309.577,-190.918,87.402,62.012,-129.395,55.176,0
1583423309.581,-211.914,92.285,64.941,-141.113,36.621,0
1583423309.585,-218.750,94.727,62.012,-127.441,42.480,0
1583423309.589,-216.797,99.609,47.363,-120.117,70.801,0
1583423309.593,-212.402,92.773,48.340,-115.723,29.785,0
1583423309.597,-253.906,71.289,70.312,-140.625,-13.672,0
1583423309.601,-280.762,75.684,72.266,-162.598,26.367,0
1583423309.604,-289.062,74.219,72.754,-134.277,86.914,0
1583423309.608,-282.227,66.406,72.754,-148.926,64.453,0
1583423309.612,-277.832,69.336,75.195,-165.527,81.543,0
1583423309.616,-293.945,65.430,75.684,-147.949,77.637,0
1583423309.620,-300.293,76.172,67.383,-145.996,66.406,0
1583423309.616,-304.199,78.613,65.430,-149.414,83.984,0
1583423309.620,-302.734,66.406,62.500,-159.180,31.250,0
1583423309.624,-300.781,67.871,63.477,-146.484,47.363,0
1583423309.628,-297.852,63.965,67.871,-127.441,20.020,0
1583423309.632,-285.156,66.406,59.570,-123.535,10.254,0
1583423309.636,-271.973,68.848,61.523,-116.699,48.340,0
1583423309.640,-261.230,69.336,66.895,-127.930,44.434,0
1583423309.643,-244.629,75.684,61.523,-104.492,53.223,0
1583423309.647,-236.816,68.359,61.523,-94.238,47.852,0
1583423309.651,-232.910,55.664,65.918,-106.934,44.434,0
1583423309.655,-208.496,64.453,62.988,-101.562,70.312,0
1583423309.659,-191.895,69.824,60.059,-94.727,127.441,0
1583423309.656,-175.781,64.941,54.199,-72.266,51.758,0
1583423309.660,-154.297,61.035,55.664,-50.293,47.363,0
1583423309.664,-135.254,63.965,56.641,-55.176,88.379,0
1583423309.668,-106.934,69.336,51.270,-48.340,30.273,0
1583423309.672,-100.586,63.965,55.664,-31.250,6.836,0
1583423309.676,-93.262,60.547,56.641,-22.461,-3.906,0
1583423309.680,-68.848,65.430,56.641,-9.766,53.223,0
1583423309.683,-55.176,60.059,62.988,-18.066,58.594,0
1583423309.687,-41.504,62.988,60.059,-4.883,49.805,0
1583423309.691,-23.926,66.895,56.152,8.789,46.387,0
1583423309.695,-6.348,59.082,59.082,-2.441,39.551,0
1583423309.699,21.484,60.547,59.082,0.977,40.039,0
1583423309.716,30.762,60.059,56.152,10.742,51.758,0
1583423309.720,35.156,65.430,52.734,24.414,72.754,0
1583423309.724,45.898,68.848,57.129,13.184,47.363,0
1583423309.728,29.785,56.641,57.617,-28.809,7.324,0
1583423309.732,30.273,53.223,55.176,-3.418,37.109,0
1583423309.736,30.273,57.129,57.617,37.109,61.523,0
1583423309.740,19.531,61.523,56.152,23.926,61.035,0
1583423309.743,20.996,69.824,53.223,0.488,46.875,0
1583423309.747,14.160,68.848,56.641,14.648,20.020,0
1583423309.751,-0.488,69.336,52.246,30.273,60.059,0
1583423309.755,-16.602,62.012,48.828,20.020,49.805,0
1583423309.759,-42.969,62.500,50.293,-7.812,59.570,0
1583423309.777,-49.316,66.895,49.805,-35.645,57.129,0
1583423309.781,-65.918,64.453,49.805,-11.719,45.410,0
1583423309.785,-92.285,59.570,51.270,1.953,67.383,0
1583423309.789,-106.445,53.223,50.781,-24.414,74.219,0
1583423309.793,-119.141,54.688,51.270,-37.109,65.430,0
1583423309.797,-127.930,51.758,52.246,-13.672,42.480,0
1583423309.801,-125.000,50.781,53.223,6.836,10.254,0
1583423309.804,-115.723,54.688,51.270,-4.883,-27.832,0
1583423309.808,-97.168,51.758,43.945,-20.996,-9.277,0
1583423309.812,-71.289,54.199,47.852,-10.254,13.672,0
1583423309.816,-34.180,63.965,46.387,4.395,-7.324,0
1583423309.820,10.742,64.453,41.992,18.555,19.043,0
1583423309.816,49.805,62.988,49.805,21.973,-0.488,0
1583423309.820,74.707,61.523,49.805,30.762,-6.836,0
1583423309.824,111.328,67.383,48.340,42.969,26.367,0
1583423309.828,164.551,73.730,45.898,38.574,24.414,0
1583423309.832,198.242,70.312,49.316,48.340,25.879,0
1583423309.836,213.867,70.312,48.828,44.434,34.180,0
1583423309.840,223.633,60.547,46.875,41.992,58.105,0
1583423309.843,236.328,59.570,46.875,57.617,63.965,0
1583423309.847,259.766,73.242,46.875,54.688,-0.977,0
1583423309.851,284.180,74.219,50.293,64.941,-0.488,0
1583423309.855,304.199,72.266,45.898,77.148,37.598,0
1583423309.859,332.031,71.289,47.852,93.750,23.438,0
1583423309.856,363.281,64.941,54.199,111.816,-6.348,0
1583423309.860,383.301,62.012,54.688,111.328,-3.418,0
1583423309.864,378.906,60.059,62.012,124.023,32.227,0
1583423309.868,379.395,61.523,59.570,165.527,135.742,0
1583423309.872,380.371,50.781,52.246,190.430,86.426,0
1583423309.876,364.258,48.340,46.387,145.508,-14.160,0
1583423309.880,383.301,68.848,20.020,143.555,84.473,0
1583423309.883,406.250,71.777,27.344,218.262,89.844,0
1583423309.887,367.676,70.801,62.500,177.246,45.410,0
1583423309.891,328.125,63.965,48.828,86.914,75.684,0
1583423309.895,314.453,30.273,45.898,92.773,52.734,0
1583423309.899,300.293,25.391,76.660,112.305,76.660,0
1583423309.896,290.527,48.340,33.691,89.355,59.570,0
1583423309.900,306.152,30.762,7.324,78.613,32.227,0
1583423309.904,354.980,20.020,93.262,77.637,42.969,0
1583423309.908,305.176,62.988,95.703,12.695,6.836,0
1583423309.912,235.352,66.895,50.293,-55.176,4.883,0
1583423309.916,230.469,12.695,9.766,-71.777,8.789,0
1583423309.920,210.449,-7.324,8.789,-104.492,23.438,0
1583423309.923,171.387,34.180,82.031,-128.418,88.379,0
1583423309.927,142.090,48.340,98.145,-96.680,149.902,0
1583423309.931,148.926,-60.547,50.293,-57.129,112.793,0
1583423309.935,163.086,-164.551,46.875,-31.738,82.031,0
1583423309.939,149.414,-11.230,62.988,-34.668,58.594,0
1583423309.956,116.211,143.555,36.621,-74.219,62.012,0
1583423309.960,93.262,117.676,88.379,-94.238,81.543,0
1583423309.964,100.586,-28.320,35.645,-92.773,108.887,0
1583423309.968,156.738,-38.086,27.344,-57.129,87.891,0
1583423309.972,212.891,213.379,165.527,26.855,47.363,0
1583423309.976,202.148,329.590,174.805,48.828,41.504,0
1583423309.980,171.875,291.504,114.746,53.223,65.430,0
1583423309.983,187.012,302.246,106.934,36.621,66.895,0
1583423309.987,174.805,425.781,87.891,43.457,8.301,0
1583423309.991,145.020,555.664,40.527,62.012,-1.465,0
1583423309.995,140.625,627.930,55.664,46.387,46.387,0
1583423309.999,122.559,649.414,82.031,2.441,66.895,0
1583423310.016,108.398,794.922,100.586,-12.207,31.250,0
1583423310.020,118.652,981.934,91.797,41.016,33.691,0
1583423310.024,152.344,-999.023,95.215,70.801,17.578,0
1583423310.028,158.203,994.629,120.605,65.430,86.426,0
1583423310.032,169.434,-1000.000,125.000,51.758,68.359,0
1583423310.036,178.711,999.512,151.367,74.707,26.367,0
1583423310.040,155.273,999.512,177.734,110.352,62.500,0
1583423310.043,141.602,999.512,203.125,125.000,57.617,0
1583423310.047,142.090,999.512,206.055,109.863,84.473,0
1583423310.051,118.652,999.512,217.285,110.840,86.426,0
1583423310.055,88.379,999.512,237.793,121.582,43.945,0
1583423310.059,88.867,999.512,255.859,104.492,20.508,0
1583423310.036,91.797,999.512,267.578,93.750,62.012,0
1583423310.040,84.961,999.512,276.367,115.234,50.781,0
1583423310.044,57.617,999.512,281.250,129.883,36.621,0
1583423310.048,40.039,999.512,288.574,116.211,70.312,0
1583423310.052,66.895,999.512,295.410,120.605,21.484,0
1583423310.056,71.777,999.512,301.758,166.992,-9.766,0
1583423310.060,55.176,999.512,307.129,188.477,33.203,0
1583423310.063,47.363,999.512,308.594,177.246,84.961,0
1583423310.067,50.781,999.512,307.129,160.645,58.594,0
1583423310.071,44.922,999.512,302.246,165.039,52.246,0
1583423310.075,16.602,999.512,301.758,158.203,27.832,0
1583423310.079,-8.789,999.512,297.363,139.160,60.059,0
1583423310.096,-17.578,999.512,281.738,119.141,104.004,0
1583423310.100,-45.898,999.512,273.926,74.219,19.531,0
1583423310.104,-68.359,999.512,266.602,58.594,-6.836,0
1583423310.108,-61.523,999.512,236.816,66.895,20.996,0
1583423310.112,-65.918,999.512,223.633,53.223,21.484,0
1583423310.116,-78.613,999.512,229.004,31.250,42.969,0
1583423310.120,-105.469,999.512,218.750,15.137,41.504,0
1583423310.123,-108.887,999.512,210.938,41.016,40.039,0
1583423310.127,-103.516,999.512,191.895,45.410,11.230,0
1583423310.131,-107.422,999.512,162.598,4.883,0.977,0
1583423310.135,-91.797,999.512,152.832,-2.930,48.828,0
1583423310.139,-85.449,999.512,148.438,28.809,93.750,0
1583423310.136,-93.262,999.512,135.742,40.527,45.410,0
1583423310.140,-90.820,-1000.000,117.676,6.348,-4.395,0
1583423310.144,-78.613,995.605,98.633,15.625,0.977,0
1583423310.148,-57.129,-995.117,91.309,24.414,5.371,0
1583423310.152,-56.152,968.262,93.750,48.828,13.184,0
1583423310.156,-62.500,871.582,90.820,72.266,52.246,0
1583423310.160,-61.035,817.871,96.191,36.621,81.543,0
1583423310.163,-48.340,827.148,93.262,43.457,58.594,0
1583423310.167,-64.941,845.703,63.477,58.105,27.832,0
1583423310.171,-71.289,790.527,57.129,42.480,58.594,0
1583423310.175,-37.109,737.793,50.781,34.180,81.543,0
1583423310.179,-26.855,729.004,49.805,42.969,59.082,0
1583423310.176,-43.945,665.039,35.645,46.875,55.176,0
1583423310.180,-57.129,636.230,-2.930,24.414,35.156,0
1583423310.184,-58.105,622.070,20.508,1.465,16.602,0
1583423310.188,-45.410,557.617,60.059,4.395,18.555,0
1583423310.192,-42.480,531.250,62.988,19.043,20.020,0
1583423310.196,-59.082,498.535,39.551,15.137,40.039,0
1583423310.200,-68.359,484.863,27.344,-37.598,41.504,0
1583423310.203,-60.059,475.098,13.184,-61.035,19.043,0
1583423310.207,-57.617,420.410,16.602,-21.973,74.707,0
1583423310.211,-68.848,389.160,31.738,-22.949,48.340,0
1583423310.215,-68.848,374.512,30.762,-47.363,22.949,0
1583423310.219,-48.828,376.953,27.832,-51.270,77.148,0
1583423310.236,-58.105,383.301,18.066,-46.387,71.289,0
1583423310.240,-105.469,357.910,20.020,-85.449,97.656,0
1583423310.244,-144.043,338.379,28.320,-145.996,71.289,0
1583423310.248,-166.016,323.242,30.762,-179.199,58.105,0
1583423310.252,-189.453,287.598,0.488,-202.637,54.688,0
1583423310.256,-192.383,252.441,-50.781,-187.012,10.254,0
1583423310.260,-210.938,242.676,-9.766,-228.516,7.812,0
1583423310.263,-235.840,312.012,34.180,-293.457,57.617,0
1583423310.267,-236.328,281.738,25.879,-293.945,53.223,0
1583423310.271,-266.602,81.543,8.789,-289.551,40.039,0
1583423310.275,-310.547,176.758,9.277,-280.762,62.500,0
1583423310.279,-309.570,374.512,18.555,-308.594,14.648,0
1583423310.276,-292.969,380.859,15.137,-319.824,41.992,0
1583423310.280,-331.055,327.148,28.320,-313.965,82.520,0
1583423310.284,-335.449,284.668,27.832,-306.641,27.344,0
1583423310.288,-305.176,290.527,22.949,-293.457,29.297,0
1583423310.292,-280.762,287.109,33.691,-277.344,62.988,0
1583423310.296,-296.387,275.391,39.062,-267.578,76.660,0
1583423310.300,-290.039,318.848,41.992,-238.281,72.754,0
1583423310.303,-258.789,375.488,37.109,-227.051,46.387,0
1583423310.307,-230.469,400.391,39.551,-222.656,58.594,0
1583423310.311,-230.469,401.367,64.941,-221.191,79.590,0
1583423310.315,-253.418,440.918,65.430,-179.688,25.391,0
1583423310.319,-231.445,506.836,73.730,-187.988,28.320,0
1583423310.316,-220.215,530.762,80.566,-248.047,37.109,0
1583423310.320,-212.891,585.938,78.613,-217.285,18.066,0
1583423310.324,-219.238,678.711,84.473,-210.449,62.988,0
1583423310.328,-241.699,745.117,88.867,-211.426,58.105,0
1583423310.332,-223.145,766.113,86.426,-231.445,21.484,0
1583423310.336,-226.074,733.887,90.332,-247.070,74.707,0
1583423310.340,-259.277,673.340,100.098,-209.961,122.070,0
1583423310.343,-269.531,647.461,96.191,-209.961,66.895,0
1583423310.347,-264.648,600.098,80.078,-230.469,1.465,0
1583423310.351,-230.469,528.320,84.961,-226.074,32.227,0
1583423310.355,-227.539,512.695,98.633,-221.680,62.012,0
1583423310.359,-244.141,534.180,68.359,-228.516,38.574,0
1583423310.376,-229.980,492.676,69.336,-237.793,72.754,0
1583423310.380,-179.688,441.406,100.586,-238.281,99.121,0
1583423310.384,-141.113,424.316,81.543,-248.047,61.035,0
1583423310.388,-142.090,379.883,74.707,-264.648,20.020,0
1583423310.392,-142.578,356.934,93.262,-227.051,45.410,0
1583423310.396,-115.234,329.590,102.051,-194.336,63.965,0
1583423310.400,-101.562,298.340,102.051,-182.129,85.938,0
1583423310.403,-101.074,271.484,97.168,-159.180,97.168,0
1583423310.407,-63.477,239.258,89.844,-127.930,71.289,0
1583423310.411,-23.438,222.656,90.820,-105.469,53.223,0
1583423310.415,-1.953,220.215,94.238,-109.375,40.039,0
1583423310.419,28.320,182.617,97.168,-72.754,41.504,0
1583423310.416,80.566,163.086,94.238,-21.973,-21.484,0
1583423310.420,60.547,174.805,94.727,-2.930,-4.883,0
1583423310.424,70.312,150.879,98.145,-5.371,62.500,0
1583423310.428,141.113,126.465,83.008,15.625,36.133,0
1583423310.432,141.113,127.441,92.773,65.430,-6.348,0
1583423310.436,131.836,125.000,101.562,68.359,2.441,0
1583423310.440,176.758,122.070,101.074,72.266,43.457,0
1583423310.443,208.984,137.207,100.586,117.676,46.387,0
1583423310.447,234.863,132.324,88.867,140.137,43.457,0
1583423310.451,310.059,114.258,83.984,153.809,48.340,0
1583423310.455,286.133,121.582,79.102,167.480,9.277,0
1583423310.459,219.727,159.180,84.961,193.359,-11.230,0
1583423310.456,243.652,174.805,91.309,252.441,54.199,0
1583423310.460,243.164,155.273,84.961,278.809,41.992,0
1583423310.464,212.402,132.812,81.543,304.688,31.250,0
1583423310.468,217.285,111.328,84.961,324.707,37.598,0
1583423310.472,250.488,96.680,88.379,388.184,26.855,0
1583423310.476,266.113,94.727,89.844,490.234,51.758,0
1583423310.480,278.809,117.676,71.777,483.887,24.414,0
1583423310.483,239.258,125.000,49.316,451.660,10.254,0
1583423310.487,208.984,120.605,46.387,465.820,70.312,0
1583423310.491,215.820,126.953,38.086,482.422,38.086,0
1583423310.495,180.664,125.000,21.973,496.094,26.855,0
1583423310.499,110.352,114.746,17.090,483.398,9.766,0
1583423310.516,86.914,103.516,7.324,437.988,16.602,0
1583423310.520,66.895,88.867,-7.324,385.742,41.016,0
1583423310.524,29.785,85.938,-5.371,376.465,20.020,0
1583423310.528,7.324,86.914,2.441,372.559,46.387,0
1583423310.532,-23.926,69.824,4.395,343.750,74.219,0
1583423310.536,-28.320,51.270,0.488,365.234,97.656,0
1583423310.540,26.367,43.945,-2.441,375.488,115.234,0
1583423310.543,29.297,50.293,-2.930,354.004,105.469,0
1583423310.547,-17.578,41.992,4.883,350.098,22.461,0
1583423310.551,16.113,34.668,0.488,379.395,11.230,0
1583423310.555,60.059,22.461,0.000,454.590,24.902,0
1583423310.559,84.473,11.230,3.418,498.535,65.918,0
1583423310.556,106.445,14.648,-5.859,467.285,93.262,0
1583423310.560,139.648,15.625,-11.719,480.957,46.875,0
1583423310.564,198.242,-12.695,-8.789,537.598,26.855,0
1583423310.568,220.703,-42.969,-2.930,548.828,73.242,0
1583423310.572,227.539,-62.012,-2.441,545.898,125.488,0
1583423310.576,288.574,-96.680,-2.441,538.086,87.402,0
1583423310.580,308.105,-112.305,-11.230,534.668,33.691,0
1583423310.583,325.684,-125.488,-13.672,563.477,62.012,0
1583423310.587,366.211,-149.414,-12.207,548.340,117.188,0
1583423310.591,373.047,-164.551,-17.090,527.344,91.309,0
1583423310.595,344.727,-159.668,-13.672,578.613,26.367,0
1583423310.599,336.914,-159.180,-9.277,619.629,16.113,0
1583423310.596,368.164,-190.918,-10.254,609.375,40.527,0
1583423310.600,380.371,-231.934,-1.953,612.793,31.250,0
1583423310.604,366.211,-259.766,8.301,624.512,62.988,0
1583423310.608,380.859,-271.484,8.789,613.770,104.980,0
1583423310.612,420.898,-291.992,16.602,602.051,88.867,0
1583423310.616,427.246,-324.707,33.691,569.824,30.273,0
1583423310.620,437.500,-323.730,42.480,541.992,68.359,0
1583423310.623,449.707,-323.242,46.387,540.039,101.074,0
1583423310.627,483.887,-349.609,52.734,522.461,86.426,0
1583423310.631,507.812,-368.164,53.711,479.004,61.035,0
1583423310.635,497.559,-399.414,59.082,431.641,10.742,0
1583423310.639,490.723,-420.410,61.035,396.973,31.250,0
1583423310.656,485.352,-454.102,59.570,378.906,57.129,0
1583423310.660,479.980,-478.027,67.383,352.539,41.992,0
1583423310.664,456.055,-471.191,69.824,327.637,34.668,0
1583423310.668,404.785,-469.727,70.312,314.453,1.465,0
1583423310.672,375.488,-451.172,72.754,307.129,-2.441,0
1583423310.676,307.129,-455.078,74.219,266.602,11.719,0
1583423310.680,233.887,-469.238,71.289,212.402,29.785,0
1583423310.683,234.375,-463.867,67.871,199.707,72.754,0
1583423310.687,213.379,-466.797,66.406,222.656,75.684,0
1583423310.691,214.844,-479.980,62.500,177.246,-16.113,0
1583423310.695,224.609,-503.906,58.594,87.402,18.555,0
1583423310.699,211.914,-526.855,52.734,58.105,82.520,0
1583423310.697,186.523,-542.480,45.410,72.266,86.914,0
1583423310.701,187.500,-565.918,42.480,89.844,55.664,0
1583423310.705,211.426,-565.430,41.016,74.219,53.711,0
1583423310.709,240.723,-560.547,36.621,55.176,83.008,0
1583423310.713,237.793,-615.234,32.227,60.059,6.348,0
1583423310.717,208.008,-668.457,26.855,47.852,23.438,0
1583423310.721,222.656,-647.949,24.414,15.625,83.984,0
1583423310.724,252.930,-631.348,20.996,-10.742,79.590,0
1583423310.728,267.090,-691.406,26.367,-20.020,57.617,0
1583423310.732,230.469,-732.422,22.949,-41.016,75.195,0
1583423310.736,216.309,-772.461,10.742,-71.777,71.777,0
1583423310.740,233.398,-806.152,15.625,-84.473,30.273,0
1583423310.736,178.711,-789.062,17.578,-100.586,37.598,0
1583423310.740,131.348,-770.020,12.695,-120.117,46.387,0
1583423310.744,96.191,-780.273,15.625,-127.930,30.762,0
1583423310.748,45.410,-812.012,17.090,-165.039,2.930,0
1583423310.752,18.066,-802.734,13.184,-193.848,7.324,0
1583423310.756,3.418,-765.625,16.113,-185.059,33.203,0
1583423310.760,-19.531,-722.656,22.461,-176.270,28.320,0
1583423310.763,-35.645,-726.562,19.531,-211.426,-9.277,0
1583423310.767,-41.504,-731.445,18.066,-249.512,29.297,0
1583423310.771,-39.551,-742.676,26.855,-237.793,50.293,0
1583423310.775,-40.039,-763.184,25.879,-240.234,20.996,0
1583423310.779,-44.922,-752.930,21.973,-266.602,33.203,0
1583423310.796,-60.059,-750.000,25.879,-279.785,38.086,0
1583423310.800,-68.848,-747.559,24.902,-281.738,-9.766,0
1583423310.804,-53.711,-745.605,26.855,-261.230,43.945,0
1583423310.808,-54.688,-730.469,33.203,-259.277,89.355,0
1583423310.812,-54.688,-671.387,37.109,-289.551,31.250,0
1583423310.816,-59.570,-630.371,41.992,-282.715,45.898,0
1583423310.820,-92.773,-616.211,43.457,-241.699,35.156,0
1583423310.823,-106.934,-588.867,39.551,-222.656,-1.953,0
1583423310.827,-117.188,-561.523,35.645,-250.977,-1.465,0
1583423310.831,-137.695,-564.941,40.039,-237.305,-10.742,0
1583423310.835,-147.461,-561.035,40.527,-202.148,-22.949,0
1583423310.839,-144.531,-547.363,31.250,-198.730,-40.039,0
1583423310.837,-136.719,-550.293,32.715,-195.312,20.020,0
1583423310.841,-144.531,-530.273,34.180,-203.125,59.570,0
1583423310.845,-141.602,-542.480,31.738,-187.012,91.309,0
1583423310.849,-135.254,-557.617,30.762,-164.551,94.727,0
1583423310.853,-116.211,-535.156,30.762,-131.836,67.871,0
1583423310.857,-86.426,-513.672,37.109,-127.441,63.965,0
1583423310.861,-90.820,-485.352,36.621,-139.160,90.820,0
1583423310.864,-83.984,-449.219,30.273,-103.027,74.219,0
1583423310.868,-54.199,-424.316,31.250,-80.566,41.992,0
1583423310.872,-36.621,-391.113,35.645,-89.355,39.551,0
1583423310.876,-15.137,-348.633,34.180,-83.984,44.434,0
1583423310.880,0.977,-316.406,26.855,-66.406,93.262,0
1583423310.876,-24.414,-303.223,29.297,-45.898,107.910,0
1583423310.880,-18.555,-311.523,28.809,-51.270,59.082,0
1583423310.884,-12.695,-331.543,23.438,-71.289,38.574,0
1583423310.888,13.184,-327.637,20.508,-74.707,36.621,0
1583423310.892,34.180,-299.316,26.367,-53.711,34.668,0
1583423310.896,-27.344,-269.043,33.203,-57.129,43.457,0
1583423310.900,-29.785,-245.117,33.691,-69.336,-4.395,0
1583423310.903,-1.953,-256.348,35.156,-46.387,-2.930,0
1583423310.907,-29.297,-280.762,36.133,-37.109,24.414,0
1583423310.911,-34.180,-302.246,33.691,-50.293,20.020,0
1583423310.915,-19.043,-337.402,36.621,-49.805,47.363,0
1583423310.919,-63.965,-373.047,43.457,-38.086,99.609,0
1583423310.936,-87.402,-389.160,38.574,-42.969,96.191,0
1583423310.940,-42.969,-373.047,23.926,-43.457,56.641,0
1583423310.944,-32.227,-360.840,25.391,-66.406,14.648,0
1583423310.948,-44.434,-380.859,37.109,-80.078,14.160,0
1583423310.952,-37.109,-374.023,36.621,-39.062,90.332,0
1583423310.956,-21.484,-364.746,27.832,-6.836,69.824,0
1583423310.960,-15.137,-345.215,16.602,-34.668,37.109,0
1583423310.963,14.160,-301.758,20.020,-41.992,57.617,0
1583423310.967,24.414,-305.176,21.484,-34.668,72.754,0
1583423310.971,0.488,-315.918,12.695,-15.625,8.301,0
1583423310.975,2.930,-308.105,11.230,-0.977,18.555,0
1583423310.979,27.344,-314.453,14.160,-17.090,100.098,0
1583423310.976,53.223,-351.562,17.578,-20.508,79.102,0
1583423310.980,61.523,-362.793,13.672,3.418,37.109,0
1583423310.984,24.414,-329.590,17.578,22.949,20.020,0
1583423310.988,27.344,-266.602,20.996,-9.766,14.648,0
1583423310.992,20.508,-179.199,25.879,-4.883,21.973,0
1583423310.996,-8.301,-130.371,32.715,18.555,74.707,0
1583423311.000,-4.883,-107.422,35.156,10.254,89.355,0
1583423311.003,1.465,-81.543,39.551,4.395,72.754,0
1583423311.007,11.719,-89.844,42.480,-21.484,115.234,0
1583423311.011,9.277,-131.836,50.781,0.977,57.617,0
1583423311.015,6.348,-128.418,47.852,13.672,53.711,0
1583423311.019,23.438,-132.812,37.109,-4.395,98.633,0
1583423311.016,36.133,-151.855,28.809,-13.672,9.277,0
1583423311.020,20.020,-172.363,23.926,2.441,37.598,0
1583423311.024,12.695,-192.871,20.508,11.719,102.051,0
1583423311.028,29.785,-169.434,9.766,-20.996,47.852,0
1583423311.032,45.410,-146.973,-1.465,-22.461,12.695,0
1583423311.036,53.223,-142.578,-7.812,20.508,0.977,0
1583423311.040,59.570,-134.277,-12.207,40.039,70.312,0
1583423311.043,55.176,-148.438,-14.160,38.574,121.094,0
1583423311.047,71.289,-150.879,-22.461,32.227,109.863,0
1583423311.051,102.539,-162.598,-26.855,45.898,41.016,0
1583423311.055,98.145,-191.406,-26.855,70.312,-11.230,0
1583423311.059,129.883,-170.410,-30.762,83.984,33.203,0
1583423311.076,130.371,-147.949,-28.320,83.496,78.613,0
1583423311.080,130.371,-129.883,-36.133,52.734,60.059,0
1583423311.084,124.023,-83.984,-38.086,63.965,18.066,0
1583423311.088,95.215,-48.828,-29.297,88.867,17.578,0
1583423311.092,111.328,-29.785,-22.461,81.055,19.043,0
1583423311.096,106.445,-12.207,-19.531,66.406,-16.113,0
1583423311.100,101.562,21.484,-22.461,78.613,-24.902,0
1583423311.103,104.004,53.223,-22.461,97.168,23.438,0
1583423311.107,87.402,53.223,-20.508,92.285,61.523,0
1583423311.111,100.098,44.434,-19.043,76.172,78.613,0
1583423311.115,110.840,13.184,-17.090,81.055,66.406,0
1583423311.119,90.332,-14.160,-13.672,95.703,78.613,0
1583423311.116,105.469,-20.020,-11.230,84.961,48.340,0
1583423311.120,103.516,-4.883,-11.719,71.289,23.926,0
1583423311.124,107.910,-13.184,-8.789,56.152,95.703,0
1583423311.128,104.004,-41.504,0.977,86.914,80.078,0
1583423311.132,83.496,-46.387,6.836,101.074,53.223,0
1583423311.136,136.230,-71.777,0.000,25.391,37.109,0
1583423311.140,141.602,-126.465,-8.301,-6.836,24.902,0
1583423311.143,104.980,-173.828,-0.488,44.922,47.852,0
1583423311.147,131.348,-184.082,2.930,92.773,60.059,0
1583423311.151,204.590,-159.180,-9.766,61.035,91.309,0
1583423311.155,240.723,-163.086,-3.418,9.277,91.797,0
1583423311.159,223.633,-194.336,20.996,7.324,37.598,0
1583423311.156,206.543,-222.656,35.156,39.551,39.062,0
1583423311.160,184.570,-236.328,38.574,50.293,35.156,0
1583423311.164,163.574,-232.910,38.574,7.324,0.000,0
1583423311.168,167.969,-219.238,47.852,-2.441,-25.879,0
1583423311.172,187.988,-201.660,53.223,7.324,14.648,0
1583423311.176,189.453,-161.133,52.734,29.785,44.434,0
1583423311.180,201.660,-144.531,68.359,77.637,70.312,0
1583423311.183,185.547,-180.176,83.008,54.199,95.215,0
1583423311.187,166.016,-156.738,62.012,55.176,93.262,0
1583423311.191,197.754,-113.770,61.035,110.840,102.051,0
1583423311.195,246.582,-94.238,70.312,88.379,78.125,0
1583423311.199,253.906,-89.844,66.406,41.992,74.707,0
1583423311.216,288.574,-82.520,61.523,26.367,125.488,0
1583423311.220,364.258,-63.477,62.012,-7.812,73.242,0
1583423311.224,374.512,-45.898,73.730,-44.922,40.527,0
1583423311.228,397.461,-42.969,81.543,-35.645,32.227,0
1583423311.232,415.527,-61.035,83.496,-38.574,53.711,0
1583423311.236,459.961,-44.922,81.055,-20.020,62.500,0
1583423311.240,530.273,-32.227,88.867,47.363,51.758,0
1583423311.243,564.941,-56.641,85.938,31.250,45.410,0
1583423311.247,585.449,-40.039,73.730,43.945,-23.926,0
1583423311.251,566.895,-24.414,73.730,133.789,7.324,0
1583423311.255,529.785,-51.270,87.402,147.949,54.199,0
1583423311.259,541.504,-48.828,83.984,133.789,91.797,0
1583423311.256,534.668,-29.297,66.406,194.336,76.660,0
1583423311.260,514.160,-20.508,73.730,237.793,47.363,0
1583423311.264,519.531,-13.672,72.266,206.055,53.223,0
1583423311.268,472.168,-9.277,72.266,192.871,33.203,0
1583423311.272,481.934,7.812,70.312,184.570,50.293,0
1583423311.276,473.145,20.020,62.012,195.801,56.641,0
1583423311.280,437.988,21.484,70.312,221.191,43.457,0
1583423311.283,454.102,32.715,73.730,229.980,25.391,0
1583423311.287,421.387,55.664,73.242,219.727,19.531,0
1583423311.291,388.672,66.406,73.242,229.004,4.883,0
1583423311.295,365.234,84.473,68.848,258.789,7.812,0
1583423311.299,346.680,92.773,63.965,245.117,-7.812,0
1583423311.297,284.668,99.121,59.570,207.520,40.039,0
1583423311.301,221.680,90.820,63.477,212.402,66.895,0
1583423311.305,201.660,88.867,61.523,198.730,21.973,0
1583423311.309,201.660,103.027,57.129,133.789,42.480,0
1583423311.313,165.527,99.121,59.082,98.145,39.551,0
1583423311.317,143.555,95.703,58.594,74.707,21.484,0
1583423311.321,126.953,94.238,61.523,37.109,40.527,0
1583423311.324,67.871,99.609,67.871,3.418,57.617,0
1583423311.328,89.355,116.211,56.641,-52.246,72.754,0
1583423311.332,93.262,119.141,45.410,-91.309,52.734,0
1583423311.336,13.184,115.234,51.270,-94.727,68.848,0
1583423311.340,-58.594,111.328,51.758,-115.723,51.270,0
1583423311.356,1.465,109.375,46.875,-127.441,35.156,0
1583423311.360,102.539,108.398,51.270,-120.605,48.828,0
1583423311.364,142.090,95.215,57.129,-116.699,57.129,0
1583423311.368,163.086,91.797,52.734,-93.750,52.734,0
1583423311.372,203.125,93.262,54.199,-64.941,52.734,0
1583423311.376,222.656,81.055,52.734,-64.941,79.590,0
1583423311.380,198.730,83.984,40.039,-71.289,13.672,0
1583423311.383,125.488,97.656,38.086,-49.316,-22.949,0
1583423311.387,67.383,96.680,41.992,-26.855,56.641,0
1583423311.391,86.914,93.262,40.039,-42.969,57.617,0
1583423311.395,73.242,86.914,39.551,-22.949,29.785,0
1583423311.399,40.039,99.121,46.875,6.348,77.148,0
1583423311.397,69.824,114.746,45.898,1.465,84.473,0
1583423311.401,112.305,107.422,46.875,11.719,39.551,0
1583423311.405,125.000,106.934,49.316,0.488,-5.371,0
1583423311.409,116.211,117.676,51.270,3.418,4.395,0
1583423311.413,87.402,125.977,54.688,26.855,48.828,0
1583423311.417,63.965,123.535,56.152,19.043,70.801,0
1583423311.421,77.148,130.859,57.617,1.953,88.379,0
1583423311.424,73.730,138.672,57.129,-19.531,42.969,0
1583423311.428,51.270,130.371,57.617,-17.090,15.625,0
1583423311.432,34.668,131.348,63.477,-6.836,32.715,0
1583423311.436,26.367,148.438,62.500,-17.090,68.848,0
1583423311.440,14.648,153.320,61.523,-11.719,75.195,0
1583423311.456,-25.879,148.438,65.430,4.883,83.496,0
1583423311.460,-38.086,143.555,66.406,16.113,98.633,0
1583423311.464,-38.086,152.832,64.941,-2.930,36.133,0
1583423311.468,-63.477,163.086,67.383,-24.414,-3.906,0
1583423311.472,-86.426,167.480,67.383,-23.926,87.402,0
1583423311.476,-89.844,174.316,62.988,-49.316,105.957,0
1583423311.480,-94.727,166.992,63.477,-73.242,19.531,0
1583423311.483,-104.492,167.480,59.570,-70.801,-0.488,0
1583423311.487,-118.164,172.852,56.641,-36.621,18.066,0
1583423311.491,-122.559,162.598,55.664,-22.461,53.711,0
1583423311.495,-108.398,164.551,46.875,-70.312,47.363,0
1583423311.499,-132.812,146.484,51.758,-94.727,17.090,0
1583423311.496,-160.645,121.582,57.617,-116.211,-33.203,0
1583423311.500,-149.902,118.652,52.734,-115.723,-23.438,0
1583423311.504,-156.250,107.422,46.387,-135.254,42.480,0
1583423311.508,-159.668,97.656,46.387,-171.875,61.523,0
1583423311.512,-167.969,88.379,52.734,-160.156,100.586,0
1583423311.516,-208.008,76.660,53.711,-155.273,124.023,0
1583423311.520,-239.258,65.918,51.758,-155.762,60.547,0
1583423311.523,-208.984,50.293,49.805,-163.086,74.219,0
1583423311.527,-154.785,28.320,47.852,-161.133,98.145,0
1583423311.531,-170.898,-6.836,45.410,-129.395,43.457,0
1583423311.535,-201.172,-47.852,47.363,-110.840,82.031,0
1583423311.539,-164.062,-78.125,45.410,-102.051,70.312,0
1583423311.539,-142.090,-99.609,40.527,-107.910,34.668,0
1583423311.543,-124.512,-106.445,38.574,-92.773,79.590,0
1583423311.547,-95.703,-97.656,38.574,-29.785,97.656,0
1583423311.551,-82.031,-103.027,42.969,-5.859,92.773,0
1583423311.555,-64.453,-123.535,49.316,-4.395,67.383,0
1583423311.559,-12.207,-117.676,48.828,6.348,41.504,0
1583423311.563,-36.621,-87.891,37.598,18.555,66.895,0
1583423311.566,-36.621,-104.492,33.691,37.109,85.938,0
1583423311.570,17.090,-125.488,35.645,57.129,67.871,0
1583423311.574,34.668,-118.652,28.809,92.773,118.652,0
1583423311.578,50.293,-133.789,31.738,135.742,101.562,0
1583423311.582,73.730,-149.414,33.691,155.273,95.215,0
1583423311.596,81.543,-156.738,22.461,165.527,54.199,0
1583423311.600,58.105,-179.688,23.438,173.828,42.969,0
1583423311.604,84.473,-184.082,27.344,212.891,80.566,0
1583423311.608,105.469,-172.852,30.762,235.352,38.086,0
1583423311.612,110.352,-183.105,35.645,225.098,67.383,0
1583423311.616,120.605,-183.105,36.621,214.844,72.754,0
1583423311.620,120.605,-186.523,39.551,233.398,34.668,0
1583423311.623,131.836,-171.387,40.039,269.043,53.711,0
1583423311.627,144.043,-152.832,41.016,270.996,63.965,0
1583423311.631,127.930,-162.109,45.898,259.766,55.664,0
1583423311.635,112.305,-154.785,43.945,283.691,78.613,0
1583423311.639,123.535,-162.598,46.387,280.273,77.637,0
1583423311.637,120.117,-184.570,51.270,248.535,60.547,0
1583423311.641,134.766,-205.566,45.898,223.145,47.852,0
1583423311.645,153.809,-247.070,44.922,208.984,8.301,0
1583423311.649,134.766,-283.203,47.852,233.398,57.129,0
1583423311.653,129.395,-317.383,53.223,261.230,79.102,0
1583423311.657,160.156,-333.984,54.688,240.723,0.488,0
1583423311.661,148.438,-316.895,50.781,192.383,-10.254,0
1583423311.664,136.230,-298.828,50.293,196.777,25.391,0
1583423311.668,123.047,-302.246,54.688,252.930,42.480,0
1583423311.672,96.191,-311.035,58.594,262.207,40.527,0
1583423311.676,106.445,-322.754,58.594,215.332,59.570,0
1583423311.680,140.625,-327.148,62.500,209.473,93.750,0
1583423311.676,120.117,-324.707,62.012,228.027,39.551,0
1583423311.680,149.414,-305.664,62.012,239.746,30.762,0
1583423311.684,170.898,-287.109,62.012,232.422,32.715,0
1583423311.688,143.555,-279.785,59.082,248.535,23.438,0
1583423311.692,148.438,-273.438,56.641,270.508,111.328,0
1583423311.696,158.691,-257.812,60.059,266.602,59.082,0
1583423311.700,158.203,-240.234,58.594,245.117,16.113,0
1583423311.703,147.461,-249.023,55.176,219.238,61.523,0
1583423311.707,153.809,-267.578,58.105,255.371,78.125,0
1583423311.711,146.973,-287.598,53.711,255.859,35.156,0
1583423311.715,124.023,-311.523,58.105,221.191,20.020,0
1583423311.719,99.609,-350.586,59.570,219.727,38.574,0
1583423311.736,77.148,-398.438,57.129,247.070,24.902,0
1583423311.740,47.363,-419.922,59.570,264.160,-7.324,0
1583423311.744,45.410,-395.020,56.641,243.652,-22.949,0
1583423311.748,62.988,-390.625,57.617,253.906,49.805,0
1583423311.752,74.707,-423.828,59.570,291.992,58.594,0
1583423311.756,48.828,-478.027,64.453,348.633,55.664,0
1583423311.760,27.832,-578.125,60.059,356.445,37.109,0
1583423311.763,37.598,-614.258,51.758,327.148,49.316,0
1583423311.767,31.250,-515.137,43.945,325.684,118.164,0
1583423311.771,78.613,-416.992,41.016,365.234,124.512,0
1583423311.775,77.637,-363.770,51.270,404.785,63.477,0
1583423311.779,52.246,-335.938,55.664,415.039,16.113,0
1583423311.777,85.449,-333.496,58.105,396.484,61.523,0
1583423311.781,165.527,-331.543,62.012,413.086,39.062,0
1583423311.785,142.578,-317.871,59.570,441.895,32.227,0
1583423311.789,64.941,-325.195,64.941,426.270,57.617,0
1583423311.793,71.289,-371.582,75.684,441.895,75.195,0
1583423311.797,99.609,-390.137,106.445,477.539,35.156,0
1583423311.801,172.852,-336.914,139.648,522.461,43.457,0
1583423311.804,224.609,-337.402,135.742,527.344,40.527,0
1583423311.808,166.992,-421.875,92.773,460.938,-6.348,0
1583423311.812,127.930,-357.422,59.082,388.672,30.273,0
1583423311.816,99.121,-221.191,57.129,383.789,37.598,0
1583423311.820,57.617,-186.523,103.516,458.984,-13.184,0
1583423311.816,106.934,-263.672,146.973,477.051,42.480,0
1583423311.820,80.078,-366.699,162.109,448.242,51.758,0
1583423311.824,19.531,-444.824,181.641,494.629,1.465,0
1583423311.828,60.547,-520.020,168.945,531.250,31.738,0
1583423311.832,84.961,-555.176,138.672,427.246,70.801,0
1583423311.836,62.012,-528.320,145.508,369.629,42.969,0
1583423311.840,65.918,-451.172,154.297,356.445,40.039,0
1583423311.843,-35.645,-412.598,151.367,327.148,67.871,0
1583423311.847,-208.008,-431.641,164.062,342.285,41.016,0
1583423311.851,-263.184,-413.086,166.504,283.203,42.480,0
1583423311.855,-293.945,-350.098,165.039,230.469,66.406,0
1583423311.859,-311.035,-247.070,160.156,215.332,59.570,0
1583423311.876,-367.188,-156.738,152.832,191.406,68.359,0
1583423311.880,-390.625,-211.914,152.832,121.094,95.703,0
1583423311.884,-361.816,-247.559,143.555,36.133,68.359,0
1583423311.888,-389.160,-229.980,127.930,-3.906,81.055,0
1583423311.892,-441.895,-315.430,120.605,-29.785,26.855,0
1583423311.896,-511.230,-384.766,108.887,-103.516,-4.883,0
1583423311.900,-537.598,-426.270,91.797,-131.836,25.879,0
1583423311.903,-552.246,-462.402,90.332,-122.070,37.598,0
1583423311.907,-536.133,-478.516,87.402,-142.578,88.379,0
1583423311.911,-462.402,-515.137,74.219,-187.988,25.391,0
1583423311.915,-472.168,-510.254,62.500,-249.023,-7.812,0
1583423311.919,-460.938,-467.285,64.453,-267.578,56.641,0
1583423311.916,-445.312,-445.312,73.730,-290.527,0.977,0
1583423311.920,-466.797,-409.668,63.477,-369.141,55.664,0
1583423311.924,-415.527,-377.441,54.688,-405.762,111.816,0
1583423311.928,-384.766,-363.770,62.012,-402.832,9.766,0
1583423311.932,-389.648,-343.750,61.523,-386.230,15.625,0
1583423311.936,-397.461,-321.777,52.246,-377.441,61.523,0
1583423311.940,-363.770,-309.082,51.270,-388.672,12.207,0
1583423311.943,-295.410,-303.711,58.105,-376.465,-12.207,0
1583423311.947,-227.051,-281.250,57.617,-370.117,15.137,0
1583423311.951,-199.219,-277.832,62.012,-379.395,39.551,0
1583423311.955,-228.027,-257.324,57.617,-410.645,-9.277,0
1583423311.959,-219.727,-230.469,55.664,-436.035,-7.324,0
1583423311.956,-233.887,-213.867,65.918,-412.598,0.000,0
1583423311.960,-275.391,-175.293,56.641,-420.898,1.465,0
1583423311.964,-300.293,-172.363,52.734,-446.777,20.508,0
1583423311.968,-321.777,-156.250,61.523,-447.266,75.195,0
1583423311.972,-284.668,-144.043,62.012,-443.848,71.777,0
1583423311.976,-250.000,-108.887,52.734,-412.598,10.742,0
1583423311.980,-245.117,-22.949,47.363,-425.293,54.688,0
1583423311.983,-240.723,-3.418,49.805,-448.730,60.547,0
1583423311.987,-254.883,-22.949,61.523,-390.625,64.941,0
1583423311.991,-233.398,-12.695,72.266,-345.215,105.469,0
1583423311.995,-231.934,7.812,67.871,-357.910,48.340,0
1583423311.999,-204.102,19.531,68.359,-365.234,-3.906,0
1583423312.016,-93.750,22.949,68.848,-341.797,53.711,0
1583423312.020,-108.887,27.344,66.406,-282.715,67.383,0
1583423312.024,-125.977,34.668,64.453,-250.000,49.805,0
1583423312.028,-49.805,49.805,67.383,-254.883,62.500,0
1583423312.032,-81.055,71.777,72.266,-227.539,82.031,0
1583423312.036,-49.805,80.566,73.242,-185.547,61.523,0
1583423312.040,-42.480,108.398,67.383,-160.645,9.277,0
1583423312.043,-103.516,143.555,58.594,-145.508,38.086,0
1583423312.047,-122.070,131.348,62.500,-140.625,48.828,0
1583423312.051,-160.645,112.305,67.871,-90.820,13.184,0
1583423312.055,-152.832,104.492,73.730,-1.465,58.105,0
1583423312.059,-137.207,112.793,76.172,14.160,83.984,0
1583423312.056,-114.258,136.719,78.125,-16.602,56.152,0
1583423312.060,-85.938,136.719,82.520,10.254,55.176,0
1583423312.064,-70.312,128.906,87.891,90.820,64.453,0
1583423312.068,16.113,123.535,82.031,112.793,116.699,0
1583423312.072,-13.184,62.012,26.855,36.621,115.723,0
1583423312.076,-57.129,19.531,-1.465,27.832,20.020,0
1583423312.080,-49.805,-15.625,-39.551,49.316,35.645,0
1583423312.083,-75.684,-78.613,-102.539,2.441,51.270,0
1583423312.087,-39.062,-92.773,-120.605,-45.410,0.488,0
1583423312.091,-26.855,-101.562,-120.117,-49.316,31.738,0
1583423312.095,-88.379,-92.285,-104.492,-17.578,45.410,0
1583423312.099,-151.367,-85.449,-111.816,-8.301,47.363,0
1583423312.097,-156.250,-32.227,-89.844,-18.066,38.574,0
1583423312.101,-106.445,67.383,-14.648,15.137,23.438,0
1583423312.105,-45.410,104.980,18.066,59.082,48.340,0
1583423312.109,-41.016,114.258,21.973,86.914,69.336,0
1583423312.113,-3.906,125.488,33.691,94.727,43.457,0
1583423312.117,-12.207,119.629,20.508,15.137,16.113,0
1583423312.121,-96.191,41.992,-68.359,-117.676,28.320,0
1583423312.124,-70.801,-18.555,-137.207,-145.020,1.953,0
1583423312.128,-71.777,-20.996,-146.484,-116.211,3.906,0
1583423312.132,-96.191,-18.555,-152.344,-158.203,74.707,0
1583423312.136,-127.930,-29.297,-153.320,-192.383,71.289,0
1583423312.140,-228.516,-35.156,-153.320,-173.340,33.203,0
1583423312.156,-255.371,-29.785,-146.484,-139.160,7.812,0
1583423312.160,-243.164,-21.484,-141.602,-157.227,23.438,0
1583423312.164,-253.418,-25.391,-141.113,-194.824,51.270,0
1583423312.168,-227.051,-44.922,-138.184,-192.383,-10.742,0
1583423312.172,-198.242,-48.340,-141.113,-181.641,10.742,0
1583423312.176,-197.266,-53.223,-131.348,-175.781,92.285,0
1583423312.180,-266.602,-60.059,-119.629,-217.285,62.500,0
1583423312.183,-269.043,-70.801,-119.629,-228.027,9.766,0
1583423312.187,-222.168,59.570,-120.605,-200.195,51.758,0
1583423312.191,-234.863,-236.816,-113.281,-178.711,119.629,0
1583423312.195,-287.598,-926.270,-96.680,-208.008,70.312,0
1583423312.199,-275.879,-986.816,-84.473,-222.656,41.016,0
1583423312.197,-256.836,-944.336,-71.289,-174.805,37.109,0
1583423312.201,-312.500,-975.098,-52.734,-154.785,-12.695,0
1583423312.205,-341.797,-958.984,-44.922,-148.438,23.438,0
1583423312.209,-334.961,-979.980,-66.406,-223.145,45.898,0
1583423312.213,-313.965,-858.398,-57.129,-168.945,66.406,0
1583423312.217,-245.605,-524.902,19.043,-22.949,79.590,0
1583423312.221,-232.910,-250.488,75.195,-41.992,5.371,0
1583423312.224,-225.586,-59.082,99.609,-32.227,28.809,0
1583423312.228,-192.383,93.750,116.211,30.762,78.613,0
1583423312.232,-162.598,197.754,119.629,50.781,108.398,0
1583423312.236,-144.531,307.129,131.348,15.137,107.422,0
1583423312.240,-165.039,406.738,127.930,-45.898,72.754,0
1583423312.238,-224.609,410.156,70.801,-89.844,27.832,0
1583423312.242,-269.531,411.621,27.344,-82.520,63.965,0
1583423312.246,-321.289,413.086,-4.883,-98.633,57.129,0
1583423312.250,-298.828,464.355,13.672,-122.559,68.359,0
1583423312.254,-262.695,501.465,22.461,-135.742,154.785,0
1583423312.258,-317.383,461.914,-27.344,-117.676,87.402,0
1583423312.262,-330.078,448.242,-43.945,-117.676,-4.395,0
1583423312.265,-342.773,446.777,-45.410,-192.383,61.523,0
1583423312.269,-313.965,475.098,-57.617,-245.117,122.559,0
1583423312.273,-272.461,490.723,-68.359,-240.723,68.848,0
1583423312.277,-237.793,483.887,-61.523,-205.566,41.016,0
1583423312.281,-248.535,485.352,-52.734,-181.641,45.898,0
1583423312.316,-275.879,468.750,-46.875,-227.539,46.875,0
1583423312.320,-250.000,462.402,-47.852,-240.234,97.168,0
1583423312.324,-259.766,457.520,-48.340,-177.734,70.801,0
1583423312.328,-218.750,451.660,-51.758,-205.566,17.578,0
1583423312.332,-167.480,459.473,-47.363,-251.953,26.367,0
1583423312.336,-175.781,459.961,-39.551,-231.934,37.109,0
1583423312.340,-155.273,441.895,-32.715,-189.941,75.195,0
1583423312.343,-123.535,435.059,-28.809,-172.363,68.848,0
1583423312.347,-124.023,431.641,-26.855,-206.543,61.035,0
1583423312.351,-76.172,416.504,-22.949,-240.723,58.594,0
1583423312.355,-25.391,407.715,-19.531,-200.684,9.277,0
1583423312.359,-82.031,395.020,-13.672,-161.621,-10.254,0
1583423312.339,-53.223,383.789,-15.625,-196.289,2.930,0
1583423312.343,70.312,363.770,-23.438,-218.750,39.062,0
1583423312.347,69.824,333.496,-21.973,-164.062,71.289,0
1583423312.351,99.609,311.035,-26.855,-142.090,32.715,0
1583423312.355,114.746,295.410,-36.621,-186.523,45.898,0
1583423312.359,36.133,279.297,-37.598,-252.930,23.926,0
1583423312.363,48.340,276.367,-35.156,-236.328,24.902,0
1583423312.366,100.586,255.859,-27.344,-178.711,42.969,0
1583423312.370,116.211,204.102,-25.391,-175.781,40.527,0
1583423312.374,82.031,192.871,-33.691,-209.473,54.199,0
1583423312.378,96.191,203.613,-32.715,-210.938,4.883,0
1583423312.382,107.422,212.891,-28.809,-155.273,25.879,0
1583423312.376,72.266,221.191,-28.320,-122.559,76.172,0
1583423312.380,103.027,216.797,-28.809,-163.086,19.531,0
1583423312.384,125.488,206.055,-23.438,-157.715,0.488,0
1583423312.388,109.375,191.895,-8.301,-81.055,17.090,0
1583423312.392,96.680,185.059,-1.953,-72.754,15.137,0
1583423312.396,158.203,189.453,-8.301,-115.234,-0.977,0
1583423312.400,239.746,201.172,-16.113,-138.672,10.742,0
1583423312.403,268.555,187.988,-13.672,-98.145,46.387,0
1583423312.407,253.906,168.457,-9.277,-80.566,62.500,0
1583423312.411,245.605,188.477,-14.160,-120.117,35.645,0
1583423312.415,207.520,200.195,-16.113,-131.836,12.207,0
1583423312.419,124.023,186.523,-0.977,-99.121,25.391,0
1583423312.436,63.477,178.223,12.207,-38.086,58.594,0
1583423312.440,27.832,190.430,11.230,-24.902,89.844,0
1583423312.444,-8.789,196.289,17.578,-63.965,65.918,0
1583423312.448,12.695,195.312,27.832,-83.984,25.879,2
1583423312.452,41.992,190.918,33.691,-42.969,4.395,0
1583423312.456,84.473,181.641,38.574,-1.953,34.668,0
1583423312.460,147.461,186.035,40.039,-30.762,40.039,0
1583423312.463,147.949,206.055,36.133,-66.406,-16.113,0
1583423312.467,145.508,218.262,40.527,-7.324,6.836,0
1583423312.471,118.164,236.328,46.875,41.016,-11.719,0
1583423312.475,108.887,257.812,44.434,13.672,-11.230,0
1583423312.479,86.914,264.648,46.875,-16.602,86.426,0
1583423312.479,48.340,267.578,51.758,11.230,96.191,0
1583423312.483,100.098,267.578,52.246,81.543,44.922,0
1583423312.487,117.676,256.836,52.734,81.543,23.438,0
1583423312.491,149.414,259.277,41.504,39.062,83.496,0
1583423312.495,252.930,270.508,34.180,28.320,72.266,0
1583423312.499,205.566,271.484,34.180,85.938,34.180,0
1583423312.503,93.750,271.973,33.691,151.855,79.102,0
1583423312.506,81.055,265.137,33.691,148.926,84.473,0
1583423312.510,50.293,250.488,33.691,130.859,31.250,0
1583423312.514,27.832,240.723,38.574,157.227,23.438,0
1583423312.518,60.059,256.348,41.016,178.711,16.113,0
1583423312.522,83.496,267.090,41.504,156.738,20.508,0
1583423312.516,60.547,270.020,45.898,150.391,-7.324,0
1583423312.520,48.828,263.184,46.875,189.453,20.508,0
1583423312.524,142.090,258.301,46.875,214.355,44.434,0
1583423312.528,189.941,280.273,47.363,195.312,36.133,0
1583423312.532,214.355,288.086,47.363,150.879,66.406,0
1583423312.536,208.984,286.621,46.875,165.527,-32.227,0
1583423312.540,188.965,311.523,48.828,178.223,-1.953,0
1583423312.543,197.266,310.059,54.199,156.250,78.613,0
1583423312.547,133.301,301.758,51.270,116.211,69.824,0
1583423312.551,97.168,307.617,47.852,103.027,80.078,0
1583423312.555,132.324,297.852,44.434,160.645,53.223,0
1583423312.559,160.156,290.527,46.387,152.344,35.156,0
1583423312.576,148.438,279.297,49.805,68.359,67.871,0
1583423312.580,49.316,264.160,52.246,33.203,60.547,0
1583423312.584,-9.766,270.996,55.176,71.289,17.578,0
1583423312.588,-3.418,281.738,55.176,104.004,42.969,0
1583423312.592,20.020,264.160,58.594,83.984,121.582,0
1583423312.596,57.129,239.258,61.035,18.066,91.309,0
1583423312.600,74.707,250.000,65.918,41.504,78.125,0
1583423312.603,83.984,271.973,68.848,90.820,83.984,0
1583423312.607,118.164,270.996,64.453,56.641,31.250,0
1583423312.611,174.805,270.996,62.988,0.000,59.082,0
1583423312.615,158.203,266.113,65.918,10.742,46.387,0
1583423312.619,115.723,265.137,65.430,59.570,27.344,0
1583423312.616,127.930,264.160,67.383,54.688,14.648,0
1583423312.620,211.914,253.418,72.266,36.133,-0.488,0
1583423312.624,205.078,247.559,70.312,10.254,20.996,0
1583423312.628,53.711,241.211,67.871,23.438,21.973,0
1583423312.632,65.918,255.371,61.523,41.016,39.551,0
1583423312.636,147.949,255.859,62.988,10.254,21.484,0
1583423312.640,127.441,237.305,68.359,-1.465,36.133,0
1583423312.643,101.562,223.633,66.406,-0.977,105.957,0
1583423312.647,106.445,196.289,66.406,-1.953,33.203,0
1583423312.651,128.418,178.223,66.406,-25.879,8.789,0
1583423312.655,156.738,186.523,63.965,-78.613,51.758,0
1583423312.659,138.672,190.918,62.988,-81.543,15.625,0
1583423312.676,114.258,189.453,64.453,-45.410,43.457,0
1583423312.680,80.078,183.594,68.848,-30.762,63.965,0
1583423312.684,62.988,177.246,66.406,-81.543,50.781,0
1583423312.688,98.145,183.105,56.152,-86.914,81.543,0
1583423312.692,106.445,179.688,59.570,-8.789,50.781,0
1583423312.696,81.055,166.016,65.430,-18.555,58.105,0
1583423312.700,27.344,154.785,64.453,-80.078,50.293,0
1583423312.703,24.902,143.066,58.105,-85.449,32.227,0
1583423312.707,59.082,146.973,48.340,-36.133,78.613,0
1583423312.711,60.059,151.855,48.340,-22.461,54.688,0
1583423312.715,34.180,147.461,51.270,-85.449,78.125,0
1583423312.719,5.859,139.160,57.129,-107.422,98.145,0
1583423312.717,29.297,134.766,61.523,-45.898,61.035,0
1583423312.721,27.832,130.371,61.035,-13.184,30.762,0
1583423312.725,-13.184,124.512,62.500,-41.992,-9.277,0
1583423312.729,-22.949,120.117,61.523,-58.594,41.504,0
1583423312.733,2.930,105.469,65.430,8.301,45.898,0
1583423312.737,23.926,110.352,62.012,61.523,47.852,0
1583423312.741,45.898,138.184,48.340,33.691,75.195,0
1583423312.744,47.852,154.297,41.016,9.277,61.035,0
1583423312.748,64.941,145.508,43.457,24.414,86.426,0
1583423312.752,99.121,130.859,43.457,79.102,59.082,0
1583423312.756,129.395,122.559,40.527,108.398,63.477,0
1583423312.760,118.652,122.070,42.480,73.730,41.016,0
1583423312.756,69.336,120.605,45.898,94.238,-15.625,0
1583423312.760,104.492,120.605,46.875,143.555,38.086,0
1583423312.764,142.578,120.117,47.363,163.086,113.281,0
1583423312.768,122.070,104.980,56.152,146.973,51.758,0
1583423312.772,130.371,102.051,53.711,125.488,0.000,0
1583423312.776,132.812,105.957,45.898,174.805,15.625,0
1583423312.780,150.879,104.004,43.945,196.777,66.406,0
1583423312.783,154.785,107.910,41.016,170.898,54.688,0
1583423312.787,120.117,98.145,43.945,178.223,24.902,0
1583423312.791,106.445,87.891,50.781,228.027,39.551,0
1583423312.795,150.391,108.887,52.246,282.227,39.062,0
1583423312.799,224.609,105.469,52.734,261.230,15.137,0
1583423312.797,202.637,93.262,48.340,201.660,12.695,0
1583423312.801,180.176,88.867,46.387,210.449,29.785,0
1583423312.805,236.328,82.520,50.293,244.141,87.891,0
1583423312.809,289.551,92.773,45.898,244.141,90.332,0
1583423312.813,364.258,98.145,46.387,224.609,41.992,0
1583423312.817,444.824,91.797,54.688,251.953,17.578,0
1583423312.821,441.406,92.285,52.246,265.625,-26.367,0
1583423312.824,413.574,92.773,52.246,250.000,-47.363,0
1583423312.828,402.832,104.004,49.316,221.680,46.875,0
1583423312.832,338.379,105.957,39.551,207.031,133.301,0
1583423312.836,290.039,104.004,35.645,230.957,38.574,0
1583423312.840,479.980,104.004,35.156,285.156,30.273,0
1583423312.856,701.660,91.309,34.180,296.387,78.613,0
1583423312.860,704.590,82.031,33.203,251.465,74.707,0
1583423312.864,582.031,71.289,30.762,273.438,92.773,0
1583423312.868,529.785,56.152,30.273,325.684,41.504,0
1583423312.872,573.730,42.969,34.668,336.426,-23.926,0
1583423312.876,601.074,55.176,38.574,333.008,-50.293,0
1583423312.880,564.453,74.707,37.598,373.535,-25.879,0
1583423312.883,505.859,78.613,34.668,408.691,27.832,0
1583423312.887,531.738,89.355,34.180,413.574,15.625,0
1583423312.891,564.941,97.168,36.133,390.137,12.207,0
1583423312.895,571.777,93.750,40.039,410.156,46.387,0
1583423312.899,618.652,92.773,35.645,472.656,122.070,0
1583423312.896,714.355,90.820,20.996,490.234,120.117,0
1583423312.900,738.770,96.191,25.391,520.020,89.844,0
1583423312.904,735.352,111.328,38.574,504.883,86.914,0
1583423312.908,786.621,125.977,33.691,500.977,39.551,0
1583423312.912,819.824,129.395,29.785,560.059,92.285,0
1583423312.916,865.234,135.742,36.621,589.355,117.676,0
1583423312.920,890.625,170.410,56.152,583.008,110.840,0
1583423312.923,958.496,231.934,105.957,655.762,56.152,0
1583423312.927,958.984,240.723,117.676,726.562,-22.461,0
1583423312.931,901.855,253.418,122.559,744.629,31.738,0
1583423312.935,848.145,308.594,159.180,734.863,95.215,0
1583423312.939,803.223,314.941,181.152,723.145,54.688,0
1583423312.937,825.684,316.406,183.105,779.785,77.148,0
1583423312.941,758.789,231.445,107.910,748.047,111.816,0
1583423312.945,662.598,142.578,40.039,666.992,90.820,0
1583423312.949,617.676,119.141,25.879,639.160,85.449,0
1583423312.953,668.945,91.797,18.066,649.414,53.711,0
1583423312.957,708.984,77.637,12.207,667.969,49.316,0
1583423312.961,749.512,72.266,6.348,642.578,68.848,0
1583423312.964,781.250,61.523,-0.488,610.840,54.688,0
1583423312.968,807.617,66.895,0.488,628.418,41.016,0
1583423312.972,875.000,76.660,6.836,672.852,75.684,0
1583423312.976,962.402,82.031,0.977,656.738,84.473,0
1583423312.980,975.098,82.031,0.000,608.398,57.129,0
1583423312.996,920.898,92.773,4.395,605.469,52.734,0
1583423313.000,904.297,104.980,0.000,632.812,93.750,0
1583423313.004,888.672,101.074,2.441,631.348,70.801,0
1583423313.008,885.742,102.051,2.930,569.336,54.199,0
1583423313.012,891.113,97.168,4.395,545.410,17.090,0
1583423313.016,850.098,82.031,8.789,556.152,5.371,0
1583423313.020,840.332,92.285,2.930,535.156,29.297,0
1583423313.023,814.941,87.891,5.859,497.559,4.395,0
1583423313.027,780.273,79.590,10.254,467.773,-11.230,0
1583423313.031,785.156,80.566,12.695,488.281,34.180,0
1583423313.035,751.465,71.777,19.043,521.973,68.848,0
1583423313.039,727.539,65.430,19.043,483.887,57.617,0
1583423313.037,703.125,62.988,16.113,431.152,122.559,0
1583423313.041,645.020,69.336,17.090,409.668,70.801,0
1583423313.045,639.648,68.848,14.648,449.707,1.465,0
1583423313.049,636.230,75.195,17.578,458.984,48.828,0
1583423313.053,622.070,81.055,31.738,435.059,75.195,0
1583423313.057,644.531,83.008,32.715,471.191,114.258,0
1583423313.061,665.527,87.891,31.738,494.629,132.812,0
1583423313.064,680.176,85.449,32.227,480.469,43.945,0
1583423313.068,672.852,72.754,25.879,454.102,32.715,0
1583423313.072,705.078,76.172,37.109,468.750,134.277,0
1583423313.076,711.914,98.633,41.016,495.605,104.492,0
1583423313.080,686.035,104.004,31.250,495.605,40.039,0
1583423313.096,656.250,105.957,32.227,460.938,52.246,0
1583423313.100,621.094,97.168,36.621,431.152,85.938,0
1583423313.104,604.004,85.449,42.969,435.059,90.332,0
1583423313.108,580.566,94.238,44.434,450.195,59.082,0
1583423313.112,515.137,96.680,44.922,427.734,80.078,0
1583423313.116,486.328,93.262,45.898,409.180,107.910,0
1583423313.120,481.934,88.379,43.945,386.230,83.984,0
1583423313.123,476.074,92.773,45.898,364.258,47.363,0
1583423313.127,416.504,100.586,47.363,368.652,83.984,0
1583423313.131,356.445,90.332,47.852,324.219,86.426,0
1583423313.135,337.891,78.613,48.828,344.727,26.855,0
1583423313.139,333.008,72.754,42.969,366.699,73.242,0
1583423313.136,367.188,70.312,40.527,329.102,137.207,0
1583423313.140,327.637,65.430,48.828,330.566,79.102,0
1583423313.144,260.254,62.988,50.781,311.523,102.539,0
1583423313.148,247.559,64.453,48.340,324.707,156.250,0
1583423313.152,227.051,56.641,51.270,314.453,148.926,0
1583423313.156,179.688,48.340,50.781,270.996,82.031,0
1583423313.160,129.883,48.828,50.781,224.121,9.277,0
1583423313.163,82.520,41.992,54.688,187.500,49.805,0
1583423313.167,38.086,41.504,53.711,190.430,57.129,0
1583423313.171,37.598,53.711,47.852,149.902,74.219,0
1583423313.175,28.320,46.875,50.293,62.500,116.211,0
1583423313.179,-27.344,48.340,46.875,28.320,93.262,0
1583423313.177,-52.734,44.922,40.039,15.137,86.914,0
1583423313.181,-22.461,29.785,33.691,-13.672,128.906,0
1583423313.185,-13.672,15.137,33.203,-71.777,92.773,0
1583423313.189,-18.066,8.301,30.762,-121.094,4.395,0
1583423313.193,-35.645,15.137,21.484,-120.117,20.996,0
1583423313.197,-81.543,7.812,16.113,-165.039,68.359,0
1583423313.201,-101.074,-1.465,12.695,-211.426,61.523,0
1583423313.204,-100.098,2.930,12.207,-257.324,54.199,0
1583423313.208,-136.719,-5.371,11.230,-290.527,61.523,0
1583423313.212,-164.062,-9.766,9.766,-300.781,15.137,0
1583423313.216,-175.293,-6.348,8.301,-343.262,-22.949,0
1583423313.220,-240.234,-9.277,8.789,-371.582,54.688,0
1583423313.236,-255.859,-11.719,5.371,-385.254,56.152,0
1583423313.240,-264.160,-16.113,2.441,-404.297,28.320,0
1583423313.244,-297.852,-14.160,-0.977,-418.457,113.281,0
1583423313.248,-292.480,-10.742,0.488,-440.430,97.168,0
1583423313.252,-293.457,-11.230,6.836,-455.566,49.316,0
1583423313.256,-313.965,-11.230,6.348,-459.961,23.438,0
1583423313.260,-347.168,-20.996,6.348,-470.215,30.762,0
1583423313.263,-342.773,-16.113,7.812,-472.168,78.125,0
1583423313.267,-330.566,0.488,11.230,-478.027,66.895,0
1583423313.271,-317.871,4.395,8.301,-427.734,54.688,0
1583423313.275,-292.969,3.418,7.812,-364.258,80.566,0
1583423313.279,-279.297,-6.836,8.301,-376.465,25.879,0
1583423313.276,-235.840,-4.395,4.395,-379.395,-9.277,0
1583423313.280,-217.285,2.441,9.277,-327.637,35.645,0
1583423313.284,-233.398,2.441,12.207,-286.133,33.691,0
1583423313.288,-203.613,-0.488,15.137,-294.434,-7.324,0
1583423313.292,-152.832,-6.836,20.508,-291.992,32.715,0
1583423313.296,-159.668,-2.930,20.508,-248.047,21.973,0
1583423313.300,-153.320,10.254,19.531,-185.547,10.254,0
1583423313.303,-142.578,16.602,20.020,-151.855,16.113,0
1583423313.307,-155.273,21.973,18.555,-167.969,30.273,0
1583423313.311,-122.559,19.043,18.066,-136.719,65.918,0
1583423313.315,-109.375,19.531,16.113,-78.613,31.250,0
1583423313.319,-67.383,38.574,10.254,-66.895,48.340,0
1583423313.316,-20.996,41.504,9.277,-59.082,45.410,0
1583423313.320,-34.668,39.551,9.766,-64.453,-10.254,0
1583423313.324,-9.766,41.504,8.789,-48.340,-13.672,0
1583423313.328,36.133,46.875,9.277,11.719,67.383,0
1583423313.332,50.293,48.340,9.766,56.152,44.922,0
1583423313.336,69.336,43.457,7.812,71.777,53.223,0
1583423313.340,109.375,48.340,9.277,79.590,57.129,0
1583423313.343,83.008,47.852,18.555,93.262,23.438,0
1583423313.347,64.941,32.227,25.391,100.586,45.410,0
1583423313.351,80.078,35.645,31.250,115.723,45.410,0
1583423313.355,58.594,46.875,33.203,160.645,32.715,0
1583423313.359,69.336,41.504,28.809,166.992,82.031,0
1583423313.376,85.938,37.109,30.273,147.949,63.965,0
1583423313.380,88.867,41.992,32.227,131.836,19.043,0
1583423313.384,98.633,43.457,34.180,135.742,54.688,0
1583423313.388,50.781,45.410,33.203,186.523,61.523,0
1583423313.392,23.926,46.387,32.715,206.543,61.523,0
1583423313.396,38.086,51.270,34.180,174.316,98.145,0
1583423313.400,41.504,46.387,34.668,166.016,149.902,0
1583423313.403,40.039,44.434,36.621,187.500,89.355,0
1583423313.407,86.426,62.012,31.250,188.477,89.355,0
1583423313.411,129.395,63.477,27.832,160.156,103.516,0
1583423313.415,138.184,49.805,34.180,165.039,51.270,0
1583423313.419,155.273,50.781,30.762,174.316,83.496,0
1583423313.417,196.777,57.617,25.879,161.621,97.656,0
1583423313.421,264.160,61.523,27.832,172.363,91.797,0
1583423313.425,226.074,57.617,32.227,146.484,105.469,0
1583423313.429,193.359,49.316,36.133,126.953,93.750,0
1583423313.433,189.941,42.969,39.062,171.387,109.863,0
1583423313.437,197.266,41.016,33.691,174.805,168.457,0
1583423313.441,229.492,27.344,33.691,168.457,150.391,0
1583423313.444,237.305,20.508,34.668,165.527,137.695,0
1583423313.448,236.328,39.062,34.668,181.152,210.938,0
1583423313.452,235.352,37.598,38.086,183.105,194.824,0
1583423313.456,251.953,34.668,36.133,166.016,176.270,0
1583423313.460,256.348,36.621,40.039,203.125,212.402,0
1583423313.456,232.422,29.297,41.992,180.176,214.844,0
1583423313.460,265.137,34.668,37.109,164.062,247.070,0
1583423313.464,295.410,28.809,33.691,168.945,239.746,0
1583423313.468,239.258,23.926,37.598,143.066,225.098,0
1583423313.472,243.652,32.227,37.598,159.180,255.371,0
1583423313.476,266.113,30.273,36.133,171.387,256.348,0
1583423313.480,246.094,31.738,32.715,166.992,240.234,0
1583423313.483,223.633,-17.090,30.762,138.672,260.254,0
1583423313.487,172.852,-134.277,35.156,119.629,244.141,0
1583423313.491,100.098,-198.730,34.668,119.629,232.422,0
1583423313.495,28.320,-216.797,30.762,93.750,258.301,0
1583423313.499,-39.551,-206.543,27.344,66.406,264.160,0
1583423313.516,-86.914,-166.504,24.414,19.043,241.211,0
1583423313.520,-185.059,-138.672,25.879,-28.320,208.984,0
1583423313.524,-258.301,-105.957,24.414,-62.012,193.848,0
1583423313.528,-320.312,-82.031,21.973,-123.047,182.129,0
1583423313.532,-365.723,-69.824,22.461,-200.195,141.113,0
1583423313.536,-405.762,-65.430,25.879,-231.445,113.281,0
1583423313.540,-461.426,-62.012,32.715,-228.516,71.289,0
1583423313.543,-434.570,-45.898,27.344,-231.934,20.020,0
1583423313.547,-445.801,-44.922,27.832,-256.836,-3.418,0
1583423313.551,-510.742,-40.527,18.066,-312.500,-40.527,0
1583423313.555,-497.070,-33.203,2.441,-317.871,-73.242,0
1583423313.559,-466.797,-35.156,3.418,-281.738,-92.285,0
1583423313.556,-374.512,-56.152,4.395,-233.887,-70.801,0
1583423313.560,-294.434,-71.289,4.395,-211.914,-45.410,0
1583423313.564,-222.656,-44.434,10.254,-122.559,-18.066,0
1583423313.568,-129.883,-9.766,11.230,-29.785,22.461,0
