timestamps,TP9,AF7,AF8,TP10,Right AUX,Marker0
1583343792.908,21.484,40.039,37.109,27.832,23.926,0
1583343792.912,29.785,37.109,33.691,25.879,23.438,0
1583343792.916,29.785,35.156,35.156,31.738,49.805,0
1583343792.920,22.461,35.156,37.598,36.133,16.602,0
1583343792.924,22.949,39.062,40.039,41.016,6.348,0
1583343792.928,33.203,40.527,41.504,40.039,11.719,0
1583343792.932,33.691,39.551,41.992,36.621,12.207,0
1583343792.935,27.832,41.016,40.527,34.668,-4.395,0
1583343792.939,26.367,41.016,38.574,27.344,-28.320,0
1583343792.943,29.297,38.574,38.086,30.762,15.137,0
1583343792.947,35.156,39.062,40.039,28.809,21.973,0
1583343792.951,33.691,40.039,42.480,27.344,-8.789,0
1583343792.949,21.973,39.062,41.504,34.180,59.082,0
1583343792.953,29.297,40.039,39.551,28.320,50.293,0
1583343792.957,42.969,41.016,39.062,31.250,23.438,0
1583343792.961,37.598,41.504,36.133,37.109,-8.301,0
1583343792.965,30.762,42.480,35.645,33.203,24.902,0
1583343792.969,33.203,40.527,35.156,31.738,87.402,0
1583343792.973,44.922,38.086,30.762,31.738,50.293,0
1583343792.976,41.504,36.621,28.320,33.203,73.730,0
1583343792.980,23.438,35.645,25.879,31.250,51.270,0
1583343792.984,21.484,32.715,24.902,27.344,0.977,0
1583343792.988,33.691,32.227,26.855,32.227,47.363,0
1583343792.992,36.133,36.133,30.273,30.273,76.660,0
1583343793.028,24.414,36.133,31.738,21.484,38.086,0
1583343793.032,20.020,32.715,31.250,18.555,45.898,0
1583343793.036,24.414,32.227,31.738,20.020,46.387,0
1583343793.040,30.762,33.691,30.762,26.855,28.320,0
1583343793.044,31.250,37.109,29.297,25.879,70.312,0
1583343793.048,22.949,38.574,30.762,23.438,94.727,0
1583343793.052,24.414,37.109,31.250,25.391,85.938,0
1583343793.055,38.086,36.133,29.785,21.973,50.781,0
1583343793.059,34.668,34.180,31.738,24.414,47.852,0
1583343793.063,20.508,33.203,31.250,22.949,58.594,0
1583343793.067,26.367,33.691,29.785,22.949,43.945,0
1583343793.071,43.945,37.109,28.320,35.645,19.043,0
1583343793.050,45.410,37.598,27.832,37.109,4.395,0
1583343793.054,30.762,37.109,29.785,30.273,46.875,0
1583343793.058,32.715,38.086,32.227,32.227,56.152,0
1583343793.062,48.340,39.551,31.738,33.203,13.184,0
1583343793.066,50.781,38.086,32.227,35.156,28.320,0
1583343793.070,32.227,36.621,37.109,33.691,15.137,0
1583343793.074,21.484,37.598,37.598,27.832,44.922,0
1583343793.077,28.809,36.133,40.039,24.902,48.340,0
1583343793.081,32.715,32.715,42.480,25.879,13.672,0
1583343793.085,21.484,33.203,41.992,22.949,21.484,0
1583343793.089,13.672,35.156,42.969,19.043,28.320,0
1583343793.093,20.996,35.156,43.457,22.461,41.504,0
1583343793.089,31.250,36.133,39.551,27.344,26.367,0
1583343793.093,32.715,37.109,38.086,24.902,16.602,0
1583343793.097,20.508,38.574,42.480,20.996,-45.410,0
1583343793.101,18.066,37.598,41.504,15.137,7.812,0
1583343793.105,32.715,36.133,37.109,19.531,77.637,0
1583343793.109,36.133,39.551,39.551,29.297,25.391,0
1583343793.113,24.414,40.527,41.016,31.250,15.137,0
1583343793.116,22.461,37.598,43.457,32.227,40.039,0
1583343793.120,31.738,37.109,42.480,28.809,84.473,0
1583343793.124,39.551,36.133,38.086,28.809,56.641,0
1583343793.128,30.762,35.156,42.480,35.645,71.289,0
1583343793.132,19.531,36.133,46.387,43.945,39.062,0
1583343793.149,27.832,36.621,43.457,41.992,-16.602,0
1583343793.153,32.715,36.133,41.992,27.832,12.207,0
1583343793.157,25.879,35.156,40.039,19.043,49.805,0
1583343793.161,21.973,37.109,37.598,19.043,49.805,0
1583343793.165,29.297,37.598,38.574,24.414,10.742,0
1583343793.169,40.039,37.598,41.016,30.273,17.090,0
1583343793.173,39.062,37.598,41.992,20.996,-5.371,0
1583343793.176,31.738,37.109,39.062,16.602,19.043,0
1583343793.180,34.180,39.062,36.133,24.414,62.500,0
1583343793.184,42.480,37.109,38.574,28.320,87.891,0
1583343793.188,42.969,36.133,40.039,25.391,79.590,0
1583343793.192,28.320,35.156,39.062,23.438,-10.254,0
1583343793.189,17.090,36.133,38.574,20.996,-27.832,0
1583343793.193,27.344,38.574,38.086,20.996,-11.719,0
1583343793.197,36.621,37.598,37.598,29.297,-2.441,0
1583343793.201,26.855,35.156,37.598,29.785,13.672,0
1583343793.205,15.625,36.133,41.016,26.855,-5.859,0
1583343793.209,23.926,37.598,41.992,32.227,23.926,0
1583343793.213,39.551,37.109,42.969,36.133,30.273,0
1583343793.216,34.668,34.180,41.016,33.691,0.000,0
1583343793.220,20.508,33.691,38.574,34.668,14.648,0
1583343793.224,22.461,36.133,39.062,39.551,39.062,0
1583343793.228,37.109,37.109,40.527,41.504,74.219,0
1583343793.232,39.062,37.598,41.504,37.598,53.711,0
1583343793.228,26.367,37.109,42.480,33.691,29.297,0
1583343793.232,29.785,38.086,42.480,32.227,46.387,0
1583343793.236,39.062,39.551,36.621,31.738,56.641,0
1583343793.240,36.621,40.527,32.715,26.855,49.805,0
1583343793.244,27.344,42.969,32.715,29.785,4.883,0
1583343793.248,19.531,40.039,30.762,28.809,-2.930,0
1583343793.252,29.297,39.062,29.785,23.438,48.828,0
1583343793.255,35.645,40.039,29.785,27.832,45.410,0
1583343793.259,25.879,36.621,28.809,19.531,19.043,0
1583343793.263,20.996,36.621,30.273,17.090,-12.207,0
1583343793.267,26.855,40.039,33.691,21.484,-16.113,0
1583343793.271,34.180,36.133,32.715,15.625,30.762,0
1583343793.288,26.855,34.180,32.715,13.672,4.883,0
1583343793.292,13.672,34.180,34.668,15.137,-9.277,0
1583343793.296,19.043,34.180,34.180,17.578,1.953,0
1583343793.300,29.785,35.645,34.668,20.508,26.367,0
1583343793.304,29.297,36.621,36.133,15.137,40.527,0
1583343793.308,15.625,37.109,32.715,10.742,35.645,0
1583343793.312,11.230,37.109,29.785,7.324,25.391,0
1583343793.315,26.855,39.062,31.738,4.883,9.766,0
1583343793.319,36.133,38.574,30.762,13.672,59.082,0
1583343793.323,28.809,38.086,29.785,16.113,89.844,0
1583343793.327,21.484,38.086,31.738,20.020,60.059,0
1583343793.331,35.645,37.109,32.715,20.996,-9.766,0
1583343793.328,48.828,39.062,33.691,20.020,-9.766,0
1583343793.332,39.551,39.551,35.156,21.484,4.395,0
1583343793.336,29.785,36.133,37.109,19.043,90.332,0
1583343793.340,38.086,36.621,36.133,24.414,108.887,0
1583343793.344,51.758,38.574,34.180,25.391,13.672,0
1583343793.348,48.340,38.086,33.203,25.879,52.246,0
1583343793.352,35.645,37.598,35.156,27.344,36.133,0
1583343793.355,36.133,39.062,37.109,26.367,63.477,0
1583343793.359,45.898,40.527,36.621,26.855,118.652,0
1583343793.363,43.945,38.574,38.086,14.648,65.430,0
1583343793.367,29.785,39.062,34.668,7.324,32.715,0
1583343793.371,20.996,37.109,32.715,9.277,49.316,0
1583343793.368,32.715,35.156,36.133,15.625,96.191,0
1583343793.372,43.945,37.109,35.645,21.484,12.207,0
1583343793.376,33.691,37.109,33.691,14.160,20.020,0
1583343793.380,26.367,36.133,32.227,10.254,72.754,0
1583343793.384,31.738,39.062,33.691,16.602,10.742,0
1583343793.388,40.527,42.480,37.598,20.996,10.254,0
1583343793.392,37.109,41.016,36.133,27.832,27.344,0
1583343793.395,32.715,38.086,33.203,25.879,-6.348,0
1583343793.399,35.645,38.574,34.180,14.648,-43.945,0
1583343793.403,44.434,38.086,33.203,26.367,-2.930,0
1583343793.407,45.410,37.109,33.691,38.086,6.348,0
1583343793.411,34.180,38.086,35.156,30.762,16.113,0
1583343793.428,33.203,39.062,33.691,29.785,77.148,0
1583343793.432,46.875,41.504,33.203,39.062,53.711,0
1583343793.436,50.293,41.016,36.133,38.086,0.000,0
1583343793.440,37.598,40.527,37.109,32.227,-31.738,0
1583343793.444,31.738,42.480,35.156,29.297,6.348,0
1583343793.448,37.109,42.480,38.086,29.297,50.293,0
1583343793.452,41.504,41.504,33.691,29.297,3.906,0
1583343793.455,33.691,41.504,29.785,23.926,13.672,0
1583343793.459,22.461,42.969,33.203,19.043,62.012,0
1583343793.463,27.344,41.016,35.156,21.484,40.527,0
1583343793.467,31.250,36.133,38.574,23.926,19.531,0
1583343793.471,22.949,35.645,36.621,19.043,11.719,0
1583343793.488,10.742,35.645,31.738,18.555,20.996,0
1583343793.492,9.277,34.668,33.691,20.508,5.371,0
1583343793.496,25.879,37.109,34.668,21.973,27.832,0
1583343793.500,21.484,36.621,35.156,21.484,51.270,0
1583343793.504,8.789,33.203,35.645,17.090,54.199,0
1583343793.508,13.672,34.180,34.668,17.578,68.848,0
1583343793.512,20.996,33.691,34.668,20.020,-2.930,0
1583343793.515,28.320,32.227,34.668,22.949,-41.992,0
1583343793.519,25.879,34.180,34.668,25.391,15.625,0
1583343793.523,18.555,34.180,33.203,25.391,35.645,0
1583343793.527,27.344,33.691,32.227,30.273,48.828,0
1583343793.531,42.480,36.621,32.715,38.086,46.875,0
1583343793.510,34.668,37.598,37.598,35.156,50.781,0
1583343793.514,27.832,34.180,38.574,31.250,60.547,0
1583343793.518,38.574,34.668,37.109,32.227,48.340,0
1583343793.522,49.805,35.645,38.574,37.598,55.176,0
1583343793.526,43.457,35.645,37.109,38.086,76.172,0
1583343793.530,26.855,34.668,37.109,32.227,124.512,0
1583343793.534,28.320,35.645,36.133,33.203,78.613,0
1583343793.537,35.156,35.156,34.180,32.227,-8.301,0
1583343793.541,31.738,31.738,34.668,29.785,50.781,0
1583343793.545,24.902,34.180,32.227,25.391,35.645,0
1583343793.549,21.484,35.645,32.715,20.996,17.090,0
1583343793.553,30.762,34.668,34.180,21.973,69.824,0
1583343793.569,35.156,35.645,34.668,20.996,66.406,0
1583343793.573,23.438,36.621,33.691,20.020,85.938,0
1583343793.577,18.555,36.133,30.762,20.020,88.379,0
1583343793.581,22.949,35.645,29.785,19.531,22.949,0
1583343793.585,29.785,35.645,28.809,27.832,21.973,0
1583343793.589,21.973,37.109,33.691,30.762,26.367,0
1583343793.593,8.789,38.574,34.668,14.648,18.555,0
1583343793.596,19.531,38.574,34.180,11.719,16.602,0
1583343793.600,40.039,37.109,35.156,26.367,31.250,0
1583343793.604,36.133,39.062,35.645,21.484,34.180,0
1583343793.608,21.484,41.992,35.645,15.137,1.953,0
1583343793.612,20.020,40.039,35.156,21.973,11.719,0
1583343793.609,28.320,37.109,37.109,26.367,27.832,0
1583343793.613,30.273,37.598,38.574,20.508,47.852,0
1583343793.617,16.113,36.621,36.621,10.254,25.391,0
1583343793.621,13.184,35.156,35.156,16.113,20.020,0
1583343793.625,25.879,36.133,33.691,23.438,29.297,0
1583343793.629,35.645,37.109,29.785,25.879,20.020,0
1583343793.633,36.133,39.062,29.785,34.180,59.082,0
1583343793.636,17.578,35.156,37.109,24.414,73.730,0
1583343793.640,4.883,30.762,38.574,6.836,66.406,0
1583343793.644,13.672,31.738,38.574,7.324,-8.789,0
1583343793.648,14.160,31.738,39.062,9.766,-15.137,0
1583343793.652,-0.488,32.227,36.133,12.695,0.000,0
1583343793.650,0.488,33.203,36.133,13.672,-40.039,0
1583343793.654,10.254,31.250,37.109,10.254,-10.742,0
1583343793.658,8.301,28.809,36.133,5.859,26.367,0
1583343793.662,8.789,32.227,33.691,4.883,34.180,0
1583343793.666,12.695,32.715,32.715,13.184,75.195,0
1583343793.670,25.879,35.156,33.203,20.996,87.402,0
1583343793.674,38.574,40.039,31.250,26.367,96.680,0
1583343793.677,28.809,38.086,33.203,24.414,99.609,0
1583343793.681,21.484,34.668,34.180,22.461,-33.691,0
1583343793.685,35.156,36.133,31.250,33.691,-20.996,0
1583343793.689,40.527,39.062,31.250,35.645,62.012,0
1583343793.693,31.250,39.062,32.715,31.738,31.738,0
1583343793.709,24.902,40.039,35.645,21.484,56.152,0
1583343793.713,28.320,41.504,37.598,9.766,37.109,0
1583343793.717,41.992,40.039,39.062,13.184,4.395,0
1583343793.721,40.039,37.598,37.598,18.555,67.871,0
1583343793.725,24.414,37.598,36.133,14.160,77.148,0
1583343793.729,25.879,38.574,36.133,13.184,43.945,0
1583343793.733,42.480,41.016,33.203,10.254,15.625,0
1583343793.736,42.969,39.551,32.715,13.672,38.086,0
1583343793.740,32.227,39.551,34.180,16.602,23.438,0
1583343793.744,35.156,41.016,32.227,13.184,-4.883,0
1583343793.748,43.457,40.527,31.738,17.578,-20.020,0
1583343793.752,43.945,40.527,32.715,21.973,0.000,0
1583343793.749,33.203,39.551,33.691,20.508,28.320,0
1583343793.753,24.902,39.551,35.645,20.020,26.367,0
1583343793.757,31.738,40.039,38.574,19.531,2.441,0
1583343793.761,39.062,38.086,38.574,13.672,17.578,0
1583343793.765,30.273,37.109,39.062,10.254,48.828,0
1583343793.769,21.973,38.574,39.062,12.695,17.578,0
1583343793.773,27.344,38.086,39.062,15.137,61.035,0
1583343793.776,39.551,37.598,40.527,20.996,35.156,0
1583343793.780,39.062,36.133,42.480,24.902,-5.859,0
1583343793.784,22.949,35.156,41.992,14.648,28.320,0
1583343793.788,23.438,36.133,41.992,13.184,11.230,0
1583343793.792,35.645,37.109,38.086,15.625,9.277,0
1583343793.788,36.133,38.574,34.180,17.090,12.207,0
1583343793.792,24.414,39.551,35.156,12.207,12.695,0
1583343793.796,15.137,36.621,34.180,8.789,7.324,0
1583343793.800,24.414,35.645,36.621,13.184,34.668,0
1583343793.804,33.203,38.574,41.504,13.672,43.945,0
1583343793.808,28.809,38.574,41.016,19.043,38.086,0
1583343793.812,27.832,37.109,42.480,15.625,81.055,0
1583343793.815,36.133,39.062,44.434,10.742,25.391,0
1583343793.819,49.316,39.062,40.527,14.160,-28.809,0
1583343793.823,45.410,35.156,35.156,12.695,-20.020,0
1583343793.827,33.203,34.668,33.203,16.602,2.441,0
1583343793.831,36.133,35.645,32.227,20.996,26.855,0
1583343793.848,41.016,36.621,33.691,20.508,29.297,0
1583343793.852,32.715,38.574,36.133,18.555,88.379,0
1583343793.856,19.531,39.551,35.156,14.648,97.168,0
1583343793.860,20.996,42.480,33.691,13.672,49.805,0
1583343793.864,34.180,42.969,34.668,17.578,57.129,0
1583343793.868,34.180,42.480,35.156,20.508,84.961,0
1583343793.872,19.531,41.504,33.203,18.066,123.047,0
1583343793.875,19.043,39.551,32.715,21.973,47.852,0
1583343793.879,36.133,40.039,36.133,33.203,-57.129,0
1583343793.883,41.016,40.527,36.133,31.250,1.953,0
1583343793.887,24.414,41.504,34.180,22.949,26.367,0
1583343793.891,21.484,41.504,31.738,19.043,70.801,0
1583343793.890,38.574,43.457,26.855,32.715,110.352,0
1583343793.894,42.969,41.992,27.344,39.551,70.801,0
1583343793.898,36.133,42.969,30.273,31.738,41.992,0
1583343793.902,29.297,43.457,32.715,23.926,44.434,0
1583343793.906,32.715,40.039,33.203,19.531,41.504,0
1583343793.910,45.898,40.527,32.715,32.715,40.039,0
1583343793.914,47.363,40.039,32.227,41.504,65.430,0
1583343793.917,39.062,37.598,35.645,37.598,55.664,0
1583343793.921,37.109,40.039,39.551,40.039,3.418,0
1583343793.925,42.969,40.039,40.039,39.062,38.086,0
1583343793.929,45.898,39.062,39.551,37.598,39.551,0
1583343793.933,40.527,39.062,38.574,40.039,16.113,0
1583343793.929,38.574,38.574,38.574,36.133,22.461,0
1583343793.933,44.922,40.527,37.598,39.551,-1.953,0
1583343793.937,44.922,40.039,37.598,37.598,67.871,0
1583343793.941,30.762,38.086,35.156,30.273,58.105,0
1583343793.945,19.531,38.574,35.645,31.250,-55.176,0
1583343793.949,26.367,40.039,36.133,30.273,-38.086,0
1583343793.953,35.645,43.457,32.715,33.691,-14.648,0
1583343793.956,26.367,42.480,34.668,30.273,16.602,0
1583343793.960,18.066,43.457,33.691,16.113,40.527,0
1583343793.964,19.531,42.480,30.273,15.137,16.602,0
1583343793.968,25.879,42.480,32.715,25.879,-4.395,0
1583343793.972,33.203,44.434,33.203,26.367,-13.672,0
1583343793.988,25.879,45.410,30.762,15.137,62.500,0
1583343793.992,22.949,46.875,32.227,14.160,98.145,0
1583343793.996,41.992,49.316,32.715,28.320,57.129,0
1583343794.000,49.316,48.828,31.738,33.691,30.762,0
1583343794.004,35.156,44.922,33.203,29.785,44.434,0
1583343794.008,29.297,44.434,36.621,28.809,26.855,0
1583343794.012,43.457,45.410,36.621,29.297,34.668,0
1583343794.015,50.781,42.969,35.645,31.738,30.273,0
1583343794.019,42.480,42.480,34.668,32.227,50.781,0
1583343794.023,34.180,41.992,34.668,30.762,70.312,0
1583343794.027,36.133,39.062,32.715,24.902,99.609,0
1583343794.031,45.410,38.574,31.738,23.926,62.988,0
1583343794.028,41.504,38.574,33.691,31.738,-7.812,0
1583343794.032,30.273,40.039,32.715,27.832,29.785,0
1583343794.036,30.273,41.016,30.273,20.508,-10.254,0
1583343794.040,40.039,39.551,31.250,25.879,-21.484,0
1583343794.044,44.434,41.016,33.203,34.668,-9.277,0
1583343794.048,33.691,42.969,35.156,32.715,-15.137,0
1583343794.052,26.855,37.598,37.598,25.391,64.453,0
1583343794.055,38.086,36.133,38.086,26.855,55.664,0
1583343794.059,41.504,37.598,36.621,29.785,17.090,0
1583343794.063,29.297,35.645,37.109,21.484,7.324,0
1583343794.067,24.414,34.668,38.574,21.484,23.438,0
1583343794.071,31.738,36.133,40.039,31.250,67.383,0
1583343794.088,38.086,37.598,41.016,39.062,19.043,0
1583343794.092,30.273,38.086,42.480,35.156,31.250,0
1583343794.096,20.020,39.551,43.457,20.020,53.223,0
1583343794.100,21.484,39.062,40.527,21.484,-39.551,0
1583343794.104,30.273,41.504,40.527,27.832,2.441,0
1583343794.108,34.180,41.992,41.016,26.855,10.254,0
1583343794.112,22.461,38.086,41.504,25.391,-19.043,0
1583343794.115,18.066,37.598,40.039,18.555,57.129,0
1583343794.119,32.715,39.062,40.527,27.832,73.730,0
1583343794.123,39.062,38.574,44.434,39.062,70.801,0
1583343794.127,25.391,37.598,46.387,31.738,32.715,0
1583343794.131,20.508,39.062,44.922,26.855,-29.785,0
1583343794.129,33.691,40.039,43.457,32.227,-7.324,0
1583343794.133,39.062,38.574,45.898,30.273,-2.930,0
1583343794.137,31.738,38.086,45.410,24.414,24.414,0
1583343794.141,28.809,40.039,44.922,24.414,73.242,0
1583343794.145,36.133,40.527,45.898,30.762,65.430,0
1583343794.149,40.527,39.062,44.434,33.691,19.531,0
1583343794.153,31.738,38.086,40.039,21.484,-17.090,0
1583343794.156,18.555,39.551,41.504,16.602,30.273,0
1583343794.160,21.484,37.598,42.969,18.555,21.484,0
1583343794.164,31.250,36.621,43.457,23.438,72.754,0
1583343794.168,27.344,38.086,44.434,20.996,46.875,0
1583343794.172,16.113,36.621,41.992,16.602,-35.645,0
1583343794.168,16.602,37.598,41.016,18.066,-4.395,0
1583343794.172,26.855,40.527,42.969,20.508,40.527,0
1583343794.176,29.785,41.992,43.457,22.949,0.488,0
1583343794.180,20.020,41.992,41.016,12.695,13.672,0
1583343794.184,14.648,39.551,36.133,8.789,80.078,0
1583343794.188,29.785,40.527,35.645,23.926,33.691,0
1583343794.192,35.645,41.504,36.621,27.832,28.320,0
1583343794.195,22.461,40.039,36.133,18.066,99.121,0
1583343794.199,17.090,41.504,37.109,17.578,54.688,0
1583343794.203,29.297,43.457,35.645,20.508,54.688,0
1583343794.207,38.574,41.992,37.598,31.250,79.590,0
1583343794.211,33.691,40.039,38.574,34.668,57.617,0
1583343794.229,22.461,41.992,38.574,29.785,9.766,0
1583343794.233,21.973,41.992,37.598,26.855,8.301,0
1583343794.237,35.156,38.086,35.645,22.461,38.574,0
1583343794.241,36.133,40.039,37.109,27.344,34.180,0
1583343794.245,24.414,42.969,37.109,23.926,88.867,0
1583343794.249,22.461,41.992,35.645,21.484,76.172,0
1583343794.253,38.574,42.480,32.227,33.203,43.457,0
1583343794.256,52.734,43.945,30.762,36.133,83.984,0
1583343794.260,41.992,40.039,35.645,33.691,10.254,0
1583343794.264,19.531,37.109,41.016,19.531,-43.945,0
1583343794.268,20.020,36.621,41.504,18.555,20.996,0
1583343794.272,28.809,35.156,42.480,25.391,6.836,0
1583343794.269,25.391,35.156,41.016,24.902,-21.973,0
1583343794.273,20.020,35.156,40.527,20.996,42.480,0
1583343794.277,23.438,35.156,39.551,19.531,15.137,0
1583343794.281,30.273,34.668,40.039,22.949,33.203,0
1583343794.285,30.273,34.180,43.457,27.832,102.051,0
1583343794.289,21.973,34.180,43.457,35.156,33.203,0
1583343794.293,20.508,33.203,41.016,32.715,-29.785,0
1583343794.296,31.250,32.227,40.527,28.320,-1.465,0
1583343794.300,31.738,34.180,39.062,30.273,-12.695,0
1583343794.304,20.996,36.133,36.621,33.691,18.555,0
1583343794.308,18.066,36.621,37.598,28.320,79.590,0
1583343794.312,29.297,36.133,37.109,24.902,19.531,0
1583343794.308,39.551,37.598,35.156,28.809,-6.836,0
1583343794.312,28.809,37.598,33.691,20.020,52.246,0
1583343794.316,18.555,37.598,34.668,18.066,47.363,0
1583343794.320,23.926,36.621,35.645,27.832,18.555,0
1583343794.324,28.809,32.715,34.668,28.320,19.531,0
1583343794.328,25.391,32.715,33.691,22.461,55.176,0
1583343794.332,13.184,32.227,33.691,22.949,58.594,0
1583343794.335,12.695,30.762,33.691,31.738,2.930,0
1583343794.339,24.902,33.203,31.250,28.809,20.996,0
1583343794.343,22.949,33.691,32.715,25.879,5.371,0
1583343794.347,14.648,33.203,34.668,31.738,-10.742,0
1583343794.351,17.578,32.715,33.203,25.879,0.488,0
1583343794.368,27.832,31.250,32.227,32.715,-15.625,0
1583343794.372,27.344,30.762,33.691,39.551,31.738,0
1583343794.376,15.137,28.320,35.156,29.785,63.477,0
1583343794.380,14.160,31.250,35.156,27.344,20.996,0
1583343794.384,30.273,35.645,37.109,36.133,35.645,0
1583343794.388,41.016,33.203,39.551,42.480,51.270,0
1583343794.392,37.109,32.715,38.086,33.691,28.320,0
1583343794.395,33.691,34.180,36.621,26.855,-1.953,0
1583343794.399,39.062,35.645,36.133,27.344,-20.020,0
1583343794.403,43.457,35.156,36.621,32.715,13.672,0
1583343794.407,34.668,38.574,36.133,31.250,65.430,0
1583343794.411,21.973,42.480,37.109,29.785,55.664,0
1583343794.428,25.391,41.016,40.039,36.133,20.020,0
1583343794.432,36.133,40.039,37.598,34.180,50.293,0
1583343794.436,32.227,39.551,35.645,32.227,52.246,0
1583343794.440,20.020,40.527,36.621,28.809,15.137,0
1583343794.444,20.020,42.480,36.133,25.391,19.043,0
1583343794.448,29.297,41.992,36.133,29.297,24.902,0
1583343794.452,27.832,38.574,34.668,31.738,15.137,0
1583343794.455,18.555,37.109,35.156,32.227,40.527,0
1583343794.459,15.137,37.598,36.621,35.156,30.762,0
1583343794.463,20.996,39.062,36.133,35.156,-2.441,0
1583343794.467,28.809,38.086,33.691,30.273,-26.367,0
1583343794.471,22.461,37.598,35.645,27.832,-11.719,0
1583343794.469,11.719,35.645,39.062,25.391,32.715,0
1583343794.473,20.996,34.668,39.062,23.438,39.062,0
1583343794.477,35.156,37.598,41.016,29.785,56.641,0
1583343794.481,29.785,39.551,42.969,31.250,66.895,0
1583343794.485,18.555,38.574,42.480,29.785,13.672,0
1583343794.489,23.438,36.133,42.480,30.762,-17.578,0
1583343794.493,36.133,36.621,40.527,30.273,40.527,0
1583343794.496,34.668,36.621,39.062,28.809,62.988,0
1583343794.500,27.344,35.156,38.574,29.297,68.359,0
1583343794.504,29.785,35.645,36.621,26.855,88.867,0
1583343794.508,39.062,37.109,33.691,28.320,8.789,0
1583343794.512,42.480,34.180,28.809,30.273,6.348,0
1583343794.508,31.250,31.250,25.879,29.785,56.152,0
1583343794.512,19.043,31.250,25.879,32.715,40.527,0
1583343794.516,24.414,32.715,25.879,26.367,91.309,0
1583343794.520,30.273,32.715,29.297,26.367,81.543,0
1583343794.524,20.020,31.738,34.668,30.273,20.508,0
1583343794.528,14.160,32.227,35.156,26.367,8.301,0
1583343794.532,17.090,32.227,33.691,23.926,13.672,0
1583343794.535,23.438,32.227,33.203,24.902,41.992,0
1583343794.539,22.461,34.180,34.668,35.156,44.434,0
1583343794.543,12.207,34.180,35.645,35.645,38.086,0
1583343794.547,15.625,35.156,35.645,30.762,84.473,0
1583343794.551,28.809,36.133,37.109,33.203,31.738,0
1583343794.548,30.273,36.133,35.645,31.738,24.902,0
1583343794.552,23.438,37.109,35.156,30.273,53.223,0
1583343794.556,21.973,36.621,34.180,34.180,35.645,0
1583343794.560,28.809,35.156,31.250,35.645,43.457,0
1583343794.564,32.227,36.133,30.762,32.227,25.391,0
1583343794.568,24.902,38.086,31.738,29.297,40.039,0
1583343794.572,23.438,39.551,30.762,26.855,31.738,0
1583343794.575,33.691,42.480,29.785,31.250,-40.527,0
1583343794.579,41.992,40.527,31.250,37.598,-5.371,0
1583343794.583,37.109,36.133,33.203,40.527,91.797,0
1583343794.587,38.086,38.574,33.691,36.621,76.660,0
1583343794.591,40.039,43.945,31.738,32.227,53.711,0
1583343794.589,34.180,43.457,25.879,29.785,24.902,0
1583343794.593,38.086,42.969,25.391,32.715,-7.324,0
1583343794.597,33.691,42.480,28.320,35.156,22.461,0
1583343794.601,30.762,42.969,30.762,35.156,56.641,0
1583343794.605,36.621,42.969,35.645,34.180,55.176,0
1583343794.609,35.156,43.945,35.156,33.203,89.355,0
1583343794.613,35.156,45.410,31.738,35.156,101.074,0
1583343794.616,33.691,42.480,29.297,36.621,73.242,0
1583343794.620,37.598,42.480,28.320,28.809,65.430,0
1583343794.624,45.898,43.945,31.738,25.879,45.898,0
1583343794.628,33.203,41.504,31.250,27.344,44.922,0
1583343794.632,24.902,41.504,28.320,25.391,30.762,0
1583343794.648,40.039,41.504,32.227,33.203,58.594,0
1583343794.652,51.270,39.062,33.691,40.527,68.359,0
1583343794.656,46.387,39.551,33.691,42.480,-14.160,0
1583343794.660,39.551,39.062,35.156,43.457,10.742,0
1583343794.664,39.551,39.062,34.180,40.527,46.387,0
1583343794.668,46.875,39.551,35.645,37.109,33.691,0
1583343794.672,45.410,39.551,36.621,26.367,72.266,0
1583343794.675,28.809,39.062,35.156,16.113,47.852,0
1583343794.679,27.832,37.598,35.156,22.949,-4.395,0
1583343794.683,37.598,37.109,36.133,25.391,-43.457,0
1583343794.687,38.574,36.133,36.133,22.949,31.250,0
1583343794.691,28.320,34.180,34.668,22.949,83.984,0
1583343794.688,21.973,36.621,33.203,23.926,37.109,0
1583343794.692,30.273,37.109,30.273,25.879,5.371,0
1583343794.696,40.039,37.598,29.297,30.762,17.090,0
1583343794.700,36.621,38.574,32.227,33.203,16.113,0
1583343794.704,30.273,36.133,34.668,27.832,32.227,0
1583343794.708,39.062,34.668,34.668,32.715,25.879,0
1583343794.712,53.223,35.156,34.668,39.062,2.441,0
1583343794.715,48.340,34.668,36.621,35.645,8.789,0
1583343794.719,41.016,38.574,37.109,38.086,10.742,0
1583343794.723,44.434,41.992,36.621,40.527,4.395,0
1583343794.727,63.965,41.992,32.227,48.828,-4.883,0
1583343794.731,63.965,39.551,34.668,50.781,48.828,0
1583343794.728,25.879,34.668,41.016,28.320,43.457,0
1583343794.732,14.648,33.691,41.504,23.926,17.578,0
1583343794.736,30.273,34.180,41.992,27.832,7.812,0
1583343794.740,29.297,33.691,39.551,20.996,-5.859,0
1583343794.744,17.090,32.715,38.086,16.602,4.883,0
1583343794.748,8.789,32.715,36.621,14.648,-7.812,0
1583343794.752,12.207,34.180,33.203,14.648,-49.805,0
1583343794.755,19.043,35.645,34.668,16.602,32.227,0
1583343794.759,13.184,36.621,40.039,15.625,29.297,0
1583343794.763,9.277,39.551,39.062,15.625,14.648,0
1583343794.767,18.555,42.969,39.062,22.949,62.012,0
1583343794.771,29.785,41.992,40.039,29.297,29.785,0
1583343794.788,25.879,41.016,38.086,24.902,-12.207,0
1583343794.792,11.230,41.016,37.109,17.090,2.441,0
1583343794.796,11.230,39.551,38.086,15.625,48.340,0
1583343794.800,25.879,38.086,38.086,23.926,48.828,0
1583343794.804,27.832,36.621,39.551,26.367,48.828,0
1583343794.808,20.996,38.086,40.039,23.926,70.312,0
1583343794.812,14.648,38.574,38.086,20.020,56.641,0
1583343794.815,23.438,36.621,34.180,25.879,37.109,0
1583343794.819,32.227,35.645,33.691,27.344,41.504,0
1583343794.823,25.879,36.621,31.738,25.391,71.289,0
1583343794.827,17.578,39.551,32.715,27.832,67.383,0
1583343794.831,23.926,39.062,34.668,26.855,40.527,0
1583343794.829,32.715,36.133,35.645,28.809,45.898,0
1583343794.833,24.414,36.133,39.062,31.738,74.219,0
1583343794.837,17.090,35.645,37.598,26.855,53.711,0
1583343794.841,24.902,35.645,34.668,22.949,-12.695,0
1583343794.845,32.715,36.133,36.133,29.297,20.020,0
1583343794.849,29.297,35.645,35.156,30.273,41.016,0
1583343794.853,21.973,35.645,32.715,23.926,-39.551,0
1583343794.856,19.531,33.691,34.668,24.902,-60.059,0
1583343794.860,27.344,34.180,37.109,35.156,-13.184,0
1583343794.864,31.738,36.133,39.062,38.086,-0.488,0
1583343794.868,22.949,35.645,39.551,28.320,30.762,0
1583343794.872,17.090,33.691,39.551,22.949,33.203,0
1583343794.868,30.273,34.180,36.621,22.949,7.324,0
1583343794.872,40.527,36.621,33.203,27.832,-8.301,0
1583343794.876,28.320,36.133,35.156,26.855,1.953,0
1583343794.880,21.484,36.621,31.738,21.973,3.906,0
1583343794.884,28.809,38.574,32.715,27.832,-16.113,0
1583343794.888,34.180,38.086,34.180,32.227,-3.906,0
1583343794.892,32.227,35.645,30.762,27.344,33.691,0
1583343794.895,20.996,35.645,33.203,31.250,39.062,0
1583343794.899,21.484,35.156,37.598,28.809,-13.672,0
1583343794.903,33.691,33.203,35.645,23.926,-15.625,0
1583343794.907,38.086,33.691,36.133,25.879,-12.695,0
1583343794.911,29.785,32.227,39.551,23.438,25.879,0
1583343794.929,21.484,31.738,38.086,27.832,69.336,0
1583343794.933,28.809,33.203,36.133,30.762,69.824,0
1583343794.937,34.180,32.227,33.691,27.344,58.594,0
1583343794.941,27.832,33.203,30.762,21.973,-32.715,0
1583343794.945,25.391,34.180,32.227,23.438,43.457,0
1583343794.949,31.738,35.156,35.645,30.762,59.082,0
1583343794.953,33.691,35.645,37.109,17.090,41.016,0
1583343794.956,27.832,35.156,37.109,15.137,96.191,0
1583343794.960,20.996,37.109,36.621,28.320,48.340,0
1583343794.964,23.438,36.133,36.133,33.691,102.051,0
1583343794.968,33.691,35.156,35.645,39.062,107.422,0
1583343794.972,31.250,35.645,37.109,33.203,35.156,0
1583343794.968,19.531,34.180,36.621,31.250,44.434,0
1583343794.972,21.484,34.668,36.621,34.668,37.598,0
1583343794.976,33.203,34.668,36.133,27.344,59.570,0
1583343794.980,30.762,33.203,32.715,22.949,29.785,0
1583343794.984,17.578,35.156,32.715,21.484,16.602,0
1583343794.988,14.160,35.156,32.227,22.461,-3.906,0
1583343794.992,27.832,33.203,30.762,25.879,-4.395,0
1583343794.995,36.133,33.203,33.203,28.809,24.414,0
1583343794.999,25.391,34.668,35.645,25.391,45.410,0
1583343795.003,17.578,34.668,36.133,13.184,75.684,0
1583343795.007,27.344,36.621,37.109,17.578,16.602,0
1583343795.011,34.668,37.598,35.156,27.832,50.293,0
1583343795.009,28.809,39.062,31.738,20.508,76.660,0
1583343795.013,23.438,39.551,34.180,21.484,18.066,0
1583343795.017,29.785,39.062,37.109,33.203,-0.488,0
1583343795.021,40.039,39.062,33.203,31.738,-3.906,0
1583343795.025,38.574,38.574,31.738,22.949,38.574,0
1583343795.029,27.832,41.016,34.180,18.555,45.898,0
1583343795.033,27.344,41.504,31.738,22.461,-19.043,0
1583343795.036,39.062,41.016,30.273,27.344,-28.320,0
1583343795.040,38.574,40.039,30.273,25.391,50.293,0
1583343795.044,31.738,39.551,30.273,23.438,73.242,0
1583343795.048,26.855,39.551,33.691,30.273,39.551,0
1583343795.052,37.109,39.551,34.180,41.016,40.527,0
1583343795.089,47.363,42.480,34.180,40.039,58.594,0
1583343795.093,36.133,41.992,32.715,35.156,78.613,0
1583343795.097,26.855,39.551,33.203,29.785,38.574,0
1583343795.101,33.691,37.109,36.133,32.715,2.930,0
1583343795.105,43.457,36.621,35.645,41.992,-37.598,0
1583343795.109,36.621,39.551,37.598,42.480,-9.766,0
1583343795.113,24.902,37.598,40.527,30.273,18.066,0
1583343795.116,28.809,33.691,40.039,26.855,45.898,0
1583343795.120,38.574,34.180,40.039,38.574,92.285,0
1583343795.124,39.551,34.180,40.527,41.016,57.617,0
1583343795.128,30.273,34.668,39.062,30.762,62.988,0
1583343795.132,26.855,35.156,37.598,23.438,22.949,0
1583343795.109,32.227,36.621,40.039,30.273,-33.691,0
1583343795.113,32.227,36.133,39.062,35.156,10.742,0
1583343795.117,22.461,32.715,39.062,27.344,62.988,0
1583343795.121,17.090,33.203,41.016,28.809,32.715,0
1583343795.125,26.855,32.715,42.480,34.668,13.184,0
1583343795.129,37.598,31.738,42.969,31.250,43.945,0
1583343795.133,32.227,37.109,38.086,26.367,54.688,0
1583343795.136,20.508,40.039,35.156,19.531,48.828,0
1583343795.140,25.879,38.574,34.668,17.090,115.234,0
1583343795.144,39.062,41.504,34.180,22.461,53.223,0
1583343795.148,34.668,40.527,36.621,25.391,17.578,0
1583343795.152,21.973,39.551,38.086,26.367,28.809,0
1583343795.169,29.785,40.039,36.621,28.809,29.297,0
1583343795.173,46.387,40.039,35.645,36.621,77.148,0
1583343795.177,46.387,41.016,39.062,35.156,40.527,0
1583343795.181,38.574,42.480,39.551,27.344,17.578,0
1583343795.185,41.016,42.969,36.621,34.180,11.230,0
1583343795.189,55.664,44.922,36.621,37.598,-17.090,0
1583343795.193,58.594,45.898,36.621,38.086,27.832,0
1583343795.196,41.504,44.922,36.621,28.320,60.059,0
1583343795.200,31.250,43.457,38.574,21.484,39.551,0
1583343795.204,38.574,42.480,39.551,32.227,48.828,0
1583343795.208,41.504,40.527,40.039,33.691,46.387,0
1583343795.212,29.297,39.551,39.551,31.738,55.176,0
1583343795.209,18.555,39.551,38.574,28.809,31.738,0
1583343795.213,20.508,38.574,41.016,30.762,-4.883,0
1583343795.217,31.250,39.551,41.016,34.180,-33.203,0
1583343795.221,29.785,41.504,39.062,32.715,25.391,0
1583343795.225,16.113,39.062,39.551,34.180,60.547,0
1583343795.229,16.602,39.062,40.527,29.785,48.340,0
1583343795.233,31.250,41.504,39.551,27.832,34.668,0
1583343795.236,36.621,42.969,39.062,34.180,34.180,0
1583343795.240,19.043,42.480,40.039,27.832,31.738,0
1583343795.244,13.672,41.504,41.016,21.484,81.055,0
1583343795.248,27.832,41.992,42.480,25.879,89.355,0
1583343795.252,34.668,43.945,42.969,25.391,31.250,0
1583343795.249,27.832,44.922,40.527,21.973,-48.340,0
1583343795.253,23.926,43.457,40.039,21.484,-13.672,0
1583343795.257,29.297,39.551,38.574,24.902,46.875,0
1583343795.261,35.156,38.574,37.109,22.949,64.941,0
1583343795.265,29.785,41.504,39.062,18.066,69.336,0
1583343795.269,15.137,43.457,41.016,17.090,30.273,0
1583343795.273,22.461,43.457,39.062,20.020,46.387,0
1583343795.276,36.621,41.992,36.621,25.391,22.461,0
1583343795.280,32.227,41.992,34.668,23.926,17.578,0
1583343795.284,22.461,40.039,36.621,15.137,41.504,0
1583343795.288,24.414,39.551,37.109,14.160,59.570,0
1583343795.292,32.715,40.527,35.645,20.508,45.898,0
1583343795.289,36.133,39.551,32.715,20.996,19.531,0
1583343795.293,29.785,37.598,33.691,18.555,35.645,0
1583343795.297,15.625,34.180,36.133,10.254,44.922,0
1583343795.301,15.137,30.762,37.598,3.906,-11.230,0
1583343795.305,23.438,28.809,42.969,4.395,-18.066,0
1583343795.309,16.113,30.273,45.410,6.348,31.250,0
1583343795.313,10.742,32.227,42.969,7.324,-2.441,0
1583343795.316,19.043,32.227,41.504,2.441,5.859,0
1583343795.320,31.250,30.762,41.016,2.930,48.828,0
1583343795.324,33.691,30.762,41.992,14.648,38.086,0
1583343795.328,24.902,32.715,41.992,17.090,6.348,0
1583343795.332,24.902,32.227,40.527,13.184,26.367,0
1583343795.349,35.645,32.227,40.039,18.066,47.363,0
1583343795.353,37.109,35.156,41.016,22.949,1.953,0
1583343795.357,26.855,35.645,43.457,18.066,42.969,0
1583343795.361,26.855,34.668,42.969,15.137,65.430,0
1583343795.365,38.574,34.668,41.504,16.113,20.020,0
1583343795.369,44.922,37.109,41.504,17.578,38.086,0
1583343795.373,34.668,37.598,42.969,16.602,18.066,0
1583343795.376,29.297,37.598,42.969,19.043,27.832,0
1583343795.380,43.457,40.527,41.504,28.320,71.289,0
1583343795.384,48.828,40.527,41.016,28.809,31.738,0
1583343795.388,39.551,40.039,40.039,19.531,11.230,0
1583343795.392,34.668,40.527,39.551,17.090,46.875,0
1583343795.389,40.039,38.574,39.062,19.043,14.648,0
1583343795.393,49.316,37.109,38.086,24.902,-3.418,0
1583343795.397,46.875,40.039,38.086,33.203,58.105,0
1583343795.401,35.156,41.992,39.551,23.438,66.406,0
1583343795.405,34.180,38.086,41.992,16.113,83.008,0
1583343795.409,46.387,36.133,41.016,22.461,54.199,0
1583343795.413,46.387,36.621,38.574,22.949,22.461,0
1583343795.416,35.156,37.109,38.574,19.531,25.879,0
1583343795.420,34.180,35.645,39.551,19.043,-28.809,0
1583343795.424,43.945,37.109,40.039,30.273,-33.203,0
1583343795.428,49.805,40.039,37.109,35.156,-10.742,0
1583343795.432,39.551,40.527,35.645,25.391,38.086,0
1583343795.429,28.809,39.062,34.668,18.555,36.133,0
1583343795.433,33.203,38.086,35.156,24.414,39.551,0
1583343795.437,36.621,38.086,37.598,29.297,70.801,0
1583343795.441,29.785,38.574,37.109,19.043,71.777,0
1583343795.445,18.555,37.598,35.645,13.672,89.355,0
1583343795.449,19.531,38.574,35.645,11.719,30.762,0
1583343795.453,27.344,38.574,37.109,16.602,-0.488,0
1583343795.456,23.438,35.645,38.086,17.578,-12.207,0
1583343795.460,13.184,34.668,34.668,8.789,-59.570,0
1583343795.464,19.043,35.156,32.227,15.625,-10.742,0
1583343795.468,37.109,35.645,32.715,22.461,42.480,0
1583343795.472,26.855,35.156,36.133,7.812,18.555,0
1583343795.489,2.930,34.180,35.645,-2.441,1.465,0
1583343795.493,3.906,32.715,36.133,-2.441,63.477,0
1583343795.497,15.137,31.250,36.133,3.906,58.105,0
1583343795.501,18.066,31.738,36.133,8.301,49.316,0
1583343795.505,12.207,31.250,39.062,15.137,80.566,0
1583343795.509,7.324,32.715,41.016,13.184,60.547,0
1583343795.513,16.113,32.715,39.551,8.301,20.020,0
1583343795.516,26.855,32.227,38.086,13.184,-4.395,0
1583343795.520,21.973,33.691,40.039,14.160,30.762,0
1583343795.524,15.137,32.227,40.527,10.254,41.016,0
1583343795.528,19.043,35.156,40.039,7.324,41.992,0
1583343795.532,27.344,36.133,39.062,12.695,-14.648,0
1583343795.530,27.832,32.227,40.527,20.020,-38.086,0
1583343795.534,18.555,33.691,42.969,17.090,58.105,0
1583343795.538,16.602,35.156,43.945,15.137,62.988,0
1583343795.542,25.391,35.156,45.410,20.996,32.227,0
1583343795.546,27.344,32.715,44.922,28.320,44.434,0
1583343795.550,11.719,30.273,46.387,18.066,56.641,0
1583343795.554,7.812,33.691,45.898,6.348,109.375,0
1583343795.557,17.578,35.156,44.434,12.207,69.824,0
1583343795.561,18.555,37.598,43.945,8.301,-16.602,0
1583343795.565,6.836,41.016,46.875,1.465,-14.160,0
1583343795.569,-6.348,46.387,47.852,-3.418,32.227,0
1583343795.573,-3.906,53.223,50.781,-15.625,38.574,0
1583343795.569,-2.930,55.664,54.199,-24.414,3.906,0
1583343795.573,-19.531,53.711,53.711,-31.250,35.156,0
1583343795.577,-40.039,54.199,57.617,-42.480,60.547,0
1583343795.581,-48.340,53.223,61.035,-48.828,44.434,0
1583343795.585,-44.922,52.246,66.895,-45.410,44.434,0
1583343795.589,-53.711,55.664,62.988,-50.293,62.988,0
1583343795.593,-73.730,56.641,55.176,-70.801,55.176,0
1583343795.596,-81.543,54.688,60.547,-89.844,-10.742,0
1583343795.600,-76.660,54.688,62.988,-91.309,49.805,0
1583343795.604,-80.566,56.641,61.523,-91.797,79.590,0
1583343795.608,-101.074,54.688,58.594,-104.004,17.090,0
1583343795.612,-116.699,54.688,61.523,-122.070,32.227,0
1583343795.629,-117.188,55.664,66.406,-130.371,41.504,0
1583343795.633,-111.816,52.734,63.477,-131.348,-2.441,0
1583343795.637,-117.676,52.734,64.941,-129.883,-29.297,0
1583343795.641,-131.836,53.711,67.871,-139.160,50.781,0
1583343795.645,-138.184,53.223,67.383,-148.926,67.383,0
1583343795.649,-132.324,54.688,66.406,-152.344,-4.883,0
1583343795.653,-130.859,55.664,62.500,-160.156,20.020,0
1583343795.656,-137.695,55.176,58.594,-153.809,-16.602,0
1583343795.660,-130.859,55.176,57.129,-139.160,-26.855,0
1583343795.664,-114.258,54.199,59.082,-128.418,52.246,0
1583343795.668,-114.746,52.246,61.523,-129.883,11.230,0
1583343795.672,-117.676,47.363,60.547,-125.000,9.277,0
1583343795.689,-105.957,45.898,60.059,-113.770,86.914,0
1583343795.693,-83.984,47.363,58.105,-104.492,74.219,0
1583343795.697,-69.824,45.410,52.246,-87.402,61.523,0
1583343795.701,-65.918,45.410,47.363,-70.801,10.254,0
1583343795.705,-61.035,43.945,47.363,-56.152,6.348,0
1583343795.709,-46.387,40.527,47.363,-45.410,16.113,0
1583343795.713,-21.484,38.574,41.992,-32.227,35.645,0
1583343795.716,-8.789,38.086,38.086,-28.320,68.848,0
1583343795.720,-10.742,41.016,35.645,-14.648,24.902,0
1583343795.724,2.930,39.551,28.320,1.953,45.410,0
1583343795.728,20.996,34.668,27.832,5.859,76.172,0
1583343795.732,23.438,34.180,33.691,17.090,50.293,0
1583343795.712,26.855,33.691,31.738,25.391,42.969,0
1583343795.716,38.086,32.715,27.344,34.668,50.781,0
1583343795.720,57.129,28.809,25.879,45.410,35.156,0
1583343795.724,68.848,25.879,27.344,62.012,43.457,0
1583343795.728,67.383,26.367,28.320,71.777,78.125,0
1583343795.732,76.172,25.879,24.902,66.895,46.387,0
1583343795.736,89.844,22.949,24.902,76.660,9.766,0
1583343795.739,97.656,19.531,24.902,88.379,39.062,0
1583343795.743,98.145,20.020,20.508,89.844,18.555,0
1583343795.747,96.191,21.484,15.625,99.121,1.953,0
1583343795.751,103.516,21.484,17.578,101.074,14.648,0
1583343795.755,113.770,20.996,22.461,100.586,-20.020,0
1583343795.769,109.863,23.438,22.461,111.816,-17.578,0
1583343795.773,103.516,23.926,22.949,115.234,-19.531,0
1583343795.777,114.258,24.414,24.414,114.746,-38.574,0
1583343795.781,128.906,26.855,23.438,118.164,-32.227,0
1583343795.785,125.977,26.367,23.926,120.605,3.906,0
1583343795.789,111.328,27.344,24.414,114.258,13.672,0
1583343795.793,112.305,28.809,21.484,113.281,25.879,0
1583343795.796,124.023,28.809,21.973,131.348,68.848,0
1583343795.800,125.977,31.250,23.438,131.348,29.785,0
1583343795.804,110.840,30.762,24.414,109.375,-20.508,0
1583343795.808,103.027,32.227,25.391,113.770,14.160,0
1583343795.812,115.723,32.715,22.949,123.535,24.902,0
1583343795.829,121.094,32.715,21.973,106.445,1.953,0
1583343795.833,112.305,33.691,22.949,101.562,12.695,0
1583343795.837,102.539,31.738,22.461,102.539,18.066,0
1583343795.841,99.121,28.320,21.973,103.516,8.789,0
1583343795.845,102.051,25.879,20.020,113.770,31.738,0
1583343795.849,93.750,25.391,18.555,112.305,56.152,0
1583343795.853,86.426,26.855,19.531,103.516,28.809,0
1583343795.856,89.844,29.297,20.508,104.980,48.340,0
1583343795.860,92.773,31.250,20.996,98.633,106.934,0
1583343795.864,92.773,29.785,20.020,86.914,137.207,0
1583343795.868,88.379,31.250,19.043,86.426,110.840,0
1583343795.872,86.426,34.180,20.020,91.309,30.762,0
1583343795.869,94.238,33.691,17.578,95.703,-8.301,0
1583343795.873,93.262,34.180,17.578,97.656,-2.441,0
1583343795.877,81.055,32.715,21.973,93.750,49.805,0
1583343795.881,78.125,31.250,21.973,96.680,45.898,0
1583343795.885,87.402,33.203,24.414,96.680,-25.391,0
1583343795.889,93.262,33.691,26.855,89.844,8.301,0
1583343795.893,84.961,35.645,27.832,95.703,66.406,0
1583343795.896,78.125,36.621,28.809,93.750,62.012,0
1583343795.900,84.961,35.156,29.297,83.496,34.180,0
1583343795.904,92.773,34.668,28.809,85.938,63.477,0
1583343795.908,85.938,35.156,27.344,88.379,46.387,0
1583343795.912,70.312,37.598,28.809,79.590,-20.020,0
1583343795.909,63.965,36.133,30.273,69.824,38.574,0
1583343795.913,71.777,34.180,26.367,78.125,47.852,0
1583343795.917,67.871,34.668,24.902,72.266,56.641,0
1583343795.921,53.223,33.203,26.855,59.570,75.195,0
1583343795.925,52.246,33.691,26.855,67.871,36.621,0
1583343795.929,61.035,35.156,30.762,69.824,19.531,0
1583343795.933,57.129,34.180,33.691,66.406,-50.293,0
1583343795.936,45.898,33.691,29.297,64.941,-14.160,0
1583343795.940,39.551,34.668,28.809,57.617,72.266,0
1583343795.944,45.898,34.668,31.250,49.805,38.574,0
1583343795.948,50.293,34.668,32.715,54.688,37.109,0
1583343795.952,44.434,35.156,31.738,54.688,-28.809,0
1583343795.949,34.180,36.133,32.227,53.711,-50.781,0
1583343795.953,36.133,36.133,34.180,53.223,36.621,0
1583343795.957,46.875,36.133,33.691,52.734,41.016,0
1583343795.961,37.598,37.109,34.668,45.898,-5.371,0
1583343795.965,24.902,36.621,32.715,41.992,5.371,0
1583343795.969,20.996,36.621,32.227,44.922,42.480,0
1583343795.973,30.762,38.574,33.203,44.922,33.691,0
1583343795.976,41.992,39.062,34.180,52.246,37.598,0
1583343795.980,35.156,40.527,34.668,47.852,90.820,0
1583343795.984,30.762,41.016,34.668,36.621,45.410,0
1583343795.988,45.898,39.551,36.621,52.734,-2.930,0
1583343795.992,54.199,39.062,38.574,58.105,0.488,0
1583343796.009,42.969,39.551,35.645,48.340,33.691,0
1583343796.013,35.156,41.504,34.668,38.574,46.875,0
1583343796.017,39.551,43.457,35.645,36.621,67.383,0
1583343796.021,43.945,42.969,35.156,43.457,58.105,0
1583343796.025,38.574,43.945,38.574,42.969,-10.254,0
1583343796.029,27.344,44.434,39.062,41.992,-7.324,0
1583343796.033,35.156,41.016,35.156,40.039,-14.160,0
1583343796.036,44.922,39.062,32.715,31.250,-24.902,0
1583343796.040,40.527,39.062,31.250,37.598,-38.086,0
1583343796.044,36.621,41.992,32.715,44.434,-5.859,0
1583343796.048,34.668,40.527,33.203,40.039,53.223,0
1583343796.052,41.992,40.039,34.668,35.645,24.414,0
1583343796.049,45.898,40.527,34.180,39.551,-5.371,0
1583343796.053,37.598,39.062,33.691,38.574,18.555,0
1583343796.057,33.203,39.062,36.133,28.809,35.645,0
1583343796.061,40.527,36.621,38.086,29.297,14.648,0
1583343796.065,41.992,36.133,40.527,25.879,12.695,0
1583343796.069,33.691,39.062,39.551,28.809,53.711,0
1583343796.073,31.250,37.598,40.039,37.109,74.219,0
1583343796.076,36.621,35.645,41.992,33.691,5.859,0
1583343796.080,47.363,36.133,38.086,22.949,-15.137,0
1583343796.084,43.457,35.156,36.621,22.949,17.090,0
1583343796.088,30.273,35.156,37.598,24.414,-26.367,0
1583343796.092,33.203,35.645,36.133,29.297,-9.766,0
1583343796.089,43.457,35.645,37.109,39.062,41.992,0
1583343796.093,41.016,36.621,35.645,40.039,35.156,0
1583343796.097,27.344,37.598,33.203,32.227,-6.348,0
1583343796.101,24.902,37.598,31.250,26.855,59.570,0
1583343796.105,34.668,35.156,30.762,30.273,86.426,0
1583343796.109,38.574,35.156,31.738,32.227,19.043,0
1583343796.113,31.250,36.621,31.738,22.949,60.547,0
1583343796.116,23.438,37.598,33.203,19.531,70.312,0
1583343796.120,28.320,36.133,33.203,24.902,37.109,0
1583343796.124,36.133,37.109,33.691,30.273,39.551,0
1583343796.128,31.738,37.598,36.621,34.180,57.129,0
1583343796.132,22.949,38.086,38.086,23.926,70.312,0
1583343796.149,29.297,37.598,36.621,28.809,37.598,0
1583343796.153,34.180,34.180,36.133,32.715,16.113,0
1583343796.157,28.809,33.691,38.574,25.879,-10.254,0
1583343796.161,15.137,33.203,38.086,30.273,-26.855,0
1583343796.165,14.160,38.086,36.621,27.344,12.207,0
1583343796.169,26.367,40.527,35.645,25.879,0.488,0
1583343796.173,21.484,35.645,35.645,20.508,57.617,0
1583343796.176,12.695,34.668,36.621,23.438,62.500,0
1583343796.180,14.648,37.109,35.645,33.203,-19.531,0
1583343796.184,27.344,35.156,34.180,32.227,14.160,0
1583343796.188,31.250,31.738,33.691,28.809,-4.395,0
1583343796.192,18.555,31.738,32.227,23.438,22.461,0
1583343796.189,12.695,32.715,34.668,17.578,67.383,0
1583343796.193,21.484,31.738,34.180,22.461,48.828,0
1583343796.197,27.832,33.691,34.180,29.785,80.566,0
1583343796.201,21.484,34.180,32.227,31.738,97.656,0
1583343796.205,13.672,34.668,28.320,22.461,66.895,0
1583343796.209,22.949,35.645,29.297,19.531,20.508,0
1583343796.213,38.086,35.645,30.273,29.785,53.223,0
1583343796.216,32.715,35.645,31.250,26.367,55.664,0
1583343796.220,24.902,36.133,28.809,22.949,-1.465,0
1583343796.224,25.879,36.621,28.320,27.344,-8.301,0
1583343796.228,34.180,35.156,29.297,30.762,-18.555,0
1583343796.232,38.086,34.668,30.273,28.809,-19.043,0
1583343796.229,21.484,35.645,32.715,24.902,55.176,0
1583343796.233,14.648,37.109,31.738,26.855,31.250,0
1583343796.237,26.367,37.598,29.785,30.762,-5.859,0
1583343796.241,33.203,35.645,31.738,27.832,37.598,0
1583343796.245,27.832,34.180,34.180,22.949,27.832,0
1583343796.249,20.508,34.668,33.203,27.344,46.387,0
1583343796.253,28.320,35.645,32.715,35.645,70.801,0
1583343796.256,34.668,35.645,33.203,35.645,47.852,0
1583343796.260,26.367,36.133,36.133,31.250,23.438,0
1583343796.264,17.578,37.109,35.156,21.484,-11.719,0
1583343796.268,26.855,35.645,33.691,19.531,11.230,0
1583343796.272,42.480,37.109,37.109,32.227,52.246,0
1583343796.289,34.180,36.621,41.016,36.621,20.996,0
1583343796.293,12.695,32.715,41.504,27.344,15.625,0
1583343796.297,18.066,31.250,37.598,18.555,44.434,0
1583343796.301,25.391,33.203,34.180,22.461,22.461,0
1583343796.305,21.973,34.668,33.691,23.438,4.395,0
1583343796.309,15.137,34.668,36.621,28.809,39.551,0
1583343796.313,10.742,34.180,39.551,26.855,86.426,0
1583343796.316,21.973,32.715,36.621,12.695,77.637,0
1583343796.320,27.344,30.273,35.156,15.625,40.039,0
1583343796.324,23.438,30.273,35.645,22.949,43.457,0
1583343796.328,23.438,32.227,37.598,28.809,59.570,0
1583343796.332,24.902,31.738,36.621,25.879,23.926,0
1583343796.329,32.227,32.227,34.668,25.391,30.762,0
1583343796.333,31.738,35.156,35.645,28.809,39.551,0
1583343796.337,23.926,34.668,34.180,31.738,38.086,0
1583343796.341,30.273,37.109,31.250,37.598,104.980,0
1583343796.345,43.457,40.527,29.785,34.180,93.750,0
1583343796.349,35.156,38.574,28.809,29.297,54.688,0
1583343796.353,20.020,35.645,31.738,29.785,30.762,0
1583343796.356,20.020,34.668,35.645,30.762,24.902,0
1583343796.360,28.809,36.133,36.133,23.438,7.812,0
1583343796.364,27.344,35.156,39.062,15.625,5.859,0
1583343796.368,13.672,29.785,40.527,14.160,44.434,0
1583343796.372,8.301,27.832,36.621,13.672,31.250,0
1583343796.369,20.508,30.762,37.109,19.043,-6.836,0
1583343796.373,33.691,31.250,38.574,26.855,20.996,0
1583343796.377,26.855,33.203,37.109,24.414,15.625,0
1583343796.381,20.020,36.133,37.598,25.391,14.648,0
1583343796.385,25.879,33.691,36.133,30.762,43.457,0
1583343796.389,35.645,33.691,32.715,40.039,66.406,0
1583343796.393,29.785,32.227,36.621,33.691,115.234,0
1583343796.396,18.555,29.785,41.992,23.926,68.359,0
1583343796.400,24.414,31.250,39.062,28.320,-5.859,0
1583343796.404,32.715,30.762,37.109,32.227,25.391,0
1583343796.408,27.832,31.738,40.039,33.203,-6.348,0
1583343796.412,15.625,30.762,41.016,28.809,0.000,0
1583343796.449,12.695,30.762,39.062,28.809,40.039,0
1583343796.453,25.879,32.715,34.668,29.785,13.672,0
1583343796.457,28.809,33.691,32.227,25.879,-17.090,0
1583343796.461,18.066,32.715,33.203,19.531,11.719,0
1583343796.465,14.160,31.250,32.715,14.648,29.785,0
1583343796.469,20.996,33.203,32.715,20.508,-14.648,0
1583343796.473,26.855,33.203,35.645,31.250,0.977,0
1583343796.476,23.926,33.203,33.691,22.461,29.785,0
1583343796.480,19.043,32.227,29.297,18.066,-7.324,0
1583343796.484,23.438,30.273,29.785,20.996,-17.090,0
1583343796.488,36.621,31.738,33.203,30.273,39.551,0
1583343796.492,33.691,33.203,34.668,30.273,38.574,0
1583343796.491,20.508,34.668,37.109,27.344,37.598,0
1583343796.495,20.508,36.621,36.621,32.227,29.297,0
1583343796.499,31.250,34.180,34.668,36.621,57.617,0
1583343796.503,30.273,32.227,34.668,41.504,86.914,0
1583343796.507,17.578,32.227,34.668,30.273,40.527,0
1583343796.511,15.625,31.738,33.691,19.043,21.973,0
1583343796.515,28.809,33.691,35.156,24.902,-13.672,0
1583343796.518,33.203,35.156,36.621,28.809,11.719,0
1583343796.522,24.414,36.133,40.039,27.344,30.273,0
1583343796.526,23.438,35.156,41.016,29.297,2.441,0
1583343796.530,31.738,34.668,40.039,26.367,52.734,0
1583343796.534,36.621,34.668,39.551,26.855,27.832,0
1583343796.529,29.785,36.133,35.156,26.855,1.465,0
1583343796.533,18.066,37.598,35.156,26.855,49.316,0
1583343796.537,20.996,37.109,38.086,25.879,96.191,0
1583343796.541,30.273,35.156,38.086,32.227,68.359,0
1583343796.545,31.738,34.668,39.551,42.969,29.297,0
1583343796.549,22.461,35.645,41.504,33.691,50.293,0
1583343796.553,23.926,34.668,43.457,27.832,8.301,0
1583343796.556,39.062,36.621,41.504,34.668,13.184,0
1583343796.560,39.062,36.621,38.574,29.785,36.621,0
1583343796.564,25.391,34.180,40.039,30.273,13.184,0
1583343796.568,22.461,35.645,40.039,33.203,28.320,0
1583343796.572,31.250,37.109,36.621,32.227,1.465,0
1583343796.569,37.598,38.086,35.156,27.344,42.480,0
1583343796.573,31.738,38.574,33.691,16.602,77.637,0
1583343796.577,25.879,38.086,32.715,19.531,37.598,0
1583343796.581,31.738,37.598,36.133,31.738,42.969,0
1583343796.585,41.016,39.062,37.598,37.598,10.254,0
1583343796.589,37.598,41.504,34.180,29.785,47.363,0
1583343796.593,24.414,41.016,34.668,13.184,100.586,0
1583343796.596,25.879,39.551,37.109,16.602,48.340,0
1583343796.600,37.598,37.598,35.156,27.832,15.625,0
1583343796.604,34.180,37.109,32.715,29.785,33.691,0
1583343796.608,19.531,37.598,31.250,25.879,20.996,0
1583343796.612,15.137,35.645,29.785,30.762,-13.184,0
1583343796.609,25.391,34.180,28.809,35.645,23.926,0
1583343796.613,33.203,32.715,30.762,28.809,29.297,0
1583343796.617,27.344,34.668,37.109,24.414,-6.348,0
1583343796.621,22.461,35.645,38.086,24.902,-10.742,0
1583343796.625,27.344,33.691,35.645,27.832,21.973,0
1583343796.629,34.180,33.691,36.133,31.738,41.016,0
1583343796.633,25.879,34.180,35.156,23.926,55.176,0
1583343796.636,18.066,34.180,36.133,21.973,91.797,0
1583343796.640,26.855,36.621,39.062,34.668,75.684,0
1583343796.644,38.086,40.039,38.086,34.180,84.473,0
1583343796.648,34.668,39.551,38.086,29.785,90.332,0
1583343796.652,23.438,37.109,38.086,32.227,6.836,0
1583343796.649,22.949,37.598,34.180,34.180,3.418,0
1583343796.653,28.809,36.133,35.645,36.621,65.430,0
1583343796.657,28.809,35.156,36.621,28.809,77.148,0
1583343796.661,20.508,35.156,34.668,18.555,91.309,0
1583343796.665,19.531,30.273,32.715,20.020,48.828,0
1583343796.669,30.762,30.273,33.203,24.902,-51.758,0
1583343796.673,36.133,31.738,36.133,23.438,-65.430,0
1583343796.676,29.785,31.738,34.668,20.508,-12.207,0
1583343796.680,23.438,34.180,32.227,16.602,24.414,0
1583343796.684,33.691,33.691,30.273,18.555,66.895,0
1583343796.688,43.945,33.203,29.785,26.367,64.941,0
1583343796.692,41.016,34.180,31.738,23.926,42.969,0
1583343796.709,30.762,35.156,32.715,20.020,29.785,0
1583343796.713,28.320,35.645,30.273,24.902,31.738,0
1583343796.717,36.621,38.086,27.832,35.156,-3.418,0
1583343796.721,33.203,38.574,32.227,30.273,-0.488,0
1583343796.725,20.020,38.086,37.109,29.785,28.809,0
1583343796.729,21.484,38.574,40.527,31.250,29.785,0
1583343796.733,35.645,40.527,39.062,22.461,39.062,0
1583343796.736,39.062,41.016,39.062,27.832,42.969,0
1583343796.740,26.855,39.551,39.551,34.180,42.969,0
1583343796.744,22.461,39.062,40.527,33.203,-12.695,0
1583343796.748,28.320,38.086,40.039,36.133,-41.016,0
1583343796.752,33.203,37.109,37.109,39.062,-2.441,0
1583343796.749,25.879,35.645,36.621,38.574,9.766,0
1583343796.753,17.578,36.621,37.598,29.297,49.805,0
1583343796.757,24.414,37.109,35.156,21.484,41.992,0
1583343796.761,30.273,37.109,33.691,28.809,44.434,0
1583343796.765,20.996,35.645,32.715,24.902,58.594,0
1583343796.769,9.277,34.668,32.715,19.043,23.926,0
1583343796.773,12.207,35.645,30.762,25.879,12.695,0
1583343796.776,20.508,35.645,28.320,21.973,47.852,0
1583343796.780,20.996,35.645,33.691,19.043,33.691,0
1583343796.784,16.602,35.156,36.621,20.508,7.812,0
1583343796.788,19.043,35.645,34.668,22.461,39.062,0
1583343796.792,28.320,37.598,35.156,31.738,83.496,0
1583343796.789,25.879,36.133,36.133,25.879,89.844,0
1583343796.793,16.113,36.133,36.133,21.484,64.453,0
1583343796.797,12.207,36.621,35.156,19.043,27.344,0
1583343796.801,20.020,35.645,34.180,11.230,23.926,0
1583343796.805,29.297,35.645,36.133,19.043,5.859,0
1583343796.809,19.531,37.598,37.109,34.668,-11.719,0
1583343796.813,11.719,38.574,36.133,34.668,52.246,0
1583343796.816,21.973,38.574,35.645,19.531,13.672,0
1583343796.820,33.203,38.574,37.598,16.602,23.438,0
1583343796.824,27.832,38.086,37.109,24.414,36.133,0
1583343796.828,17.578,36.621,37.109,34.180,44.434,0
1583343796.832,16.113,33.691,37.109,31.250,76.172,0
1583343796.849,29.297,33.203,36.621,31.738,63.477,0
1583343796.853,34.668,35.645,37.109,32.227,50.293,0
1583343796.857,21.973,35.645,37.598,25.391,16.113,0
1583343796.861,21.484,35.645,37.598,38.574,38.086,0
1583343796.865,35.156,37.598,35.156,42.969,28.809,0
1583343796.869,35.645,37.109,35.645,35.645,28.809,0
1583343796.873,27.344,36.133,35.645,29.785,78.613,0
1583343796.876,27.832,36.133,34.668,25.879,56.152,0
1583343796.880,35.645,36.621,36.133,35.156,24.902,0
1583343796.884,37.598,36.621,36.621,35.645,24.902,0
1583343796.888,31.738,38.574,34.668,32.227,51.758,0
1583343796.892,28.809,39.062,36.133,33.691,83.984,0
1583343796.889,36.133,37.109,35.156,36.133,55.664,0
1583343796.893,39.062,34.180,33.203,35.645,27.344,0
1583343796.897,30.762,32.715,34.668,37.109,15.625,0
1583343796.901,21.484,33.203,32.715,28.809,32.227,0
1583343796.905,22.461,33.691,30.273,21.973,47.852,0
1583343796.909,34.668,36.133,31.738,28.320,38.086,0
1583343796.913,37.109,34.668,30.762,33.691,34.180,0
1583343796.916,22.949,33.691,31.738,27.344,7.324,0
1583343796.920,16.602,34.180,33.691,18.555,2.930,0
1583343796.924,25.879,34.180,33.691,18.555,-18.066,0
1583343796.928,31.250,33.203,33.203,21.973,-6.836,0
1583343796.932,22.949,35.645,33.203,24.902,46.875,0
1583343796.929,17.090,37.598,33.691,26.855,25.391,0
1583343796.933,24.414,35.156,34.668,24.414,-8.301,0
1583343796.937,30.273,34.180,34.668,30.762,-20.020,0
1583343796.941,22.949,35.156,34.180,26.855,-9.277,0
1583343796.945,17.090,35.645,35.645,16.113,-11.719,0
1583343796.949,19.531,35.645,36.133,24.902,28.809,0
1583343796.953,29.297,37.598,33.203,31.738,46.387,0
1583343796.956,28.320,37.109,30.273,25.391,14.160,0
1583343796.960,15.625,34.668,32.715,23.438,-16.113,0
1583343796.964,16.113,34.668,38.574,30.762,-49.805,0
1583343796.968,26.855,36.133,38.574,34.180,-4.395,0
1583343796.972,32.227,37.598,36.621,29.785,34.668,0
1583343796.989,20.020,39.551,37.598,24.902,12.695,0
1583343796.993,14.160,37.109,37.598,22.461,-5.371,0
1583343796.997,26.855,34.668,36.621,21.973,-4.883,0
1583343797.001,36.133,36.133,35.645,23.438,17.090,0
1583343797.005,22.461,36.133,36.133,28.809,63.477,0
1583343797.009,9.766,32.715,38.574,25.391,46.875,0
1583343797.013,20.020,35.645,39.062,26.367,35.645,0
1583343797.016,31.250,37.109,37.598,27.832,59.082,0
1583343797.020,23.926,35.156,35.645,18.555,35.645,0
1583343797.024,17.578,35.156,34.668,14.648,-27.832,0
1583343797.028,18.555,36.133,36.133,21.484,16.113,0
1583343797.032,26.855,36.621,38.574,34.180,75.684,0
1583343797.029,29.785,34.668,40.039,36.621,69.336,0
1583343797.033,20.508,35.645,39.551,27.344,33.203,0
1583343797.037,18.555,37.598,39.551,20.996,46.875,0
1583343797.041,28.320,34.668,38.086,23.926,70.801,0
1583343797.045,35.156,35.645,34.668,24.414,76.660,0
1583343797.049,24.414,39.062,34.668,26.855,1.465,0
1583343797.053,18.066,37.109,35.645,28.320,-29.785,0
1583343797.056,28.809,34.180,36.133,32.227,25.879,0
1583343797.060,33.203,36.133,36.133,35.645,33.203,0
1583343797.064,21.484,38.086,34.668,20.020,19.043,0
1583343797.068,15.137,34.668,33.691,16.113,102.539,0
1583343797.072,22.949,35.156,35.645,29.785,91.797,0
1583343797.089,28.809,38.086,36.621,32.227,55.664,0
1583343797.093,25.391,38.574,35.645,31.738,94.727,0
1583343797.097,17.578,39.062,36.133,30.273,90.332,0
1583343797.101,21.484,40.039,35.156,23.438,63.477,0
1583343797.105,40.039,41.992,35.645,29.297,2.441,0
1583343797.109,40.039,40.527,36.133,31.738,43.457,0
1583343797.113,26.367,37.598,33.203,30.273,72.754,0
1583343797.116,23.438,36.621,34.668,25.391,51.270,0
1583343797.120,25.879,35.645,34.668,26.855,43.945,0
1583343797.124,31.250,34.668,30.762,32.715,-2.441,0
1583343797.128,27.344,33.203,29.785,30.273,26.855,0
1583343797.132,18.066,34.180,30.762,36.133,43.945,0
1583343797.129,24.902,34.180,33.203,29.297,58.105,0
1583343797.133,32.227,32.715,32.715,25.391,89.355,0
1583343797.137,26.855,35.645,31.738,27.344,63.477,0
1583343797.141,23.438,36.133,29.785,26.367,24.414,0
1583343797.145,18.066,31.738,35.156,18.066,73.242,0
1583343797.149,10.254,26.855,40.527,6.836,96.680,0
1583343797.153,10.742,26.367,40.039,16.113,43.457,0
1583343797.156,8.301,25.391,40.527,22.949,-28.809,0
1583343797.160,11.719,27.832,39.551,20.020,-1.953,0
1583343797.164,22.949,29.785,40.039,26.855,36.133,0
1583343797.168,22.949,29.297,42.480,22.949,22.461,0
1583343797.172,15.137,29.785,41.016,16.602,26.855,0
1583343797.189,18.066,28.809,38.574,21.973,-1.465,0
1583343797.193,32.715,29.785,36.621,24.414,17.090,0
1583343797.197,38.574,33.203,36.133,30.273,39.551,0
1583343797.201,30.762,34.180,41.016,31.738,43.457,0
1583343797.205,23.438,35.156,41.992,27.832,33.691,0
1583343797.209,25.879,36.621,41.016,28.809,62.988,0
1583343797.213,39.551,37.598,39.551,26.367,9.277,0
1583343797.216,34.180,35.156,40.039,25.879,-5.859,0
1583343797.220,13.672,33.203,41.992,20.508,81.055,0
1583343797.224,18.555,34.668,40.039,19.531,51.758,0
1583343797.228,33.691,33.691,40.039,29.297,6.348,0
1583343797.232,28.809,33.203,41.016,32.227,22.949,0
1583343797.229,21.484,33.203,41.016,28.809,24.414,0
1583343797.233,23.926,34.180,37.598,28.320,20.020,0
1583343797.237,35.156,34.180,36.621,33.691,25.879,0
1583343797.241,42.480,34.180,41.016,31.250,10.742,0
1583343797.245,33.691,36.133,40.527,22.949,38.086,0
1583343797.249,28.809,36.621,41.992,33.691,71.777,0
1583343797.253,39.551,36.133,42.969,43.945,46.875,0
1583343797.256,43.457,32.715,38.086,34.668,71.777,0
1583343797.260,31.738,32.715,37.109,29.785,127.441,0
1583343797.264,20.508,34.180,37.598,30.273,95.703,0
1583343797.268,23.438,33.691,36.621,37.598,55.664,0
1583343797.272,36.621,34.180,31.738,34.180,57.617,0
1583343797.269,33.691,35.156,32.715,23.926,42.480,0
1583343797.273,21.973,35.156,33.203,19.043,7.324,0
1583343797.277,21.484,34.180,29.785,20.020,-30.762,0
1583343797.281,31.250,36.133,33.203,29.785,-12.695,0
1583343797.285,27.344,35.645,35.645,29.297,38.086,0
1583343797.289,14.648,34.180,34.180,25.879,31.250,0
1583343797.293,18.066,37.109,30.762,31.738,-10.254,0
1583343797.296,23.438,36.133,29.297,33.203,-37.109,0
1583343797.300,20.508,33.203,29.785,28.809,32.227,0
1583343797.304,13.184,34.180,30.273,15.137,51.758,0
1583343797.308,13.672,37.109,30.762,3.418,34.668,0
1583343797.312,26.855,36.133,28.809,13.672,44.434,0
1583343797.311,31.250,35.156,30.273,26.367,8.301,0
1583343797.315,21.484,33.203,30.762,25.879,53.711,0
1583343797.319,18.555,35.156,28.809,24.902,50.781,0
1583343797.323,24.414,37.598,27.832,22.949,53.223,0
1583343797.327,40.527,38.574,27.344,31.738,79.590,0
1583343797.331,47.852,41.504,27.832,43.945,40.039,0
1583343797.335,33.203,39.551,34.180,40.039,2.441,0
1583343797.338,22.461,34.668,36.133,31.250,20.996,0
1583343797.342,22.461,30.273,35.645,26.367,65.430,0
1583343797.346,20.020,26.855,40.039,17.090,9.277,0
1583343797.350,8.789,25.391,44.434,17.090,28.809,0
1583343797.354,8.301,24.902,47.852,30.273,33.691,0
1583343797.389,15.137,25.879,46.875,24.414,36.133,0
1583343797.393,15.625,27.832,43.945,14.648,53.223,0
1583343797.397,19.043,29.785,44.434,17.090,26.855,0
1583343797.401,17.090,31.250,45.410,20.508,-11.230,0
1583343797.405,20.508,33.691,44.434,23.926,-2.930,0
1583343797.409,29.297,35.645,43.457,28.320,-0.488,0
1583343797.413,25.879,34.180,42.480,33.691,12.207,0
1583343797.416,13.672,33.203,43.945,25.879,23.926,0
1583343797.420,18.555,33.203,45.410,17.578,-17.090,0
1583343797.424,33.691,33.691,43.945,30.762,-10.254,0
1583343797.428,32.227,34.180,46.875,37.598,-25.391,0
1583343797.432,21.973,34.668,47.852,28.320,-8.301,0
1583343797.429,21.973,35.645,47.363,23.926,41.016,0
1583343797.433,30.762,36.621,47.363,32.227,64.453,0
1583343797.437,31.738,36.621,44.434,34.180,41.504,0
1583343797.441,21.973,35.156,43.945,28.809,29.297,0
1583343797.445,20.020,33.203,45.898,32.227,60.547,0
1583343797.449,33.691,36.133,45.410,44.922,49.316,0
1583343797.453,39.551,37.109,45.410,43.945,16.113,0
1583343797.456,25.879,36.133,44.922,39.062,0.977,0
1583343797.460,16.602,35.645,44.922,35.645,17.578,0
1583343797.464,20.996,34.180,44.922,25.391,36.621,0
1583343797.468,28.809,35.156,41.016,30.273,56.152,0
1583343797.472,28.320,38.086,40.527,29.785,41.504,0
1583343797.469,21.484,36.133,43.945,25.879,-4.395,0
1583343797.473,28.320,34.180,42.480,32.227,-5.859,0
1583343797.477,38.574,34.668,41.992,41.504,21.484,0
1583343797.481,34.180,33.203,42.969,36.621,19.531,0
1583343797.485,22.461,34.180,41.992,33.203,34.668,0
1583343797.489,23.926,36.133,38.574,37.109,36.133,0
1583343797.493,39.062,37.109,39.062,40.039,31.250,0
1583343797.496,38.574,37.598,38.574,41.992,-0.488,0
1583343797.500,26.367,37.109,36.621,28.809,-18.066,0
1583343797.504,25.391,37.598,35.156,23.926,6.836,0
1583343797.508,37.109,36.133,34.668,29.785,19.043,0
1583343797.512,40.039,33.691,34.668,24.902,-7.812,0
1583343797.509,31.738,32.227,35.645,24.414,-2.441,0
1583343797.513,31.738,32.227,38.574,22.949,33.691,0
1583343797.517,39.062,34.180,41.016,23.926,39.551,0
1583343797.521,43.457,35.156,40.527,30.762,52.734,0
1583343797.525,41.016,36.621,40.039,35.156,52.246,0
1583343797.529,31.250,39.551,38.574,37.109,14.160,0
1583343797.533,29.785,38.086,36.621,34.180,2.930,0
1583343797.536,37.109,36.621,37.109,34.668,30.273,0
1583343797.540,32.227,38.086,36.133,37.109,28.809,0
1583343797.544,22.949,35.156,34.180,41.016,25.391,0
1583343797.548,34.180,34.180,32.227,41.992,26.367,0
1583343797.552,47.363,40.039,29.297,32.227,-6.348,0
1583343797.549,33.203,40.527,27.344,19.043,1.465,0
1583343797.553,9.766,39.551,27.344,13.184,65.430,0
1583343797.557,2.441,38.086,29.297,12.207,66.895,0
1583343797.561,16.602,37.109,28.809,20.508,40.039,0
1583343797.565,24.902,40.039,26.367,27.832,58.594,0
1583343797.569,19.043,41.016,22.949,23.926,54.688,0
1583343797.573,15.625,39.551,25.391,15.625,25.391,0
1583343797.576,19.531,36.621,30.273,15.625,24.414,0
1583343797.580,25.391,35.645,29.785,18.555,38.086,0
1583343797.584,22.949,37.598,29.297,23.438,42.480,0
1583343797.588,10.742,36.621,30.273,22.949,11.719,0
1583343797.592,15.625,33.691,28.809,14.648,15.137,0
1583343797.589,27.832,33.203,30.762,17.578,19.043,0
1583343797.593,24.902,34.668,29.297,20.996,-15.137,0
1583343797.597,11.230,35.645,30.762,19.043,23.438,0
1583343797.601,12.695,35.156,32.227,17.578,36.621,0
1583343797.605,25.391,35.156,30.762,16.602,58.105,0
1583343797.609,28.320,34.180,33.203,27.344,59.570,0
1583343797.613,19.531,34.180,34.668,27.832,41.016,0
1583343797.616,17.578,34.668,32.715,25.879,95.215,0
1583343797.620,20.508,33.203,33.203,24.902,77.148,0
1583343797.624,22.949,32.715,33.203,16.602,20.020,0
1583343797.628,18.555,33.691,33.203,20.508,65.430,0
1583343797.632,13.184,36.133,32.227,29.297,116.211,0
1583343797.649,19.531,36.133,33.691,33.691,77.148,0
1583343797.653,26.367,35.156,34.668,31.250,45.410,0
1583343797.657,24.902,36.133,35.156,29.297,54.688,0
1583343797.661,19.043,36.133,36.133,23.926,63.477,0
1583343797.665,18.555,35.645,33.203,19.531,87.402,0
1583343797.669,29.297,34.668,37.598,24.414,73.242,0
1583343797.673,31.738,34.668,38.574,23.926,8.789,0
1583343797.676,21.973,34.180,33.203,16.602,21.973,0
1583343797.680,23.926,32.715,33.691,21.973,95.703,0
1583343797.684,34.180,32.227,37.598,26.855,62.500,0
1583343797.688,34.180,30.762,38.086,24.414,52.246,0
1583343797.692,25.879,30.273,36.621,22.949,35.645,0
1583343797.689,18.555,30.762,40.039,16.113,22.461,0
1583343797.693,25.391,32.715,41.992,20.996,45.410,0
1583343797.697,35.156,34.180,38.086,29.785,-19.531,0
1583343797.701,29.785,34.180,36.133,27.344,-1.465,0
1583343797.705,18.555,33.203,39.062,31.250,16.113,0
1583343797.709,22.949,33.203,40.527,27.832,30.762,0
1583343797.713,35.645,34.668,38.086,21.484,45.410,0
1583343797.716,34.668,32.715,35.156,21.484,47.363,0
1583343797.720,24.414,32.227,34.668,23.438,23.926,0
1583343797.724,19.043,32.227,35.645,25.391,33.203,0
1583343797.728,32.715,36.621,36.621,23.926,111.328,0
1583343797.732,39.062,37.109,35.156,26.367,105.469,0
1583343797.729,27.832,36.621,35.645,24.902,23.438,0
1583343797.733,23.438,39.062,37.598,20.508,17.090,0
1583343797.737,26.855,37.598,41.504,25.391,93.262,0
1583343797.741,34.180,36.621,41.504,29.297,64.941,0
1583343797.745,30.273,35.645,38.086,26.855,17.090,0
1583343797.749,24.902,35.645,40.039,32.227,34.180,0
1583343797.753,30.762,36.621,40.039,36.133,42.480,0
1583343797.756,36.621,36.133,39.551,39.551,61.035,0
1583343797.760,30.762,36.133,38.086,29.785,35.645,0
1583343797.764,23.438,36.621,36.133,16.602,-13.672,0
1583343797.768,26.367,36.133,35.156,20.996,-6.348,0
1583343797.772,33.203,36.621,36.621,22.461,-13.184,0
1583343797.789,30.273,37.598,41.016,28.809,-79.102,0
1583343797.793,21.484,40.527,40.527,26.367,-40.527,0
1583343797.797,21.484,41.992,37.109,23.926,45.898,0
1583343797.801,29.297,41.992,37.109,31.738,21.484,0
1583343797.805,29.785,40.039,36.621,32.715,4.883,0
1583343797.809,20.508,39.062,37.598,27.344,70.801,0
1583343797.813,18.066,40.039,37.109,18.066,82.520,0
1583343797.816,30.762,41.504,36.133,22.949,31.250,0
1583343797.820,38.086,40.039,36.621,26.367,-8.301,0
1583343797.824,30.762,39.062,35.645,24.902,-9.277,0
1583343797.828,25.391,40.039,36.621,30.762,13.184,0
1583343797.832,29.785,39.551,39.551,32.227,20.508,0
1583343797.829,35.645,40.039,41.016,34.180,-9.766,0
1583343797.833,28.809,41.016,41.016,32.227,-45.898,0
1583343797.837,21.484,38.086,41.016,28.320,-7.324,0
1583343797.841,22.461,37.598,40.527,26.367,21.484,0
1583343797.845,29.297,38.086,38.574,23.926,18.066,0
1583343797.849,34.668,37.109,37.598,24.902,-15.137,0
1583343797.853,23.926,36.133,41.016,24.902,-35.645,0
1583343797.856,22.461,35.156,40.527,24.414,4.395,0
1583343797.860,35.156,36.133,37.598,24.414,71.289,0
1583343797.864,33.691,38.574,39.062,20.996,45.898,0
1583343797.868,21.973,40.527,39.551,12.695,-19.043,0
1583343797.872,16.602,40.039,37.598,12.695,45.898,0
1583343797.869,23.926,40.039,35.645,22.461,100.586,0
1583343797.873,30.762,40.039,37.109,26.367,37.598,0
1583343797.877,26.367,39.062,41.992,20.508,40.527,0
1583343797.881,18.555,41.992,42.480,26.855,27.832,0
1583343797.885,23.926,38.574,41.504,34.668,5.859,0
1583343797.889,43.945,32.715,41.504,44.434,21.973,0
1583343797.893,42.480,39.062,39.062,40.527,13.184,0
1583343797.896,18.555,43.945,35.645,19.531,10.254,0
1583343797.900,16.602,44.922,31.738,10.742,3.418,0
1583343797.904,38.574,46.387,25.391,16.602,14.648,0
1583343797.908,45.898,45.898,23.438,27.344,-2.441,0
1583343797.912,26.367,50.293,21.484,16.602,20.020,0
1583343797.929,12.695,53.711,19.043,0.000,51.270,0
1583343797.933,30.273,51.758,15.137,2.930,21.973,0
1583343797.937,46.875,52.246,12.695,20.508,42.480,0
1583343797.941,25.879,49.316,16.602,20.996,58.105,0
1583343797.945,9.766,43.945,19.043,8.301,68.848,0
1583343797.949,23.926,43.457,20.996,12.695,102.051,0
1583343797.953,35.645,41.992,21.973,15.137,89.355,0
1583343797.956,34.180,41.016,19.531,18.555,59.082,0
1583343797.960,25.391,41.992,20.996,27.344,15.137,0
1583343797.964,29.785,41.992,24.902,32.715,12.207,0
1583343797.968,44.922,41.016,27.832,33.691,52.246,0
1583343797.972,45.410,42.969,29.785,25.391,94.727,0
1583343797.969,31.738,43.945,29.297,19.531,31.738,0
1583343797.973,30.762,44.922,29.785,24.902,-36.133,0
1583343797.977,42.969,45.410,28.320,30.273,-33.203,0
1583343797.981,45.898,45.898,26.855,27.344,19.043,0
1583343797.985,31.250,45.898,28.320,19.043,82.520,0
1583343797.989,27.832,47.852,30.273,14.648,51.270,0
1583343797.993,41.504,45.898,30.273,26.367,6.836,0
1583343797.996,46.387,43.457,29.785,29.297,23.438,0
1583343798.000,41.016,45.410,31.250,32.715,30.762,0
1583343798.004,34.180,44.922,34.668,31.738,13.184,0
1583343798.008,41.992,42.480,31.738,21.484,22.949,0
1583343798.012,49.805,43.945,29.297,28.320,50.293,0
1583343798.009,40.527,41.992,31.250,32.227,37.598,0
1583343798.013,30.273,37.109,37.109,37.598,62.012,0
1583343798.017,33.203,35.645,38.574,35.645,41.504,0
1583343798.021,41.992,36.133,36.133,32.227,16.602,0
1583343798.025,38.086,38.086,38.086,39.551,48.828,0
1583343798.029,21.973,40.039,38.086,42.480,50.293,0
1583343798.033,20.508,39.551,35.645,32.227,10.742,0
1583343798.036,28.320,37.109,36.621,30.273,-15.137,0
1583343798.040,30.273,34.180,38.574,27.344,10.254,0
1583343798.044,23.926,32.227,36.133,21.484,26.855,0
1583343798.048,18.066,32.715,37.598,19.043,48.828,0
1583343798.052,22.949,32.227,36.621,16.602,35.156,0
1583343798.069,31.738,34.180,32.227,22.949,17.090,0
1583343798.073,28.809,39.062,34.180,20.508,24.414,0
1583343798.077,20.020,38.086,37.109,20.020,59.082,0
1583343798.081,22.949,34.180,37.598,21.484,32.715,0
1583343798.085,30.273,36.133,34.668,8.789,29.297,0
1583343798.089,22.949,39.551,33.691,9.277,80.566,0
1583343798.093,12.207,36.621,37.109,12.695,50.781,0
1583343798.096,19.043,36.133,34.668,13.672,51.758,0
1583343798.100,26.855,38.086,35.156,22.461,63.965,0
1583343798.104,21.484,37.109,38.086,24.902,47.852,0
1583343798.108,14.160,36.621,35.156,19.043,27.832,0
1583343798.112,17.578,38.086,35.156,18.555,-9.277,0
1583343798.129,24.902,37.109,36.133,22.461,-22.461,0
1583343798.133,28.320,36.621,34.668,21.484,-7.324,0
1583343798.137,18.555,37.598,33.691,20.020,2.441,0
1583343798.141,12.207,39.551,35.645,20.996,0.977,0
1583343798.145,23.926,40.527,39.062,21.973,40.527,0
1583343798.149,30.762,37.109,38.574,23.926,45.898,0
1583343798.153,23.438,36.133,40.039,19.043,9.766,0
1583343798.156,18.066,35.645,41.992,14.648,13.184,0
1583343798.160,25.391,36.133,40.039,19.531,15.137,0
1583343798.164,32.227,36.133,37.598,12.695,0.977,0
1583343798.168,32.715,34.180,37.598,10.254,29.785,0
1583343798.172,30.273,36.621,35.645,18.555,56.641,0
1583343798.151,28.320,38.086,34.668,9.766,83.984,0
1583343798.155,36.133,38.086,37.598,7.324,107.422,0
1583343798.159,37.598,36.621,41.016,12.207,101.074,0
1583343798.163,26.367,36.133,40.527,14.648,111.816,0
1583343798.167,20.508,37.598,38.574,13.672,75.684,0
1583343798.171,27.344,38.574,38.086,10.742,26.367,0
1583343798.175,30.762,38.086,37.598,11.230,17.578,0
1583343798.178,25.879,38.574,37.109,6.836,-22.949,0
1583343798.182,19.043,38.086,35.645,5.371,33.691,0
1583343798.186,22.949,36.621,36.133,9.766,54.688,0
1583343798.190,36.133,38.086,39.551,21.484,36.621,0
1583343798.194,31.738,40.039,38.574,23.438,99.609,0
1583343798.209,24.414,40.527,41.992,17.578,79.590,0
1583343798.213,34.180,38.086,43.457,22.461,23.438,0
1583343798.217,46.875,38.086,40.527,23.438,38.086,0
1583343798.221,44.434,39.551,40.527,24.414,71.777,0
1583343798.225,31.738,40.527,41.016,28.320,48.340,0
1583343798.229,30.273,41.016,43.457,23.926,22.949,0
1583343798.233,36.621,40.527,42.969,8.789,33.203,0
1583343798.236,42.969,41.504,40.527,5.371,-8.789,0
1583343798.240,32.715,41.504,41.016,12.207,-10.742,0
1583343798.244,23.438,39.062,41.504,12.695,34.180,0
1583343798.248,28.809,38.574,43.945,18.555,24.902,0
1583343798.252,38.086,37.598,43.457,28.809,5.859,0
1583343798.249,44.434,40.039,38.086,34.180,39.551,0
1583343798.253,34.180,39.062,40.039,31.738,14.648,0
1583343798.257,18.066,31.250,46.875,29.785,-6.348,0
1583343798.261,16.602,29.785,45.410,24.902,-1.953,0
1583343798.265,12.695,27.344,45.410,17.090,27.344,0
1583343798.269,7.324,25.879,46.875,15.137,30.273,0
1583343798.273,17.578,29.785,46.387,13.672,-25.879,0
1583343798.276,28.320,25.879,48.340,18.066,-10.254,0
1583343798.280,28.809,22.461,47.852,24.414,13.184,0
1583343798.284,23.926,27.832,44.434,17.090,72.266,0
1583343798.288,25.879,28.320,42.969,20.020,56.152,0
1583343798.292,39.551,27.344,43.457,27.832,46.387,0
1583343798.289,40.527,30.273,44.434,23.438,85.449,0
1583343798.293,25.391,32.227,45.410,15.625,51.758,0
1583343798.297,16.602,33.203,42.969,13.672,26.855,0
1583343798.301,21.973,32.227,41.016,15.137,36.133,0
1583343798.305,27.344,32.715,41.504,15.625,39.062,0
1583343798.309,20.020,35.156,43.457,13.184,20.020,0
1583343798.313,13.184,34.668,45.898,16.602,-8.301,0
1583343798.316,25.391,34.180,46.387,26.855,6.836,0
1583343798.320,34.180,35.645,43.457,26.855,46.387,0
1583343798.324,24.902,34.180,41.016,25.391,43.457,0
1583343798.328,15.625,33.203,39.551,28.320,0.000,0
1583343798.332,18.066,33.691,38.086,28.320,6.348,0
1583343798.349,25.879,34.668,37.598,35.645,18.555,0
1583343798.353,26.855,33.691,36.621,33.203,12.207,0
1583343798.357,20.508,35.645,34.668,28.320,12.207,0
1583343798.361,24.414,38.574,37.109,36.621,36.133,0
1583343798.365,36.133,38.086,41.992,41.504,23.926,0
1583343798.369,36.133,36.621,41.504,33.203,24.414,0
1583343798.373,27.344,37.109,41.016,24.902,0.488,0
1583343798.376,25.391,38.086,42.480,32.715,12.695,0
1583343798.380,31.738,35.645,42.480,30.273,75.684,0
1583343798.384,34.668,34.180,40.527,25.391,60.547,0
1583343798.388,27.344,35.645,39.062,28.320,32.227,0
1583343798.392,17.090,35.645,41.016,25.879,7.812,0
1583343798.389,20.996,34.668,43.457,28.320,29.297,0
1583343798.393,27.344,33.203,42.969,28.809,19.531,0
1583343798.397,23.926,33.691,40.039,20.996,-10.254,0
1583343798.401,17.090,34.180,40.039,21.484,35.645,0
1583343798.405,18.066,35.156,41.992,26.855,67.383,0
1583343798.409,28.320,35.156,41.992,25.879,75.195,0
1583343798.413,25.879,35.645,39.551,22.461,58.594,0
1583343798.416,19.043,35.645,38.086,22.949,46.387,0
1583343798.420,18.555,35.645,40.039,20.508,26.367,0
1583343798.424,20.508,33.691,38.574,17.090,29.297,0
1583343798.428,27.832,32.227,37.109,19.531,13.184,0
1583343798.432,23.926,34.668,39.062,18.066,26.855,0
1583343798.429,18.555,32.715,39.551,15.137,58.105,0
1583343798.433,27.344,32.227,40.039,20.996,3.906,0
1583343798.437,35.645,33.203,41.992,24.902,-4.883,0
1583343798.441,30.762,34.180,41.504,24.414,1.953,0
1583343798.445,20.020,37.109,37.598,13.672,-25.879,0
1583343798.449,23.438,37.109,34.668,6.348,38.086,0
1583343798.453,30.273,36.133,34.180,11.230,121.582,0
1583343798.456,22.461,35.645,35.156,3.418,83.984,0
1583343798.460,13.672,36.133,33.203,0.977,40.527,0
1583343798.464,19.043,36.133,35.156,12.695,49.316,0
1583343798.468,27.344,32.227,40.527,23.438,63.477,0
1583343798.472,29.297,30.762,41.992,32.227,64.941,0
1583343798.489,25.879,31.738,42.480,31.250,24.902,0
1583343798.493,20.996,29.297,41.016,19.531,8.301,0
1583343798.497,28.320,28.809,40.527,20.996,-19.043,0
1583343798.501,35.645,30.762,42.480,35.156,-16.602,0
1583343798.505,29.297,30.762,41.992,29.785,11.719,0
1583343798.509,21.484,32.227,42.480,25.391,41.016,0
1583343798.513,26.367,33.691,41.016,20.996,16.602,0
1583343798.516,35.645,34.668,38.086,14.648,10.254,0
1583343798.520,26.855,34.668,35.156,17.578,36.621,0
1583343798.524,11.230,33.691,30.762,13.184,17.090,0
1583343798.528,15.625,34.180,29.785,7.812,25.879,0
1583343798.532,30.273,33.203,31.250,10.254,50.781,0
1583343798.529,27.344,31.738,33.203,13.672,83.984,0
1583343798.533,14.648,30.762,33.691,10.254,62.500,0
1583343798.537,15.137,29.785,33.203,15.137,4.883,0
1583343798.541,27.344,31.250,34.180,18.066,28.320,0
1583343798.545,30.762,31.250,33.203,17.090,31.250,0
1583343798.549,16.602,29.785,32.227,22.949,38.086,0
1583343798.553,10.254,30.762,32.715,16.602,83.008,0
1583343798.556,20.508,31.738,35.156,17.090,65.918,0
1583343798.560,24.902,33.203,37.109,19.531,29.785,0
1583343798.564,20.508,35.156,36.621,12.207,1.953,0
1583343798.568,17.578,35.645,35.156,16.113,-16.113,0
1583343798.572,24.414,36.133,34.668,23.438,-2.930,0
1583343798.589,37.598,38.086,32.715,27.344,24.902,0
1583343798.593,35.156,41.504,30.273,30.273,41.504,0
1583343798.597,24.414,39.551,32.227,27.344,35.645,0
1583343798.601,26.367,37.598,33.691,22.949,-8.301,0
1583343798.605,38.086,39.062,32.715,29.297,23.438,0
1583343798.609,39.551,41.992,35.156,33.203,50.293,0
1583343798.613,28.809,41.016,38.574,24.902,48.828,0
1583343798.616,25.879,38.574,37.109,21.484,68.359,0
1583343798.620,34.668,39.551,34.668,25.391,81.543,0
1583343798.624,36.621,39.062,34.180,24.902,52.246,0
1583343798.628,28.320,38.574,32.715,23.438,57.617,0
1583343798.632,22.949,39.551,33.203,18.555,-31.250,0
1583343798.629,33.203,40.039,34.668,19.531,-74.707,0
1583343798.633,40.039,39.551,34.180,28.809,17.090,0
1583343798.637,26.855,37.109,36.133,27.344,33.203,0
1583343798.641,21.484,35.645,38.574,20.996,62.500,0
1583343798.645,30.762,36.133,37.598,25.391,10.742,0
1583343798.649,38.574,36.621,35.645,28.809,-12.695,0
1583343798.653,32.715,35.156,31.738,22.461,25.879,0
1583343798.656,21.484,34.180,32.715,19.043,4.395,0
1583343798.660,21.484,33.691,37.598,22.949,9.277,0
1583343798.664,32.227,34.668,41.504,34.180,24.902,0
1583343798.668,32.227,33.203,44.434,30.762,-11.719,0
1583343798.672,21.484,33.203,42.969,19.531,-35.156,0
1583343798.669,18.066,34.180,41.016,18.555,50.781,0
1583343798.673,23.926,33.691,42.969,19.531,72.266,0
1583343798.677,28.320,33.691,42.969,20.996,-2.441,0
1583343798.681,16.602,33.203,40.527,18.066,0.977,0
1583343798.685,8.301,32.715,41.016,18.066,105.469,0
1583343798.689,15.137,34.180,42.969,20.020,73.730,0
1583343798.693,20.020,34.180,41.992,18.066,30.762,0
1583343798.696,15.625,33.691,41.504,22.949,43.945,0
1583343798.700,6.348,34.668,42.969,22.949,25.391,0
1583343798.704,7.324,32.715,39.062,12.695,39.062,0
1583343798.708,23.438,34.180,36.621,16.113,72.266,0
1583343798.712,27.344,34.180,36.621,23.438,123.047,0
1583343798.730,20.020,34.668,35.645,26.367,71.289,0
1583343798.734,24.902,34.668,36.621,31.738,-1.953,0
1583343798.738,37.109,35.645,37.598,36.133,-0.977,0
1583343798.742,38.086,38.086,38.086,36.133,28.320,0
1583343798.746,27.344,36.621,39.551,29.785,52.246,0
1583343798.750,23.926,36.621,39.062,23.438,79.590,0
1583343798.754,31.250,38.574,39.062,26.367,32.715,0
1583343798.757,37.109,38.086,39.062,27.832,-15.137,0
1583343798.761,32.227,36.133,37.598,23.438,14.648,0
1583343798.765,23.438,36.621,35.645,22.461,20.020,0
1583343798.769,27.832,39.062,35.645,27.832,26.367,0
1583343798.773,37.598,38.086,38.086,29.785,76.172,0
1583343798.789,36.621,37.598,37.109,20.020,72.266,0
1583343798.793,30.273,39.062,35.645,16.602,63.965,0
1583343798.797,31.250,39.062,35.156,20.020,105.957,0
1583343798.801,39.062,38.086,35.156,25.391,45.410,0
1583343798.805,35.645,39.062,34.668,26.367,-16.113,0
1583343798.809,21.973,41.016,31.738,20.020,22.949,0
1583343798.813,19.531,40.039,29.785,22.461,44.922,0
1583343798.816,26.367,39.062,30.762,23.926,28.809,0
1583343798.820,29.785,40.039,30.762,22.949,3.418,0
1583343798.824,21.484,38.086,30.273,25.879,2.441,0
1583343798.828,13.672,38.086,33.691,20.996,21.484,0
1583343798.832,24.414,39.062,34.668,17.090,39.551,0
1583343798.808,36.621,39.062,29.785,19.531,43.457,0
1583343798.812,27.344,39.551,28.320,18.555,12.207,0
1583343798.816,16.602,37.109,29.785,16.602,50.293,0
1583343798.820,22.949,35.645,28.809,18.066,23.926,0
1583343798.824,31.250,36.133,28.320,22.949,-43.457,0
1583343798.828,25.391,38.574,29.297,29.785,53.711,0
1583343798.832,18.555,41.016,31.738,26.367,33.203,0
1583343798.835,20.996,39.551,34.180,20.996,3.418,0
1583343798.839,35.156,41.504,36.621,25.879,30.273,0
1583343798.843,42.480,41.992,35.645,34.180,22.949,0
1583343798.847,26.367,36.621,37.598,30.273,-23.926,0
1583343798.851,12.695,30.762,41.504,18.555,-25.879,0
1583343798.869,27.832,28.320,41.016,21.973,8.789,0
1583343798.873,37.598,30.762,40.527,22.949,30.762,0
1583343798.877,24.902,32.715,40.527,18.555,31.738,0
1583343798.881,15.625,30.762,39.551,18.555,11.230,0
1583343798.885,21.973,31.250,39.062,17.578,5.859,0
1583343798.889,27.344,32.715,38.086,18.066,25.879,0
1583343798.893,23.438,34.180,40.039,15.137,25.391,0
1583343798.896,18.555,36.621,40.527,17.090,26.367,0
1583343798.900,23.926,39.062,41.992,24.902,68.359,0
1583343798.904,32.227,39.551,42.969,31.738,73.242,0
1583343798.908,26.367,38.086,40.527,34.180,44.922,0
1583343798.912,13.184,39.062,39.062,26.855,35.645,0
1583343798.908,14.648,39.551,38.574,20.996,49.805,0
1583343798.912,31.250,37.598,38.574,25.391,71.289,0
1583343798.916,34.180,37.109,37.109,28.320,39.551,0
1583343798.920,22.461,38.574,33.203,22.461,-18.555,0
1583343798.924,16.602,37.109,32.715,19.531,26.367,0
1583343798.928,27.344,38.574,33.691,27.344,45.410,0
1583343798.932,35.645,41.504,33.691,36.621,7.324,0
1583343798.935,26.367,40.527,34.180,28.320,-24.902,0
1583343798.939,20.996,40.039,34.668,15.137,-31.250,0
1583343798.943,24.902,39.551,34.180,22.949,-6.348,0
1583343798.947,29.297,38.086,34.668,25.391,20.020,0
1583343798.951,25.879,38.574,38.086,19.043,50.781,0
1583343798.948,20.996,38.086,39.062,27.832,62.012,0
1583343798.952,22.461,35.156,37.109,31.738,52.246,0
1583343798.956,31.250,35.645,37.109,28.320,8.789,0
1583343798.960,31.250,38.086,37.109,33.691,8.789,0
1583343798.964,19.043,37.598,36.621,34.180,42.480,0
1583343798.968,18.066,37.598,36.133,26.367,37.109,0
1583343798.972,31.738,37.598,35.156,28.809,6.836,0
1583343798.975,36.133,35.645,35.645,39.551,17.090,0
1583343798.979,23.926,36.133,35.645,29.785,69.824,0
1583343798.983,17.578,38.574,35.156,21.484,30.273,0
1583343798.987,30.762,37.598,37.109,34.180,40.527,0
1583343798.991,38.574,37.598,36.133,38.086,56.641,0
1583343799.009,27.832,37.109,35.645,35.156,77.148,0
1583343799.013,20.508,35.645,38.574,34.180,67.383,0
1583343799.017,27.832,38.574,39.551,36.133,-28.320,0
1583343799.021,37.598,39.062,39.551,42.480,-22.461,0
1583343799.025,33.691,37.598,36.621,39.551,40.039,0
1583343799.029,20.996,35.645,37.598,37.598,59.570,0
1583343799.033,20.996,35.156,39.551,38.086,68.359,0
1583343799.036,32.227,33.203,36.133,27.344,26.367,0
1583343799.040,33.691,32.715,35.645,27.344,-20.508,0
1583343799.044,22.949,34.180,38.574,34.668,-8.789,0
1583343799.048,20.996,34.180,39.551,27.832,12.207,0
1583343799.052,31.738,33.691,41.016,27.832,74.219,0
1583343799.049,37.598,35.645,37.598,35.645,57.129,0
1583343799.053,28.320,36.621,35.156,33.691,0.977,0
1583343799.057,21.484,36.621,38.574,32.715,29.297,0
1583343799.061,31.250,37.598,40.527,35.645,-14.648,0
1583343799.065,40.527,39.062,40.039,41.016,-14.160,0
1583343799.069,36.621,41.016,39.062,41.016,57.617,0
1583343799.073,33.203,41.016,38.574,34.668,12.695,0
1583343799.076,38.086,40.527,39.062,36.621,-2.441,0
1583343799.080,49.805,37.598,38.086,40.039,8.789,0
1583343799.084,49.805,39.062,39.062,39.551,48.340,0
1583343799.088,37.109,42.969,39.062,26.367,97.656,0
1583343799.092,38.574,40.039,36.621,28.320,19.531,0
1583343799.089,47.363,38.574,36.133,40.039,-17.090,0
1583343799.093,44.922,41.016,34.668,36.133,-11.230,0
1583343799.097,28.809,40.527,36.133,26.855,-6.836,0
1583343799.101,23.438,40.527,36.621,22.949,52.734,0
1583343799.105,28.809,39.062,36.621,31.738,33.691,0
1583343799.109,29.785,38.086,39.062,30.273,23.926,0
1583343799.113,24.902,38.574,37.598,29.297,48.828,0
1583343799.116,25.391,37.598,34.668,28.320,38.574,0
1583343799.120,36.133,39.551,34.668,31.250,44.922,0
1583343799.124,43.945,40.527,34.180,33.203,54.688,0
1583343799.128,39.062,40.039,34.668,30.273,73.242,0
1583343799.132,28.320,38.574,36.621,32.227,41.016,0
1583343799.169,32.227,38.086,38.574,23.926,88.379,0
1583343799.173,40.039,38.086,40.527,20.996,128.418,0
1583343799.177,32.227,39.551,41.016,30.273,94.727,0
1583343799.181,20.020,40.527,37.109,31.738,67.871,0
1583343799.185,17.578,38.574,35.645,24.414,29.297,0
1583343799.189,30.762,38.574,39.062,26.367,46.875,0
1583343799.193,32.715,37.109,40.527,27.344,36.133,0
1583343799.196,17.090,36.133,39.062,22.949,26.367,0
1583343799.200,14.160,36.133,37.598,20.508,37.598,0
1583343799.204,28.809,37.598,39.062,25.879,27.344,0
1583343799.208,31.250,39.062,41.016,29.785,86.426,0
1583343799.212,19.531,39.062,39.062,24.902,111.328,0
1583343799.209,12.695,37.598,38.574,32.227,86.914,0
1583343799.213,19.043,37.598,38.574,33.691,46.875,0
1583343799.217,30.273,37.598,37.598,28.320,47.363,0
1583343799.221,20.996,35.156,38.086,30.762,71.289,0
1583343799.225,13.184,36.621,37.109,20.996,60.547,0
1583343799.229,23.926,37.598,36.133,19.531,28.320,0
1583343799.233,34.668,35.156,37.598,25.879,24.902,0
1583343799.236,35.645,35.156,39.551,19.531,56.641,0
1583343799.240,23.926,36.621,39.062,18.555,62.500,0
1583343799.244,23.438,37.598,38.574,26.855,24.902,0
1583343799.248,39.062,36.621,38.574,30.273,53.223,0
1583343799.252,40.039,36.133,38.086,33.691,48.340,0
1583343799.229,31.250,37.598,36.133,37.598,16.113,0
1583343799.233,26.367,35.645,33.691,30.762,33.203,0
1583343799.237,31.250,34.180,36.621,32.227,29.297,0
1583343799.241,41.016,35.156,39.551,38.086,31.250,0
1583343799.245,36.133,36.133,38.086,33.691,26.367,0
1583343799.249,24.414,34.180,39.551,27.344,41.992,0
1583343799.253,31.738,34.668,41.992,30.762,89.844,0
1583343799.256,41.016,34.180,44.434,39.551,20.996,0
1583343799.260,38.086,33.203,42.480,30.762,1.953,0
1583343799.264,34.180,37.109,40.039,25.391,18.555,0
1583343799.268,32.227,35.156,41.016,28.320,-47.363,0
1583343799.272,37.598,32.227,40.527,27.344,-15.137,0
1583343799.289,36.621,36.133,41.504,34.668,38.574,0
1583343799.293,24.414,37.598,39.551,27.832,3.906,0
1583343799.297,24.902,37.109,34.180,19.043,-15.137,0
1583343799.301,34.180,36.621,31.738,21.973,5.371,0
1583343799.305,34.180,35.645,33.691,10.254,5.371,0
1583343799.309,26.367,36.133,36.621,6.836,-19.043,0
1583343799.313,20.020,35.645,37.109,7.812,-16.113,0
1583343799.316,25.391,36.133,35.156,9.277,46.875,0
1583343799.320,30.762,34.180,36.133,15.137,92.773,0
1583343799.324,20.020,32.715,37.109,14.160,4.883,0
1583343799.328,12.695,34.180,36.133,17.090,-33.691,0
1583343799.332,19.043,35.156,31.250,21.484,47.363,0
1583343799.329,29.297,35.645,30.762,15.137,6.836,0
1583343799.333,29.297,36.621,31.738,6.836,-2.930,0
1583343799.337,20.020,37.598,30.762,4.883,33.203,0
1583343799.341,20.996,38.574,31.738,13.184,-35.156,0
1583343799.345,34.668,39.062,31.250,20.020,1.953,0
1583343799.349,33.203,38.086,29.297,21.973,48.828,0
1583343799.353,22.461,37.109,25.879,22.949,83.984,0
1583343799.356,26.855,39.551,24.414,17.578,96.191,0
1583343799.360,35.156,39.062,26.367,17.090,13.672,0
1583343799.364,37.109,38.086,24.902,20.020,46.875,0
1583343799.368,23.438,37.598,24.414,19.531,42.969,0
1583343799.372,16.113,36.133,22.461,17.090,25.391,0
1583343799.369,28.809,38.086,20.508,20.020,45.410,0
1583343799.373,38.574,39.551,21.973,27.832,13.184,0
1583343799.377,31.738,40.039,28.320,25.391,43.457,0
1583343799.381,21.484,41.504,31.738,21.484,85.449,0
1583343799.385,28.320,42.969,32.227,25.391,61.035,0
1583343799.389,40.039,41.504,33.691,32.715,-1.465,0
1583343799.393,36.133,40.527,33.691,31.738,11.230,0
1583343799.396,24.902,41.504,37.109,22.461,66.406,0
1583343799.400,20.020,40.039,40.039,14.648,43.457,0
1583343799.404,27.832,39.062,38.086,17.578,47.363,0
1583343799.408,30.762,39.551,35.156,16.113,60.547,0
1583343799.412,18.066,37.109,35.645,7.812,18.555,0
1583343799.435,8.301,35.156,36.621,11.230,40.527,0
1583343799.439,18.555,34.668,30.273,18.066,41.504,0
1583343799.443,29.785,36.133,26.855,19.043,16.113,0
1583343799.447,21.484,35.645,26.855,14.648,60.547,0
1583343799.451,12.695,36.621,27.832,16.113,63.477,0
1583343799.455,20.996,37.598,31.738,26.367,20.508,0
1583343799.459,32.227,37.598,32.715,25.391,13.184,0
1583343799.462,32.715,40.039,30.273,19.043,36.621,0
1583343799.466,23.926,39.062,35.156,17.090,35.156,0
1583343799.470,25.879,39.551,38.574,20.020,44.434,0
1583343799.474,36.133,40.527,37.109,30.273,27.832,0
1583343799.478,33.203,39.551,38.574,30.273,42.480,0
1583343799.489,19.043,40.039,38.574,17.578,45.898,0
1583343799.493,14.648,38.574,36.621,15.625,18.066,0
1583343799.497,29.785,39.062,36.621,21.484,24.414,0
1583343799.501,29.785,39.551,41.016,20.020,35.156,0
1583343799.505,14.160,37.109,41.504,15.625,40.527,0
1583343799.509,12.695,38.086,39.062,11.719,23.438,0
1583343799.513,20.996,40.527,37.109,11.719,59.570,0
1583343799.516,25.879,39.062,38.086,15.625,58.105,0
1583343799.520,18.555,38.574,41.016,19.531,4.883,0
1583343799.524,10.254,40.527,41.504,15.137,-21.973,0
1583343799.528,19.531,39.551,40.527,13.672,17.578,0
1583343799.532,32.715,39.551,38.086,18.555,31.738,0
1583343799.531,31.250,40.039,39.551,16.602,13.672,0
1583343799.535,21.484,38.086,41.016,15.137,21.484,0
1583343799.539,24.902,38.574,41.504,26.855,2.930,0
1583343799.543,36.621,39.062,41.016,30.762,-30.273,0
1583343799.547,34.668,39.062,41.504,33.203,5.859,0
1583343799.551,21.484,41.016,41.992,34.668,45.410,0
1583343799.555,19.043,41.504,42.480,26.855,-11.719,0
1583343799.558,28.809,41.016,41.504,25.879,8.301,0
1583343799.562,35.156,41.992,38.086,25.879,94.238,0
1583343799.566,30.273,40.527,38.086,20.020,45.898,0
1583343799.570,22.461,38.574,41.016,20.020,39.062,0
1583343799.574,29.297,38.574,40.039,26.367,56.152,0
1583343799.569,39.551,40.527,39.551,28.809,62.012,0
1583343799.573,37.109,42.480,39.062,28.809,21.973,0
1583343799.577,28.809,41.992,37.109,27.344,14.160,0
1583343799.581,30.273,41.016,37.598,21.973,9.277,0
1583343799.585,39.062,39.551,38.574,32.227,20.996,0
1583343799.589,37.109,41.504,41.504,37.598,62.012,0
1583343799.593,29.785,41.992,40.039,27.832,42.969,0
1583343799.596,29.297,39.551,38.574,26.367,48.340,0
1583343799.600,35.645,36.621,42.480,31.738,7.812,0
1583343799.604,35.645,36.621,44.922,35.645,20.996,0
1583343799.608,24.414,39.062,45.410,37.598,34.668,0
1583343799.612,20.020,39.062,43.457,27.832,21.973,0
1583343799.609,26.367,36.621,41.504,14.648,32.715,0
1583343799.613,32.227,35.645,39.551,18.555,36.621,0
1583343799.617,22.461,36.133,38.574,20.020,30.762,0
1583343799.621,11.230,37.109,39.551,19.043,27.344,0
1583343799.625,22.461,37.598,35.645,19.531,0.488,0
1583343799.629,31.738,35.645,34.668,15.137,-25.391,0
1583343799.633,21.973,36.621,35.645,18.066,40.527,0
1583343799.636,18.066,37.109,32.715,16.602,92.773,0
1583343799.640,26.367,37.598,30.273,16.602,50.781,0
1583343799.644,38.086,38.086,32.227,19.043,-5.371,0
1583343799.648,37.109,37.109,36.133,15.137,32.715,0
1583343799.652,24.902,36.621,38.086,20.508,94.727,0
1583343799.649,23.926,38.574,41.504,25.391,32.715,0
1583343799.653,36.621,40.527,39.551,30.762,17.090,0
1583343799.657,33.203,36.621,40.527,29.297,18.066,0
1583343799.661,20.020,35.645,41.992,23.438,7.324,0
1583343799.665,18.066,36.621,38.574,23.926,23.438,0
1583343799.669,26.855,33.691,37.598,28.320,53.711,0
1583343799.673,35.645,32.715,38.086,31.738,36.133,0
1583343799.676,26.367,34.180,36.133,24.414,64.941,0
1583343799.680,19.531,35.156,36.621,15.137,49.805,0
1583343799.684,25.391,36.133,39.062,22.461,-15.137,0
1583343799.688,29.297,35.645,37.598,27.832,-2.930,0
1583343799.692,27.344,33.691,35.645,24.902,49.805,0
1583343799.708,19.043,37.109,38.086,20.020,37.109,0
1583343799.712,20.508,36.621,39.062,23.438,3.418,0
1583343799.716,32.715,35.156,38.086,29.297,61.035,0
1583343799.720,35.156,38.086,38.086,27.832,40.527,0
1583343799.724,20.508,35.645,38.086,22.949,30.273,0
1583343799.728,18.555,34.180,38.086,21.484,64.453,0
1583343799.732,27.832,34.668,38.574,23.438,42.969,0
1583343799.735,31.738,34.668,35.645,23.438,2.441,0
1583343799.739,24.414,35.156,33.691,19.531,-41.504,0
1583343799.743,12.695,33.691,35.645,20.508,13.672,0
1583343799.747,20.508,34.180,36.621,27.344,7.324,0
1583343799.751,31.738,35.645,37.109,24.902,-23.926,0
1583343799.748,26.367,35.156,34.180,19.531,40.039,0
1583343799.752,20.508,36.621,32.227,16.602,18.066,0
1583343799.756,22.461,35.156,28.809,14.648,-7.324,0
1583343799.760,26.367,34.668,25.879,17.578,54.688,0
1583343799.764,21.973,36.133,26.855,21.973,83.008,0
1583343799.768,18.066,37.598,29.297,19.043,28.809,0
1583343799.772,22.461,36.621,31.250,14.648,-10.254,0
1583343799.775,28.809,34.668,33.203,21.484,56.152,0
1583343799.779,29.297,35.156,34.180,24.902,55.664,0
1583343799.783,18.555,36.621,34.668,15.137,46.387,0
1583343799.787,18.066,37.598,34.180,17.578,57.129,0
1583343799.791,28.320,38.086,31.250,28.320,-7.324,0
1583343799.789,32.227,35.156,31.738,27.344,-13.672,0
1583343799.793,25.391,35.156,32.715,21.484,3.418,0
1583343799.797,26.367,39.551,31.738,24.414,17.090,0
1583343799.801,36.133,38.574,31.738,30.762,29.785,0
1583343799.805,37.598,38.086,31.250,33.691,3.906,0
1583343799.809,30.273,38.086,27.344,25.879,26.367,0
1583343799.813,19.043,36.621,30.762,19.531,45.410,0
1583343799.816,20.508,35.645,33.691,26.367,29.297,0
1583343799.820,30.762,36.621,33.203,29.785,53.711,0
1583343799.824,29.785,37.109,33.691,27.344,43.457,0
1583343799.828,24.902,37.109,33.203,25.391,22.949,0
1583343799.832,26.855,37.598,34.180,24.902,24.902,0
1583343799.848,28.809,35.156,33.203,22.461,3.906,0
1583343799.852,28.809,35.645,31.250,28.320,10.254,0
1583343799.856,21.973,36.133,32.715,22.461,72.266,0
1583343799.860,21.484,36.621,29.785,14.648,16.113,0
1583343799.864,27.832,36.621,24.414,20.508,-36.133,0
1583343799.868,25.879,37.109,26.855,19.531,6.348,0
1583343799.872,20.508,39.062,30.273,13.184,-6.836,0
1583343799.875,15.625,38.086,30.762,16.113,33.203,0
1583343799.879,21.484,35.645,31.738,24.414,95.215,0
1583343799.883,35.156,35.645,32.227,25.879,98.633,0
1583343799.887,31.738,36.133,31.250,24.902,50.293,0
1583343799.891,21.484,36.621,33.203,24.414,30.762,0
1583343799.888,28.809,36.133,30.762,28.809,32.227,0
1583343799.892,42.969,35.156,29.297,32.715,6.836,0
1583343799.896,44.434,35.156,27.832,18.066,2.441,0
1583343799.900,34.180,37.109,30.273,10.742,15.137,0
1583343799.904,28.320,38.086,33.203,11.719,33.691,0
1583343799.908,36.133,38.086,33.203,19.043,35.645,4
1583343799.912,38.574,38.086,32.227,22.461,13.184,0
1583343799.915,28.809,36.621,30.273,16.602,41.504,0
1583343799.919,22.461,35.156,32.227,21.973,53.711,0
1583343799.923,24.902,36.133,32.715,24.902,33.203,0
1583343799.927,33.203,37.598,30.762,23.926,41.992,0
1583343799.931,33.203,36.133,28.809,24.414,55.664,0
1583343799.928,20.508,33.203,32.715,18.066,56.152,0
1583343799.932,20.020,33.203,37.598,19.043,53.711,0
1583343799.936,28.320,35.645,39.551,27.832,5.859,0
1583343799.940,26.855,35.645,38.574,33.691,36.621,0
1583343799.944,18.555,38.086,37.109,25.391,42.480,0
1583343799.948,20.020,39.551,32.715,17.090,45.410,0
1583343799.952,29.297,39.062,32.715,22.949,63.477,0
1583343799.955,27.832,40.039,36.621,18.066,22.461,0
1583343799.959,22.949,39.062,35.645,16.113,2.930,0
1583343799.963,26.367,39.062,37.109,24.414,27.832,0
1583343799.967,38.574,38.574,39.551,26.855,48.828,0
1583343799.971,44.434,38.574,34.180,31.250,-7.324,0
1583343799.988,32.227,37.598,31.250,25.391,28.320,0
1583343799.992,21.484,36.133,34.180,19.043,102.051,0
1583343799.996,22.949,36.621,33.203,25.391,80.566,0
1583343800.000,30.273,35.645,31.738,28.320,51.270,0
1583343800.004,26.367,34.180,30.273,29.297,74.707,0
1583343800.008,13.184,33.691,31.738,20.508,55.176,0
1583343800.012,17.090,33.203,29.785,13.184,11.230,0
1583343800.015,28.809,33.203,27.832,24.902,75.684,0
1583343800.019,22.949,33.203,32.227,29.297,86.914,0
1583343800.023,12.207,33.691,35.645,24.902,38.086,0
1583343800.027,16.113,35.156,35.156,20.020,58.105,0
1583343800.031,27.344,36.133,33.691,21.973,30.273,0
1583343800.029,27.344,34.180,35.645,22.949,-42.480,0
1583343800.033,21.484,36.621,36.621,24.414,-28.809,0
1583343800.037,20.996,38.574,36.133,24.902,15.137,0
1583343800.041,27.832,36.133,36.133,24.902,59.570,0
1583343800.045,35.645,35.156,35.645,33.203,29.297,0
1583343800.049,34.180,34.668,34.180,30.273,-7.324,0
1583343800.053,27.832,33.203,34.668,22.461,47.852,0
1583343800.056,31.250,35.156,33.203,28.320,51.758,0
1583343800.060,39.062,36.133,32.227,32.227,-5.371,0
1583343800.064,35.156,36.621,31.250,27.344,26.367,0
1583343800.068,25.391,36.133,31.250,20.996,14.160,0
1583343800.072,30.762,34.668,32.715,25.879,-35.645,0
1583343800.068,42.480,36.133,34.180,31.738,23.438,0
1583343800.072,38.574,38.086,32.227,29.785,35.156,0
1583343800.076,27.344,36.133,27.344,23.438,-13.184,0
1583343800.080,28.809,35.156,27.344,18.066,45.898,0
1583343800.084,39.062,37.598,28.809,22.949,59.570,0
1583343800.088,35.645,35.645,29.785,19.531,23.926,0
1583343800.092,23.926,34.180,28.809,20.020,2.441,0
1583343800.095,20.508,35.645,28.320,16.113,35.156,0
1583343800.099,33.691,35.156,29.785,15.625,112.793,0
1583343800.103,42.480,32.227,28.320,25.879,76.172,0
1583343800.107,33.691,33.203,29.785,29.297,41.504,0
1583343800.111,23.926,34.668,31.738,28.809,54.688,0
1583343800.149,32.715,35.156,29.297,29.297,22.949,0
1583343800.153,39.062,33.203,29.297,29.785,40.039,0
1583343800.157,29.297,31.738,28.809,26.367,102.539,0
1583343800.161,20.020,31.738,26.367,17.090,54.688,0
1583343800.165,23.438,33.203,28.320,15.137,16.113,0
1583343800.169,33.691,34.668,30.273,22.461,32.227,0
1583343800.173,30.762,34.668,31.250,23.438,48.340,0
1583343800.176,21.484,35.156,32.227,20.020,45.410,0
1583343800.180,24.902,35.156,34.180,21.484,47.363,0
1583343800.184,35.645,36.133,35.156,26.855,18.555,0
1583343800.188,35.645,38.574,36.621,26.855,31.250,0
1583343800.192,22.461,35.645,36.133,28.809,79.102,0
1583343800.169,16.113,32.715,36.133,23.926,66.895,0
1583343800.173,20.020,32.227,35.156,15.137,-5.371,0
1583343800.177,27.344,32.227,33.691,14.648,-59.082,0
1583343800.181,23.438,35.156,32.227,14.160,21.484,0
1583343800.185,14.160,36.133,33.691,11.719,52.734,0
1583343800.189,18.555,36.133,38.086,15.625,-31.738,0
1583343800.193,30.273,34.668,38.574,27.344,-26.367,0
1583343800.196,26.367,32.227,38.574,28.320,32.227,0
1583343800.200,14.160,32.715,35.156,19.043,41.016,0
1583343800.204,19.531,32.227,32.227,13.672,28.809,0
1583343800.208,35.156,34.180,35.156,22.461,26.367,0
1583343800.212,34.180,34.668,37.109,32.715,69.824,0
1583343800.229,26.367,35.645,36.133,28.809,59.570,0
1583343800.233,22.949,37.598,38.086,27.832,69.824,0
1583343800.237,31.738,37.598,40.039,23.438,71.777,0
1583343800.241,36.133,37.109,41.016,20.996,61.523,0
1583343800.245,22.949,38.574,41.992,25.879,43.945,0
1583343800.249,14.648,38.086,39.551,27.344,38.574,0
1583343800.253,23.926,34.668,36.133,32.227,50.293,0
1583343800.256,33.203,36.621,35.156,26.855,8.789,0
1583343800.260,28.809,38.574,37.109,20.996,10.254,0
1583343800.264,23.438,37.109,36.621,20.508,8.789,0
1583343800.268,27.344,35.645,34.668,20.508,-4.395,0
1583343800.272,31.250,33.691,36.621,26.855,26.367,0
1583343800.271,26.367,33.691,38.574,21.973,17.090,0
1583343800.275,19.043,33.203,37.109,19.043,-12.207,0
1583343800.279,19.531,32.227,38.086,27.344,-4.395,0
1583343800.283,28.320,33.203,39.551,33.691,48.340,0
1583343800.287,29.297,30.762,40.039,33.203,94.238,0
1583343800.291,17.578,30.273,41.992,19.043,117.188,0
1583343800.295,15.625,30.762,42.969,16.113,58.105,0
1583343800.298,26.855,30.762,41.016,29.297,9.277,0
1583343800.302,33.203,34.668,40.039,31.738,27.344,0
1583343800.306,22.461,38.086,39.062,32.227,45.898,0
1583343800.310,11.719,33.203,39.062,24.902,45.410,0
1583343800.314,16.602,30.273,40.527,17.090,35.156,0
1583343800.309,26.855,32.227,38.086,23.438,-7.324,0
1583343800.313,20.508,32.227,35.645,22.461,0.977,0
1583343800.317,7.812,32.227,34.668,13.672,79.102,0
1583343800.321,14.648,34.180,32.715,5.371,52.734,0
1583343800.325,26.367,35.156,34.668,12.695,20.020,0
1583343800.329,21.973,36.133,36.133,22.949,32.715,0
1583343800.333,10.742,38.574,36.133,19.531,51.270,0
1583343800.336,10.742,38.574,38.574,24.414,38.574,0
1583343800.340,19.043,37.109,41.504,20.020,27.344,0
1583343800.344,22.461,36.133,38.086,12.695,49.316,0
1583343800.348,18.555,35.156,38.086,16.602,51.758,0
1583343800.352,12.207,33.203,41.992,17.578,42.480,0
1583343800.369,21.973,30.762,41.504,21.973,8.301,0
1583343800.373,32.227,33.203,40.527,22.949,27.832,0
1583343800.377,21.484,35.156,39.551,19.043,57.129,0
1583343800.381,15.137,35.156,39.551,19.531,42.480,0
1583343800.385,23.926,34.668,40.039,22.949,27.832,0
1583343800.389,37.598,33.203,41.016,36.621,17.090,0
1583343800.393,41.016,36.621,41.992,38.086,24.902,0
1583343800.396,25.391,41.016,38.086,18.555,55.176,0
1583343800.400,19.043,39.062,36.133,15.625,47.363,0
1583343800.404,31.738,35.645,34.668,22.949,-9.766,0
1583343800.408,30.762,34.668,32.715,14.160,2.930,0
1583343800.412,16.602,33.203,33.691,0.977,37.109,0
1583343800.429,10.742,33.203,34.180,0.977,27.344,0
1583343800.433,19.043,34.180,34.180,8.789,-1.953,0
1583343800.437,26.367,32.715,34.668,11.719,-10.742,0
1583343800.441,18.555,33.691,37.109,14.160,6.348,0
1583343800.445,15.137,34.668,37.598,17.090,20.020,0
1583343800.449,25.879,34.668,34.180,23.438,10.742,0
1583343800.453,31.250,36.621,32.715,21.973,15.625,0
1583343800.456,28.809,39.062,33.691,14.160,1.953,0
1583343800.460,22.461,38.574,31.738,12.695,66.895,0
1583343800.464,25.879,39.551,30.762,17.090,43.457,0
1583343800.468,34.180,40.527,32.227,21.484,66.895,0
1583343800.472,32.227,39.551,34.668,19.531,67.383,0
1583343800.451,25.879,41.016,34.180,19.531,0.977,0
1583343800.455,24.414,40.039,32.227,17.578,72.266,0
1583343800.459,30.273,38.574,33.203,17.578,41.016,0
1583343800.463,27.344,38.086,35.645,26.367,-5.371,0
1583343800.467,16.113,38.086,37.109,20.996,12.695,0
1583343800.471,16.602,39.551,38.086,16.602,10.254,0
1583343800.475,28.320,40.527,38.086,20.508,-14.160,0
1583343800.478,28.809,41.016,39.062,24.902,1.465,0
1583343800.482,15.137,41.504,40.527,23.926,71.289,0
1583343800.486,12.207,41.016,39.551,17.578,39.062,0
1583343800.490,23.926,39.551,37.598,20.996,13.672,0
1583343800.494,26.855,37.598,40.039,26.367,36.621,0
1583343800.509,17.090,37.109,40.039,24.414,12.695,0
1583343800.513,12.695,36.133,38.086,21.973,29.297,0
1583343800.517,22.949,35.645,38.574,26.367,43.457,0
1583343800.521,36.621,33.691,39.551,31.250,7.812,0
1583343800.525,34.180,34.180,41.016,27.832,31.250,0
1583343800.529,20.996,35.156,41.016,24.414,44.434,0
1583343800.533,21.973,33.691,38.574,16.602,26.367,0
1583343800.536,33.691,33.691,38.086,18.555,5.859,0
1583343800.540,37.598,33.691,38.574,23.926,-17.578,0
1583343800.544,28.809,34.180,38.574,18.066,20.996,0
1583343800.548,20.996,34.668,39.551,21.484,62.012,0
1583343800.552,25.879,34.180,39.551,22.461,31.250,0
1583343800.549,26.855,35.156,38.086,14.160,27.344,0
1583343800.553,20.020,37.109,36.133,8.789,30.762,0
1583343800.557,15.137,35.645,33.691,11.719,-7.324,0
1583343800.561,21.484,32.715,33.691,14.648,1.953,0
1583343800.565,26.367,31.250,34.668,16.602,43.457,0
1583343800.569,25.391,32.715,32.715,24.902,63.477,0
1583343800.573,31.738,37.109,33.203,36.133,34.668,0
1583343800.576,32.715,34.668,39.062,31.738,15.137,0
1583343800.580,24.414,31.738,43.457,18.555,70.801,0
1583343800.584,17.090,32.227,43.945,16.602,86.426,0
1583343800.588,12.695,33.203,43.457,11.719,44.434,0
1583343800.592,20.020,35.645,41.504,15.137,67.871,0
1583343800.589,26.367,35.156,40.527,22.461,81.055,0
1583343800.593,20.996,31.250,39.551,16.113,-5.859,0
1583343800.597,11.719,30.762,38.086,17.578,-19.531,0
1583343800.601,9.766,35.156,39.062,18.066,31.250,0
1583343800.605,23.926,34.668,39.062,12.207,33.203,0
1583343800.609,32.227,33.203,40.527,14.648,-5.859,0
1583343800.613,22.949,36.133,39.551,10.742,-24.902,0
1583343800.616,18.555,37.598,34.668,14.648,23.926,0
1583343800.620,22.461,35.156,36.621,17.090,50.293,0
1583343800.624,29.297,35.156,38.574,16.113,56.641,0
1583343800.628,29.785,36.621,36.133,26.855,50.781,0
1583343800.632,20.508,35.156,39.062,21.973,-5.371,0
1583343800.649,21.973,34.180,43.457,20.508,28.809,0
1583343800.653,30.273,35.156,40.527,20.508,53.223,0
1583343800.657,31.250,37.598,40.527,15.625,-31.250,0
1583343800.661,23.438,38.574,44.434,20.020,-19.531,0
1583343800.665,26.367,38.086,42.480,25.879,58.105,0
1583343800.669,37.109,39.062,41.992,37.109,60.547,0
1583343800.673,36.621,41.016,42.969,35.645,35.156,0
1583343800.676,28.320,41.504,38.574,26.855,44.434,0
1583343800.680,23.438,40.527,39.062,22.949,28.320,0
1583343800.684,32.227,40.527,41.016,26.855,12.207,0
1583343800.688,39.551,40.527,39.062,35.645,44.434,0
1583343800.692,29.297,39.551,39.551,21.973,6.836,0
1583343800.689,23.438,36.621,39.551,13.184,-41.016,0
1583343800.693,30.273,36.621,39.062,20.996,-11.719,0
1583343800.697,36.621,35.645,37.598,20.996,23.438,0
1583343800.701,33.691,32.227,36.133,26.367,23.926,0
1583343800.705,23.438,32.715,35.156,27.832,41.016,0
1583343800.709,23.926,36.133,33.203,30.273,2.441,0
1583343800.713,32.715,38.574,33.691,32.715,37.598,0
1583343800.716,34.668,39.062,33.691,28.320,108.887,0
1583343800.720,28.320,40.527,31.738,29.785,48.340,0
1583343800.724,21.484,41.016,36.621,24.414,60.059,0
1583343800.728,29.785,38.574,36.133,15.137,102.051,0
1583343800.732,41.016,38.086,33.691,16.602,65.430,0
1583343800.729,34.668,39.062,36.621,16.602,34.180,0
1583343800.733,27.832,38.574,35.156,14.160,13.184,0
1583343800.737,32.715,35.645,36.621,16.602,42.480,0
1583343800.741,33.691,34.668,36.133,17.090,33.691,0
1583343800.745,22.461,37.109,35.645,11.230,40.039,0
1583343800.749,14.160,38.574,35.645,13.184,35.156,0
1583343800.753,16.602,38.086,35.156,18.555,4.395,0
1583343800.756,26.367,37.598,38.086,18.066,-6.836,0
1583343800.760,21.484,37.598,37.109,15.137,-33.691,0
1583343800.764,11.719,37.598,35.156,9.766,2.441,0
1583343800.768,13.672,37.109,38.574,12.695,33.691,0
1583343800.772,22.461,34.668,40.039,18.066,20.996,0
1583343800.808,22.949,37.598,41.992,20.508,45.898,0
1583343800.812,13.184,39.062,43.457,19.531,58.594,0
1583343800.816,11.719,38.086,42.969,20.508,15.137,0
1583343800.820,22.461,40.527,41.992,28.320,27.344,0
1583343800.824,28.320,40.527,39.551,32.715,42.969,0
1583343800.828,22.949,37.598,37.109,28.809,40.039,0
1583343800.832,15.625,37.598,39.551,20.020,48.828,0
1583343800.835,24.414,38.574,38.574,17.090,18.555,0
1583343800.839,34.180,40.039,36.133,27.832,22.949,0
1583343800.843,24.414,38.086,37.598,30.762,24.902,0
1583343800.847,18.555,35.156,39.062,31.250,-7.324,0
1583343800.851,26.855,35.156,38.086,29.785,15.625,0
1583343800.830,36.133,35.156,36.621,24.414,58.594,0
1583343800.834,33.691,35.645,40.039,29.297,50.781,0
1583343800.838,25.391,35.645,40.527,34.668,19.531,0
1583343800.842,32.227,38.086,39.062,30.273,-15.625,0
1583343800.846,41.992,39.062,39.062,35.156,9.766,0
1583343800.850,37.598,37.109,39.062,38.574,75.195,0
1583343800.854,24.414,38.574,38.574,25.391,64.941,0
1583343800.857,17.578,39.062,39.551,23.438,41.504,0
1583343800.861,21.973,36.133,40.039,25.879,65.918,0
1583343800.865,24.414,33.691,39.062,25.391,75.195,0
1583343800.869,14.648,31.738,37.109,18.555,32.715,0
1583343800.873,10.742,33.203,37.598,17.578,20.508,0
1583343800.888,20.508,34.180,39.062,21.973,82.520,0
1583343800.892,31.250,32.227,39.062,22.949,14.648,0
1583343800.896,26.367,31.738,38.574,23.438,8.301,0
1583343800.900,16.113,31.738,38.086,16.113,49.805,0
1583343800.904,28.809,31.250,40.039,29.297,26.855,0
1583343800.908,48.828,36.133,38.574,43.945,8.301,0
1583343800.912,45.898,40.527,33.203,33.203,14.160,0
1583343800.915,29.785,39.062,31.250,25.879,20.020,0
1583343800.919,25.879,40.039,32.715,20.996,12.695,0
1583343800.923,36.621,39.551,35.156,24.902,-6.348,0
1583343800.927,40.039,36.621,35.645,31.250,-17.090,0
1583343800.931,30.273,35.156,33.691,22.461,41.016,0
1583343800.928,27.832,36.133,34.668,27.344,59.570,0
1583343800.932,40.039,37.109,38.086,33.203,59.082,0
1583343800.936,43.457,36.133,37.598,31.250,30.273,0
1583343800.940,36.621,36.133,37.598,31.738,46.387,0
1583343800.944,33.691,36.621,36.621,27.344,61.035,0
1583343800.948,37.598,37.598,34.180,26.855,79.102,0
1583343800.952,45.410,38.574,33.691,30.762,46.387,0
1583343800.955,40.527,37.109,34.668,30.762,30.762,0
1583343800.959,27.344,35.156,37.598,26.855,1.953,0
1583343800.963,27.344,35.156,35.156,24.414,59.082,0
1583343800.967,38.574,37.109,31.738,25.879,107.910,0
1583343800.971,32.715,37.598,34.180,21.484,49.805,0
1583343800.969,19.043,36.133,33.691,18.066,16.113,0
1583343800.973,20.996,37.598,31.738,24.902,-21.484,0
1583343800.977,33.691,37.598,32.715,25.879,6.348,0
1583343800.981,38.086,34.668,36.133,25.391,69.824,0
1583343800.985,27.344,34.668,37.109,25.879,79.102,1
1583343800.989,21.973,37.598,33.203,28.320,43.457,0
1583343800.993,31.738,34.668,32.715,29.785,5.371,0
1583343800.996,36.621,33.203,35.645,26.855,-9.766,0
1583343801.000,27.832,36.133,34.668,26.855,49.805,0
1583343801.004,20.020,33.691,31.250,23.926,2.441,0
1583343801.008,26.367,32.227,33.691,21.484,-41.504,0
1583343801.012,35.645,32.715,35.156,28.320,20.508,0
1583343801.008,31.738,35.156,33.691,29.785,32.227,0
1583343801.012,22.949,36.621,38.086,26.855,63.477,0
1583343801.016,22.949,36.133,40.527,29.297,62.012,0
1583343801.020,32.715,39.062,36.133,31.738,23.926,0
1583343801.024,33.691,40.039,33.691,32.715,-1.953,0
1583343801.028,20.508,37.598,37.598,32.227,-22.461,0
1583343801.032,18.066,36.621,37.598,32.715,42.969,0
1583343801.035,29.785,37.109,33.203,34.668,80.566,0
1583343801.039,33.691,37.109,33.203,30.273,47.363,0
1583343801.043,24.414,35.645,33.203,24.414,34.668,0
1583343801.047,19.043,36.133,32.227,30.762,-5.859,0
1583343801.051,28.320,33.691,34.668,39.062,4.395,0
1583343801.088,34.180,32.715,36.133,33.203,29.297,0
1583343801.092,29.297,33.691,36.133,31.738,44.434,0
1583343801.096,19.531,31.250,35.156,29.297,20.996,0
1583343801.100,19.043,31.250,35.645,26.367,-5.371,0
1583343801.104,28.320,33.691,33.691,23.926,-10.742,0
1583343801.108,30.273,35.156,32.227,26.855,35.156,0
1583343801.112,20.020,34.180,32.227,20.508,47.852,0
1583343801.115,22.949,35.156,30.762,17.578,-6.348,0
1583343801.119,33.691,36.621,30.762,27.832,13.672,0
1583343801.123,29.297,36.133,31.250,28.320,49.805,0
1583343801.127,23.438,36.133,31.250,29.297,36.621,0
1583343801.131,20.020,35.645,32.715,31.250,-2.930,0
1583343801.108,27.344,35.156,34.668,31.738,-40.039,0
1583343801.112,34.668,33.691,37.598,28.809,-17.090,0
1583343801.116,23.438,32.227,39.551,23.926,29.297,0
1583343801.120,18.066,33.691,36.621,23.926,53.223,0
1583343801.124,26.855,33.203,36.621,32.715,36.133,0
1583343801.128,32.715,31.738,38.574,34.668,21.973,0
1583343801.132,27.832,33.203,36.621,30.762,57.129,0
1583343801.135,17.090,31.738,32.715,24.414,41.992,0
1583343801.139,15.625,29.297,32.227,24.414,7.812,0
1583343801.143,23.926,30.273,32.715,33.691,48.828,0
1583343801.147,29.785,32.715,34.180,37.109,80.566,0
1583343801.151,24.902,35.156,34.668,29.297,23.438,0
1583343801.168,24.902,39.062,32.715,23.926,42.969,0
1583343801.172,38.574,39.062,31.738,32.227,88.867,0
1583343801.176,38.086,38.086,34.180,31.250,41.504,0
1583343801.180,25.391,37.598,37.109,20.996,-9.277,0
1583343801.184,22.461,37.598,38.086,21.973,4.883,0
1583343801.188,27.344,37.598,35.156,26.367,46.875,0
1583343801.192,36.133,37.598,33.203,26.367,53.223,0
1583343801.195,25.391,39.062,33.203,18.066,32.715,0
1583343801.199,7.324,36.621,34.668,11.719,27.344,0
1583343801.203,12.207,36.621,35.156,16.602,24.414,0
1583343801.207,22.949,37.109,35.156,15.137,-4.395,0
1583343801.211,17.090,34.180,38.086,13.184,-3.418,0
1583343801.210,4.883,33.203,41.016,13.184,26.855,0
1583343801.214,8.789,33.691,41.992,14.160,-10.742,0
1583343801.218,15.137,30.273,40.527,20.508,34.668,0
1583343801.222,11.230,29.297,40.527,18.555,95.703,0
1583343801.226,7.324,32.227,41.992,18.555,22.949,0
1583343801.230,7.324,37.598,42.480,23.926,-36.621,0
1583343801.234,15.625,38.574,40.527,25.879,36.621,0
1583343801.237,23.926,35.645,37.109,26.367,49.805,0
1583343801.241,15.625,35.645,35.645,21.484,-1.953,0
1583343801.245,11.719,34.668,36.133,21.484,37.109,0
1583343801.249,20.996,33.691,36.621,27.344,36.621,0
1583343801.253,32.227,35.645,37.109,25.879,27.344,0
1583343801.249,31.738,36.621,36.621,21.484,14.160,0
1583343801.253,27.344,37.598,38.574,22.461,57.129,0
1583343801.257,34.180,38.086,37.598,32.715,62.988,0
1583343801.261,41.504,37.598,37.598,41.992,39.062,0
1583343801.265,39.062,40.039,37.598,31.738,44.922,0
1583343801.269,31.250,42.480,36.133,24.902,45.410,0
1583343801.273,30.762,41.504,36.133,29.785,15.137,0
1583343801.276,39.551,41.992,33.203,36.133,39.551,0
1583343801.280,39.062,41.992,33.203,33.691,90.332,0
1583343801.284,26.855,37.109,34.180,20.508,43.457,0
1583343801.288,26.855,35.645,32.227,18.066,22.949,0
1583343801.292,33.203,40.039,32.227,27.832,76.172,0
1583343801.289,34.180,39.062,32.715,35.645,60.059,0
1583343801.293,27.832,36.133,31.250,34.180,-3.418,0
1583343801.297,19.043,38.086,30.762,31.738,49.316,0
1583343801.301,28.809,39.062,32.715,31.738,17.090,0
1583343801.305,41.504,37.109,32.715,30.762,10.254,0
1583343801.309,36.133,36.133,31.250,33.203,24.414,0
1583343801.313,27.344,36.621,30.273,34.180,-3.906,0
1583343801.316,28.320,39.062,31.250,32.715,29.785,0
1583343801.320,39.062,39.062,30.762,34.668,29.297,0
1583343801.324,35.645,38.086,29.785,32.227,52.734,0
1583343801.328,21.484,36.133,30.273,27.344,68.848,0
1583343801.332,21.973,33.203,32.715,31.738,33.691,0
1583343801.349,29.785,35.156,34.668,32.227,-55.176,0
1583343801.353,28.320,35.156,35.156,29.297,-59.082,0
1583343801.357,22.949,35.645,36.133,30.762,-7.324,0
1583343801.361,21.484,37.109,37.109,26.367,-7.324,0
1583343801.365,32.227,36.621,36.621,24.414,68.359,0
1583343801.369,37.109,38.086,35.645,24.902,80.566,0
1583343801.373,29.297,38.574,38.086,30.273,19.043,0
1583343801.376,23.926,39.062,36.133,24.902,43.945,0
1583343801.380,31.738,37.598,32.715,21.484,26.855,0
1583343801.384,40.527,37.109,32.715,33.691,20.020,0
1583343801.388,32.715,41.016,36.621,32.715,35.156,0
1583343801.392,23.438,40.039,38.574,23.438,5.371,0
1583343801.389,29.297,38.086,39.062,27.344,27.344,0
1583343801.393,36.133,38.574,41.016,36.133,51.270,0
1583343801.397,32.227,39.062,40.527,31.250,45.410,0
1583343801.401,24.414,38.086,40.039,25.879,-4.883,0
1583343801.405,26.367,34.668,38.086,25.879,-20.508,0
1583343801.409,41.016,37.109,39.551,28.809,1.953,0
1583343801.413,47.363,40.039,36.621,32.227,14.160,0
1583343801.416,39.062,41.016,34.668,32.715,45.410,0
1583343801.420,26.367,37.109,41.016,31.250,30.273,0
1583343801.424,25.391,32.227,40.527,21.484,47.852,0
1583343801.428,31.738,31.250,37.109,27.344,79.590,0
1583343801.432,20.508,27.832,38.574,27.344,91.797,0
1583343801.429,15.137,31.250,37.598,15.625,50.781,0
1583343801.433,20.996,35.645,35.645,16.113,18.555,0
1583343801.437,25.391,34.668,34.668,16.602,15.137,0
1583343801.441,28.320,32.715,33.691,17.090,19.531,0
1583343801.445,17.578,35.156,34.668,23.926,51.758,0
1583343801.449,14.160,36.133,34.668,24.414,-5.859,0
1583343801.453,28.809,36.133,34.668,32.227,16.113,0
1583343801.456,32.227,37.109,36.133,32.715,49.316,0
1583343801.460,22.461,37.109,33.691,23.438,43.457,0
1583343801.464,17.578,37.109,34.668,25.391,1.953,0
1583343801.468,24.414,38.574,36.133,25.391,-17.578,0
1583343801.472,31.738,37.109,37.598,30.762,0.000,0
1583343801.489,25.391,37.109,38.574,28.320,27.832,0
1583343801.493,15.137,37.109,35.645,20.508,21.973,0
1583343801.497,24.414,33.691,35.645,27.832,26.855,0
1583343801.501,33.203,33.203,39.062,27.344,61.523,0
1583343801.505,27.344,35.645,42.969,23.926,9.277,0
1583343801.509,17.578,37.109,43.945,21.973,2.441,0
1583343801.513,20.020,37.109,40.527,13.672,35.645,0
1583343801.516,32.715,37.598,40.039,20.508,0.000,0
1583343801.520,29.785,38.574,42.969,27.344,-3.906,0
1583343801.524,17.578,37.109,43.457,24.414,-15.625,0
1583343801.528,22.949,36.133,40.527,20.996,0.000,0
1583343801.532,38.086,38.086,40.527,21.484,72.754,0
1583343801.529,36.133,39.062,38.574,25.879,67.383,0
1583343801.533,28.320,38.574,36.621,26.367,13.184,0
1583343801.537,31.738,39.062,37.598,23.438,23.438,0
1583343801.541,38.086,38.574,35.645,20.020,41.504,0
1583343801.545,33.691,35.645,34.668,22.461,57.129,0
1583343801.549,20.020,35.645,37.109,26.855,72.754,0
1583343801.553,14.160,34.180,35.645,24.414,61.523,0
1583343801.556,20.020,34.668,35.645,22.949,71.777,0
1583343801.560,24.414,38.086,38.574,25.879,92.285,0
1583343801.564,21.973,38.574,38.086,19.043,61.523,0
1583343801.568,15.137,37.109,34.180,9.766,11.719,0
1583343801.572,16.113,37.109,34.180,11.719,-48.340,0
1583343801.569,27.344,36.621,33.691,20.020,6.836,0
1583343801.573,22.949,37.109,35.645,23.926,73.242,0
1583343801.577,13.672,37.598,36.621,20.996,29.297,0
1583343801.581,17.578,37.109,34.668,20.020,23.926,0
1583343801.585,27.344,39.551,37.598,24.902,66.406,0
1583343801.589,27.344,38.086,40.039,25.879,42.969,0
1583343801.593,15.625,36.621,39.551,14.648,40.039,0
1583343801.596,9.766,35.156,39.062,3.906,38.574,0
1583343801.600,17.578,34.180,37.109,10.254,27.344,0
1583343801.604,25.879,36.621,40.039,23.926,65.430,0
1583343801.608,23.926,36.133,42.969,24.902,56.152,0
1583343801.612,21.484,37.598,39.062,24.902,27.832,0
1583343801.630,26.367,40.039,38.574,25.879,47.363,0
1583343801.634,34.180,38.086,39.062,23.926,54.688,0
1583343801.638,28.320,38.086,38.574,20.996,37.598,0
1583343801.642,19.043,39.551,37.598,17.578,-18.066,0
1583343801.646,25.391,38.086,36.133,18.066,-5.371,0
1583343801.650,35.156,36.133,38.574,24.414,12.695,0
1583343801.654,35.156,35.156,39.551,29.785,-29.297,0
1583343801.657,26.855,36.621,39.062,27.832,-13.184,0
1583343801.661,25.391,37.109,39.551,22.949,28.809,0
1583343801.665,33.203,34.180,41.504,26.855,87.891,0
1583343801.669,32.227,34.668,39.551,21.973,74.219,0
1583343801.673,21.484,37.109,36.133,18.555,46.875,0
1583343801.669,16.602,36.621,36.133,20.508,56.152,0
1583343801.673,21.484,38.086,38.086,14.160,35.645,0
1583343801.677,26.367,36.133,39.062,16.113,8.789,0
1583343801.681,18.555,33.691,37.598,21.484,38.086,0
1583343801.685,9.766,36.133,37.109,25.391,74.219,0
1583343801.689,15.625,38.086,38.086,24.414,54.688,0
1583343801.693,27.832,39.062,36.621,23.438,51.758,0
1583343801.696,24.414,37.598,39.551,23.926,39.062,0
1583343801.700,11.230,37.598,43.457,20.020,62.500,0
1583343801.704,13.672,40.039,39.062,14.160,60.059,0
1583343801.708,29.785,41.016,35.645,12.207,9.277,0
1583343801.712,33.203,41.504,35.156,16.602,20.508,0
1583343801.711,21.973,39.551,36.621,20.508,86.914,0
1583343801.715,25.879,39.062,40.039,21.484,66.895,0
1583343801.719,36.621,39.551,36.621,25.879,18.555,0
1583343801.723,40.039,39.062,34.180,33.691,33.203,0
1583343801.727,30.273,38.574,34.668,27.832,21.973,0
