timestamps,TP9,AF7,AF8,TP10,Right AUX,Marker0
1583340968.287,27.344,36.133,35.645,15.137,6.836,0
1583340968.291,26.855,33.203,36.621,14.648,37.598,0
1583340968.295,35.645,30.762,38.086,17.090,21.484,0
1583340968.299,34.180,29.297,39.551,20.508,-1.465,0
1583340968.303,24.414,30.762,37.109,20.996,54.688,0
1583340968.307,24.414,32.227,36.621,18.555,17.090,0
1583340968.311,31.250,31.250,36.133,14.648,-18.555,0
1583340968.314,33.203,32.715,33.691,12.695,13.184,0
1583340968.318,24.414,32.227,32.715,12.695,72.266,0
1583340968.322,20.020,31.250,31.738,8.789,32.227,0
1583340968.326,21.973,30.762,31.250,4.883,26.367,0
1583340968.330,22.949,33.203,31.738,3.418,66.895,0
1583340968.367,20.508,35.156,31.738,5.859,63.477,0
1583340968.371,17.578,34.668,28.809,0.488,83.984,0
1583340968.375,21.484,35.156,26.855,-1.953,109.863,0
1583340968.379,27.832,36.133,28.809,5.859,66.895,0
1583340968.383,28.320,36.133,28.809,6.348,-3.418,0
1583340968.387,27.832,40.039,30.762,5.371,6.836,0
1583340968.391,26.855,39.551,29.297,6.836,24.902,0
1583340968.394,33.203,35.156,28.320,8.789,3.418,0
1583340968.398,36.621,35.645,27.344,14.160,46.387,0
1583340968.402,26.855,36.621,25.391,14.648,29.785,0
1583340968.406,23.926,39.062,26.367,12.695,2.441,0
1583340968.410,32.227,41.016,25.879,11.719,51.758,0
1583340968.390,32.715,39.551,26.367,9.277,74.219,0
1583340968.394,29.785,36.621,27.344,10.742,57.617,0
1583340968.398,28.809,36.621,28.320,9.277,66.406,0
1583340968.402,29.785,38.086,27.832,7.812,53.711,0
1583340968.406,37.598,36.621,26.855,9.766,36.133,0
1583340968.410,35.156,36.133,26.367,7.812,60.059,0
1583340968.414,30.273,34.668,27.832,4.395,76.172,0
1583340968.417,30.762,31.738,28.809,4.395,78.125,0
1583340968.421,31.250,32.715,28.809,4.883,41.016,0
1583340968.425,24.414,36.133,28.320,3.418,41.504,0
1583340968.429,12.695,36.621,27.832,0.488,51.758,0
1583340968.433,9.277,34.180,28.320,-1.465,-14.160,0
1583340968.427,14.648,36.621,28.320,-0.488,-21.973,0
1583340968.431,13.184,38.086,27.832,0.488,56.641,0
1583340968.435,9.277,39.062,30.762,4.883,28.809,0
1583340968.439,10.742,39.062,31.738,3.906,7.324,0
1583340968.443,17.578,35.156,28.320,4.395,54.199,0
1583340968.447,22.461,35.645,27.832,11.230,51.758,0
1583340968.451,19.043,37.109,27.832,11.719,41.016,0
1583340968.454,17.090,34.668,30.273,11.230,49.316,0
1583340968.458,25.391,35.156,31.738,11.230,-4.883,0
1583340968.462,31.738,36.133,32.227,12.207,-11.230,0
1583340968.466,25.391,34.180,32.227,12.207,-59.082,0
1583340968.470,23.926,34.180,30.762,9.277,-62.988,0
1583340968.487,27.344,35.156,32.227,8.301,-11.230,0
1583340968.491,28.809,36.133,34.180,10.742,-2.930,0
1583340968.495,27.832,34.668,34.668,11.719,86.914,0
1583340968.499,23.438,33.691,36.621,12.207,89.844,0
1583340968.503,24.414,31.250,36.621,15.137,60.059,0
1583340968.507,35.156,30.762,33.691,20.996,10.254,0
1583340968.511,35.156,31.250,35.645,21.484,39.062,0
1583340968.514,30.273,30.762,38.086,23.438,58.594,0
1583340968.518,34.180,32.227,34.180,24.902,-2.441,0
1583340968.522,39.062,32.715,33.691,20.996,-5.859,0
1583340968.526,48.828,33.203,33.691,24.902,34.668,0
1583340968.530,48.340,33.691,32.715,27.344,63.477,0
1583340968.547,38.086,33.691,32.715,22.949,47.363,0
1583340968.551,45.410,34.180,33.691,24.414,48.340,0
1583340968.555,60.059,35.156,34.668,31.738,50.293,0
1583340968.559,59.570,34.668,37.598,35.156,53.223,0
1583340968.563,51.758,37.109,40.039,34.180,92.285,0
1583340968.567,54.199,37.598,37.109,34.180,53.711,0
1583340968.571,59.082,36.621,36.621,32.227,15.625,0
1583340968.574,61.035,37.109,35.645,33.691,82.031,0
1583340968.578,55.664,37.598,33.203,34.668,21.973,0
1583340968.582,52.246,40.039,34.668,34.180,14.648,0
1583340968.586,60.059,39.551,34.668,36.133,60.547,0
1583340968.590,60.547,38.086,32.715,34.180,40.527,0
1583340968.587,50.781,37.598,35.645,33.203,1.953,0
1583340968.591,47.363,35.156,36.621,33.203,18.555,0
1583340968.595,45.898,34.668,33.203,27.344,-3.906,0
1583340968.599,48.340,35.156,29.785,24.902,-30.273,0
1583340968.603,49.316,34.668,31.738,25.879,30.762,0
1583340968.607,39.551,36.621,31.738,23.926,29.297,0
1583340968.611,40.527,35.645,28.320,25.391,13.184,0
1583340968.614,46.875,34.180,30.273,27.832,37.598,0
1583340968.618,42.480,34.180,29.785,25.391,23.438,0
1583340968.622,33.691,35.156,28.320,24.902,-38.086,0
1583340968.626,35.156,35.156,32.227,24.902,-12.695,0
1583340968.630,42.969,35.156,31.250,24.902,16.602,0
1583340968.627,44.434,38.086,27.344,26.367,42.969,0
1583340968.631,37.598,38.574,26.367,20.508,83.496,0
1583340968.635,32.227,37.109,29.785,20.508,70.312,0
1583340968.639,38.574,37.598,31.738,25.879,76.172,0
1583340968.643,41.992,35.645,30.273,27.344,68.848,0
1583340968.647,35.156,34.180,31.738,27.832,83.008,0
1583340968.651,30.762,36.133,34.668,30.273,61.523,0
1583340968.654,40.039,35.645,34.668,32.715,23.926,0
1583340968.658,44.922,32.227,33.203,31.738,20.020,0
1583340968.662,37.598,34.180,29.297,28.809,23.926,0
1583340968.666,30.273,34.668,29.785,29.297,20.996,0
1583340968.670,28.809,33.691,33.203,24.902,-0.977,0
1583340968.667,33.691,34.668,28.809,20.020,-5.371,0
1583340968.671,39.551,32.715,27.832,29.785,40.527,0
1583340968.675,37.598,32.715,32.715,33.691,22.461,0
1583340968.679,14.160,32.715,31.738,11.230,31.250,0
1583340968.683,-2.441,28.809,30.273,-8.789,55.664,0
1583340968.687,4.883,26.367,29.785,-5.371,25.391,0
1583340968.691,-5.859,27.832,30.273,-12.207,18.066,0
1583340968.694,-16.602,29.785,30.273,-21.973,41.016,0
1583340968.698,-3.906,30.273,29.297,-15.625,22.949,0
1583340968.702,0.977,31.250,29.297,-21.484,9.277,0
1583340968.706,-4.395,30.762,28.320,-26.855,85.938,0
1583340968.710,-0.488,28.809,29.297,-13.184,50.781,0
1583340968.708,5.859,31.738,28.809,-6.836,-2.441,0
1583340968.712,9.766,30.762,27.832,-7.812,20.508,0
1583340968.716,5.371,25.879,28.809,-6.348,27.344,0
1583340968.720,-3.906,28.809,27.344,-3.418,30.273,0
1583340968.724,-0.977,32.227,26.855,1.465,-6.348,0
1583340968.728,9.277,32.715,29.297,10.254,15.137,0
1583340968.732,6.348,32.715,31.738,12.695,58.594,0
1583340968.735,-7.324,34.668,30.273,7.812,20.020,0
1583340968.739,-10.742,35.156,28.809,9.277,1.465,0
1583340968.743,-1.953,34.180,27.832,11.230,19.531,0
1583340968.747,2.930,35.645,26.367,10.254,28.320,0
1583340968.751,-2.930,34.180,25.391,8.301,23.926,0
1583340968.787,-3.906,30.762,26.855,7.324,25.391,0
1583340968.791,4.883,30.762,27.344,7.324,34.668,0
1583340968.795,10.254,30.273,28.809,8.301,35.156,0
1583340968.799,8.301,31.250,32.715,10.742,75.684,0
1583340968.803,4.883,33.203,33.691,8.789,40.527,0
1583340968.807,9.277,31.250,34.180,9.277,25.879,0
1583340968.811,19.043,28.320,33.203,11.719,51.758,0
1583340968.814,23.438,30.762,32.715,13.184,34.180,0
1583340968.818,21.484,35.645,35.156,12.207,37.598,0
1583340968.822,27.832,36.133,37.109,16.113,66.895,0
1583340968.826,38.574,35.156,36.621,20.020,55.176,0
1583340968.830,41.016,37.598,34.180,14.160,56.152,0
1583340968.829,37.598,38.574,35.156,13.672,28.809,0
1583340968.833,38.086,37.109,32.715,17.578,50.781,0
1583340968.837,44.434,36.621,28.809,20.508,47.852,0
1583340968.841,47.852,37.109,29.297,20.508,7.812,0
1583340968.845,41.504,37.598,29.785,18.066,26.367,0
1583340968.849,37.109,37.109,30.762,20.508,3.906,0
1583340968.853,42.480,36.133,31.250,20.996,20.996,0
1583340968.856,43.945,34.668,30.762,17.578,79.102,0
1583340968.860,37.598,35.156,31.738,18.555,67.871,0
1583340968.864,30.762,35.645,31.250,16.113,37.598,0
1583340968.868,28.320,34.180,33.203,13.672,41.992,0
1583340968.872,31.738,35.156,35.645,17.578,86.914,0
1583340968.847,29.785,34.668,32.715,14.160,89.844,0
1583340968.851,21.484,33.691,32.715,10.742,69.336,0
1583340968.855,21.484,34.180,31.250,6.836,60.059,0
1583340968.859,27.344,33.691,27.832,6.348,4.395,0
1583340968.863,30.273,34.180,27.832,10.254,21.484,0
1583340968.867,22.461,35.156,27.832,10.254,25.391,0
1583340968.871,24.414,35.156,26.855,13.184,-2.930,0
1583340968.874,34.668,35.156,31.250,13.672,4.395,0
1583340968.878,33.691,33.203,33.691,15.137,-6.836,0
1583340968.882,28.320,34.668,34.180,16.113,-18.066,0
1583340968.886,26.367,35.645,34.180,15.625,71.289,0
1583340968.890,31.250,34.668,33.203,18.555,75.684,0
1583340968.907,37.109,34.668,32.715,17.578,20.996,0
1583340968.911,32.227,35.156,32.715,11.719,83.496,0
1583340968.915,29.297,36.133,33.203,12.207,77.637,0
1583340968.919,36.133,37.109,30.273,20.508,27.832,0
1583340968.923,45.410,34.180,30.273,25.391,20.996,0
1583340968.927,45.410,33.691,33.203,25.879,60.059,0
1583340968.931,38.086,40.039,34.668,26.855,34.668,0
1583340968.934,35.156,38.574,35.156,23.926,9.766,0
1583340968.938,43.457,37.109,32.227,25.391,31.738,0
1583340968.942,44.434,36.621,29.297,28.320,49.316,0
1583340968.946,39.551,33.691,29.297,27.832,37.109,0
1583340968.950,41.992,35.645,28.320,25.879,3.906,0
1583340968.947,42.969,36.133,28.320,23.926,9.277,0
1583340968.951,45.410,34.180,29.785,27.344,17.578,0
1583340968.955,40.039,34.180,29.785,31.738,66.406,0
1583340968.959,33.691,36.133,31.738,31.250,110.840,0
1583340968.963,37.598,36.133,33.691,27.344,46.387,0
1583340968.967,41.504,34.180,33.203,23.926,18.066,0
1583340968.971,34.180,32.715,31.250,20.996,27.344,0
1583340968.974,24.414,32.715,30.762,17.090,-19.043,0
1583340968.978,29.297,32.227,31.738,19.043,-6.836,0
1583340968.982,36.621,32.715,32.715,17.090,15.137,0
1583340968.986,32.715,34.668,33.691,13.184,28.809,0
1583340968.990,27.344,35.645,34.180,18.066,55.664,0
1583340968.987,27.344,35.156,36.133,20.508,43.945,0
1583340968.991,33.203,31.250,33.203,21.973,44.434,0
1583340968.995,37.109,27.832,31.738,24.414,70.312,0
1583340968.999,30.762,31.250,33.691,24.902,21.484,0
1583340969.003,32.227,34.180,35.156,24.414,1.953,0
1583340969.007,35.645,33.203,34.180,25.391,0.488,0
1583340969.011,33.203,35.156,33.691,22.949,3.906,0
1583340969.014,28.809,36.621,34.180,23.438,44.922,0
1583340969.018,25.391,35.156,34.180,26.367,47.363,0
1583340969.022,29.297,33.691,34.180,21.973,78.613,0
1583340969.026,35.645,33.203,36.621,22.461,42.969,0
1583340969.030,35.156,34.668,36.133,23.438,-7.324,0
1583340969.048,27.344,35.156,34.668,16.602,22.461,0
1583340969.052,23.438,31.250,34.668,13.184,20.020,0
1583340969.056,31.250,30.762,32.715,17.578,10.742,0
1583340969.060,32.715,31.250,32.227,15.137,44.922,0
1583340969.064,28.809,30.762,33.203,13.672,10.254,0
1583340969.068,25.391,31.250,32.227,11.230,61.523,0
1583340969.072,28.809,31.738,28.320,6.348,78.125,0
1583340969.075,36.133,34.180,28.320,14.648,-13.184,0
1583340969.079,34.668,36.621,32.715,21.973,-0.488,0
1583340969.083,30.762,34.668,33.203,20.020,11.719,0
1583340969.087,35.156,33.691,35.156,23.926,-19.531,0
1583340969.091,41.992,36.621,36.621,29.297,3.418,0
1583340969.107,35.645,36.621,34.180,24.902,60.547,0
1583340969.111,27.344,36.133,34.668,21.484,21.484,0
1583340969.115,32.227,35.645,34.668,25.391,-2.441,0
1583340969.119,38.086,34.180,34.180,25.879,52.734,0
1583340969.123,35.156,33.691,32.715,19.043,47.852,0
1583340969.127,29.297,34.668,33.691,18.555,23.438,0
1583340969.131,27.832,34.668,34.668,19.043,41.992,0
1583340969.134,31.738,32.715,33.203,21.484,29.785,0
1583340969.138,32.715,33.691,32.227,21.973,16.602,0
1583340969.142,24.414,36.133,30.273,16.113,70.312,0
1583340969.146,21.973,34.180,29.785,16.602,72.266,0
1583340969.150,31.738,35.645,29.785,19.043,48.340,0
1583340969.129,32.715,34.668,30.273,16.602,8.789,0
1583340969.133,25.391,34.668,25.879,14.648,-53.223,0
1583340969.137,23.926,37.109,24.414,14.648,-55.176,0
1583340969.141,31.250,37.598,27.832,13.184,-25.879,0
1583340969.145,37.109,36.133,28.320,12.695,14.648,0
1583340969.149,29.297,33.203,29.785,14.160,43.457,0
1583340969.153,24.414,34.180,31.250,17.578,84.961,0
1583340969.156,26.855,33.691,32.715,19.043,67.383,0
1583340969.160,31.738,30.762,31.738,18.555,42.969,0
1583340969.164,28.320,29.297,32.227,19.531,46.875,0
1583340969.168,22.949,31.250,33.203,20.508,29.785,0
1583340969.172,26.367,33.203,32.715,22.461,66.406,0
1583340969.187,27.832,32.715,33.691,17.090,83.496,0
1583340969.191,28.809,34.180,33.691,16.113,9.277,0
1583340969.195,26.855,35.156,35.156,21.484,-8.301,0
1583340969.199,27.832,35.645,36.621,22.949,22.949,0
1583340969.203,40.039,37.598,34.180,25.391,-8.789,0
1583340969.207,41.992,37.598,36.621,21.973,19.043,0
1583340969.211,36.621,38.086,36.621,17.090,36.621,0
1583340969.214,36.621,38.086,36.133,18.066,35.156,0
1583340969.218,41.992,38.086,37.598,20.508,-17.578,0
1583340969.222,45.898,38.574,36.621,24.414,-35.156,0
1583340969.226,34.180,38.086,37.598,23.926,56.152,0
1583340969.230,21.973,37.109,37.598,19.531,60.547,0
1583340969.227,25.391,35.156,38.574,23.438,8.789,0
1583340969.231,34.668,33.203,37.109,26.855,18.555,0
1583340969.235,30.762,33.203,37.109,24.902,26.855,0
1583340969.239,20.996,31.250,38.574,21.973,24.414,0
1583340969.243,22.461,26.367,41.016,22.949,18.066,0
1583340969.247,30.273,27.344,41.992,27.832,3.906,0
1583340969.251,28.809,29.785,42.969,32.227,23.926,0
1583340969.254,22.461,27.832,44.922,33.203,7.324,0
1583340969.258,20.508,28.320,44.434,28.809,41.992,0
1583340969.262,24.414,31.738,42.969,20.996,17.090,0
1583340969.266,27.832,33.691,40.527,20.996,-34.668,0
1583340969.270,23.926,29.785,37.598,22.949,-9.766,0
1583340969.287,16.602,26.855,35.645,20.508,32.715,0
1583340969.291,19.043,27.832,33.203,18.066,40.039,0
1583340969.295,22.461,28.809,34.180,17.090,-27.832,0
1583340969.299,20.996,30.762,37.109,18.555,27.832,0
1583340969.303,17.578,33.203,37.109,19.531,115.234,0
1583340969.307,20.020,33.203,39.062,22.949,29.297,0
1583340969.311,28.809,32.715,38.574,26.855,-20.020,0
1583340969.314,30.273,34.180,37.109,22.949,31.250,0
1583340969.318,23.438,33.691,38.574,19.043,32.227,0
1583340969.322,20.508,32.227,37.598,22.461,16.113,0
1583340969.326,29.297,30.762,37.109,22.949,22.461,0
1583340969.330,34.180,30.762,35.645,21.973,29.785,0
1583340969.347,24.414,32.715,33.691,19.531,20.996,0
1583340969.351,17.090,31.738,33.691,19.043,38.574,0
1583340969.355,24.902,32.715,35.645,18.555,47.852,0
1583340969.359,33.203,34.180,37.109,20.508,31.250,0
1583340969.363,31.250,33.691,37.109,24.414,12.207,0
1583340969.367,26.855,33.203,38.086,23.438,16.113,0
1583340969.371,30.762,35.645,39.062,24.414,54.688,0
1583340969.374,43.457,35.645,36.133,27.832,9.277,0
1583340969.378,41.504,36.133,36.133,25.879,-1.953,0
1583340969.382,31.738,38.086,36.621,25.391,42.969,0
1583340969.386,36.133,37.598,32.227,24.414,39.551,0
1583340969.390,43.945,37.598,31.738,24.414,33.691,0
1583340969.367,43.945,37.109,33.691,26.855,37.109,0
1583340969.371,35.645,34.180,34.180,24.414,35.645,0
1583340969.375,29.297,33.691,34.668,24.414,67.383,0
1583340969.379,34.668,35.156,35.156,22.949,20.508,0
1583340969.383,39.551,37.109,37.109,22.461,-15.625,0
1583340969.387,32.227,36.621,36.133,26.855,41.504,0
1583340969.391,24.902,36.133,34.180,23.926,33.691,0
1583340969.394,32.227,35.645,33.691,20.508,52.246,0
1583340969.398,38.574,35.645,32.715,24.902,19.531,0
1583340969.402,33.203,35.645,31.250,24.902,-10.254,0
1583340969.406,28.809,37.598,30.273,24.414,16.113,0
1583340969.410,34.180,32.715,31.250,26.855,46.875,0
1583340969.427,39.062,29.297,33.203,26.367,109.375,0
1583340969.431,37.109,29.785,31.738,23.926,80.078,0
1583340969.435,35.156,29.785,32.715,20.996,63.477,0
1583340969.439,37.109,30.762,34.668,26.367,47.363,0
1583340969.443,42.969,32.227,35.156,31.738,-6.836,0
1583340969.447,46.875,34.180,36.621,27.344,14.160,0
1583340969.451,40.039,35.156,40.527,27.344,4.883,0
1583340969.454,34.668,35.156,41.016,26.367,41.504,0
1583340969.458,41.016,33.691,37.598,28.320,90.332,0
1583340969.462,45.410,35.156,38.086,30.273,88.379,0
1583340969.466,41.504,33.691,38.086,24.902,49.316,0
1583340969.470,38.086,31.738,36.133,25.879,1.465,0
1583340969.470,43.457,32.715,36.621,29.297,15.625,0
1583340969.474,44.922,32.227,35.156,26.367,63.965,0
1583340969.478,42.480,32.715,33.203,26.367,93.750,0
1583340969.482,36.133,33.203,34.668,26.855,65.430,0
1583340969.486,36.133,33.691,34.668,22.949,21.973,0
1583340969.490,41.016,33.203,34.180,20.020,-5.859,0
1583340969.494,37.598,33.203,35.156,22.949,-21.484,0
1583340969.497,32.227,33.691,34.668,21.973,62.500,0
1583340969.501,33.691,32.227,32.227,18.555,100.586,0
1583340969.505,37.109,30.762,31.738,19.531,-5.371,0
1583340969.509,35.645,33.203,35.645,20.020,2.441,0
1583340969.513,29.785,32.715,35.156,20.996,81.543,0
1583340969.507,28.809,31.250,30.273,23.438,91.797,0
1583340969.511,39.551,34.180,32.227,26.367,17.090,0
1583340969.515,43.945,34.668,36.621,27.832,-53.223,0
1583340969.519,37.598,35.156,36.621,27.344,0.488,0
1583340969.523,35.156,36.133,36.133,25.391,31.738,0
1583340969.527,41.504,34.668,39.551,27.832,48.340,0
1583340969.531,43.945,32.227,39.062,28.320,-0.977,0
1583340969.534,46.387,35.156,39.062,34.668,-7.812,0
1583340969.538,41.992,36.621,42.480,36.133,34.668,0
1583340969.542,41.504,35.156,41.992,29.297,34.668,0
1583340969.546,50.781,35.156,43.457,32.227,67.871,0
1583340969.550,47.363,33.691,45.410,34.180,56.641,0
1583340969.548,41.504,33.691,40.527,29.785,-10.254,0
1583340969.552,38.574,33.691,38.574,24.902,-18.555,0
1583340969.556,41.992,34.180,39.551,25.879,28.320,0
1583340969.560,48.340,34.180,39.062,28.320,15.625,0
1583340969.564,43.945,34.180,39.062,27.344,14.160,0
1583340969.568,39.062,32.715,36.133,23.438,25.879,0
1583340969.572,42.969,32.715,35.645,22.949,41.504,0
1583340969.575,41.504,34.180,37.598,19.043,24.902,0
1583340969.579,35.645,35.156,36.133,12.695,0.488,0
1583340969.583,30.273,37.598,33.691,14.648,52.734,0
1583340969.587,30.762,38.086,32.227,17.578,7.324,0
1583340969.591,36.133,39.062,30.762,17.090,13.184,0
1583340969.607,33.203,40.039,30.762,16.113,40.527,0
1583340969.611,25.879,37.109,30.762,12.207,12.207,0
1583340969.615,25.391,36.621,31.250,12.207,54.199,0
1583340969.619,32.227,36.621,30.762,17.578,28.320,0
1583340969.623,30.273,35.156,28.809,20.020,36.133,0
1583340969.627,22.461,35.156,30.762,10.254,74.219,0
1583340969.631,24.414,35.156,31.250,11.230,-12.695,0
1583340969.634,34.668,34.180,31.738,21.484,-40.527,0
1583340969.638,35.156,32.715,33.691,22.949,48.828,0
1583340969.642,31.738,32.715,33.203,23.438,55.176,0
1583340969.646,31.250,32.227,30.762,18.555,31.738,0
1583340969.650,36.621,31.250,29.297,16.113,30.273,0
1583340969.667,39.551,32.715,30.762,19.043,42.969,0
1583340969.671,34.668,32.715,33.691,20.996,60.059,0
1583340969.675,31.738,32.715,34.180,18.066,58.594,0
1583340969.679,35.156,35.156,34.180,19.043,41.992,0
1583340969.683,39.062,34.180,35.645,23.926,51.270,0
1583340969.687,39.551,32.715,36.133,23.438,49.805,0
1583340969.691,32.715,32.227,36.133,20.996,39.551,0
1583340969.694,28.809,32.715,35.156,19.043,62.988,0
1583340969.698,33.691,36.133,35.156,15.625,92.773,0
1583340969.702,30.762,35.645,36.133,15.137,105.957,0
1583340969.706,21.484,33.691,35.156,14.648,38.574,0
1583340969.710,22.461,36.133,33.203,12.207,27.344,0
1583340969.707,28.809,36.621,31.738,13.184,6.836,0
1583340969.711,30.273,37.109,28.809,11.230,19.531,0
1583340969.715,23.926,37.109,30.762,7.324,53.223,0
1583340969.719,21.484,34.668,33.203,12.207,5.859,0
1583340969.723,27.832,34.180,29.785,13.184,-14.648,0
1583340969.727,32.227,34.180,31.738,11.230,-10.742,0
1583340969.731,29.297,34.668,36.133,11.719,8.301,0
1583340969.734,29.785,35.156,34.668,15.625,21.973,0
1583340969.738,30.762,34.668,33.691,22.949,19.531,0
1583340969.742,38.086,35.645,33.691,22.949,-26.367,0
1583340969.746,43.457,36.621,34.180,21.973,11.230,0
1583340969.750,34.668,37.109,33.691,22.461,36.621,0
1583340969.748,30.273,35.645,31.250,17.578,56.641,0
1583340969.752,35.156,31.250,28.809,14.160,61.035,0
1583340969.756,38.574,31.738,28.320,14.160,47.363,0
1583340969.760,35.645,34.180,28.320,16.113,26.367,0
1583340969.764,30.762,35.156,29.785,18.066,51.758,0
1583340969.768,36.133,38.086,30.273,19.531,76.660,0
1583340969.772,41.992,38.574,25.879,20.996,48.340,0
1583340969.775,36.133,38.574,24.902,20.508,29.785,0
1583340969.779,31.250,40.039,26.855,17.090,-46.387,0
1583340969.783,35.156,40.039,28.320,17.578,-35.156,0
1583340969.787,38.574,39.062,29.297,17.578,9.766,0
1583340969.791,35.156,38.574,29.297,15.625,18.555,0
1583340969.789,29.297,40.527,29.785,18.066,0.000,0
1583340969.793,30.273,40.039,29.297,21.484,-8.301,0
1583340969.797,40.039,40.039,28.320,20.996,59.082,0
1583340969.801,40.039,41.016,29.785,20.020,86.426,0
1583340969.805,32.227,40.527,29.785,16.602,42.969,0
1583340969.809,33.691,39.551,30.273,16.602,47.852,0
1583340969.813,39.062,35.156,32.715,20.020,9.277,0
1583340969.816,40.039,32.227,31.738,18.555,18.066,0
1583340969.820,36.621,36.133,28.320,18.555,64.453,0
1583340969.824,35.645,39.551,28.809,22.949,51.270,0
1583340969.828,47.852,40.527,26.855,27.832,40.039,0
1583340969.832,55.176,39.062,32.227,33.691,44.434,0
1583340969.847,32.227,32.715,41.504,24.414,68.848,0
1583340969.851,6.836,29.785,42.480,4.395,74.219,0
1583340969.855,8.789,29.785,43.945,0.977,56.641,0
1583340969.859,4.395,25.879,48.340,-4.395,12.695,0
1583340969.863,-13.672,20.508,51.270,-18.066,-21.973,0
1583340969.867,-32.227,17.578,53.223,-31.250,89.355,0
1583340969.871,-40.527,14.648,56.152,-46.387,82.520,0
1583340969.874,-41.504,13.184,62.500,-59.570,-30.273,0
1583340969.878,-51.758,10.742,70.312,-60.547,-27.832,0
1583340969.882,-66.895,8.301,74.707,-56.152,-1.953,0
1583340969.886,-76.660,9.277,77.148,-60.059,22.949,0
1583340969.890,-81.055,9.277,81.543,-70.801,-2.441,0
1583340969.887,-97.656,9.277,86.426,-83.984,42.480,0
1583340969.891,-112.793,7.324,87.891,-97.168,62.500,0
1583340969.895,-117.188,5.371,88.867,-98.633,32.715,0
1583340969.899,-126.953,5.859,95.703,-101.562,55.176,0
1583340969.903,-144.043,7.324,101.562,-118.652,60.059,0
1583340969.907,-162.109,8.301,107.910,-136.230,2.930,0
1583340969.911,-172.363,6.836,109.863,-134.766,1.465,0
1583340969.914,-175.781,5.859,107.910,-132.812,23.438,0
1583340969.918,-173.828,5.371,113.770,-144.043,5.859,0
1583340969.922,-180.664,7.812,121.094,-140.137,33.691,0
1583340969.926,-197.754,7.324,123.535,-130.371,93.262,0
1583340969.930,-197.754,4.395,122.559,-149.414,36.621,0
1583340969.927,-187.012,5.859,124.512,-164.551,17.578,0
1583340969.931,-190.918,6.836,125.000,-162.598,44.434,0
1583340969.935,-197.754,2.930,126.465,-165.527,47.852,0
1583340969.939,-192.383,1.465,133.301,-169.434,66.895,0
1583340969.943,-182.617,3.418,134.277,-171.387,2.930,0
1583340969.947,-173.340,-0.488,135.742,-160.645,-2.441,0
1583340969.951,-168.457,-3.906,137.695,-157.227,23.438,0
1583340969.954,-173.340,-9.277,138.672,-161.621,9.766,0
1583340969.958,-162.109,-8.301,136.230,-155.762,49.316,0
1583340969.962,-146.484,-3.418,137.695,-145.020,66.406,0
1583340969.966,-150.391,-6.348,134.766,-135.742,41.992,0
1583340969.970,-148.926,-9.277,125.000,-130.859,3.906,0
1583340969.987,-144.043,-9.277,126.465,-128.418,61.523,0
1583340969.991,-135.742,-7.812,130.371,-121.582,40.039,0
1583340969.995,-125.000,-3.906,125.488,-116.211,-10.742,0
1583340969.999,-121.094,-3.906,123.535,-109.863,32.227,0
1583340970.003,-119.629,-7.812,123.535,-111.816,35.156,0
1583340970.007,-112.305,-9.766,120.117,-89.844,43.945,0
1583340970.011,-104.980,-7.812,116.699,-72.266,56.152,0
1583340970.014,-106.445,-4.883,112.305,-78.613,43.945,0
1583340970.018,-106.445,-4.883,109.863,-68.359,37.109,0
1583340970.022,-92.773,-3.418,109.375,-61.523,60.547,0
1583340970.026,-72.266,-1.465,109.863,-50.781,46.875,0
1583340970.030,-62.012,-1.465,108.398,-44.922,2.441,0
1583340970.029,-65.918,-1.465,106.445,-61.035,-6.836,0
1583340970.033,-59.082,-2.441,103.516,-69.824,50.781,0
1583340970.037,-44.922,-0.488,96.191,-45.410,29.297,0
1583340970.041,-43.945,-0.488,89.355,-20.508,34.180,0
1583340970.045,-38.086,-3.418,83.984,-28.320,102.539,0
1583340970.049,-23.438,-0.977,84.961,-44.434,53.223,0
1583340970.053,-24.414,4.395,89.355,-42.480,58.594,0
1583340970.056,-36.621,2.441,91.309,-34.180,55.664,0
1583340970.060,-23.926,4.883,86.914,-23.926,42.969,0
1583340970.064,-3.418,9.277,81.055,-13.184,54.199,0
1583340970.068,11.719,12.695,83.496,0.000,54.688,0
1583340970.072,16.602,13.184,80.566,18.555,18.066,0
1583340970.067,16.113,12.207,78.613,16.602,22.461,0
1583340970.071,26.855,17.090,78.125,24.902,47.852,0
1583340970.075,42.969,20.996,75.684,41.504,22.949,0
1583340970.079,46.387,16.602,61.523,58.105,3.418,0
1583340970.083,58.594,13.672,60.059,83.496,32.227,0
1583340970.087,80.566,22.461,72.266,54.688,59.570,0
1583340970.091,102.539,31.250,68.359,40.039,26.367,0
1583340970.094,106.934,30.762,71.289,69.824,37.109,0
1583340970.098,78.613,33.691,52.246,82.520,55.176,0
1583340970.102,74.219,36.133,25.391,97.168,86.426,0
1583340970.106,77.148,33.203,49.316,106.934,72.754,0
1583340970.110,102.051,34.668,64.453,104.980,60.059,0
1583340970.127,135.254,38.086,59.082,126.953,38.574,0
1583340970.131,123.047,40.039,57.617,125.977,0.000,0
1583340970.135,118.164,42.480,51.270,110.352,23.438,0
1583340970.139,132.324,44.434,44.922,127.441,38.574,0
1583340970.143,131.348,45.898,43.457,131.348,-9.277,0
1583340970.147,129.883,48.340,42.480,134.277,-27.832,0
1583340970.151,131.836,53.711,39.062,134.766,26.367,0
1583340970.154,145.996,56.641,34.180,134.277,33.203,0
1583340970.158,156.250,57.129,29.297,138.184,28.320,0
1583340970.162,149.902,58.105,26.855,143.555,43.945,0
1583340970.166,153.809,60.059,30.273,147.461,36.621,0
1583340970.170,146.484,63.477,26.855,128.906,17.090,0
1583340970.167,149.414,60.547,21.973,123.047,28.320,0
1583340970.171,143.066,62.012,25.391,134.766,44.922,0
1583340970.175,123.535,64.941,22.949,134.277,23.438,0
1583340970.179,117.676,64.453,16.113,123.047,89.844,0
1583340970.183,126.953,62.988,13.184,115.723,66.895,0
1583340970.187,128.906,63.477,12.695,123.535,-41.016,0
1583340970.191,118.164,68.848,16.113,107.910,-30.762,0
1583340970.194,113.770,69.824,14.648,90.332,-31.738,0
1583340970.198,111.328,67.383,17.578,105.469,-28.320,0
1583340970.202,112.793,69.336,19.531,106.934,21.484,0
1583340970.206,105.469,70.312,15.625,99.121,48.340,0
1583340970.210,98.633,66.895,14.648,97.168,21.973,0
1583340970.267,104.492,65.918,12.207,97.656,-5.371,0
1583340970.271,119.629,65.918,12.207,90.332,31.250,0
1583340970.275,107.910,65.430,14.648,87.891,55.664,0
1583340970.279,95.215,67.871,15.625,96.680,21.973,0
1583340970.283,89.355,69.824,14.648,84.961,28.809,0
1583340970.287,86.914,68.359,12.207,68.848,38.086,0
1583340970.291,83.008,66.895,12.695,75.195,15.625,0
1583340970.294,82.031,66.406,12.207,78.125,43.457,0
1583340970.298,87.402,66.406,8.789,71.777,-1.465,0
1583340970.302,93.750,65.918,8.301,75.195,-24.414,0
1583340970.306,88.379,63.965,11.230,71.289,40.039,0
1583340970.310,77.148,60.059,10.254,57.617,42.480,0
1583340970.290,80.078,58.594,8.301,60.059,-8.789,0
1583340970.294,89.844,60.059,7.812,72.754,9.766,0
1583340970.298,88.867,60.059,9.766,65.918,35.156,0
1583340970.302,72.266,54.199,11.719,60.059,60.547,0
1583340970.306,63.477,50.781,9.277,63.965,124.023,0
1583340970.310,67.871,56.641,11.230,66.406,111.816,0
1583340970.314,77.637,53.711,13.672,66.406,39.062,0
1583340970.317,75.195,48.340,10.742,66.895,60.059,0
1583340970.321,75.195,50.293,10.254,60.059,42.969,0
1583340970.325,62.500,48.340,10.742,54.199,13.672,0
1583340970.329,64.941,49.316,10.254,58.105,0.488,0
1583340970.333,69.336,47.852,13.184,59.082,-21.484,0
1583340970.309,54.199,46.875,14.648,54.688,64.453,0
1583340970.313,62.012,46.387,13.672,53.223,66.406,0
1583340970.317,67.383,44.434,13.672,53.711,-21.484,0
1583340970.321,70.312,48.828,13.672,55.176,-12.207,0
1583340970.325,68.848,53.223,15.625,54.688,10.254,0
1583340970.329,65.918,54.199,14.160,50.293,36.621,0
1583340970.333,59.570,52.246,12.695,47.363,15.625,0
1583340970.336,56.152,47.852,13.184,47.363,44.434,0
1583340970.340,61.035,43.457,10.742,41.504,111.328,0
1583340970.344,51.270,41.016,15.137,41.504,68.359,0
1583340970.348,49.316,40.039,21.484,43.457,-22.461,0
1583340970.352,60.059,36.621,20.508,41.504,-71.289,0
1583340970.347,68.359,37.598,20.020,55.664,-11.719,0
1583340970.351,66.406,41.016,19.531,65.918,18.066,0
1583340970.355,63.477,44.434,11.230,48.828,22.461,0
1583340970.359,38.574,41.016,9.766,13.672,72.266,0
1583340970.363,23.926,38.086,4.883,6.836,54.199,0
1583340970.367,24.414,37.109,1.953,7.324,65.430,0
1583340970.371,16.113,33.691,1.953,4.883,111.816,0
1583340970.374,26.855,32.227,4.395,17.090,115.723,0
1583340970.378,22.949,30.762,4.883,5.859,108.398,0
1583340970.382,15.625,29.785,2.930,5.859,43.945,0
1583340970.386,26.855,28.809,7.324,16.113,31.738,0
1583340970.390,39.062,30.762,8.301,17.090,57.617,0
1583340970.407,48.828,32.227,4.883,23.926,30.273,0
1583340970.411,49.805,33.203,6.348,20.020,52.734,0
1583340970.415,47.363,32.227,10.254,17.578,71.777,0
1583340970.419,47.363,31.738,10.254,21.484,17.090,0
1583340970.423,51.758,31.738,12.207,23.438,3.906,0
1583340970.427,48.340,34.180,13.672,23.926,29.785,0
1583340970.431,36.133,37.598,9.766,21.973,39.062,0
1583340970.434,39.551,37.109,11.230,20.996,28.320,0
1583340970.438,48.828,38.574,18.066,23.438,9.277,0
1583340970.442,44.434,40.527,21.484,24.902,-13.184,0
1583340970.446,41.504,39.551,22.461,20.996,7.324,0
1583340970.450,44.434,38.086,21.973,17.578,41.992,0
1583340970.447,45.898,37.598,20.996,20.996,36.133,0
1583340970.451,42.480,39.551,20.020,25.879,-1.953,0
1583340970.455,41.016,41.016,17.090,22.461,-0.977,0
1583340970.459,40.527,40.039,17.090,21.484,19.531,0
1583340970.463,40.527,37.109,18.555,31.250,15.625,0
1583340970.467,38.086,36.133,22.461,34.180,67.871,0
1583340970.471,37.109,36.621,24.414,22.949,146.973,0
1583340970.474,39.551,34.180,20.996,18.555,85.449,0
1583340970.478,41.016,37.109,20.508,26.855,50.781,0
1583340970.482,38.086,36.621,24.414,30.273,58.594,0
1583340970.486,26.367,32.715,26.855,21.484,60.059,0
1583340970.490,24.902,33.203,25.391,15.137,-3.418,0
1583340970.487,29.785,34.180,25.879,18.066,-28.809,0
1583340970.491,39.062,37.598,26.367,22.461,35.645,0
1583340970.495,37.109,35.645,26.367,19.043,-25.391,0
1583340970.499,31.738,36.133,23.926,18.066,-19.043,0
1583340970.503,31.738,35.645,25.879,18.066,30.273,0
1583340970.507,34.668,32.715,28.320,14.648,32.715,0
1583340970.511,42.480,33.203,27.344,16.602,25.879,0
1583340970.514,37.109,33.691,26.855,16.602,20.020,0
1583340970.518,30.273,33.203,25.879,14.648,47.363,0
1583340970.522,36.133,31.738,25.879,16.602,77.637,0
1583340970.526,48.828,34.668,22.461,18.555,39.551,0
1583340970.530,54.199,39.062,22.461,25.391,52.734,0
1583340970.547,41.992,38.574,29.785,26.367,95.703,0
1583340970.551,27.832,35.156,33.691,21.973,44.922,0
1583340970.555,35.156,36.133,34.180,20.508,-43.945,0
1583340970.559,39.551,37.109,34.180,15.625,-40.527,0
1583340970.563,31.738,37.109,34.668,17.090,-24.902,0
1583340970.567,29.785,36.621,34.668,19.043,-19.531,0
1583340970.571,37.109,37.109,32.227,20.996,4.883,0
1583340970.574,37.109,38.086,32.227,20.996,18.555,0
1583340970.578,32.715,38.086,33.203,21.973,66.895,0
1583340970.582,30.273,36.133,31.250,22.949,95.215,0
1583340970.586,33.203,34.668,33.203,25.879,94.238,0
1583340970.590,43.457,38.086,37.109,31.250,60.059,0
1583340970.587,41.504,38.086,37.598,32.227,73.242,0
1583340970.591,36.621,32.227,37.109,27.344,69.824,0
1583340970.595,35.645,31.250,37.598,27.344,58.105,0
1583340970.599,38.086,33.691,37.109,31.250,70.801,0
1583340970.603,35.645,35.645,36.621,29.297,50.293,0
1583340970.607,25.391,33.691,35.156,22.949,-3.906,0
1583340970.611,28.320,35.156,35.156,23.926,7.324,0
1583340970.614,41.016,37.598,35.156,32.715,42.480,0
1583340970.618,46.387,38.574,32.227,23.438,-1.465,0
1583340970.622,40.039,38.086,31.738,8.789,43.945,0
1583340970.626,35.156,38.086,34.668,12.695,86.914,0
1583340970.630,40.039,38.086,33.691,18.066,63.965,0
1583340970.627,36.621,36.621,31.250,19.043,95.215,0
1583340970.631,36.621,34.668,30.273,22.461,82.520,0
1583340970.635,36.621,35.156,31.738,16.602,69.336,0
1583340970.639,38.086,35.156,31.250,16.602,117.188,0
1583340970.643,37.109,33.203,27.832,21.484,93.750,0
1583340970.647,33.691,35.156,25.391,20.508,43.945,0
1583340970.651,31.250,35.156,23.438,18.555,-19.043,0
1583340970.654,18.555,31.738,24.902,15.625,20.020,0
1583340970.658,21.484,33.203,31.250,20.996,40.527,0
1583340970.662,29.297,32.715,37.598,21.973,-12.695,0
1583340970.666,22.949,34.180,37.598,21.484,-42.480,0
1583340970.670,18.066,32.715,36.133,24.414,13.672,0
1583340970.687,21.484,28.809,35.645,21.973,71.777,0
1583340970.691,26.855,29.785,33.691,18.066,60.547,0
1583340970.695,25.879,30.762,33.203,17.090,77.637,0
1583340970.699,22.949,27.832,35.156,18.555,74.707,0
1583340970.703,26.367,28.809,34.668,15.625,54.688,0
1583340970.707,31.738,30.273,31.738,16.602,43.945,0
1583340970.711,30.273,28.320,33.203,22.461,22.949,0
1583340970.714,19.043,27.832,36.621,19.531,32.715,0
1583340970.718,25.879,29.785,34.668,15.625,59.570,0
1583340970.722,35.645,28.809,33.203,13.672,27.344,0
1583340970.726,27.832,30.273,32.715,9.766,6.348,0
1583340970.730,25.879,32.227,31.738,11.230,53.711,0
1583340970.767,24.414,31.738,30.762,14.648,63.965,0
1583340970.771,24.902,33.691,31.250,19.531,42.480,0
1583340970.775,27.344,34.668,29.297,14.648,28.809,0
1583340970.779,24.414,32.227,31.250,5.859,19.043,0
1583340970.783,25.391,35.645,31.738,14.648,-11.719,0
1583340970.787,34.180,38.086,27.344,18.066,14.648,0
1583340970.791,33.691,35.645,28.809,17.578,78.613,0
1583340970.794,24.902,37.598,28.809,15.625,73.730,0
1583340970.798,24.902,38.086,31.250,16.113,3.906,0
1583340970.802,34.668,36.133,34.668,13.184,32.227,0
1583340970.806,35.645,35.645,33.691,12.207,92.773,0
1583340970.810,26.367,38.574,37.598,18.066,68.359,0
1583340970.827,21.484,37.109,37.598,17.090,42.480,0
1583340970.831,16.113,31.250,33.691,14.160,-41.016,0
1583340970.835,19.043,31.250,32.227,16.602,-34.668,0
1583340970.839,17.578,33.691,33.203,18.555,25.879,0
1583340970.843,8.301,34.180,35.156,16.602,-5.859,0
1583340970.847,14.160,31.250,34.180,18.066,21.973,0
1583340970.851,25.879,30.273,33.691,20.020,6.836,0
1583340970.854,26.855,32.227,35.156,19.043,-14.648,0
1583340970.858,25.879,31.250,35.156,23.438,34.668,0
1583340970.862,21.484,29.785,35.156,26.855,16.602,0
1583340970.866,20.508,31.250,31.738,22.949,15.137,0
1583340970.870,31.738,33.203,31.738,20.996,10.254,0
1583340970.869,23.926,30.762,32.715,23.926,27.344,0
1583340970.873,26.367,31.738,33.203,30.273,40.527,0
1583340970.877,49.316,39.062,27.344,39.551,18.555,0
1583340970.881,43.945,42.969,23.438,26.367,18.555,0
1583340970.885,14.160,41.992,19.531,-3.418,19.043,0
1583340970.889,8.301,42.480,18.066,-9.766,24.414,0
1583340970.893,20.996,39.062,23.438,-14.160,38.574,0
1583340970.896,22.461,34.668,24.902,-9.766,48.828,0
1583340970.900,16.602,35.156,24.414,2.441,4.883,0
1583340970.904,10.742,35.156,25.391,-1.953,-21.484,0
1583340970.908,11.719,33.691,28.809,0.977,10.254,0
1583340970.912,24.902,33.691,29.785,10.254,24.414,0
1583340970.947,27.832,33.691,28.809,9.766,17.090,0
1583340970.951,22.949,32.715,27.832,9.277,36.133,0
1583340970.955,20.508,29.785,29.297,11.719,55.664,0
1583340970.959,26.367,30.762,29.297,13.672,23.926,0
1583340970.963,32.715,33.203,29.297,21.484,31.738,0
1583340970.967,32.227,33.691,28.809,24.414,58.105,0
1583340970.971,30.273,33.691,28.809,20.020,-2.441,0
1583340970.974,29.297,33.203,29.785,20.020,34.180,0
1583340970.978,29.785,31.738,29.297,19.043,55.664,0
1583340970.982,31.250,31.738,27.344,20.020,35.645,0
1583340970.986,37.598,30.273,28.809,20.996,35.645,0
1583340970.990,31.738,29.785,26.367,21.484,5.371,0
1583340970.990,28.320,31.250,24.414,27.344,-8.301,0
1583340970.994,32.715,29.297,29.785,30.762,-4.883,0
1583340970.998,28.809,31.738,29.785,21.484,39.551,0
1583340971.002,35.645,32.715,30.273,21.973,-0.488,0
1583340971.006,41.504,30.762,29.297,30.273,-24.414,0
1583340971.010,41.992,30.273,29.297,28.320,98.145,0
1583340971.014,36.621,28.809,34.180,21.484,78.125,0
1583340971.017,26.855,24.902,31.250,13.672,-23.926,0
1583340971.021,38.574,28.809,28.320,16.113,19.043,0
1583340971.025,47.363,33.203,29.785,24.902,64.941,0
1583340971.029,41.504,28.809,32.715,23.926,76.660,0
1583340971.033,41.504,32.227,34.668,28.320,28.809,0
1583340971.068,43.457,35.156,34.668,27.832,-57.129,0
1583340971.072,43.457,34.180,37.598,23.438,-46.875,0
1583340971.076,43.945,32.715,39.551,30.273,-0.488,0
1583340971.080,44.434,32.715,38.086,29.297,-18.555,0
1583340971.084,41.016,34.180,36.621,25.879,-1.953,0
1583340971.088,42.480,32.715,32.227,26.855,29.785,0
1583340971.092,46.387,32.227,32.227,26.855,0.488,0
1583340971.095,39.551,31.738,39.551,23.926,23.438,0
1583340971.099,36.621,29.785,42.969,21.484,20.996,0
1583340971.103,35.156,29.785,42.480,23.926,14.648,0
1583340971.107,32.227,31.738,36.621,22.461,55.176,0
1583340971.111,24.902,29.297,36.133,19.043,44.434,0
1583340971.109,18.066,28.320,41.504,22.949,23.438,0
1583340971.113,22.949,28.320,42.480,23.926,31.738,0
1583340971.117,32.227,25.391,35.645,22.949,80.566,0
1583340971.121,31.738,24.414,33.203,23.438,94.727,0
1583340971.125,25.879,23.438,39.551,20.508,75.195,0
1583340971.129,34.668,27.832,41.504,21.973,21.484,0
1583340971.133,32.227,27.344,42.969,21.484,16.113,0
1583340971.136,20.508,19.531,45.410,17.578,71.777,0
1583340971.140,30.762,20.020,47.363,26.855,54.199,0
1583340971.144,43.457,31.250,45.898,34.180,-1.465,0
1583340971.148,30.762,34.668,37.109,13.184,34.180,0
1583340971.152,4.395,34.668,29.785,-10.254,63.965,0
1583340971.113,-2.930,37.109,19.043,-26.367,32.715,0
1583340971.117,-15.625,36.621,15.625,-43.945,74.219,0
1583340971.121,-21.484,38.574,19.043,-59.570,78.125,0
1583340971.125,-21.484,41.992,11.719,-74.707,54.688,0
1583340971.129,-42.480,44.434,4.395,-95.703,85.449,0
1583340971.133,-61.523,45.410,-2.441,-112.793,45.898,0
1583340971.137,-71.777,52.246,-10.254,-120.605,34.180,0
1583340971.140,-82.031,55.176,-14.648,-136.230,99.121,0
1583340971.144,-84.473,62.500,-23.926,-154.297,89.355,0
1583340971.148,-90.332,73.242,-33.691,-163.086,83.984,0
1583340971.152,-87.402,81.055,-40.039,-167.480,20.020,0
1583340971.156,-79.590,88.867,-44.434,-169.922,0.977,0
1583340971.130,-89.355,92.773,-47.852,-180.664,-0.977,0
1583340971.134,-84.961,97.656,-53.223,-178.711,-2.930,0
1583340971.138,-76.660,103.516,-55.664,-172.852,-15.137,0
1583340971.142,-65.430,104.980,-56.152,-174.316,-8.301,0
1583340971.146,-55.664,109.375,-60.547,-167.480,66.406,0
1583340971.150,-60.547,110.840,-63.965,-159.180,41.504,0
1583340971.154,-62.500,109.863,-65.918,-154.785,0.488,0
1583340971.157,-47.363,110.840,-68.359,-142.578,3.906,0
1583340971.161,-20.020,110.352,-70.801,-128.906,24.414,0
1583340971.165,-16.602,109.863,-72.754,-120.605,50.293,0
1583340971.169,-24.902,110.840,-71.777,-111.328,63.965,0
1583340971.173,-5.371,113.281,-72.266,-95.703,42.480,0
1583340971.167,10.742,113.281,-75.684,-85.449,21.973,0
1583340971.171,19.531,108.398,-75.195,-74.707,36.621,0
1583340971.175,31.738,107.422,-71.777,-57.617,63.965,0
1583340971.179,47.852,105.469,-68.359,-46.387,84.961,0
1583340971.183,74.219,102.539,-65.430,-19.043,77.148,0
1583340971.187,91.309,101.562,-63.477,5.859,51.758,0
1583340971.191,98.145,97.656,-62.500,24.902,11.719,0
1583340971.194,125.000,91.797,-63.477,53.711,-3.418,0
1583340971.198,145.996,86.914,-60.059,64.941,25.391,0
1583340971.202,154.297,80.566,-54.199,70.801,-12.695,0
1583340971.206,181.641,77.637,-51.758,102.051,-10.742,0
1583340971.210,181.641,73.242,-47.363,121.582,46.875,0
1583340971.208,190.918,62.988,-40.039,141.602,-36.621,0
1583340971.212,206.543,56.641,-32.227,147.949,15.625,0
1583340971.216,197.266,50.781,-24.902,143.066,83.984,0
1583340971.220,195.312,42.480,-20.996,152.344,-14.160,0
1583340971.224,204.590,39.551,-20.508,162.109,-38.086,0
1583340971.228,209.473,38.086,-13.672,175.781,-27.344,0
1583340971.232,199.219,31.250,-7.812,171.387,-30.762,0
1583340971.235,183.105,25.879,-7.812,161.133,11.230,0
1583340971.239,184.082,27.832,-4.883,166.016,54.688,0
1583340971.243,194.824,30.762,1.465,167.969,47.363,0
1583340971.247,187.500,27.344,5.859,163.086,18.066,0
1583340971.251,171.387,22.949,7.812,155.762,-3.906,0
1583340971.267,163.086,24.902,6.348,147.949,-7.324,0
1583340971.271,166.016,26.367,4.395,142.090,0.000,0
1583340971.275,162.598,21.973,10.254,138.672,-26.855,0
1583340971.279,149.414,19.531,19.531,132.812,-5.859,0
1583340971.283,143.555,19.531,23.438,130.859,-34.668,0
1583340971.287,146.484,22.949,23.926,126.465,14.160,0
1583340971.291,144.531,23.438,24.414,121.094,102.051,0
1583340971.294,131.348,20.996,26.367,119.141,80.078,0
1583340971.298,121.094,21.484,29.785,115.234,5.859,0
1583340971.302,124.512,22.461,31.250,109.863,-45.410,0
1583340971.306,126.465,22.949,34.180,101.074,-60.059,0
1583340971.310,119.629,23.926,36.621,99.609,-5.859,0
1583340971.287,112.305,25.879,36.621,99.609,16.113,0
1583340971.291,107.422,28.320,35.156,95.703,24.902,0
1583340971.295,106.934,26.367,35.156,89.355,27.832,0
1583340971.299,97.656,22.461,35.645,83.984,53.711,0
1583340971.303,92.285,23.438,34.668,79.102,37.598,0
1583340971.307,96.680,23.926,38.086,76.172,36.133,0
1583340971.311,95.703,21.484,42.969,79.102,106.934,0
1583340971.314,93.750,21.484,41.016,84.961,88.379,0
1583340971.318,84.961,24.414,36.133,81.055,0.977,0
1583340971.322,74.219,24.414,37.598,73.242,7.812,0
1583340971.326,73.242,23.926,47.363,71.289,99.121,0
1583340971.330,75.684,21.973,50.781,68.359,107.910,0
1583340971.347,68.359,17.090,45.898,62.988,78.613,0
1583340971.351,52.246,21.484,46.387,56.641,27.832,0
1583340971.355,52.246,24.902,48.340,52.246,40.039,0
1583340971.359,64.941,23.926,52.734,57.129,55.176,0
1583340971.363,64.941,24.414,52.734,56.641,46.875,0
1583340971.367,57.129,25.879,49.316,53.223,72.266,0
1583340971.371,51.758,25.879,49.316,46.387,65.918,0
1583340971.374,55.176,25.391,50.293,47.363,40.039,0
1583340971.378,55.664,28.809,51.270,50.781,27.832,0
1583340971.382,55.664,32.715,47.852,50.293,22.461,0
1583340971.386,59.570,32.715,45.898,57.617,15.137,0
1583340971.390,56.641,30.762,46.875,53.711,47.363,0
1583340971.394,50.293,28.320,48.340,41.992,10.742,0
1583340971.398,40.527,23.438,47.852,39.551,8.789,0
1583340971.402,45.898,21.973,49.805,47.852,17.578,0
1583340971.406,49.805,21.484,55.176,51.758,1.465,0
1583340971.410,34.180,15.137,57.617,39.551,25.391,0
1583340971.414,24.902,12.207,58.105,32.715,17.090,0
1583340971.418,17.578,14.160,53.711,28.320,18.066,0
1583340971.421,22.949,14.648,50.293,30.273,83.008,0
1583340971.425,33.203,17.578,49.805,34.668,51.270,0
1583340971.429,25.879,16.602,48.340,30.273,-23.926,0
1583340971.433,19.531,16.113,45.898,27.344,1.953,0
1583340971.437,21.973,20.020,43.457,29.785,59.082,0
1583340971.429,31.738,20.996,38.086,33.203,67.383,0
1583340971.433,35.156,19.043,40.039,34.668,37.598,0
1583340971.437,30.762,17.090,49.805,33.691,27.344,0
1583340971.441,23.438,16.113,52.246,27.344,23.926,0
1583340971.445,23.438,16.602,50.293,25.391,36.133,0
1583340971.449,31.738,17.578,52.246,29.785,46.387,0
1583340971.453,26.367,16.602,55.176,28.809,38.574,0
1583340971.456,23.926,18.555,52.246,27.832,47.852,0
1583340971.460,34.668,20.508,51.758,28.809,37.598,0
1583340971.464,37.109,20.020,52.734,30.762,30.273,0
1583340971.468,26.855,23.438,53.223,33.691,27.344,0
1583340971.472,24.414,27.832,51.758,35.645,-0.488,0
1583340971.488,29.785,23.926,49.805,31.738,20.996,0
1583340971.492,31.738,20.996,45.898,27.344,12.695,0
1583340971.496,26.855,23.438,42.480,27.832,21.973,0
1583340971.500,26.855,24.414,41.016,31.250,53.711,0
1583340971.504,31.738,23.438,40.039,31.738,68.359,0
1583340971.508,37.598,22.949,40.039,31.250,63.477,0
1583340971.512,42.969,23.926,39.062,31.738,48.828,0
1583340971.515,38.574,22.461,38.574,25.879,-38.574,0
1583340971.519,37.598,23.926,36.621,25.391,-21.484,0
1583340971.523,34.668,24.902,37.109,31.738,19.043,0
1583340971.527,29.785,22.461,33.691,29.297,14.648,0
1583340971.531,27.344,22.461,31.738,24.414,34.180,0
1583340971.547,29.297,19.043,35.645,32.715,2.930,0
1583340971.551,40.039,21.973,34.668,38.086,44.922,0
1583340971.555,38.086,28.809,27.832,21.484,77.148,0
1583340971.559,34.668,31.250,20.996,14.648,20.508,0
1583340971.563,41.016,34.180,17.090,24.414,38.086,0
1583340971.567,41.504,34.668,23.438,27.832,6.348,0
1583340971.571,36.133,33.691,26.855,21.973,-9.277,0
1583340971.574,34.668,33.203,23.926,18.066,74.707,0
1583340971.578,33.203,32.227,24.414,17.090,27.832,0
1583340971.582,30.762,36.621,23.438,15.625,-20.508,0
1583340971.586,35.645,36.133,22.461,13.672,-2.930,0
1583340971.590,35.156,31.250,26.367,17.578,38.086,0
1583340971.569,31.250,33.691,31.738,20.996,-1.465,0
1583340971.573,29.785,34.180,34.668,21.484,-21.484,0
1583340971.577,29.785,31.738,32.715,20.508,35.645,0
1583340971.581,34.180,30.762,28.320,19.531,77.637,0
1583340971.585,35.645,30.273,27.344,19.531,31.738,0
1583340971.589,30.273,28.809,30.762,20.020,-8.301,0
1583340971.593,30.762,28.320,32.227,20.996,36.621,0
1583340971.596,38.574,28.320,29.785,24.414,46.875,0
1583340971.600,41.016,29.785,30.273,25.879,61.523,0
1583340971.604,34.668,26.367,32.715,24.902,56.152,0
1583340971.608,30.762,22.949,30.273,28.809,99.121,0
1583340971.612,39.551,26.367,29.297,29.785,93.750,0
1583340971.627,45.410,29.297,33.691,25.879,3.906,0
1583340971.631,34.180,27.832,33.691,19.531,29.785,0
1583340971.635,35.156,25.391,35.156,19.043,-1.953,0
1583340971.639,43.945,27.832,36.133,27.832,-27.344,0
1583340971.643,45.410,30.762,33.691,32.715,15.137,0
1583340971.647,41.992,30.762,33.203,32.227,-0.488,0
1583340971.651,35.156,30.762,35.156,27.832,49.316,0
1583340971.654,37.598,30.762,33.691,26.367,83.984,0
1583340971.658,43.457,30.762,29.785,33.691,80.078,0
1583340971.662,42.480,29.297,32.715,36.621,41.504,0
1583340971.666,35.156,27.344,35.645,33.203,6.836,0
1583340971.670,31.250,27.832,32.715,29.297,39.062,0
1583340971.708,41.016,32.227,31.738,29.785,33.203,0
1583340971.712,44.922,35.645,34.180,30.273,55.176,0
1583340971.716,39.062,36.621,38.086,27.832,58.105,0
1583340971.720,34.668,34.668,37.109,24.414,61.523,0
1583340971.724,38.574,34.180,36.133,18.555,7.812,0
1583340971.728,37.598,34.668,41.504,17.578,-12.695,0
1583340971.732,33.203,34.668,41.992,19.531,17.090,0
1583340971.735,36.621,34.180,40.527,18.066,13.184,0
1583340971.739,44.434,35.156,40.527,19.531,72.754,0
1583340971.743,50.293,36.621,39.551,18.066,24.414,0
1583340971.747,42.480,33.203,38.086,14.648,0.000,0
1583340971.751,34.180,31.250,38.086,16.113,40.039,0
1583340971.714,31.738,31.250,39.062,17.578,22.949,0
1583340971.718,30.762,31.738,37.109,19.531,42.969,0
1583340971.722,25.391,31.250,36.621,17.090,54.688,0
1583340971.726,16.602,30.762,38.086,16.113,50.293,0
1583340971.730,15.625,28.809,37.109,15.625,40.527,0
1583340971.734,20.508,27.832,36.133,17.578,-17.578,0
1583340971.738,20.996,29.785,33.203,19.531,11.230,0
1583340971.741,14.648,28.809,35.156,19.043,21.973,0
1583340971.745,9.277,24.414,39.551,14.160,-11.230,0
1583340971.749,16.113,25.391,41.992,14.160,-28.809,0
1583340971.753,21.484,27.344,41.992,22.461,16.602,0
1583340971.757,19.043,26.855,40.527,21.484,28.809,0
1583340971.768,22.949,27.344,44.922,19.531,3.906,0
1583340971.772,29.785,30.273,47.363,23.926,18.555,0
1583340971.776,33.203,30.273,48.828,23.438,3.418,0
1583340971.780,30.762,31.250,48.340,24.902,-7.324,0
1583340971.784,28.809,34.180,45.898,23.926,39.551,0
1583340971.788,27.832,30.762,49.316,19.043,55.176,0
1583340971.792,31.738,31.738,46.387,16.113,14.648,0
1583340971.795,31.250,35.645,44.922,12.207,27.832,0
1583340971.799,21.973,35.156,44.434,8.301,-1.465,0
1583340971.803,24.414,35.156,39.551,5.371,-12.207,0
1583340971.807,30.762,35.156,39.551,8.301,27.344,0
1583340971.811,31.738,32.715,43.457,10.254,42.480,0
1583340971.808,28.809,31.250,42.969,9.277,103.027,0
1583340971.812,22.461,31.738,41.504,13.672,58.594,0
1583340971.816,25.391,27.832,39.062,15.625,-6.836,0
1583340971.820,28.809,26.367,40.527,15.137,19.043,0
1583340971.824,24.414,29.297,44.922,16.113,54.199,0
1583340971.828,26.367,29.297,45.410,20.508,36.133,0
1583340971.832,31.738,27.344,42.969,20.508,37.109,0
1583340971.835,34.180,30.273,39.062,16.602,11.230,0
1583340971.839,37.109,32.227,40.527,19.531,-7.812,0
1583340971.843,32.227,32.227,41.992,20.020,4.395,0
1583340971.847,26.367,33.691,40.527,11.230,-16.113,0
1583340971.851,33.691,34.180,41.504,9.277,25.391,0
1583340971.848,38.086,34.668,42.480,15.625,45.410,0
1583340971.852,35.156,34.668,41.992,18.555,70.801,0
1583340971.856,31.250,35.645,40.039,18.066,75.684,0
1583340971.860,33.691,35.156,41.016,19.043,59.082,0
1583340971.864,41.504,34.180,41.504,22.949,50.293,0
1583340971.868,34.668,34.668,41.992,22.949,62.988,0
1583340971.872,30.273,34.180,41.504,21.973,122.070,0
1583340971.875,35.645,33.203,39.062,21.484,23.926,0
1583340971.879,40.527,33.203,41.016,21.484,-35.645,0
1583340971.883,42.480,32.715,41.504,23.926,-13.672,0
1583340971.887,37.598,31.738,39.062,24.902,-34.180,0
1583340971.891,37.598,30.762,39.062,23.926,23.438,0
1583340971.907,46.875,34.180,35.645,27.832,20.996,0
1583340971.911,49.316,34.668,33.203,34.668,4.883,0
1583340971.915,37.598,32.227,37.598,28.320,32.227,0
1583340971.919,31.250,32.227,40.039,20.020,28.809,0
1583340971.923,34.668,27.832,42.480,21.973,24.902,0
1583340971.927,23.926,25.391,44.434,19.531,26.855,0
1583340971.931,16.113,27.832,43.945,10.742,24.902,0
1583340971.934,19.043,24.414,45.410,9.277,1.953,0
1583340971.938,23.438,21.973,46.387,14.648,1.465,0
1583340971.942,29.297,24.414,43.945,20.020,44.434,0
1583340971.946,28.320,26.855,42.969,23.926,89.355,0
1583340971.950,26.855,30.273,45.410,25.391,56.641,0
1583340971.947,35.645,32.227,45.410,26.855,3.906,0
1583340971.951,41.016,31.738,45.898,28.320,24.902,0
1583340971.955,35.645,30.762,46.875,31.738,42.969,0
1583340971.959,27.832,30.762,46.387,30.273,62.012,0
1583340971.963,29.785,31.250,41.992,23.926,3.418,0
1583340971.967,37.598,30.273,39.062,24.414,-1.953,0
1583340971.971,32.715,29.785,40.039,24.902,73.730,0
1583340971.974,26.855,32.715,37.598,22.461,70.312,0
1583340971.978,27.832,34.180,35.156,26.367,39.062,0
1583340971.982,35.645,35.645,36.133,31.738,-3.906,0
1583340971.986,37.109,35.156,37.109,25.391,25.391,0
1583340971.990,26.855,35.156,35.645,18.555,77.148,0
1583340972.027,30.762,37.109,35.156,22.949,101.074,0
1583340972.031,38.574,35.645,35.156,24.414,78.613,0
1583340972.035,35.156,34.180,37.598,20.020,74.219,0
1583340972.039,30.762,37.109,36.621,18.066,38.086,0
1583340972.043,28.320,35.645,34.668,15.625,42.969,0
1583340972.047,33.203,34.180,36.133,17.578,82.520,0
1583340972.051,36.133,36.621,37.598,21.484,19.043,0
1583340972.054,32.715,34.180,37.109,20.020,-38.086,0
1583340972.058,31.250,33.203,33.691,20.996,15.137,0
1583340972.062,34.668,33.691,32.715,21.484,72.266,0
1583340972.066,41.504,30.273,33.203,19.043,41.016,0
1583340972.070,42.969,29.785,35.645,20.020,35.156,0
1583340972.068,30.762,27.344,38.086,16.113,16.113,0
1583340972.072,27.344,26.855,37.598,17.090,-6.836,0
1583340972.076,40.039,31.250,39.062,24.902,10.742,0
1583340972.080,39.551,30.273,40.527,23.438,-2.441,0
1583340972.084,33.691,28.809,36.133,19.043,42.480,0
1583340972.088,34.668,29.785,35.645,15.137,65.430,0
1583340972.092,38.574,30.273,34.668,15.137,48.828,0
1583340972.095,40.527,31.250,34.180,19.531,43.457,0
1583340972.099,37.109,32.227,32.227,20.020,16.602,0
1583340972.103,31.738,30.273,27.832,18.555,-19.531,0
1583340972.107,30.762,28.809,27.344,19.531,-36.621,0
1583340972.111,36.621,30.762,23.438,19.531,-23.926,0
1583340972.127,35.156,32.715,20.996,20.020,10.254,0
1583340972.131,31.738,32.227,21.973,17.578,24.414,0
1583340972.135,37.598,30.762,21.484,19.043,-31.250,0
1583340972.139,43.457,32.715,22.461,23.438,-22.461,0
1583340972.143,41.504,36.621,29.297,22.461,38.574,0
1583340972.147,37.109,37.109,37.109,22.949,52.734,0
1583340972.151,39.551,35.645,38.574,27.344,37.598,0
1583340972.154,47.852,35.156,38.574,27.832,55.664,0
1583340972.158,48.828,35.645,38.086,29.785,105.957,0
1583340972.162,42.969,36.133,34.668,30.762,64.453,0
1583340972.166,40.527,37.109,34.180,29.297,8.301,0
1583340972.170,41.992,38.574,35.645,26.367,23.438,0
1583340972.149,46.875,39.551,32.715,26.367,41.992,0
1583340972.153,44.434,39.551,28.320,25.879,15.137,0
1583340972.157,33.691,37.109,23.926,20.020,8.789,0
1583340972.161,34.180,33.691,20.508,19.043,69.336,0
1583340972.165,42.969,35.645,22.461,23.438,59.082,0
1583340972.169,40.039,36.133,23.926,24.414,57.129,0
1583340972.173,36.133,34.180,22.461,23.926,54.688,0
1583340972.176,39.062,37.598,27.832,21.484,16.602,0
1583340972.180,42.480,38.574,31.738,19.043,30.273,0
1583340972.184,43.457,38.086,31.738,20.996,46.387,0
1583340972.188,41.992,39.551,31.250,23.438,45.898,0
1583340972.192,41.992,38.574,29.297,25.391,32.715,0
1583340972.187,43.457,38.574,27.832,20.508,16.602,0
1583340972.191,43.945,41.504,26.367,14.648,16.602,0
1583340972.195,41.504,42.480,26.855,20.996,111.328,0
1583340972.199,38.086,41.016,29.297,19.043,116.699,0
1583340972.203,42.969,41.016,31.250,17.578,39.062,0
1583340972.207,51.270,42.969,31.250,20.996,5.859,0
1583340972.211,45.410,42.480,29.297,17.578,-7.324,0
1583340972.214,35.156,41.992,29.297,15.137,25.391,0
1583340972.218,37.109,44.434,32.715,18.066,36.621,0
1583340972.222,46.387,41.992,34.180,24.414,-53.223,0
1583340972.226,51.270,40.039,35.156,30.762,-47.363,0
1583340972.230,44.434,47.363,31.250,16.602,15.137,0
1583340972.247,30.273,44.922,27.832,3.418,-13.184,0
1583340972.251,38.574,43.457,26.855,10.254,-5.371,0
1583340972.255,42.480,45.410,25.879,12.207,46.875,0
1583340972.259,20.020,40.039,28.809,2.441,80.078,0
1583340972.263,13.672,40.039,28.809,-0.977,38.574,0
1583340972.267,27.344,41.992,25.879,7.812,-21.973,0
1583340972.271,30.762,38.574,25.391,11.230,29.785,0
1583340972.274,27.832,40.039,26.855,12.207,57.617,0
1583340972.278,26.367,42.969,26.367,12.695,16.602,0
1583340972.282,32.715,41.504,27.832,11.719,11.230,0
1583340972.286,38.086,40.527,28.320,10.742,14.648,0
1583340972.290,28.809,39.551,29.785,11.719,0.977,0
1583340972.288,21.973,38.086,30.273,13.184,-2.930,0
1583340972.292,28.809,39.551,32.227,12.207,39.551,0
1583340972.296,31.738,38.086,36.133,11.719,36.133,0
1583340972.300,28.320,34.180,38.086,12.207,19.531,0
1583340972.304,26.855,31.250,38.574,13.184,13.672,0
1583340972.308,31.738,30.273,36.133,14.160,-15.625,0
1583340972.312,36.621,32.715,38.574,15.137,2.930,0
1583340972.315,38.574,35.156,44.434,15.625,17.090,0
1583340972.319,28.809,35.645,44.922,14.160,-23.926,0
1583340972.323,23.926,34.180,46.387,14.648,-18.066,0
1583340972.327,20.996,35.645,44.922,13.184,36.621,0
1583340972.331,28.809,34.668,40.527,12.695,52.734,0
1583340972.327,28.320,31.250,40.039,12.695,34.180,0
1583340972.331,14.160,31.738,39.062,10.742,29.297,0
1583340972.335,20.996,29.297,36.133,12.695,41.504,0
1583340972.339,30.273,28.809,38.086,18.555,69.824,0
1583340972.343,31.738,31.738,40.527,20.020,62.500,0
1583340972.347,25.879,32.227,41.504,19.531,28.320,0
1583340972.351,25.879,34.180,38.086,19.531,43.457,0
1583340972.354,34.668,36.133,36.133,18.555,81.055,0
1583340972.358,34.668,37.109,37.598,18.066,82.520,0
1583340972.362,31.250,40.527,38.086,20.996,44.434,0
1583340972.366,26.855,38.574,39.551,16.113,-8.301,0
1583340972.370,29.785,36.133,36.133,6.348,21.973,0
1583340972.367,31.250,40.039,33.203,8.789,9.766,0
1583340972.371,26.855,39.551,32.227,8.301,-11.719,0
1583340972.375,22.949,35.645,31.738,5.859,43.457,0
1583340972.379,23.438,35.156,32.227,8.301,19.531,0
1583340972.383,27.832,34.180,34.180,8.789,8.789,0
1583340972.387,23.926,32.227,34.180,10.254,73.242,0
1583340972.391,19.043,33.203,32.715,10.254,65.430,0
1583340972.394,28.809,35.645,33.203,10.254,87.891,0
1583340972.398,39.062,35.645,33.691,14.648,62.012,0
1583340972.402,36.133,34.668,32.715,15.625,10.742,0
1583340972.406,26.855,33.691,30.762,16.602,49.805,0
1583340972.410,30.762,34.668,32.715,20.020,50.293,0
1583340972.427,41.992,35.156,34.668,20.996,37.109,0
1583340972.431,40.527,35.156,33.203,20.996,65.918,0
1583340972.435,38.574,36.621,35.645,17.578,34.668,0
1583340972.439,38.086,38.574,34.180,20.020,22.461,0
1583340972.443,42.480,38.086,27.832,25.391,-9.766,0
1583340972.447,43.945,37.598,28.320,19.531,-56.152,0
1583340972.451,33.203,37.598,32.227,17.090,-23.926,0
1583340972.454,26.855,35.645,32.227,14.648,2.441,0
1583340972.458,33.691,35.156,30.273,15.137,39.551,0
1583340972.462,41.992,37.598,30.273,19.043,30.273,0
1583340972.466,32.715,36.621,31.738,16.602,74.219,0
1583340972.470,28.320,34.668,32.715,14.160,96.680,0
1583340972.467,36.621,36.621,35.156,21.484,44.922,0
1583340972.471,42.969,33.691,37.598,25.391,31.250,0
1583340972.475,41.016,30.273,37.598,21.973,64.453,0
1583340972.479,32.227,33.203,38.086,19.531,91.797,0
1583340972.483,29.785,34.668,39.551,20.020,43.457,0
1583340972.487,34.180,32.715,34.668,24.902,7.812,0
1583340972.491,31.738,32.715,30.762,20.508,30.273,0
1583340972.494,27.344,35.156,36.133,14.648,64.941,0
1583340972.498,27.344,31.738,38.574,15.137,43.457,0
1583340972.502,35.645,29.297,37.109,18.555,3.906,0
1583340972.506,35.156,31.250,37.598,14.648,29.297,0
1583340972.510,27.832,32.227,35.645,8.789,44.922,0
1583340972.508,26.855,31.250,34.668,9.766,45.898,0
1583340972.512,30.762,29.785,37.109,12.207,5.371,0
1583340972.516,30.273,29.785,33.203,14.648,-25.391,0
1583340972.520,18.066,29.785,33.691,12.695,31.250,0
1583340972.524,16.113,30.762,35.156,11.230,48.828,0
1583340972.528,25.879,32.227,36.133,15.625,41.992,0
1583340972.532,34.180,32.227,35.645,14.648,23.438,0
1583340972.535,28.809,30.762,36.133,15.625,12.695,0
1583340972.539,21.973,33.691,39.551,17.090,19.531,0
1583340972.543,26.367,37.109,37.598,13.184,27.832,0
1583340972.547,32.227,36.621,34.668,15.137,-7.324,0
1583340972.551,31.738,36.133,34.668,16.602,37.109,0
1583340972.567,25.391,35.645,35.156,12.207,81.055,0
1583340972.571,23.438,35.645,32.715,14.648,83.496,0
1583340972.575,26.855,32.227,32.715,15.625,57.617,0
1583340972.579,29.297,30.273,32.227,10.742,-3.906,0
1583340972.583,30.273,33.203,27.344,12.207,53.711,0
1583340972.587,26.855,34.180,28.320,16.113,70.312,0
1583340972.591,29.297,33.691,30.762,15.625,38.086,0
1583340972.594,30.762,32.715,31.250,12.207,20.996,0
1583340972.598,31.738,32.227,28.809,13.672,20.996,0
1583340972.602,30.273,35.156,27.832,13.672,51.758,0
1583340972.606,28.320,35.156,30.762,12.695,54.199,0
1583340972.610,31.738,33.203,28.809,13.672,52.246,0
1583340972.607,30.273,33.691,21.484,13.672,46.875,0
1583340972.611,25.391,36.621,21.973,16.602,33.203,0
1583340972.615,25.391,37.598,27.344,16.113,10.254,0
1583340972.619,31.738,36.621,29.785,15.625,-39.062,0
1583340972.623,31.738,36.133,30.273,16.113,-13.184,0
1583340972.627,25.879,35.645,30.273,11.719,35.645,0
1583340972.631,24.902,37.109,27.344,9.277,13.672,0
1583340972.634,32.227,37.598,27.832,13.184,35.645,0
1583340972.638,33.691,36.621,31.250,13.672,55.664,0
1583340972.642,24.902,37.109,31.250,12.695,56.641,0
1583340972.646,20.020,35.645,31.738,8.789,84.961,0
1583340972.650,20.508,32.227,34.180,7.812,84.961,0
1583340972.647,26.855,31.250,33.691,12.695,32.227,0
1583340972.651,27.344,31.738,31.738,13.672,14.648,0
1583340972.655,20.508,33.691,30.762,16.602,46.875,0
1583340972.659,24.414,33.691,17.090,17.090,4.395,0
1583340972.663,29.785,34.180,10.742,18.066,31.738,0
1583340972.667,25.879,37.109,20.508,18.066,60.547,0
1583340972.671,19.043,34.668,24.902,13.672,17.090,0
1583340972.674,15.137,30.273,30.273,14.160,7.812,0
1583340972.678,20.020,32.227,30.762,13.672,-10.742,0
1583340972.682,23.438,32.715,26.367,9.766,-9.277,0
1583340972.686,20.996,32.227,25.391,10.254,-13.184,0
1583340972.690,21.973,35.156,24.414,12.207,62.500,0
1583340972.727,25.879,34.668,24.902,12.207,90.820,0
1583340972.731,24.414,34.668,26.367,8.301,39.551,0
1583340972.735,22.461,35.156,25.391,7.812,56.641,0
1583340972.739,21.973,36.133,24.902,9.766,65.918,0
1583340972.743,24.414,37.109,26.367,10.742,62.500,0
1583340972.747,29.297,35.156,26.367,11.719,65.918,0
1583340972.751,29.297,35.645,24.902,9.277,58.594,0
1583340972.754,26.855,36.621,22.461,7.812,16.602,0
1583340972.758,30.273,36.621,22.949,10.254,29.785,0
1583340972.762,40.527,37.598,25.391,12.695,38.086,0
1583340972.766,44.922,38.574,26.855,17.090,25.391,0
1583340972.770,39.551,38.086,27.344,18.555,41.016,0
1583340972.787,33.691,39.062,22.461,21.973,55.664,0
1583340972.791,34.180,38.574,20.020,23.926,74.219,0
1583340972.795,35.645,35.156,26.367,24.414,16.602,0
1583340972.799,27.344,33.203,27.832,20.508,-42.480,0
1583340972.803,20.508,33.691,25.879,14.160,-75.684,0
1583340972.807,24.414,33.691,28.320,15.625,-27.832,0
1583340972.811,27.832,31.250,27.832,18.066,49.805,0
1583340972.814,24.414,30.762,24.414,17.090,59.570,0
1583340972.818,21.973,32.715,26.367,14.160,24.414,0
1583340972.822,29.297,32.715,28.809,16.602,-34.668,0
1583340972.826,42.969,34.180,29.297,27.344,32.715,0
1583340972.830,50.781,35.645,32.227,38.086,42.480,0
1583340972.828,31.250,29.785,41.992,26.367,25.391,0
1583340972.832,8.301,23.926,51.270,7.324,49.805,0
1583340972.836,15.137,20.996,56.152,12.207,4.883,0
1583340972.840,22.461,20.996,58.105,15.137,91.797,0
1583340972.844,10.742,22.949,58.594,6.836,120.117,0
1583340972.848,7.324,23.438,59.570,9.277,74.219,0
1583340972.852,9.277,21.484,61.035,13.672,69.336,0
1583340972.855,6.348,17.578,63.965,6.348,37.598,0
1583340972.859,6.348,21.484,62.988,2.930,10.742,0
1583340972.863,3.906,26.367,58.594,3.906,1.953,0
1583340972.867,3.906,25.391,57.617,2.930,7.812,0
1583340972.871,14.160,24.902,57.129,7.812,2.930,0
1583340972.887,17.578,26.367,54.688,11.719,-54.688,0
1583340972.891,10.742,27.832,55.176,8.301,-18.066,0
1583340972.895,11.230,27.344,53.223,8.301,64.453,0
1583340972.899,20.508,25.879,52.246,14.648,12.207,0
1583340972.903,23.438,25.391,51.758,15.137,-15.625,0
1583340972.907,19.043,29.297,50.293,15.137,52.246,0
1583340972.911,18.555,31.738,50.293,18.066,68.359,0
1583340972.914,26.367,30.273,49.805,20.996,-23.438,0
1583340972.918,31.738,27.344,48.340,26.367,-15.137,0
1583340972.922,30.273,26.367,44.434,26.855,72.754,0
1583340972.926,30.762,28.320,41.016,23.926,83.984,0
1583340972.930,36.133,30.273,37.598,23.926,37.109,0
1583340972.929,40.527,30.273,36.133,24.414,46.387,0
1583340972.933,34.180,27.344,42.480,25.391,62.012,0
1583340972.937,27.832,29.297,48.340,25.879,54.688,0
1583340972.941,31.250,31.250,48.340,25.879,79.590,0
1583340972.945,41.992,32.227,49.316,31.250,46.387,0
1583340972.949,44.434,30.273,48.828,31.250,6.348,0
1583340972.953,39.062,28.320,47.852,29.785,-8.789,0
1583340972.956,40.039,29.297,46.875,27.832,22.949,0
1583340972.960,47.363,29.297,47.363,28.320,47.852,0
1583340972.964,49.805,32.227,46.875,30.273,50.781,0
1583340972.968,44.922,34.180,44.434,24.414,30.762,0
1583340972.972,41.992,31.738,41.992,22.461,11.230,0
1583340972.967,45.898,29.297,42.969,23.438,22.461,0
1583340972.971,52.246,32.715,40.527,24.902,34.180,0
1583340972.975,44.922,34.180,34.668,25.391,68.359,0
1583340972.979,37.109,30.762,35.156,24.414,47.852,0
1583340972.983,42.969,26.367,39.551,28.320,52.734,0
1583340972.987,42.480,28.320,38.086,31.250,76.660,0
1583340972.991,33.691,32.227,35.156,27.832,41.016,0
1583340972.994,28.320,28.809,36.133,22.461,8.301,0
1583340972.998,28.809,29.785,37.598,19.531,28.320,0
1583340973.002,32.227,29.785,38.086,21.484,23.926,0
1583340973.006,28.320,27.832,38.574,20.996,25.391,0
1583340973.010,25.391,30.273,38.574,18.066,33.691,0
1583340973.027,26.855,31.250,38.086,13.672,62.500,0
1583340973.031,29.297,32.227,37.598,13.184,12.207,0
1583340973.035,30.273,31.250,38.086,16.602,-2.930,0
1583340973.039,25.391,28.320,36.133,15.625,29.297,0
1583340973.043,26.367,29.785,36.133,15.625,0.977,0
1583340973.047,32.715,33.691,36.621,19.531,0.000,0
1583340973.051,33.203,33.203,37.109,17.578,17.090,0
1583340973.054,30.762,32.715,34.180,18.066,23.926,0
1583340973.058,34.180,37.109,29.785,22.949,-22.949,0
1583340973.062,48.828,39.551,32.227,34.180,-22.949,0
1583340973.066,49.805,35.156,39.551,35.645,24.902,0
1583340973.070,28.320,30.273,43.945,18.066,55.176,0
1583340973.047,17.578,27.832,42.480,11.719,10.742,0
1583340973.051,23.438,24.414,42.969,19.531,25.391,0
1583340973.055,35.156,27.344,44.922,22.461,27.344,0
1583340973.059,34.180,27.832,46.387,17.090,0.488,0
1583340973.063,18.555,24.902,44.434,9.766,60.547,0
1583340973.067,15.625,27.344,41.992,8.301,28.320,0
1583340973.071,26.855,26.367,43.457,15.137,1.465,0
1583340973.074,31.738,26.367,43.457,19.043,43.945,0
1583340973.078,27.344,30.762,41.016,20.508,62.012,0
1583340973.082,27.344,30.762,37.598,20.996,55.664,0
1583340973.086,29.785,27.832,36.133,20.508,85.938,0
1583340973.090,32.715,24.414,35.645,19.531,62.500,0
1583340973.088,28.320,22.949,38.086,19.531,27.832,0
1583340973.092,23.926,24.414,38.574,22.461,28.809,0
1583340973.096,27.344,23.926,36.133,23.438,11.230,0
1583340973.100,31.738,21.973,36.133,23.438,55.664,0
1583340973.104,29.297,20.996,32.227,20.020,59.082,0
1583340973.108,23.438,24.414,29.297,18.555,-23.438,0
1583340973.112,21.973,27.832,27.832,14.648,20.508,0
1583340973.115,30.273,29.785,26.367,12.695,41.992,0
1583340973.119,34.668,33.203,26.855,12.207,-25.879,0
1583340973.123,28.320,32.715,25.879,12.207,30.762,0
1583340973.127,27.832,31.250,24.902,17.090,58.105,0
1583340973.131,33.203,31.250,24.902,20.020,31.738,0
1583340973.129,36.133,31.738,24.902,21.484,90.820,0
1583340973.133,31.250,34.668,25.391,19.531,56.152,0
1583340973.137,27.832,36.621,25.879,20.020,24.414,0
1583340973.141,33.203,33.691,27.344,23.438,29.785,0
1583340973.145,42.480,33.203,25.879,25.879,-10.254,0
1583340973.149,41.016,37.598,23.926,24.414,-23.438,0
1583340973.153,32.715,36.621,23.926,18.555,20.508,0
1583340973.156,34.180,32.715,22.949,18.066,60.059,0
1583340973.160,41.504,33.203,22.461,21.973,22.461,0
1583340973.164,41.992,34.180,24.902,23.926,34.180,0
1583340973.168,36.621,34.668,23.438,26.367,107.422,0
1583340973.172,37.598,36.133,20.996,23.438,42.480,0
1583340973.167,42.480,35.156,24.902,20.996,9.277,0
1583340973.171,40.527,32.715,26.855,23.926,65.918,0
1583340973.175,36.621,34.180,24.902,25.391,48.828,0
1583340973.179,38.086,36.621,25.391,25.391,35.156,0
1583340973.183,40.039,33.691,28.809,21.973,84.961,0
1583340973.187,39.062,33.691,30.762,23.438,15.137,0
1583340973.191,35.156,33.203,28.320,26.367,-15.625,0
1583340973.194,29.785,31.738,27.344,22.461,8.789,0
1583340973.198,31.250,31.738,27.832,21.484,12.695,0
1583340973.202,35.645,32.227,30.762,21.973,18.555,0
1583340973.206,34.668,33.691,29.785,16.113,43.457,0
1583340973.210,28.320,35.156,27.344,18.066,65.918,0
1583340973.207,29.785,34.180,25.879,23.438,28.809,0
1583340973.211,44.434,32.227,27.344,32.227,57.617,0
1583340973.215,46.875,38.086,27.832,34.180,104.492,0
1583340973.219,32.715,43.945,21.484,20.508,45.410,0
1583340973.223,30.273,43.945,21.973,17.578,32.227,0
1583340973.227,33.691,45.410,20.996,16.113,54.199,0
1583340973.231,31.250,45.410,16.113,10.254,31.250,0
1583340973.234,27.344,42.969,20.020,8.301,15.625,0
1583340973.238,19.043,44.922,23.926,-0.977,9.277,0
1583340973.242,24.902,47.363,22.949,0.977,12.695,0
1583340973.246,37.109,47.852,21.484,8.789,68.848,0
1583340973.250,24.414,46.387,21.973,3.906,105.469,0
1583340973.267,20.020,45.898,20.996,4.395,13.672,0
1583340973.271,33.691,45.410,20.996,10.742,13.184,0
1583340973.275,40.039,42.480,23.438,13.672,69.336,0
1583340973.279,35.645,42.480,23.438,12.207,65.918,0
1583340973.283,31.738,43.457,23.926,14.648,51.270,0
1583340973.287,35.645,41.504,25.391,20.020,34.180,0
1583340973.291,40.039,38.574,27.832,20.508,13.184,0
1583340973.294,41.504,41.504,26.367,21.973,30.762,0
1583340973.298,36.133,42.480,16.113,25.391,73.242,0
1583340973.302,31.250,38.574,20.020,25.391,65.918,0
1583340973.306,36.621,38.086,31.250,24.414,34.668,0
1583340973.310,40.527,37.598,31.738,24.414,4.395,0
1583340973.327,37.109,34.180,26.367,24.902,-2.930,0
1583340973.331,29.785,31.250,21.973,20.996,14.160,0
1583340973.335,32.227,32.227,26.855,16.602,61.035,0
1583340973.339,37.598,31.738,29.297,19.043,66.406,0
1583340973.343,31.738,30.273,26.855,15.137,65.430,0
1583340973.347,28.320,31.250,26.855,11.230,67.383,0
1583340973.351,32.227,32.715,25.391,14.160,50.293,0
1583340973.354,35.645,31.738,20.996,16.602,45.898,0
1583340973.358,36.133,30.762,20.020,16.113,62.988,0
1583340973.362,32.227,32.227,20.996,13.672,60.059,0
1583340973.366,33.203,35.645,19.531,15.137,41.504,0
1583340973.370,38.574,37.109,19.531,18.555,10.742,0
1583340973.347,35.156,35.645,23.438,17.578,2.441,0
1583340973.351,31.738,34.180,24.902,15.625,12.207,0
1583340973.355,33.203,38.574,21.973,16.602,33.203,0
1583340973.359,34.180,39.062,22.461,20.996,29.785,0
1583340973.363,33.691,34.668,25.391,21.484,-7.812,0
1583340973.367,31.250,34.668,25.879,21.484,29.297,0
1583340973.371,31.250,36.621,23.926,21.973,6.348,0
1583340973.374,31.250,34.668,25.391,21.973,-10.742,0
1583340973.378,34.668,33.203,26.367,23.926,71.777,0
1583340973.382,37.109,35.645,25.391,21.484,34.180,0
1583340973.386,32.715,36.621,26.367,20.020,25.879,0
1583340973.390,30.762,36.621,26.855,21.973,39.551,0
1583340973.407,37.598,37.109,27.344,20.508,-47.363,0
1583340973.411,37.109,36.621,30.762,13.184,-10.742,0
1583340973.415,27.344,32.227,37.109,16.113,12.207,0
1583340973.419,29.785,30.762,38.574,20.508,20.508,0
1583340973.423,39.062,35.645,36.621,18.066,43.945,0
1583340973.427,37.109,36.133,39.551,16.602,-7.324,0
1583340973.431,29.785,34.668,44.922,15.137,13.672,0
1583340973.434,28.809,34.180,46.875,19.043,20.508,0
1583340973.438,41.016,32.715,43.457,31.250,-20.020,0
1583340973.442,51.270,35.645,41.992,40.039,-20.508,0
1583340973.446,36.621,41.504,40.039,24.414,-16.113,0
1583340973.450,22.949,41.504,36.621,10.254,-15.137,0
1583340973.449,27.832,40.039,33.203,15.137,50.781,0
1583340973.453,23.926,35.645,30.762,12.695,85.938,0
1583340973.457,11.719,31.738,30.273,2.930,33.691,0
1583340973.461,11.719,33.691,27.832,3.906,39.551,0
1583340973.465,17.090,33.691,22.949,6.836,96.191,0
1583340973.469,25.879,34.180,21.484,8.301,34.180,0
1583340973.473,30.273,36.621,19.531,12.695,19.043,0
1583340973.476,25.391,34.668,20.508,15.625,35.645,0
1583340973.480,23.438,34.180,23.438,17.578,0.977,0
1583340973.484,29.297,33.691,23.438,13.184,3.906,0
1583340973.488,34.180,33.203,25.391,12.695,36.621,0
1583340973.492,29.785,34.180,28.320,20.508,31.738,0
1583340973.490,29.785,36.133,26.367,21.484,40.039,0
1583340973.494,38.574,34.668,23.926,25.391,68.359,0
1583340973.498,43.945,34.668,24.414,24.414,51.758,0
1583340973.502,39.062,38.086,22.461,22.461,21.484,0
1583340973.506,33.691,37.598,22.949,24.414,52.734,0
1583340973.510,36.133,36.133,23.926,20.996,53.223,0
1583340973.514,37.598,36.621,24.414,17.090,63.477,0
1583340973.517,32.227,37.109,29.297,15.137,68.848,0
1583340973.521,29.297,37.109,30.762,13.184,-17.578,0
1583340973.525,33.691,36.133,28.320,16.602,-20.508,0
1583340973.529,38.086,36.621,30.762,20.020,71.289,0
1583340973.533,35.645,35.645,34.180,17.578,32.715,0
1583340973.548,33.203,35.645,33.203,15.625,0.488,0
1583340973.552,36.133,38.086,35.645,16.602,35.645,0
1583340973.556,43.457,39.062,38.086,19.531,28.809,0
1583340973.560,47.363,36.621,40.527,20.996,-14.160,0
1583340973.564,41.992,35.156,43.457,22.461,-29.297,0
1583340973.568,37.109,38.086,45.898,21.484,6.348,0
1583340973.572,37.109,40.039,45.898,16.113,13.184,0
1583340973.575,40.039,38.574,43.457,17.578,11.230,0
1583340973.579,39.551,39.062,41.504,19.531,5.859,0
1583340973.583,32.715,39.551,37.598,13.184,3.906,0
1583340973.587,32.715,40.039,35.645,12.207,51.270,0
1583340973.591,38.086,39.551,38.086,15.625,85.449,0
1583340973.588,35.645,36.621,41.016,14.648,45.410,0
1583340973.592,27.832,36.621,41.992,13.184,-22.461,0
1583340973.596,27.832,38.086,43.457,16.113,10.742,0
1583340973.600,34.180,38.574,46.875,19.531,50.781,0
1583340973.604,29.785,37.598,46.875,16.602,10.742,0
1583340973.608,23.438,35.645,47.363,13.672,10.254,0
1583340973.612,24.902,34.668,48.340,19.043,47.363,0
1583340973.615,31.250,35.645,43.457,20.996,34.668,0
1583340973.619,33.691,36.133,40.527,17.578,-13.184,0
1583340973.623,25.879,36.133,43.945,12.207,-0.488,0
1583340973.627,21.973,35.645,43.457,11.230,52.734,0
1583340973.631,33.691,37.598,42.480,22.461,20.996,0
1583340973.628,43.457,38.574,40.527,27.832,34.668,0
1583340973.632,37.598,36.621,38.574,23.926,102.051,0
1583340973.636,32.715,36.133,39.551,20.996,71.289,0
1583340973.640,33.203,33.691,35.156,19.043,45.898,0
1583340973.644,36.621,30.762,27.832,20.020,20.020,0
1583340973.648,36.621,31.738,23.438,18.066,36.621,0
1583340973.652,32.227,33.203,23.438,18.555,76.172,0
1583340973.655,30.762,33.691,29.297,16.602,48.340,0
1583340973.659,37.109,33.203,31.250,12.207,15.137,0
1583340973.663,41.992,35.645,28.809,19.043,18.555,0
1583340973.667,38.086,36.133,28.320,20.020,14.648,0
1583340973.671,36.133,33.203,27.344,16.113,88.379,0
1583340973.689,45.898,34.180,26.855,18.555,62.500,0
1583340973.693,53.223,35.156,24.414,20.020,5.859,0
1583340973.697,48.828,37.109,23.438,22.949,36.621,0
1583340973.701,40.039,37.598,24.902,28.320,11.719,0
1583340973.705,39.551,35.156,28.320,30.762,48.828,0
1583340973.709,37.598,32.715,29.297,28.320,41.504,0
1583340973.713,30.762,30.762,25.391,23.926,-34.180,0
1583340973.716,29.785,33.203,24.902,21.973,20.020,0
1583340973.720,33.691,35.645,28.809,25.391,44.922,0
1583340973.724,36.621,34.180,29.785,25.879,24.902,0
1583340973.728,36.621,35.156,35.156,22.949,-14.648,0
1583340973.732,33.691,35.156,39.062,22.949,-22.461,0
1583340973.729,32.715,34.668,36.621,22.461,45.410,0
1583340973.733,36.621,35.156,35.645,23.926,91.797,0
1583340973.737,38.574,35.645,38.086,21.973,72.266,0
1583340973.741,32.715,35.156,36.133,18.066,-13.184,0
1583340973.745,26.855,32.715,35.156,17.578,-13.184,0
1583340973.749,29.785,33.691,34.180,17.090,7.324,0
1583340973.753,33.203,36.133,28.320,19.043,47.363,0
1583340973.756,29.785,36.133,25.391,19.531,36.621,0
1583340973.760,24.414,35.156,27.344,17.578,-16.113,0
1583340973.764,27.832,34.668,29.785,13.184,5.859,0
1583340973.768,31.738,34.180,29.297,12.207,-18.066,0
1583340973.772,30.273,34.668,27.344,18.066,-9.277,0
1583340973.787,27.344,32.715,29.297,20.020,47.852,0
1583340973.791,27.832,34.180,32.227,24.902,35.156,0
1583340973.795,36.133,37.109,32.715,28.809,55.176,0
1583340973.799,35.156,37.598,38.574,22.461,10.254,0
1583340973.803,25.879,37.109,43.945,20.508,-33.203,0
1583340973.807,24.902,36.133,43.457,21.484,52.246,0
1583340973.811,34.668,35.156,41.016,22.949,9.766,0
1583340973.814,35.156,35.156,39.062,18.555,-27.344,0
1583340973.818,28.320,36.621,38.574,13.184,-4.883,0
1583340973.822,28.320,37.598,39.062,20.020,44.922,0
1583340973.826,34.180,39.062,40.527,24.414,77.637,0
1583340973.830,37.598,40.527,40.039,22.461,97.168,0
1583340973.828,34.668,39.551,40.039,20.996,132.812,0
1583340973.832,31.250,39.551,41.992,21.484,48.828,0
1583340973.836,31.738,37.598,41.992,19.043,8.301,0
1583340973.840,37.598,36.133,41.504,16.113,13.184,0
1583340973.844,36.621,35.156,40.039,15.137,35.645,0
1583340973.848,31.250,35.156,40.527,14.648,44.922,0
1583340973.852,30.273,35.156,42.969,14.648,40.039,0
1583340973.855,33.691,32.715,40.039,14.648,51.758,0
1583340973.859,36.133,34.668,37.598,14.160,59.082,0
1583340973.863,33.691,34.668,38.086,15.625,54.688,0
1583340973.867,34.180,36.133,38.086,17.578,72.754,0
1583340973.871,38.574,36.133,40.039,16.602,48.828,0
1583340973.867,36.133,32.227,40.527,18.066,-13.184,0
1583340973.871,29.297,35.645,39.062,17.090,27.832,0
1583340973.875,26.855,36.621,40.527,17.578,50.293,0
1583340973.879,32.227,33.691,40.039,20.020,50.293,0
1583340973.883,37.109,34.668,40.527,20.996,64.453,0
1583340973.887,34.668,34.668,38.086,21.484,17.578,0
1583340973.891,30.273,35.156,37.598,21.973,-3.418,0
1583340973.894,37.109,37.109,36.621,25.879,30.273,0
1583340973.898,38.086,36.621,36.621,24.414,38.574,0
1583340973.902,32.715,34.668,37.109,20.508,30.273,0
1583340973.906,29.297,34.180,37.109,20.996,30.273,0
1583340973.910,30.273,34.180,41.016,23.438,61.523,0
1583340973.927,39.551,33.203,41.992,24.414,50.293,0
1583340973.931,39.062,34.180,40.527,25.879,48.828,0
1583340973.935,30.762,35.645,39.551,23.438,82.520,0
1583340973.939,31.250,34.180,40.039,23.438,45.410,0
1583340973.943,36.133,33.203,42.480,23.438,41.504,0
1583340973.947,38.086,33.691,39.551,21.973,48.340,0
1583340973.951,34.180,32.227,36.621,22.461,10.254,0
1583340973.954,31.738,33.691,37.109,18.066,6.348,0
1583340973.958,35.156,33.691,35.645,12.207,46.387,0
1583340973.962,42.969,34.180,36.133,16.113,51.758,0
1583340973.966,40.527,34.180,35.156,20.508,21.484,0
1583340973.970,34.180,34.668,31.738,20.020,38.086,0
1583340973.968,43.945,38.574,30.273,26.855,62.012,0
1583340973.972,48.340,35.156,37.598,31.250,23.438,0
1583340973.976,33.203,29.297,44.922,22.461,31.250,0
1583340973.980,16.602,26.855,43.457,11.230,30.273,0
1583340973.984,14.160,24.902,44.922,9.277,22.949,0
1583340973.988,25.879,25.879,45.898,14.648,18.066,0
1583340973.992,29.785,25.879,43.945,18.555,-34.668,0
1583340973.995,24.414,27.832,43.457,16.602,-7.812,0
1583340973.999,20.020,27.344,42.480,16.113,0.977,0
1583340974.003,23.926,27.344,40.527,18.066,3.418,0
1583340974.007,33.691,30.273,38.086,19.531,-3.906,0
1583340974.011,34.180,30.273,37.598,26.367,23.926,0
1583340974.028,32.227,30.762,36.621,28.809,51.270,0
1583340974.032,39.551,33.203,37.109,25.391,2.441,0
1583340974.036,44.922,32.715,39.551,29.297,47.363,0
1583340974.040,35.156,29.785,40.039,26.855,17.090,0
1583340974.044,28.809,27.832,39.551,23.926,52.734,0
1583340974.048,30.273,25.879,35.645,21.484,89.355,0
1583340974.052,34.180,25.391,33.691,20.508,11.719,0
1583340974.055,33.203,26.855,33.203,18.555,-13.184,0
1583340974.059,22.949,30.273,32.227,14.160,-12.695,0
1583340974.063,19.043,31.738,32.227,10.254,29.785,0
1583340974.067,24.902,31.738,32.227,10.742,27.344,0
1583340974.071,26.367,34.180,33.691,14.648,22.461,0
1583340974.067,21.484,33.203,34.180,15.625,57.129,0
1583340974.071,21.973,32.227,35.645,14.160,30.273,0
1583340974.075,27.344,33.691,32.715,13.184,7.812,0
1583340974.079,28.320,32.227,32.227,13.672,0.000,0
1583340974.083,25.391,29.785,36.133,13.672,-29.297,0
1583340974.087,21.973,29.785,37.109,14.160,-14.160,0
1583340974.091,25.879,29.297,38.086,15.625,22.461,0
1583340974.094,36.621,33.203,36.133,16.113,0.488,0
1583340974.098,35.645,32.715,31.738,12.695,14.648,0
1583340974.102,27.832,29.785,30.762,14.648,66.895,0
1583340974.106,31.738,31.738,33.691,18.555,60.059,0
1583340974.110,36.621,33.691,33.691,17.090,12.207,0
1583340974.107,30.273,34.180,33.691,15.137,10.254,0
1583340974.111,23.926,35.156,34.668,12.695,36.621,0
1583340974.115,26.855,35.645,31.250,15.137,56.152,0
1583340974.119,36.133,34.180,30.273,20.508,33.203,0
1583340974.123,39.062,34.180,33.203,23.438,45.410,0
1583340974.127,30.762,35.645,31.250,22.461,37.109,0
1583340974.131,27.832,35.645,32.227,20.996,21.484,0
1583340974.134,34.668,34.668,34.668,22.949,9.766,0
1583340974.138,34.668,35.156,34.180,17.090,0.000,0
1583340974.142,30.273,36.133,34.180,14.160,62.500,0
1583340974.146,24.414,37.598,32.715,11.719,42.969,0
1583340974.150,25.391,38.086,31.738,8.789,-9.277,0
1583340974.167,33.203,36.621,32.227,14.648,9.277,0
1583340974.171,32.227,36.133,31.738,13.672,44.434,0
1583340974.175,27.344,36.133,29.785,11.719,91.309,0
1583340974.179,25.879,35.156,30.273,12.207,126.465,0
1583340974.183,31.738,34.668,32.715,13.184,87.891,0
1583340974.187,32.227,32.715,35.645,13.184,46.875,0
1583340974.191,23.438,32.715,38.574,11.230,23.438,0
1583340974.194,20.508,34.668,38.574,12.207,51.270,0
1583340974.198,26.367,34.180,37.598,12.207,40.527,0
1583340974.202,30.762,34.180,38.574,9.766,40.527,0
1583340974.206,22.949,32.227,37.598,8.301,21.484,0
1583340974.210,16.113,30.273,33.203,7.324,-13.672,0
1583340974.190,20.508,32.715,33.203,9.766,36.621,0
1583340974.194,25.879,34.180,35.156,10.254,60.547,0
1583340974.198,23.438,34.180,34.668,7.324,55.664,0
1583340974.202,16.602,33.203,32.715,4.883,7.324,0
1583340974.206,17.578,32.227,31.738,5.371,10.254,0
1583340974.210,23.438,32.715,30.762,12.695,25.391,0
1583340974.214,20.996,33.203,26.367,11.230,-4.883,0
1583340974.217,19.043,33.203,25.391,6.348,17.578,0
1583340974.221,23.438,32.715,24.902,9.766,28.809,0
1583340974.225,29.297,33.203,25.879,14.648,-15.625,0
1583340974.229,31.738,32.715,32.227,18.555,-56.641,0
1583340974.233,25.391,33.203,34.180,17.578,15.137,0
1583340974.247,28.320,35.156,32.227,15.137,112.793,0
1583340974.251,35.645,32.227,32.227,17.090,70.312,0
1583340974.255,37.598,30.762,34.180,17.578,1.953,0
1583340974.259,36.621,33.203,33.691,17.090,41.016,0
1583340974.263,32.715,35.645,32.715,19.531,50.293,0
1583340974.267,32.715,35.645,33.691,15.137,-1.465,0
1583340974.271,37.598,34.180,34.668,14.648,-16.602,0
1583340974.274,36.133,35.156,39.062,20.020,-0.977,0
1583340974.278,26.367,34.668,41.016,20.996,39.062,0
1583340974.282,28.320,33.203,38.086,24.414,67.871,0
1583340974.286,38.086,32.227,36.621,25.391,58.594,0
1583340974.290,39.062,32.715,37.109,24.902,76.660,0
1583340974.288,33.691,31.250,38.086,24.902,102.051,0
1583340974.292,28.809,31.738,36.621,26.367,24.414,0
1583340974.296,34.180,32.715,32.715,26.855,18.066,0
1583340974.300,37.109,32.227,33.203,21.484,34.180,0
1583340974.304,30.762,33.203,36.133,20.996,29.297,0
1583340974.308,29.785,33.691,37.598,23.438,71.289,0
1583340974.312,36.621,34.180,35.645,22.949,85.938,0
1583340974.315,39.062,35.156,35.156,21.973,42.969,0
1583340974.319,32.715,37.109,37.598,22.949,36.621,0
1583340974.323,28.809,34.668,39.062,24.902,93.750,0
1583340974.327,35.645,33.691,37.598,24.902,76.172,0
1583340974.331,41.504,34.668,35.645,22.949,37.109,0
1583340974.347,41.016,33.203,34.668,21.484,28.320,0
1583340974.351,32.715,33.691,30.762,21.484,23.926,0
1583340974.355,30.273,32.715,28.809,23.926,24.902,0
1583340974.359,41.504,30.762,32.715,27.832,-9.766,0
1583340974.363,42.969,36.133,34.668,27.832,-25.391,0
1583340974.367,27.344,41.992,33.691,18.555,11.230,0
1583340974.371,21.484,43.457,30.273,11.719,4.883,0
1583340974.374,29.297,39.551,28.320,11.230,-34.668,0
1583340974.378,31.250,35.156,29.297,12.207,-41.992,0
1583340974.382,23.926,35.156,28.809,11.230,32.227,0
1583340974.386,24.902,36.621,29.297,15.625,24.414,0
1583340974.390,35.645,37.598,31.250,23.438,-32.227,0
1583340974.387,38.574,36.133,30.273,23.438,58.594,0
1583340974.391,35.156,35.645,30.273,20.020,79.590,0
1583340974.395,29.785,35.645,31.738,22.949,-20.996,0
1583340974.399,29.785,33.203,28.809,25.391,-35.645,0
1583340974.403,35.645,34.180,29.297,21.484,-1.465,0
1583340974.407,31.738,36.133,33.203,17.090,-0.977,0
1583340974.411,23.438,36.133,32.227,15.137,-0.488,0
1583340974.414,23.438,34.668,28.809,14.160,41.016,0
1583340974.418,31.250,32.227,29.297,16.602,98.633,0
1583340974.422,33.691,34.180,30.762,20.508,96.680,0
1583340974.426,25.879,34.668,30.762,19.531,86.914,0
1583340974.430,26.855,31.738,32.227,22.461,51.270,0
1583340974.467,34.668,30.762,34.668,26.855,63.965,0
1583340974.471,38.086,31.738,34.180,24.414,74.707,0
1583340974.475,35.645,34.180,33.203,25.391,9.277,0
1583340974.479,29.297,33.691,31.738,23.438,34.180,0
1583340974.483,31.250,32.715,32.227,22.461,52.734,0
1583340974.487,36.133,32.227,37.109,26.855,33.203,0
1583340974.491,29.785,30.762,36.621,26.367,18.066,0
1583340974.494,29.297,32.715,35.156,23.438,25.391,0
1583340974.498,32.227,33.203,33.691,20.020,26.855,0
1583340974.502,35.645,33.203,37.109,22.949,-8.301,0
1583340974.506,35.156,36.133,38.574,24.902,50.293,0
1583340974.510,28.809,38.574,37.109,25.879,27.344,0
1583340974.507,26.367,37.598,39.551,27.832,-0.977,0
1583340974.511,31.738,37.109,37.109,25.879,10.254,0
1583340974.515,36.133,37.598,36.133,26.367,12.207,0
1583340974.519,29.297,37.109,39.551,27.832,-24.414,0
1583340974.523,22.461,37.109,36.133,22.461,-36.133,0
1583340974.527,29.785,38.574,32.715,19.043,53.223,0
1583340974.531,34.180,38.574,31.738,16.602,92.285,0
1583340974.534,28.809,35.645,32.227,11.719,55.664,0
1583340974.538,23.438,33.691,32.227,6.836,35.645,0
1583340974.542,23.926,35.156,29.297,4.883,4.883,0
1583340974.546,25.391,35.645,30.762,8.301,15.137,0
1583340974.550,22.949,34.180,31.738,9.766,14.160,0
1583340974.530,20.020,34.668,26.367,13.184,55.664,0
1583340974.534,23.926,36.621,28.320,14.648,82.031,0
1583340974.538,30.273,35.156,35.156,11.230,57.617,0
1583340974.542,30.762,33.691,37.109,12.695,54.688,0
1583340974.546,28.320,35.156,34.668,14.648,18.066,0
1583340974.550,26.855,35.156,28.320,13.184,43.945,0
1583340974.554,32.227,36.133,29.785,17.578,79.590,0
1583340974.557,34.668,36.621,32.227,21.484,121.094,0
1583340974.561,25.879,36.133,32.227,20.020,52.734,0
1583340974.565,24.902,31.738,34.668,23.438,-8.301,0
1583340974.569,37.109,34.668,33.203,27.344,17.578,0
1583340974.573,34.180,39.551,29.297,15.137,3.906,0
1583340974.567,25.391,37.109,28.809,9.277,-7.324,0
1583340974.571,20.508,37.109,30.762,12.695,34.668,0
1583340974.575,18.066,39.062,31.738,8.789,49.316,0
1583340974.579,21.973,40.039,28.809,2.441,47.852,0
1583340974.583,21.973,40.527,23.438,2.930,51.758,0
1583340974.587,19.043,39.062,22.461,6.348,-21.484,0
1583340974.591,21.484,37.109,25.879,4.883,-39.062,0
1583340974.594,30.762,38.574,28.320,11.230,31.738,0
1583340974.598,35.645,38.086,27.344,10.742,40.527,0
1583340974.602,30.762,38.086,23.926,5.371,2.441,0
1583340974.606,26.855,38.574,21.973,9.766,12.207,0
1583340974.610,32.227,40.527,24.414,16.602,75.195,0
1583340974.627,39.062,38.574,26.367,20.996,49.316,0
1583340974.631,37.109,35.156,29.297,20.508,15.625,0
1583340974.635,33.691,35.156,31.738,22.461,23.438,0
1583340974.639,37.598,33.691,34.180,24.414,6.348,0
1583340974.643,46.387,34.668,35.645,25.391,25.879,0
1583340974.647,46.875,38.574,36.621,26.855,48.340,0
1583340974.651,41.016,38.086,38.574,24.414,36.621,0
1583340974.654,40.527,35.645,37.109,23.926,42.480,0
1583340974.658,51.270,37.598,37.109,30.273,63.477,0
1583340974.662,48.828,38.086,37.598,31.738,16.113,0
1583340974.666,41.992,37.109,33.203,29.297,41.504,0
1583340974.670,38.574,37.598,34.668,29.297,-2.930,0
1583340974.668,37.598,34.668,36.133,30.273,-14.160,0
1583340974.672,39.551,31.250,36.621,28.320,92.285,0
1583340974.676,31.250,33.203,37.109,26.855,54.688,0
1583340974.680,29.297,34.668,34.668,29.297,37.598,0
1583340974.684,36.621,32.715,36.621,29.785,2.441,0
1583340974.688,40.039,32.715,35.156,26.855,-21.973,0
1583340974.692,38.574,32.715,35.156,26.367,58.105,0
1583340974.695,41.016,32.227,37.598,29.297,4.883,0
1583340974.699,49.805,32.227,36.621,29.297,-10.742,0
1583340974.703,58.594,33.691,33.691,26.367,47.363,0
1583340974.707,56.152,35.156,28.320,21.973,22.461,0
1583340974.711,46.875,35.156,29.785,22.949,23.438,0
1583340974.747,38.086,34.180,35.645,26.855,52.246,0
1583340974.751,39.062,35.156,36.133,25.879,90.820,0
1583340974.755,40.039,37.598,35.156,24.902,68.359,0
1583340974.759,28.320,36.133,33.203,22.949,40.039,0
1583340974.763,23.926,34.668,30.273,21.484,39.551,0
1583340974.767,31.250,37.598,29.297,22.461,51.270,0
1583340974.771,33.203,39.062,28.320,22.949,53.223,0
1583340974.774,25.391,38.086,25.391,22.949,26.855,0
1583340974.778,18.555,35.645,28.809,21.484,3.418,0
1583340974.782,24.902,35.645,29.785,19.531,-16.602,0
1583340974.786,28.320,35.156,29.785,19.043,-5.371,0
1583340974.790,20.508,31.738,33.203,15.137,20.996,0
1583340974.751,15.137,32.227,33.691,15.625,26.367,0
1583340974.755,17.578,33.691,32.227,15.625,82.031,0
1583340974.759,23.438,33.691,33.691,17.090,111.328,0
1583340974.763,24.414,34.668,34.668,21.484,43.945,0
1583340974.767,20.020,33.691,31.738,22.949,39.551,0
1583340974.771,19.531,33.203,26.367,20.508,27.832,0
1583340974.775,23.926,34.180,24.902,14.160,12.695,0
1583340974.778,21.973,33.203,29.297,15.625,30.273,0
1583340974.782,16.602,35.156,34.180,17.578,65.430,0
1583340974.786,18.066,38.574,37.109,18.066,10.742,0
1583340974.790,27.832,39.551,35.645,21.484,-35.156,0
1583340974.794,33.691,39.062,34.668,17.578,-19.531,0
1583340974.807,26.367,38.086,35.645,15.137,13.184,0
1583340974.811,26.855,38.574,36.133,19.531,52.734,0
1583340974.815,35.645,38.574,34.668,22.949,-3.906,0
1583340974.819,38.086,37.598,33.691,24.414,9.766,0
1583340974.823,30.762,39.062,33.691,17.090,62.012,0
1583340974.827,25.391,38.574,33.691,12.695,39.551,0
1583340974.831,31.250,36.621,31.250,17.090,3.418,0
1583340974.834,34.668,35.156,29.297,12.695,17.090,0
1583340974.838,30.762,32.227,31.738,13.672,64.453,0
1583340974.842,24.902,31.250,31.250,13.184,62.988,0
1583340974.846,27.344,33.691,32.715,11.719,15.137,0
1583340974.850,35.156,32.715,33.203,17.090,38.086,0
1583340974.847,35.156,33.203,31.250,20.020,40.039,0
1583340974.851,31.250,34.180,38.086,22.461,29.297,0
1583340974.855,28.809,33.691,39.062,19.043,81.543,0
1583340974.859,34.668,33.691,35.156,17.090,32.715,0
1583340974.863,41.992,33.691,35.645,20.508,-22.461,0
1583340974.867,37.109,36.621,36.621,23.438,6.836,0
1583340974.871,33.691,33.203,33.691,22.461,10.742,0
1583340974.874,39.551,31.738,34.180,19.531,32.227,0
1583340974.878,43.945,36.621,35.156,15.625,-22.461,0
1583340974.882,41.504,37.598,34.180,19.043,-45.410,0
1583340974.886,39.551,35.645,37.598,23.926,14.160,0
1583340974.890,43.945,34.180,41.504,27.832,72.266,0
1583340974.907,47.852,32.227,41.016,28.809,110.352,0
1583340974.911,40.527,30.762,39.551,24.902,68.359,0
1583340974.915,33.203,30.762,40.039,25.879,53.711,0
1583340974.919,30.762,28.320,38.574,25.391,46.875,0
1583340974.923,37.109,29.785,34.668,23.926,33.691,0
1583340974.927,41.016,28.809,34.180,25.391,63.965,0
1583340974.931,31.738,25.879,35.645,23.926,41.992,0
1583340974.934,24.902,26.855,33.203,20.020,9.766,0
1583340974.938,30.762,28.320,33.691,22.949,46.387,0
1583340974.942,36.133,28.809,34.180,24.414,112.305,0
1583340974.946,29.785,27.344,35.156,18.066,77.148,0
1583340974.950,20.508,24.902,35.645,13.672,2.930,0
1583340974.948,21.973,25.391,34.180,12.695,6.348,0
1583340974.952,31.250,26.367,32.227,15.625,53.711,0
1583340974.956,33.203,25.391,32.227,17.578,41.504,0
1583340974.960,28.320,26.367,32.227,17.090,11.230,0
1583340974.964,30.273,28.320,34.180,15.625,-5.371,0
1583340974.968,37.109,30.762,36.621,15.625,-4.883,0
1583340974.972,36.133,33.691,36.133,14.648,3.418,0
1583340974.975,29.785,34.180,35.645,16.113,29.297,0
1583340974.979,30.762,35.156,33.691,20.508,19.531,0
1583340974.983,45.410,38.574,31.250,21.484,59.082,0
1583340974.987,50.781,36.621,36.133,25.391,53.223,0
1583340974.991,28.320,30.273,41.016,19.043,25.391,0
1583340975.007,20.508,28.809,43.945,14.648,90.332,0
1583340975.011,28.320,26.855,45.898,20.508,104.492,0
1583340975.015,28.320,26.367,45.898,17.578,74.707,0
1583340975.019,20.508,25.879,45.898,13.672,18.066,0
1583340975.023,4.395,23.926,43.945,4.883,-11.230,0
1583340975.027,4.883,21.973,41.992,0.977,25.391,0
1583340975.031,15.625,21.484,40.527,4.883,1.953,0
1583340975.034,16.113,24.902,38.574,7.812,-16.113,0
1583340975.038,11.719,24.414,37.598,8.301,-2.441,0
1583340975.042,14.648,24.414,37.109,10.254,14.648,0
1583340975.046,22.461,28.809,34.668,11.719,62.500,0
1583340975.050,22.461,29.785,33.691,11.719,55.176,0
1583340975.087,15.625,30.273,35.156,13.184,35.645,0
1583340975.091,12.695,29.297,32.715,11.230,4.395,0
1583340975.095,22.461,30.273,32.715,14.648,-28.809,0
1583340975.099,29.297,29.297,34.180,17.578,28.809,0
1583340975.103,20.996,27.344,33.691,16.113,72.266,0
1583340975.107,16.602,30.762,35.645,13.672,57.129,0
1583340975.111,21.973,30.273,33.203,12.695,54.199,0
1583340975.114,28.320,28.320,31.738,14.160,31.250,0
1583340975.118,27.832,30.762,31.250,14.648,38.574,0
1583340975.122,20.508,31.250,29.785,13.672,22.949,0
1583340975.126,21.973,31.738,30.273,12.695,3.906,0
1583340975.130,31.738,36.133,29.785,12.695,-16.602,0
1583340975.109,30.762,36.133,31.250,14.648,33.691,0
1583340975.113,27.344,35.645,33.203,17.090,32.227,0
1583340975.117,28.809,35.645,33.203,17.090,-4.395,0
1583340975.121,31.250,32.227,34.668,17.090,52.246,0
1583340975.125,34.180,34.180,38.574,17.578,34.668,0
1583340975.129,33.691,39.062,39.062,18.066,32.715,0
1583340975.133,30.273,40.039,39.062,19.043,58.594,0
1583340975.136,34.180,38.574,40.039,21.973,41.992,0
1583340975.140,40.527,40.039,37.109,22.949,33.203,0
1583340975.144,31.738,37.598,37.598,19.043,42.480,0
1583340975.148,27.344,38.086,39.062,21.484,61.035,0
1583340975.152,35.156,38.574,38.086,24.414,12.695,0
1583340975.130,41.016,36.133,36.133,18.066,-10.254,0
1583340975.134,40.039,35.156,35.156,19.531,29.785,0
1583340975.138,33.691,35.156,37.598,21.973,19.043,0
1583340975.142,34.668,38.574,36.133,21.484,-35.645,0
1583340975.146,39.062,40.039,34.180,24.902,-34.668,0
1583340975.150,38.086,38.086,34.180,24.414,33.691,0
1583340975.154,30.762,35.645,35.156,22.461,11.719,0
1583340975.157,27.832,34.180,35.645,19.531,26.855,0
1583340975.161,38.086,31.738,32.227,23.438,42.480,0
1583340975.165,48.340,35.156,23.926,29.297,11.719,0
1583340975.169,43.945,42.969,18.066,22.461,64.453,0
1583340975.173,37.598,42.969,18.066,19.531,25.391,0
1583340975.187,36.133,46.875,13.184,10.254,-46.387,0
1583340975.191,37.598,49.316,7.812,0.000,-5.371,0
1583340975.195,37.109,49.316,10.254,6.348,21.973,0
1583340975.199,30.762,53.223,11.719,6.836,55.664,0
1583340975.203,35.156,51.758,11.719,9.277,68.848,0
1583340975.207,33.691,46.387,18.066,7.324,34.180,0
1583340975.211,16.602,41.992,18.066,-5.371,50.293,0
1583340975.214,13.672,43.457,12.695,-7.324,61.035,0
1583340975.218,19.531,42.480,13.672,-1.465,34.180,0
1583340975.222,22.461,39.551,12.695,2.441,9.277,0
1583340975.226,21.973,43.457,10.742,6.348,34.180,0
1583340975.230,18.555,44.434,10.742,5.371,1.953,0
1583340975.228,20.996,39.062,11.719,1.953,6.836,0
1583340975.232,27.832,35.645,14.160,5.371,90.332,0
1583340975.236,32.227,38.086,19.531,8.789,58.105,0
1583340975.240,28.320,41.016,23.926,7.812,18.066,0
1583340975.244,22.949,39.062,22.949,7.812,-12.207,0
1583340975.248,26.367,36.133,21.973,8.301,30.762,0
1583340975.252,32.227,34.668,24.414,7.324,54.199,0
1583340975.255,29.785,34.668,32.227,8.789,36.133,0
1583340975.259,24.902,34.668,36.133,9.766,42.480,0
1583340975.263,25.879,33.691,36.621,6.836,25.391,0
1583340975.267,32.227,32.715,38.086,7.812,48.340,0
1583340975.271,33.203,33.691,38.574,11.719,51.270,0
1583340975.267,23.438,34.180,38.086,13.184,-4.883,0
1583340975.271,25.879,35.156,36.621,19.043,6.836,0
1583340975.275,36.621,35.156,35.645,20.020,46.875,0
1583340975.279,34.668,33.691,33.691,17.090,67.383,0
1583340975.283,28.809,31.738,34.668,21.484,19.531,0
1583340975.287,30.273,31.738,36.621,23.926,-6.348,0
1583340975.291,39.062,34.180,37.598,23.926,56.152,0
1583340975.294,41.992,32.715,36.621,24.414,52.246,0
1583340975.298,38.574,31.250,33.203,22.461,-10.254,0
1583340975.302,34.668,33.203,32.715,22.949,62.012,0
1583340975.306,37.109,33.203,35.156,24.414,55.176,0
1583340975.310,40.527,31.250,35.645,26.367,13.672,0
1583340975.327,36.621,33.691,35.645,23.926,9.766,0
1583340975.331,31.738,33.691,34.668,19.531,20.996,0
1583340975.335,33.691,32.227,33.691,23.926,45.410,0
1583340975.339,38.574,34.668,31.738,25.391,-0.488,0
1583340975.343,38.574,34.668,32.715,22.949,-2.441,0
1583340975.347,29.785,33.691,36.621,19.531,50.293,0
1583340975.351,25.391,30.762,35.645,15.625,66.406,0
1583340975.354,32.227,26.855,38.574,19.043,64.941,0
1583340975.358,31.250,29.297,38.574,21.484,56.152,0
1583340975.362,25.391,32.715,36.133,23.926,68.359,0
1583340975.366,23.438,32.227,36.621,20.020,55.664,0
1583340975.370,30.273,31.250,35.156,17.578,55.664,0
1583340975.367,39.551,32.715,34.668,19.043,25.879,0
1583340975.371,36.621,33.203,33.691,14.648,7.324,0
1583340975.375,27.832,32.227,34.180,14.160,4.395,0
1583340975.379,28.809,30.273,35.156,16.602,-6.836,0
1583340975.383,36.133,31.250,35.156,15.625,9.277,0
1583340975.387,28.809,32.715,35.645,14.648,-4.395,0
1583340975.391,21.973,33.691,33.691,14.648,-7.812,0
1583340975.394,28.809,34.180,30.273,18.555,7.812,0
1583340975.398,34.180,35.156,30.762,21.973,33.203,0
1583340975.402,31.738,35.645,33.203,20.508,20.996,0
1583340975.406,27.832,34.180,33.203,20.996,8.789,0
1583340975.410,32.227,34.668,34.668,23.926,27.344,0
1583340975.427,42.969,37.598,34.668,28.320,27.832,0
1583340975.431,43.945,36.621,35.156,27.344,83.008,0
1583340975.435,35.645,32.715,36.621,21.973,53.711,0
1583340975.439,32.715,32.715,35.156,23.438,22.949,0
1583340975.443,41.992,37.109,31.738,26.855,50.781,0
1583340975.447,44.434,36.133,29.785,26.855,11.719,0
1583340975.451,33.691,34.668,31.738,26.367,-15.137,0
1583340975.454,26.367,34.668,34.180,16.602,-26.367,0
1583340975.458,30.762,35.156,33.203,14.648,10.254,0
1583340975.462,37.598,36.133,30.762,20.020,4.883,0
1583340975.466,35.156,35.645,29.785,17.578,-32.715,0
1583340975.470,29.297,35.156,32.227,19.531,-0.977,0
1583340975.467,28.320,35.645,32.227,18.066,16.113,0
1583340975.471,34.668,36.621,31.738,17.578,22.949,0
1583340975.475,33.203,35.156,30.762,18.066,54.688,0
1583340975.479,21.973,32.715,28.320,16.113,96.680,0
1583340975.483,18.066,32.227,27.344,16.113,64.941,0
1583340975.487,27.832,32.227,30.762,16.602,50.781,0
1583340975.491,31.738,35.156,32.227,16.602,31.738,0
1583340975.494,26.367,35.156,31.250,15.625,5.371,0
1583340975.498,26.855,35.156,31.250,16.602,18.555,0
1583340975.502,33.203,35.156,30.273,17.578,9.277,0
1583340975.506,35.645,31.738,31.738,16.602,19.043,0
1583340975.510,33.691,31.250,32.227,17.578,20.996,0
1583340975.507,33.203,33.691,30.762,16.602,29.297,0
1583340975.511,37.109,31.738,32.227,20.508,38.574,0
1583340975.515,48.828,31.738,34.180,30.762,-36.133,0
1583340975.519,48.340,39.551,33.203,21.484,-43.945,0
1583340975.523,39.062,41.504,31.250,12.207,-12.207,0
1583340975.527,35.645,38.086,31.250,14.648,9.277,0
1583340975.531,36.133,38.086,28.809,15.625,26.855,0
1583340975.534,31.250,38.086,26.367,13.184,48.828,0
1583340975.538,13.672,37.109,26.855,1.953,116.211,0
1583340975.542,14.648,37.109,25.391,3.418,78.613,0
1583340975.546,26.855,36.621,25.879,9.277,21.973,0
1583340975.550,27.832,36.621,30.273,12.207,60.059,0
1583340975.567,22.949,36.133,32.715,15.625,54.688,0
1583340975.571,20.996,33.203,31.738,15.137,33.203,0
1583340975.575,25.879,32.227,30.273,12.207,22.949,0
1583340975.579,31.738,30.762,31.250,10.742,67.871,0
1583340975.583,34.668,33.203,33.691,15.137,44.922,0
1583340975.587,28.809,38.574,34.668,14.648,19.043,0
1583340975.591,25.391,36.133,33.691,13.184,32.227,0
1583340975.594,31.250,32.715,33.203,14.160,-5.859,0
1583340975.598,30.762,34.668,33.203,10.254,18.066,0
1583340975.602,24.902,38.086,31.250,10.254,20.020,0
1583340975.606,23.438,36.621,31.738,8.301,54.688,0
1583340975.610,30.762,38.574,33.691,8.789,76.172,0
1583340975.607,31.250,41.016,34.180,11.719,48.828,0
1583340975.611,27.832,38.086,34.180,12.695,34.180,0
1583340975.615,30.762,37.109,36.621,19.043,29.297,0
1583340975.619,36.133,40.039,34.180,20.996,84.473,0
1583340975.623,41.016,39.551,30.762,25.391,89.355,0
1583340975.627,37.109,38.086,32.715,24.414,26.855,0
1583340975.631,38.086,37.109,34.668,22.461,31.738,0
1583340975.634,41.016,36.621,37.598,24.902,22.949,0
1583340975.638,44.922,37.109,39.062,24.902,45.410,0
1583340975.642,42.969,35.156,36.133,24.414,29.297,0
1583340975.646,28.809,32.715,34.668,21.484,24.414,0
1583340975.650,31.738,33.203,34.180,20.996,40.527,0
1583340975.668,41.992,36.133,34.180,25.391,-24.902,0
1583340975.672,38.086,37.598,33.203,25.391,-2.441,0
1583340975.676,32.227,34.668,33.203,24.414,71.289,0
1583340975.680,30.762,34.668,35.156,22.461,33.691,0
1583340975.684,35.645,36.133,35.156,21.973,32.715,0
1583340975.688,38.086,36.133,35.156,25.879,13.672,0
1583340975.692,31.250,33.691,36.133,23.926,50.293,0
1583340975.695,33.691,34.180,36.621,25.391,45.898,0
1583340975.699,49.316,35.645,37.109,35.156,-9.766,0
1583340975.703,44.922,30.273,38.086,30.762,-5.859,0
1583340975.707,17.578,24.414,41.504,15.625,-5.371,3
1583340975.711,10.254,23.926,45.898,16.602,9.766,0
1583340975.727,13.672,23.438,47.363,14.160,36.621,0
1583340975.731,17.090,19.531,48.340,11.719,-5.371,0
1583340975.735,18.066,20.020,48.340,13.672,-26.367,0
1583340975.739,11.719,22.461,48.340,9.766,-3.906,0
1583340975.743,17.090,23.438,50.293,8.789,59.570,0
1583340975.747,26.855,25.391,50.293,10.742,91.309,0
1583340975.751,27.832,26.367,49.805,11.719,76.660,0
1583340975.754,27.344,26.855,45.410,10.254,57.129,0
1583340975.758,30.762,28.809,40.527,11.719,13.184,0
1583340975.762,39.062,28.809,41.504,13.672,-4.883,0
1583340975.766,39.551,27.344,42.969,18.555,24.902,0
1583340975.770,30.762,27.832,43.457,20.508,67.871,0
1583340975.748,32.227,30.762,41.504,19.531,94.727,0
1583340975.752,40.527,31.738,38.574,24.414,66.406,0
1583340975.756,41.992,34.180,39.062,25.879,51.270,0
1583340975.760,36.133,34.668,40.527,25.879,27.832,0
1583340975.764,31.250,35.645,42.969,29.297,-42.480,0
1583340975.768,30.762,32.227,41.992,24.414,-45.898,0
1583340975.772,34.668,28.809,39.062,22.461,46.387,0
1583340975.775,32.715,30.762,37.598,23.926,92.285,0
1583340975.779,25.879,31.250,38.574,20.996,53.223,0
1583340975.783,25.879,32.715,37.109,22.949,0.488,0
1583340975.787,33.691,33.691,35.645,22.949,18.555,0
1583340975.791,33.691,34.180,36.133,20.508,35.156,0
1583340975.787,25.391,34.668,37.598,22.949,45.898,0
1583340975.791,26.855,36.133,37.598,24.414,41.504,0
1583340975.795,34.668,35.645,33.691,25.879,24.414,0
1583340975.799,36.133,35.156,35.156,21.484,8.301,0
1583340975.803,29.297,33.691,38.086,19.043,74.707,0
1583340975.807,26.855,35.156,37.598,23.438,61.523,0
1583340975.811,29.297,35.156,37.109,23.438,-48.828,0
1583340975.814,31.250,34.668,33.691,23.926,-12.207,0
1583340975.818,29.297,38.086,35.156,20.996,-8.301,0
1583340975.822,24.902,40.039,38.086,18.555,14.160,0
1583340975.826,30.762,38.574,35.156,22.461,112.305,0
1583340975.830,38.086,37.109,31.738,24.902,94.238,0
1583340975.847,34.180,35.645,32.715,25.391,12.207,0
1583340975.851,28.320,35.156,33.691,23.926,40.527,0
1583340975.855,31.738,35.156,32.715,24.902,47.852,0
1583340975.859,39.551,34.668,35.156,28.320,34.180,0
1583340975.863,40.527,34.668,34.668,28.320,65.430,0
1583340975.867,35.156,33.691,30.273,28.809,43.945,0
1583340975.871,31.738,35.645,34.668,25.391,26.855,0
1583340975.874,41.992,37.109,38.086,25.391,49.316,0
1583340975.878,47.852,34.668,37.598,29.297,56.152,0
1583340975.882,40.039,33.203,36.133,27.832,16.602,0
1583340975.886,39.062,33.203,38.086,28.320,22.949,0
1583340975.890,42.480,32.227,40.527,25.879,43.945,0
1583340975.887,44.922,34.180,41.992,25.879,6.836,0
1583340975.891,45.898,32.715,41.504,28.809,-41.504,0
1583340975.895,42.480,30.762,40.039,29.297,-5.859,0
1583340975.899,42.969,33.203,39.551,30.762,50.781,0
1583340975.903,47.363,32.715,39.551,28.320,39.062,0
1583340975.907,45.410,32.227,39.551,26.367,45.410,0
1583340975.911,41.992,32.715,40.527,26.367,35.156,0
1583340975.914,39.551,32.715,39.551,26.367,18.066,0
1583340975.918,43.457,34.668,37.109,25.879,62.500,0
1583340975.922,44.922,34.180,34.668,24.414,53.711,0
1583340975.926,32.715,28.320,32.227,21.484,37.109,0
1583340975.930,28.320,27.832,32.227,18.555,20.996,0
1583340975.950,33.691,32.227,34.668,18.555,-3.418,0
1583340975.954,36.621,31.738,35.645,20.996,-35.156,0
1583340975.958,35.645,30.273,35.156,16.113,-3.418,0
1583340975.962,28.809,33.203,36.133,12.695,77.148,0
1583340975.966,26.367,32.715,35.156,16.113,73.730,0
1583340975.970,30.273,30.762,34.180,18.555,21.484,0
1583340975.974,26.855,32.715,33.691,17.578,-4.883,0
1583340975.977,21.484,33.203,34.180,15.137,8.301,0
1583340975.981,24.902,32.227,34.180,15.137,13.672,0
1583340975.985,34.668,34.180,34.668,18.066,16.113,0
1583340975.989,35.645,36.133,33.691,19.043,-10.742,0
1583340975.993,31.250,38.574,32.227,17.090,-38.086,0
1583340976.048,29.297,35.645,34.668,15.625,-13.184,0
1583340976.052,33.691,34.668,36.133,16.602,11.719,0
1583340976.056,36.621,37.598,35.156,20.020,23.438,0
1583340976.060,29.785,36.621,32.227,18.066,62.500,0
1583340976.064,24.902,36.133,33.691,13.184,43.457,0
1583340976.068,28.809,36.133,35.645,15.625,23.926,0
1583340976.072,38.574,35.645,31.738,17.090,71.289,0
1583340976.075,36.133,37.109,32.715,16.113,57.617,0
1583340976.079,22.949,38.086,39.062,14.160,-0.488,0
1583340976.083,24.414,36.621,38.086,15.625,35.156,0
1583340976.087,25.391,36.621,35.156,10.742,77.148,0
1583340976.091,15.625,37.109,36.133,1.465,61.035,0
1583340976.067,4.395,37.598,41.504,-5.371,41.992,0
1583340976.071,-0.488,44.922,45.898,-9.766,11.230,0
1583340976.075,2.441,51.758,41.504,-12.207,49.805,0
1583340976.079,-1.953,48.828,40.527,-14.160,70.801,0
1583340976.083,-24.414,45.410,50.781,-27.832,26.855,0
1583340976.087,-48.340,45.898,65.918,-45.410,29.785,0
1583340976.091,-58.105,44.922,73.242,-56.152,29.297,0
1583340976.094,-61.035,47.852,68.848,-64.453,23.926,0
1583340976.098,-72.754,50.781,69.336,-73.730,49.805,0
1583340976.102,-99.609,49.316,72.266,-96.191,42.480,0
1583340976.106,-111.328,51.270,75.195,-111.816,35.645,0
1583340976.110,-109.863,50.293,75.684,-114.258,24.902,0
1583340976.070,-126.953,50.781,74.707,-125.977,74.707,0
1583340976.074,-138.184,50.781,77.637,-133.301,81.055,0
1583340976.078,-134.766,47.852,83.496,-130.859,28.320,0
1583340976.082,-125.000,49.316,82.031,-135.254,63.965,0
1583340976.086,-115.234,54.199,75.684,-132.324,44.922,0
1583340976.090,-113.770,55.176,75.195,-119.629,40.527,0
1583340976.094,-109.863,55.176,74.219,-115.234,-0.977,0
1583340976.097,-99.609,54.199,69.336,-109.375,-36.621,0
1583340976.101,-82.031,55.664,65.918,-99.609,100.098,0
1583340976.105,-76.172,59.570,58.105,-94.727,104.980,0
1583340976.109,-61.035,55.664,51.758,-82.031,42.480,0
1583340976.113,-40.039,54.199,46.875,-68.848,38.086,0
1583340976.127,-34.180,50.781,43.945,-61.035,-3.418,0
1583340976.131,-28.809,43.457,43.945,-49.316,11.719,0
1583340976.135,-24.414,39.551,40.039,-43.457,27.344,0
1583340976.139,-7.324,38.086,36.621,-31.738,-12.695,0
1583340976.143,13.672,38.086,33.203,-14.648,4.883,0
1583340976.147,15.137,34.180,27.832,-4.395,85.938,0
1583340976.151,14.648,28.809,23.926,0.000,71.777,0
1583340976.154,25.391,27.344,20.996,4.395,17.090,0
1583340976.158,41.504,25.391,20.508,14.648,35.645,0
1583340976.162,48.340,22.949,19.531,26.855,19.531,0
1583340976.166,52.246,21.973,18.555,37.109,0.488,0
1583340976.170,56.152,20.020,19.043,42.480,-30.762,0
1583340976.167,63.477,20.996,18.555,50.293,1.465,0
1583340976.171,74.219,22.461,17.090,59.570,92.285,0
1583340976.175,72.266,21.484,19.531,60.547,49.805,0
1583340976.179,73.730,17.578,20.020,62.988,-4.883,0
1583340976.183,83.008,16.602,18.555,68.848,3.418,0
1583340976.187,91.309,20.996,21.484,73.242,2.930,0
1583340976.191,93.262,22.461,20.996,77.148,81.055,0
1583340976.194,90.820,22.461,18.555,81.055,93.262,0
1583340976.198,95.215,23.926,18.066,83.496,92.285,0
1583340976.202,103.027,27.832,19.043,83.496,111.328,0
1583340976.206,103.027,27.344,21.484,85.938,35.645,0
1583340976.210,99.121,27.344,24.414,86.914,24.414,0
1583340976.207,100.098,26.855,22.461,85.938,44.434,0
1583340976.211,105.957,26.367,23.438,87.402,10.254,0
1583340976.215,102.051,28.809,25.391,88.379,56.641,0
1583340976.219,93.750,26.855,24.414,82.520,31.250,0
1583340976.223,96.191,26.367,20.996,82.031,8.789,0
1583340976.227,100.586,30.273,17.578,83.008,86.426,0
1583340976.231,97.656,30.762,19.531,80.078,70.312,0
1583340976.234,95.703,30.273,21.484,82.520,43.945,0
1583340976.238,94.238,31.250,18.555,80.566,52.246,0
1583340976.242,94.238,28.809,17.090,74.707,14.648,0
1583340976.246,97.168,27.344,20.508,74.219,-11.230,0
1583340976.250,92.773,27.832,22.461,75.684,45.898,0
1583340976.267,85.449,27.832,23.926,73.730,74.219,0
1583340976.271,87.402,30.273,24.902,73.242,20.020,0
1583340976.275,94.238,31.738,25.391,76.660,-11.719,0
1583340976.279,85.938,30.762,24.414,73.242,53.711,0
1583340976.283,79.590,31.250,23.438,69.824,68.848,0
1583340976.287,81.543,32.227,23.926,72.266,42.480,0
1583340976.291,80.078,32.227,26.367,65.918,27.832,0
1583340976.294,78.125,30.762,25.879,61.523,35.645,0
1583340976.298,73.730,31.738,24.414,65.918,54.688,0
1583340976.302,69.336,34.180,29.785,68.359,13.184,0
1583340976.306,69.824,33.691,29.785,69.336,0.488,0
1583340976.310,72.754,34.180,22.949,64.453,-15.625,0
1583340976.327,65.918,32.227,20.508,57.617,-27.832,0
1583340976.331,56.641,29.297,21.484,55.176,-6.348,0
1583340976.335,58.105,27.344,23.926,50.781,22.949,0
1583340976.339,62.500,26.367,23.926,50.293,8.301,0
1583340976.343,57.617,26.367,24.414,48.828,-6.348,0
1583340976.347,52.246,25.391,25.391,46.875,0.000,0
1583340976.351,54.199,27.344,25.879,45.410,-7.324,0
1583340976.354,58.105,28.809,28.320,43.945,53.711,0
1583340976.358,56.641,28.320,27.832,43.457,8.789,0
1583340976.362,50.781,27.832,29.297,42.480,6.836,0
1583340976.366,49.805,28.320,30.273,41.504,44.434,0
1583340976.370,56.152,29.297,28.809,45.898,6.348,0
1583340976.348,59.082,29.785,30.273,48.340,35.156,0
1583340976.352,53.711,30.762,31.250,45.410,77.148,0
1583340976.356,49.316,32.227,32.715,43.457,5.859,0
1583340976.360,52.734,32.715,32.715,43.457,-4.395,0
1583340976.364,57.617,31.250,29.785,46.387,35.645,0
1583340976.368,53.711,29.785,28.809,43.457,55.176,0
1583340976.372,43.457,29.297,30.762,39.062,34.180,0
1583340976.375,43.457,31.738,32.227,37.598,-1.465,0
1583340976.379,48.340,31.250,32.715,36.621,23.438,0
1583340976.383,45.898,30.762,33.691,36.133,22.949,0
1583340976.387,39.551,32.227,33.203,31.738,12.207,0
1583340976.391,39.551,30.762,32.715,28.809,0.000,0
1583340976.407,40.527,31.250,33.691,31.738,31.738,0
1583340976.411,37.109,32.227,31.250,27.832,82.031,0
1583340976.415,33.203,33.203,29.297,25.391,1.465,0
1583340976.419,34.668,32.715,32.715,26.367,-42.480,0
1583340976.423,40.527,28.320,35.645,26.855,3.906,0
1583340976.427,39.551,26.855,32.715,25.879,44.922,0
1583340976.431,35.645,34.668,30.273,23.438,75.195,0
1583340976.434,33.691,36.133,29.297,26.367,25.391,0
1583340976.438,39.062,33.691,29.785,27.344,10.254,0
1583340976.442,43.945,34.180,31.250,24.414,43.945,0
1583340976.446,41.504,35.645,31.250,26.367,36.621,0
1583340976.450,36.621,35.645,32.715,27.344,5.371,0
1583340976.447,39.062,32.715,33.203,24.902,11.230,0
1583340976.451,48.828,34.180,31.738,30.273,56.152,0
1583340976.455,48.340,34.668,35.156,37.598,54.199,0
1583340976.459,40.039,33.691,37.109,34.180,24.902,0
1583340976.463,44.434,34.180,33.691,32.715,22.461,0
1583340976.467,50.781,33.691,32.227,34.180,45.898,0
1583340976.471,46.875,33.203,35.645,32.227,72.754,0
1583340976.474,41.504,34.668,35.645,30.762,48.340,0
1583340976.478,36.621,34.180,30.273,30.273,41.992,0
1583340976.482,40.039,33.691,28.809,27.344,-0.977,0
1583340976.486,41.504,33.203,29.297,24.902,40.527,0
1583340976.490,31.738,29.785,30.762,22.949,66.895,0
1583340976.487,32.227,32.227,30.762,23.926,10.742,0
1583340976.491,37.598,35.645,30.273,25.879,39.062,0
1583340976.495,38.086,34.668,29.785,22.461,28.320,0
1583340976.499,34.180,34.180,30.273,20.996,34.668,0
1583340976.503,27.832,33.203,31.250,21.484,55.664,0
1583340976.507,30.762,32.227,28.320,24.414,19.531,0
1583340976.511,36.621,32.227,25.391,26.855,92.773,0
1583340976.514,36.133,36.133,30.762,23.926,87.402,0
1583340976.518,31.250,38.574,34.668,20.996,26.367,0
1583340976.522,33.203,39.062,36.621,24.902,-11.719,0
1583340976.526,39.062,39.062,36.133,29.297,19.043,0
1583340976.530,39.062,37.109,33.203,32.715,63.965,0
1583340976.548,35.645,35.645,33.691,30.762,43.945,0
1583340976.552,36.621,36.133,33.691,28.320,48.828,0
1583340976.556,41.504,35.156,33.203,30.273,56.641,0
1583340976.560,44.922,33.203,34.180,29.297,68.848,0
1583340976.564,39.062,32.227,33.691,29.785,42.969,0
1583340976.568,32.227,32.227,35.156,32.227,22.949,0
1583340976.572,34.668,33.203,35.156,29.785,8.789,0
1583340976.575,40.039,32.715,30.762,27.832,10.742,0
1583340976.579,37.598,32.227,29.297,26.855,37.598,0
1583340976.583,34.668,29.297,33.691,23.926,7.812,0
1583340976.587,36.621,29.785,36.133,23.926,1.953,0
1583340976.591,37.598,33.691,32.227,22.949,11.230,0
1583340976.588,37.109,35.645,29.297,19.531,11.719,0
1583340976.592,31.738,35.645,32.227,18.066,29.785,0
1583340976.596,35.156,34.180,34.668,22.949,16.113,0
1583340976.600,42.969,35.645,33.691,27.344,25.879,0
1583340976.604,42.969,35.156,34.668,27.344,33.203,0
1583340976.608,38.086,33.691,34.668,26.367,23.438,0
1583340976.612,35.645,32.715,35.645,29.785,72.266,0
1583340976.615,43.457,33.691,36.133,34.180,54.688,0
1583340976.619,46.875,32.715,35.645,30.762,42.480,0
1583340976.623,40.527,32.227,33.691,22.461,77.637,0
1583340976.627,28.320,34.180,31.250,16.113,57.617,0
1583340976.631,30.273,35.645,33.691,20.996,39.551,0
1583340976.647,40.039,36.133,34.668,25.879,22.949,0
1583340976.651,35.645,35.645,35.156,23.926,4.883,0
1583340976.655,28.809,35.645,36.133,22.461,15.625,0
1583340976.659,30.762,33.203,35.156,21.484,-13.184,0
1583340976.663,34.668,28.809,34.180,16.113,2.930,0
1583340976.667,31.738,28.809,34.180,14.648,32.715,0
1583340976.671,28.320,30.273,33.691,19.043,42.480,0
1583340976.674,29.785,33.203,33.203,17.090,41.016,0
1583340976.678,36.133,35.156,34.180,18.555,41.992,0
1583340976.682,38.574,34.180,33.691,24.414,45.410,0
1583340976.686,32.227,33.691,32.715,23.926,42.969,0
1583340976.690,26.367,32.715,32.715,20.996,36.621,0
1583340976.687,30.762,31.250,32.715,20.508,47.852,0
1583340976.691,38.574,31.250,33.203,18.555,18.066,0
1583340976.695,38.574,32.715,33.203,18.066,-1.465,0
1583340976.699,37.598,34.180,32.227,22.461,48.828,0
1583340976.703,43.457,34.180,32.715,27.832,38.574,0
1583340976.707,49.316,32.227,35.156,28.809,11.719,0
1583340976.711,48.828,32.715,33.691,26.855,10.254,0
1583340976.714,46.387,34.180,30.762,27.832,15.625,0
1583340976.718,53.223,35.645,30.762,26.855,10.742,0
1583340976.722,58.105,34.668,32.227,25.879,29.297,0
1583340976.726,52.246,36.621,34.668,27.344,97.168,0
1583340976.730,41.016,40.039,34.180,23.926,84.961,0
1583340976.747,36.133,40.039,32.227,21.973,70.801,0
1583340976.751,38.086,39.062,32.715,22.461,50.293,0
1583340976.755,37.598,40.527,31.738,21.973,-0.977,0
1583340976.759,27.344,41.016,32.715,17.090,12.695,0
1583340976.763,21.973,38.086,34.180,15.137,-24.902,0
1583340976.767,26.855,34.668,35.156,20.996,-27.344,0
1583340976.771,31.250,35.645,37.109,23.438,70.312,0
1583340976.774,30.762,38.086,37.109,23.438,86.426,0
1583340976.778,28.320,40.039,37.109,25.879,11.230,0
1583340976.782,30.273,38.086,35.645,26.367,-0.488,0
1583340976.786,34.180,35.156,33.691,27.344,36.133,0
1583340976.790,32.227,32.715,33.203,26.367,62.012,0
1583340976.808,27.832,31.250,35.645,25.391,-0.488,0
1583340976.812,29.785,33.203,39.062,26.367,14.160,0
1583340976.816,35.156,33.203,40.039,28.809,69.824,0
1583340976.820,37.598,33.691,39.551,32.715,22.461,0
1583340976.824,31.738,33.203,39.551,32.715,-0.977,0
1583340976.828,30.273,33.691,38.574,33.203,-45.898,0
1583340976.832,35.156,36.621,39.062,34.668,32.715,0
1583340976.835,36.621,37.598,40.039,34.180,120.117,0
1583340976.839,33.691,36.133,38.574,32.715,26.367,0
1583340976.843,30.762,35.156,39.551,32.715,-36.621,0
1583340976.847,29.785,34.668,39.551,29.297,-12.207,0
1583340976.851,30.762,34.180,38.086,25.879,45.898,0
1583340976.867,24.902,31.738,38.086,23.926,52.734,3
1583340976.871,20.508,29.785,39.062,22.949,-83.008,0
1583340976.875,24.902,31.738,39.551,23.438,-82.520,0
1583340976.879,28.320,30.273,37.109,21.484,60.059,0
1583340976.883,26.855,28.809,36.621,21.484,98.633,0
1583340976.887,21.484,32.715,40.039,20.020,42.969,0
1583340976.891,22.461,34.180,39.062,16.602,-10.742,0
1583340976.894,28.320,32.715,34.668,19.043,0.488,0
1583340976.898,31.738,34.668,32.227,22.949,4.395,0
1583340976.902,29.297,34.668,31.250,21.484,35.156,0
1583340976.906,23.926,34.180,32.715,17.090,9.766,0
1583340976.910,33.691,36.621,32.715,20.508,41.992,0
1583340976.927,42.480,36.133,34.180,25.879,49.316,0
1583340976.931,35.156,37.109,35.156,27.344,39.062,0
1583340976.935,32.715,38.086,34.180,27.832,58.594,0
1583340976.939,39.551,36.133,33.203,28.809,101.074,0
1583340976.943,43.457,36.133,33.691,29.297,91.797,0
1583340976.947,40.039,35.156,37.598,28.809,24.902,0
1583340976.951,33.203,33.203,36.133,27.344,27.344,0
1583340976.954,36.621,34.180,31.738,28.809,14.160,0
1583340976.958,44.922,34.180,30.273,29.297,-7.812,0
1583340976.962,43.457,34.180,31.250,27.344,-29.785,0
1583340976.966,37.598,36.621,33.203,26.367,-14.648,0
1583340976.970,37.598,36.621,33.203,26.855,11.230,0
1583340976.931,41.016,37.109,33.691,25.879,27.344,0
1583340976.935,39.551,36.621,34.668,24.902,43.457,0
1583340976.939,31.250,36.621,34.668,18.555,21.973,0
1583340976.943,27.344,37.109,30.273,10.254,19.531,0
1583340976.947,33.203,36.621,27.344,10.742,-8.789,0
1583340976.951,34.668,36.621,28.320,11.719,-7.324,0
1583340976.955,29.297,39.062,27.832,10.742,23.438,0
1583340976.958,24.902,40.039,28.320,9.766,-5.859,0
1583340976.962,31.250,39.551,28.320,9.277,1.953,0
1583340976.966,37.598,38.574,25.391,12.207,4.883,0
1583340976.970,34.668,37.598,23.926,15.625,56.152,0
1583340976.974,28.320,37.109,25.391,17.090,33.203,0
1583340976.967,27.832,36.133,30.273,18.555,-18.555,0
1583340976.971,33.691,35.156,30.762,21.484,62.988,0
1583340976.975,33.203,37.109,30.762,21.973,71.289,0
1583340976.979,28.809,38.086,30.273,20.020,34.668,0
1583340976.983,26.367,35.156,29.785,20.020,49.316,0
1583340976.987,28.320,33.203,32.227,21.484,18.555,0
1583340976.991,32.715,33.691,34.668,20.020,15.137,0
1583340976.994,27.344,34.180,35.156,19.531,112.793,0
1583340976.998,25.879,33.203,35.156,21.484,79.590,0
1583340977.002,38.086,33.203,35.156,25.879,-0.488,0
1583340977.006,40.039,34.180,33.203,21.973,-2.930,0
1583340977.010,31.738,36.133,31.738,11.230,19.531,0
1583340977.027,29.297,37.598,29.785,12.695,63.965,0
1583340977.031,32.227,36.133,28.809,17.578,42.480,0
1583340977.035,38.574,37.109,27.832,18.066,37.598,0
1583340977.039,37.109,35.156,23.438,18.066,62.988,0
1583340977.043,30.273,33.691,23.926,17.090,33.691,0
1583340977.047,33.691,37.598,26.367,22.461,8.789,0
1583340977.051,38.574,39.551,25.879,25.879,33.203,0
1583340977.054,39.062,36.621,29.297,27.344,26.855,0
1583340977.058,34.180,36.621,32.227,30.762,-13.184,0
1583340977.062,33.691,38.086,27.832,31.250,14.160,0
1583340977.066,41.992,37.109,27.832,29.297,39.551,0
1583340977.070,43.945,36.133,33.203,33.203,38.574,0
1583340977.067,38.574,34.668,34.180,31.738,-15.625,0
1583340977.071,33.691,37.598,33.203,26.855,2.441,0
1583340977.075,30.762,37.598,29.297,24.414,20.020,0
1583340977.079,30.762,31.250,28.320,20.020,9.766,0
1583340977.083,26.367,30.762,32.715,19.531,61.523,0
1583340977.087,20.996,31.738,34.668,17.090,30.762,0
1583340977.091,22.949,28.809,36.133,14.648,21.484,0
1583340977.094,26.367,30.273,36.621,15.137,74.219,0
1583340977.098,28.320,31.738,34.180,17.578,94.238,0
1583340977.102,25.879,30.273,33.691,17.578,107.910,0
1583340977.106,29.297,32.227,34.668,21.973,96.191,0
1583340977.110,36.621,35.156,33.203,27.344,35.645,0
