timestamps,TP9,AF7,AF8,TP10,Right AUX,Marker0
1583341170.667,42.480,30.762,35.156,32.227,23.438,0
1583341170.671,34.180,31.738,36.133,31.250,16.113,0
1583341170.675,30.273,34.668,34.668,23.926,57.617,0
1583341170.679,33.691,33.203,33.203,23.926,20.508,0
1583341170.683,37.109,32.715,32.715,28.809,30.762,0
1583341170.687,31.738,31.738,34.668,24.414,90.332,0
1583341170.691,30.273,31.738,36.133,25.391,25.879,0
1583341170.694,33.203,32.715,36.621,28.809,29.297,0
1583341170.698,28.809,34.668,35.645,26.855,48.340,0
1583341170.702,34.668,38.574,36.133,28.320,43.945,0
1583341170.706,39.551,37.598,36.621,32.227,73.730,0
1583341170.710,39.062,36.621,35.645,32.715,51.758,0
1583341170.727,36.621,37.109,32.715,30.273,20.020,0
1583341170.731,34.180,37.109,30.273,29.785,62.988,0
1583341170.735,29.785,38.574,33.203,30.762,51.270,0
1583341170.739,29.297,35.645,34.180,29.785,9.766,0
1583341170.743,42.480,34.668,31.250,27.832,44.922,0
1583341170.747,38.086,34.668,31.738,24.414,61.523,0
1583341170.751,33.691,32.715,34.668,22.949,17.578,0
1583341170.754,37.598,34.180,34.668,25.879,17.090,0
1583341170.758,35.156,36.133,34.668,28.320,24.414,0
1583341170.762,38.086,34.668,34.668,28.320,-7.324,0
1583341170.766,36.133,31.250,35.156,25.879,16.113,0
1583341170.770,29.297,29.785,34.668,20.020,50.293,0
1583341170.787,33.691,30.762,33.203,19.531,23.926,0
1583341170.791,35.645,33.691,36.621,23.438,-35.156,0
1583341170.795,33.691,33.203,38.086,25.391,-62.500,0
1583341170.799,28.320,31.250,35.156,25.391,0.977,0
1583341170.803,26.855,32.227,35.156,24.414,10.742,0
1583341170.807,34.180,30.273,34.180,23.438,-25.391,0
1583341170.811,29.297,31.738,32.715,22.949,-49.805,0
1583341170.814,22.461,33.691,31.250,24.902,-32.227,0
1583341170.818,29.785,33.691,33.691,27.832,12.695,0
1583341170.822,37.109,35.156,34.180,28.809,-16.602,0
1583341170.826,29.297,34.180,30.273,28.320,-25.391,0
1583341170.830,24.902,35.645,30.762,26.855,23.926,0
1583341170.807,32.715,38.574,30.762,27.832,49.316,0
1583341170.811,36.133,37.109,31.250,29.297,61.523,0
1583341170.815,38.086,35.156,32.715,26.855,58.105,0
1583341170.819,29.785,31.738,32.715,31.738,23.926,0
1583341170.823,30.762,33.203,32.715,37.598,42.480,0
1583341170.827,42.480,40.039,28.809,28.320,41.992,0
1583341170.831,37.598,41.504,23.926,15.137,12.207,0
1583341170.834,33.691,41.016,20.508,18.555,41.504,0
1583341170.838,35.645,42.480,20.508,25.391,13.184,0
1583341170.842,41.992,41.504,21.973,23.926,-14.160,0
1583341170.846,40.039,40.039,22.461,22.949,44.434,0
1583341170.850,31.250,39.551,20.996,18.066,19.043,0
1583341170.867,20.996,38.574,20.996,13.184,28.809,0
1583341170.871,28.320,38.574,23.438,19.043,51.758,0
1583341170.875,46.875,39.062,21.973,25.391,34.180,0
1583341170.879,45.898,38.574,23.438,25.879,46.875,0
1583341170.883,29.785,38.086,25.391,24.902,19.043,0
1583341170.887,27.344,37.109,23.438,27.344,-20.020,0
1583341170.891,45.410,36.621,24.902,31.250,-15.137,0
1583341170.894,54.688,37.598,27.832,35.156,56.641,0
1583341170.898,46.387,38.574,26.367,34.668,55.176,0
1583341170.902,37.109,35.156,26.855,31.250,14.160,0
1583341170.906,39.551,32.227,29.785,31.738,41.504,0
1583341170.910,42.480,35.156,29.297,28.809,48.828,0
1583341170.907,34.668,33.691,28.320,24.414,34.668,0
1583341170.911,27.344,32.227,31.250,27.344,64.453,0
1583341170.915,34.180,31.738,30.273,28.809,88.867,0
1583341170.919,41.504,32.227,29.297,26.367,31.250,0
1583341170.923,40.527,33.691,31.250,26.855,-26.367,0
1583341170.927,34.180,36.133,28.809,28.320,-27.832,0
1583341170.931,22.461,37.109,28.809,29.785,-18.555,0
1583341170.934,25.391,34.668,32.715,29.785,42.969,0
1583341170.938,44.434,35.156,33.203,29.297,54.688,0
1583341170.942,36.621,35.156,34.180,28.809,3.906,0
1583341170.946,31.738,33.691,32.227,27.832,36.621,0
1583341170.950,43.457,35.645,29.785,27.832,37.598,0
1583341170.947,39.062,37.109,30.762,25.879,49.316,0
1583341170.951,25.879,35.645,30.762,26.367,80.078,0
1583341170.955,34.668,39.062,30.762,31.250,52.734,0
1583341170.959,42.480,41.016,26.855,32.227,8.301,0
1583341170.963,41.016,38.086,23.926,29.785,17.578,0
1583341170.967,33.691,36.133,23.438,25.391,57.129,0
1583341170.971,25.879,37.109,23.438,25.879,75.684,0
1583341170.974,35.156,38.574,28.809,24.902,79.590,0
1583341170.978,44.922,39.062,32.227,25.391,53.711,0
1583341170.982,40.527,36.621,33.203,31.250,56.152,0
1583341170.986,34.180,34.180,35.156,32.227,90.820,0
1583341170.990,35.645,35.156,36.133,30.273,123.535,0
1583341171.027,34.668,37.109,36.133,29.785,108.398,0
1583341171.031,38.086,34.180,33.203,29.297,76.660,0
1583341171.035,39.062,33.203,32.715,27.344,97.168,0
1583341171.039,29.785,34.668,36.621,23.926,118.652,0
1583341171.043,37.598,35.156,37.598,27.832,98.633,0
1583341171.047,43.457,37.598,38.086,30.762,26.855,0
1583341171.051,38.574,38.574,40.039,31.250,-32.227,0
1583341171.054,30.273,38.574,38.086,31.250,24.902,0
1583341171.058,33.691,38.574,38.086,31.738,77.148,0
1583341171.062,47.363,37.598,38.574,33.691,63.477,0
1583341171.066,46.875,40.039,39.062,32.715,-9.766,0
1583341171.070,38.086,40.039,36.621,30.273,-47.852,0
1583341171.048,37.109,37.109,33.203,30.273,27.344,0
1583341171.052,35.156,35.156,32.715,26.855,14.160,0
1583341171.056,35.645,35.156,31.250,23.438,-10.742,0
1583341171.060,30.762,36.621,29.297,23.926,45.410,0
1583341171.064,28.320,40.527,27.832,24.902,34.668,0
1583341171.068,36.133,35.645,30.273,28.320,8.301,0
1583341171.072,38.574,29.785,33.691,30.273,48.340,0
1583341171.075,32.227,35.156,32.227,32.227,17.578,0
1583341171.079,23.438,35.156,30.762,24.902,-1.465,0
1583341171.083,28.320,31.250,30.762,20.996,30.273,0
1583341171.087,40.527,32.227,27.832,25.391,-1.953,0
1583341171.091,35.645,34.668,31.738,26.855,-30.273,0
1583341171.108,28.809,35.156,34.668,25.391,12.207,0
1583341171.112,33.203,35.156,32.227,24.902,7.812,0
1583341171.116,35.645,35.645,34.668,24.414,-5.859,0
1583341171.120,29.297,34.668,34.180,22.461,24.414,0
1583341171.124,35.156,33.691,34.180,25.391,4.395,0
1583341171.128,39.062,34.180,34.180,27.832,13.184,0
1583341171.132,37.109,34.180,32.715,30.762,49.805,0
1583341171.135,31.250,35.156,31.250,27.832,73.242,0
1583341171.139,23.926,36.621,28.320,20.508,80.566,0
1583341171.143,31.250,39.062,27.832,22.949,80.078,0
1583341171.147,33.203,37.109,27.832,23.438,67.871,0
1583341171.151,30.762,35.156,26.855,22.461,32.715,0
1583341171.147,27.344,34.180,26.855,17.578,16.602,0
1583341171.151,18.066,33.691,26.367,16.602,44.922,0
1583341171.155,18.555,33.691,28.809,21.484,21.484,0
1583341171.159,33.203,33.691,31.738,21.973,-5.371,0
1583341171.163,30.762,34.668,32.715,23.926,27.832,0
1583341171.167,23.926,35.645,33.203,26.367,67.871,0
1583341171.171,30.273,37.598,33.203,27.344,26.855,0
1583341171.174,42.969,38.574,32.227,26.367,24.902,0
1583341171.178,37.109,38.086,31.738,26.367,46.387,0
1583341171.182,31.250,38.086,32.715,26.367,34.668,0
1583341171.186,41.504,38.086,33.691,25.391,71.777,0
1583341171.190,54.688,36.621,34.180,21.973,18.066,0
1583341171.247,56.152,36.621,33.691,20.020,-4.883,0
1583341171.251,48.340,37.109,34.668,27.832,111.328,0
1583341171.255,40.527,35.645,34.668,29.297,107.422,0
1583341171.259,41.016,35.156,33.691,28.809,-4.883,0
1583341171.263,41.016,34.668,35.645,25.391,-10.742,0
1583341171.267,33.203,34.180,35.156,18.555,39.062,0
1583341171.271,22.461,36.133,32.715,17.578,27.344,0
1583341171.274,29.297,37.109,33.203,20.508,-8.789,0
1583341171.278,40.527,35.156,35.156,21.973,30.762,0
1583341171.282,35.645,34.668,36.621,20.996,46.387,0
1583341171.286,28.320,34.668,36.133,23.926,26.367,0
1583341171.290,27.344,33.203,37.598,27.832,79.590,0
1583341171.250,31.250,31.250,37.598,26.855,85.938,0
1583341171.254,32.715,32.715,35.645,25.879,82.031,0
1583341171.258,25.391,33.691,37.109,25.879,48.828,0
1583341171.262,28.809,32.715,36.621,28.809,62.012,0
1583341171.266,35.645,31.738,34.668,30.762,65.918,0
1583341171.270,33.203,30.273,36.133,30.273,53.223,0
1583341171.274,26.855,30.762,37.598,28.809,43.457,0
1583341171.277,28.809,29.297,39.551,28.320,10.254,0
1583341171.281,41.504,28.320,39.551,28.809,-7.812,0
1583341171.285,43.945,32.715,34.180,27.344,4.395,0
1583341171.289,48.340,36.621,28.320,35.156,45.898,0
1583341171.293,43.945,30.762,31.250,40.527,-0.977,0
1583341171.287,32.227,22.461,37.109,25.879,-4.395,0
1583341171.291,29.297,23.926,38.574,17.090,16.602,0
1583341171.295,16.113,26.367,39.551,16.602,40.039,0
1583341171.299,11.719,28.809,39.551,9.277,76.660,0
1583341171.303,22.461,29.297,39.551,10.742,47.363,0
1583341171.307,30.273,28.320,40.039,12.207,-16.602,0
1583341171.311,20.508,31.250,37.598,8.789,6.836,0
1583341171.314,11.719,32.715,35.645,8.789,64.453,0
1583341171.318,16.602,32.227,36.133,14.160,90.332,0
1583341171.322,24.414,33.203,37.109,18.555,84.473,0
1583341171.326,28.320,33.691,39.062,19.043,36.621,0
1583341171.330,19.531,37.109,39.062,17.090,42.480,0
1583341171.327,18.555,36.133,35.156,18.555,56.152,0
1583341171.331,28.320,32.715,34.668,18.066,36.621,0
1583341171.335,29.785,32.227,33.691,18.066,54.688,0
1583341171.339,28.809,30.762,32.227,18.066,87.402,0
1583341171.343,27.832,29.297,33.691,16.602,46.875,0
1583341171.347,28.809,30.762,34.180,17.090,18.066,0
1583341171.351,32.227,33.691,34.180,18.066,73.242,0
1583341171.354,31.250,36.621,38.574,21.484,72.754,0
1583341171.358,28.320,39.062,39.062,18.066,68.359,0
1583341171.362,29.785,38.086,37.598,15.625,26.367,0
1583341171.366,37.598,38.086,38.086,24.414,-29.297,0
1583341171.370,38.574,36.133,38.086,27.832,23.438,0
1583341171.387,31.738,36.133,36.621,23.926,43.457,0
1583341171.391,26.855,35.645,34.180,22.949,23.438,0
1583341171.395,29.297,34.668,33.691,24.902,12.207,0
1583341171.399,37.109,32.715,37.109,24.902,-3.418,0
1583341171.403,37.109,31.250,36.621,23.926,6.836,0
1583341171.407,36.621,37.109,31.738,27.832,19.043,0
1583341171.411,43.945,38.086,32.227,30.273,56.641,0
1583341171.414,42.969,34.668,32.227,30.762,3.906,0
1583341171.418,41.016,34.180,28.320,34.180,-46.387,0
1583341171.422,41.992,34.668,29.297,33.203,-15.625,0
1583341171.426,42.969,35.156,31.738,35.156,33.203,0
1583341171.430,49.316,35.645,34.180,37.598,64.941,0
1583341171.447,44.434,34.180,36.621,34.180,23.438,0
1583341171.451,41.992,35.156,35.645,38.574,-39.062,0
1583341171.455,48.340,35.156,35.645,29.785,-37.109,0
1583341171.459,48.828,32.227,34.180,27.832,20.508,0
1583341171.463,45.898,32.715,31.738,43.945,10.742,0
1583341171.467,32.227,32.715,30.273,38.574,11.230,0
1583341171.471,28.809,33.691,31.250,34.668,34.180,0
1583341171.474,44.434,35.156,31.738,35.156,-11.719,0
1583341171.478,43.945,36.133,31.250,32.227,-17.090,0
1583341171.482,35.156,36.133,30.762,30.762,43.945,0
1583341171.486,26.855,37.109,32.227,28.809,35.645,0
1583341171.490,35.156,41.016,31.738,28.809,20.996,0
1583341171.467,41.504,41.992,29.297,31.250,22.949,0
1583341171.471,28.809,39.062,32.227,31.250,29.297,0
1583341171.475,31.738,38.574,32.715,29.785,53.711,0
1583341171.479,37.598,41.016,31.738,28.320,57.617,0
1583341171.483,39.062,38.574,30.762,26.855,7.812,0
1583341171.487,28.809,34.668,28.809,25.391,-17.090,0
1583341171.491,27.344,38.574,31.738,26.855,49.316,0
1583341171.494,27.832,39.551,33.691,26.367,69.336,0
1583341171.498,35.156,38.574,34.180,21.973,36.621,0
1583341171.502,39.551,39.062,33.691,21.484,25.391,0
1583341171.506,30.273,38.574,31.738,22.949,36.621,0
1583341171.510,24.902,37.109,32.715,18.555,81.543,0
1583341171.527,26.855,36.621,31.738,16.602,78.613,0
1583341171.531,34.180,35.156,32.227,18.555,31.738,0
1583341171.535,29.785,34.180,35.156,16.113,26.367,0
1583341171.539,26.855,35.156,37.109,23.438,37.598,0
1583341171.543,31.250,35.645,37.598,33.691,6.348,0
1583341171.547,35.156,36.133,37.598,33.691,20.508,0
1583341171.551,26.855,33.203,33.691,31.250,73.730,0
1583341171.554,25.391,33.203,32.715,33.691,28.809,0
1583341171.558,30.273,34.180,37.598,37.109,-0.977,0
1583341171.562,36.133,34.668,37.598,36.621,6.836,0
1583341171.566,40.039,34.668,36.621,33.203,24.414,0
1583341171.570,33.203,33.691,39.062,31.250,58.105,0
1583341171.567,31.738,34.668,38.086,28.809,10.254,0
1583341171.571,36.133,34.180,35.156,28.809,-2.930,0
1583341171.575,41.016,34.668,36.621,30.762,47.852,0
1583341171.579,37.598,33.203,38.086,30.273,82.031,0
1583341171.583,35.645,33.203,38.574,31.738,72.266,0
1583341171.587,50.293,31.250,36.133,34.668,0.000,0
1583341171.591,43.945,32.227,34.180,33.691,28.809,0
1583341171.594,30.273,30.273,36.133,28.809,82.520,0
1583341171.598,34.668,28.809,37.109,24.414,89.844,0
1583341171.602,32.715,30.273,36.621,27.832,63.477,0
1583341171.606,39.062,28.320,34.180,26.855,39.062,0
1583341171.610,37.598,28.320,33.203,27.832,56.152,0
1583341171.607,19.531,31.250,37.109,29.785,57.129,0
1583341171.611,22.949,33.691,39.551,30.273,37.598,0
1583341171.615,37.598,35.156,41.016,35.156,9.766,0
1583341171.619,40.527,35.645,40.039,34.180,14.160,0
1583341171.623,25.879,34.668,36.133,30.762,45.410,0
1583341171.627,30.273,32.227,35.645,32.715,62.500,0
1583341171.631,43.945,33.203,37.109,33.203,75.684,0
1583341171.634,40.039,33.691,36.133,32.227,16.602,0
1583341171.638,34.180,35.645,37.598,27.344,-36.133,0
1583341171.642,24.902,36.621,37.598,24.414,-47.852,0
1583341171.646,33.691,36.621,33.203,29.297,-6.836,0
1583341171.650,41.992,37.598,30.762,28.320,59.082,0
1583341171.667,35.645,36.621,30.273,28.320,27.832,0
1583341171.671,28.809,36.133,29.297,25.879,28.809,0
1583341171.675,33.203,33.203,29.297,20.508,22.461,0
1583341171.679,33.691,35.156,30.762,24.414,62.012,0
1583341171.683,29.785,40.039,32.715,26.855,48.340,0
1583341171.687,38.086,38.574,32.715,28.320,-32.715,0
1583341171.691,38.574,37.109,31.738,30.273,-1.953,0
1583341171.694,36.133,38.574,31.738,28.809,0.488,0
1583341171.698,36.133,38.086,28.809,25.879,50.293,0
1583341171.702,28.809,38.574,26.367,26.855,88.379,0
1583341171.706,26.855,39.062,30.273,26.855,26.855,0
1583341171.710,34.668,41.016,31.738,26.855,7.812,0
1583341171.747,37.598,41.992,28.320,26.367,38.086,0
1583341171.751,25.391,41.016,25.879,25.391,21.484,0
1583341171.755,24.902,42.969,24.902,30.762,46.875,0
1583341171.759,40.527,41.992,27.344,34.180,46.387,0
1583341171.763,43.457,40.527,28.809,33.691,30.273,0
1583341171.767,35.156,38.086,28.320,30.762,77.148,0
1583341171.771,32.715,36.133,27.832,27.344,104.492,0
1583341171.774,31.250,34.668,29.297,28.809,60.059,0
1583341171.778,33.691,32.715,28.809,29.785,58.594,0
1583341171.782,41.016,35.156,28.320,27.832,48.340,0
1583341171.786,38.086,37.598,30.273,23.926,27.344,0
1583341171.790,30.273,36.133,30.762,23.926,77.148,0
1583341171.768,39.551,34.180,32.227,26.367,44.434,0
1583341171.772,36.133,33.691,31.738,24.902,3.418,0
1583341171.776,25.391,34.668,32.227,24.902,11.230,0
1583341171.780,28.320,35.645,33.203,21.484,-29.785,0
1583341171.784,29.297,34.668,31.738,20.996,0.488,0
1583341171.788,27.832,33.691,35.645,21.484,34.180,0
1583341171.792,21.973,34.180,38.086,19.531,-3.418,0
1583341171.795,21.484,34.668,35.156,18.555,35.156,0
1583341171.799,24.902,34.668,34.668,17.578,51.270,0
1583341171.803,27.832,35.645,36.133,19.531,29.297,0
1583341171.807,26.367,38.574,36.621,22.949,40.039,0
1583341171.811,23.926,35.645,37.598,23.438,-4.883,0
1583341171.807,26.367,31.738,35.156,24.414,-12.207,0
1583341171.811,30.273,35.156,34.668,24.902,44.434,0
1583341171.815,38.574,34.180,39.062,27.832,45.410,0
1583341171.819,38.086,34.180,38.086,29.785,44.922,0
1583341171.823,34.668,33.203,39.551,29.297,78.125,0
1583341171.827,41.504,32.715,40.039,32.227,77.148,0
1583341171.831,42.969,35.645,36.133,30.273,63.965,0
1583341171.834,40.527,35.645,37.109,31.250,77.148,0
1583341171.838,41.016,37.598,36.621,35.645,28.320,0
1583341171.842,43.457,38.086,31.738,35.645,-11.230,0
1583341171.846,42.480,38.086,31.250,34.668,9.277,0
1583341171.850,36.621,39.062,34.668,31.738,40.527,0
1583341171.847,35.645,36.133,39.062,23.438,22.461,0
1583341171.851,36.621,35.156,39.062,25.879,1.465,0
1583341171.855,36.133,37.598,37.109,31.738,11.230,0
1583341171.859,32.227,35.645,37.109,29.297,30.762,0
1583341171.863,30.762,31.738,35.645,28.320,-4.883,0
1583341171.867,32.227,32.715,33.691,27.344,28.809,0
1583341171.871,34.668,34.668,37.109,27.832,62.500,0
1583341171.874,32.715,36.621,35.156,29.297,54.688,0
1583341171.878,24.414,34.668,34.180,29.297,70.801,0
1583341171.882,28.809,34.180,35.156,26.367,22.461,0
1583341171.886,32.227,34.668,33.691,24.902,24.902,0
1583341171.890,38.574,32.715,35.156,25.879,78.613,0
1583341171.887,43.457,30.273,37.598,24.902,51.758,0
1583341171.891,41.992,32.715,35.645,26.367,58.105,0
1583341171.895,48.340,35.645,35.156,32.227,76.660,0
1583341171.899,48.828,36.133,34.668,28.809,40.039,0
1583341171.903,49.316,36.133,33.691,28.809,42.480,0
1583341171.907,46.875,34.668,38.086,33.691,38.086,0
1583341171.911,46.875,33.691,38.574,33.203,0.488,0
1583341171.914,48.340,36.133,36.133,33.691,1.465,0
1583341171.918,36.621,35.645,35.645,29.297,61.035,0
1583341171.922,32.227,35.156,36.133,30.762,23.926,0
1583341171.926,37.598,33.691,37.109,32.715,-25.879,0
1583341171.930,41.504,30.762,38.574,32.227,-41.016,0
1583341171.948,33.691,31.250,42.969,32.715,0.488,0
1583341171.952,25.391,33.203,42.969,29.297,46.875,0
1583341171.956,20.996,34.668,39.551,28.320,-17.090,0
1583341171.960,23.438,34.180,38.574,28.320,2.930,0
1583341171.964,37.109,35.645,37.598,27.344,41.992,0
1583341171.968,32.227,34.668,37.109,26.367,41.992,0
1583341171.972,21.973,29.785,34.180,24.414,67.383,0
1583341171.975,27.832,30.762,33.203,25.879,62.988,0
1583341171.979,40.039,31.250,32.715,26.367,84.473,0
1583341171.983,37.109,31.250,32.715,26.367,58.594,0
1583341171.987,42.969,33.691,30.273,41.016,43.945,0
1583341171.991,41.992,32.227,35.156,39.551,23.438,0
1583341171.987,27.832,29.785,39.551,18.555,-5.371,0
1583341171.991,26.367,29.297,36.133,19.531,-13.184,0
1583341171.995,22.949,25.391,38.086,27.344,-8.301,0
1583341171.999,19.043,24.902,39.062,26.855,-1.953,0
1583341172.003,27.344,27.832,39.551,21.973,13.672,0
1583341172.007,31.738,28.809,40.527,17.090,37.109,0
1583341172.011,25.391,34.180,38.086,19.043,-11.719,0
1583341172.014,23.438,35.156,37.598,21.973,6.836,0
1583341172.018,38.574,32.715,38.574,27.344,13.672,0
1583341172.022,42.969,33.691,38.086,26.367,36.621,0
1583341172.026,33.691,33.691,39.062,18.555,89.844,0
1583341172.030,41.992,34.180,41.016,23.438,56.152,0
1583341172.067,49.316,37.598,38.574,30.273,26.855,0
1583341172.071,50.781,36.621,39.062,31.250,38.574,0
1583341172.075,40.527,35.156,40.527,30.273,62.012,0
1583341172.079,32.227,34.668,37.598,27.344,12.695,0
1583341172.083,28.809,32.227,35.645,23.926,-10.254,0
1583341172.087,32.715,35.645,35.645,25.391,28.320,0
1583341172.091,36.133,38.574,34.180,25.391,56.152,0
1583341172.094,30.273,37.598,34.180,23.438,81.055,0
1583341172.098,30.762,37.109,35.645,25.391,61.035,0
1583341172.102,33.203,37.109,32.227,24.902,11.719,0
1583341172.106,38.574,36.133,29.785,27.344,26.367,0
1583341172.110,40.527,35.645,31.250,30.762,-1.953,0
1583341172.128,35.645,34.180,32.227,28.809,13.672,0
1583341172.132,39.062,34.668,34.668,28.809,44.434,0
1583341172.136,40.039,35.645,37.598,30.273,14.648,0
1583341172.140,30.762,35.645,39.062,28.809,10.254,0
1583341172.144,34.668,34.180,38.086,31.250,26.367,0
1583341172.148,37.109,34.180,38.574,33.691,54.199,0
1583341172.152,40.039,35.645,40.527,33.691,34.668,0
1583341172.155,41.504,36.133,40.039,37.109,55.176,0
1583341172.159,34.668,37.109,40.039,37.598,36.621,0
1583341172.163,39.062,37.109,41.992,36.621,-9.277,0
1583341172.167,41.992,39.062,41.992,36.133,10.742,0
1583341172.171,39.551,37.109,44.434,36.133,4.395,0
1583341172.170,37.109,34.180,43.457,36.133,13.672,0
1583341172.174,32.715,35.645,38.086,31.738,56.152,0
1583341172.178,33.691,37.109,39.062,29.785,48.828,0
1583341172.182,41.504,39.062,40.039,33.691,38.574,0
1583341172.186,41.016,38.086,34.180,31.250,87.891,0
1583341172.190,31.738,36.133,32.715,26.367,66.895,0
1583341172.194,30.273,35.156,35.156,26.855,-11.719,0
1583341172.197,36.133,34.668,33.691,26.855,-6.836,0
1583341172.201,30.273,32.227,33.691,23.926,-14.648,0
1583341172.205,21.973,30.762,33.691,23.926,52.246,0
1583341172.209,28.809,32.715,34.668,22.461,86.426,0
1583341172.213,32.227,33.691,37.598,21.973,2.930,0
1583341172.172,26.855,33.691,35.156,22.949,7.324,0
1583341172.176,28.809,35.645,35.645,20.020,76.660,0
1583341172.180,25.879,34.668,37.109,17.090,139.648,0
1583341172.184,21.973,34.180,34.180,14.648,108.398,0
1583341172.188,30.762,35.156,33.691,18.066,36.621,0
1583341172.192,28.320,33.691,35.156,15.625,29.785,0
1583341172.196,24.902,36.133,32.227,12.695,64.453,0
1583341172.199,29.297,37.598,30.762,15.625,30.762,0
1583341172.203,27.344,36.621,32.227,14.648,56.641,0
1583341172.207,24.902,36.133,30.762,16.602,62.500,0
1583341172.211,24.414,35.645,30.273,19.043,39.062,0
1583341172.215,31.250,34.180,29.297,20.996,19.043,0
1583341172.228,39.551,33.203,26.855,22.949,12.207,0
1583341172.232,40.527,32.227,27.832,24.902,34.180,0
1583341172.236,35.156,33.203,30.273,25.879,21.484,0
1583341172.240,39.062,35.156,28.809,26.367,39.062,0
1583341172.244,41.504,34.180,29.785,30.762,62.500,0
1583341172.248,36.133,34.180,29.785,32.227,92.773,0
1583341172.252,34.180,34.668,30.273,26.367,53.711,0
1583341172.255,31.738,36.133,30.273,21.973,-0.488,0
1583341172.259,32.227,36.621,29.297,27.832,38.574,0
1583341172.263,42.480,35.645,31.250,32.227,36.133,0
1583341172.267,39.551,36.621,30.762,30.273,-27.832,0
1583341172.271,33.691,39.551,32.715,28.320,-6.836,0
1583341172.269,39.551,39.551,32.227,27.832,29.297,0
1583341172.273,38.574,37.109,33.203,28.320,37.598,0
1583341172.277,32.715,36.133,37.109,27.832,66.895,0
1583341172.281,31.250,36.133,36.621,27.832,22.949,0
1583341172.285,37.598,34.180,33.691,27.344,70.312,0
1583341172.289,39.062,32.715,33.203,27.344,59.570,0
1583341172.293,36.133,34.180,33.203,27.832,0.000,0
1583341172.296,32.715,34.668,34.180,25.391,27.832,0
1583341172.300,39.551,33.691,35.645,28.320,19.531,0
1583341172.304,43.945,34.180,36.133,30.762,26.367,0
1583341172.308,38.574,33.691,36.133,29.785,43.457,0
1583341172.312,33.203,34.668,39.551,31.250,23.438,0
1583341172.308,34.668,36.133,39.062,32.227,39.551,0
1583341172.312,44.434,34.180,36.621,35.645,65.430,0
1583341172.316,55.176,34.180,38.086,40.527,43.457,0
1583341172.320,45.410,41.016,32.227,34.180,6.348,0
1583341172.324,31.250,44.434,26.367,20.508,-6.348,0
1583341172.328,37.598,43.457,26.855,17.090,17.578,0
1583341172.332,46.387,43.945,26.855,25.879,41.992,0
1583341172.335,41.504,45.898,25.391,27.832,34.668,0
1583341172.339,35.645,46.875,23.438,19.531,-11.719,0
1583341172.343,32.715,48.828,23.926,17.578,-7.324,0
1583341172.347,37.109,46.875,26.855,20.508,27.344,0
1583341172.351,35.156,42.969,29.785,24.414,8.789,0
1583341172.367,29.297,43.457,29.785,24.902,3.418,0
1583341172.371,37.109,41.504,29.297,22.949,10.254,0
1583341172.375,39.062,38.574,29.297,20.508,34.180,0
1583341172.379,37.598,38.086,30.273,21.973,16.113,0
1583341172.383,33.203,37.598,29.297,22.461,-0.488,0
1583341172.387,28.320,38.086,31.250,23.438,37.109,0
1583341172.391,32.227,37.109,34.180,19.043,65.918,0
1583341172.394,35.156,37.109,31.738,18.066,60.547,0
1583341172.398,31.738,38.086,28.809,24.414,11.719,0
1583341172.402,34.180,39.062,29.785,25.391,19.531,0
1583341172.406,35.156,42.480,30.273,30.273,50.781,0
1583341172.410,41.504,41.992,27.344,32.715,22.949,0
1583341172.407,41.016,38.086,29.297,29.785,49.316,0
1583341172.411,34.668,36.133,32.715,27.832,70.801,0
1583341172.415,35.645,36.133,30.273,31.738,34.180,0
1583341172.419,39.551,37.598,28.320,35.156,43.457,0
1583341172.423,39.551,38.086,30.273,35.645,63.477,0
1583341172.427,27.832,34.180,30.273,29.785,18.066,0
1583341172.431,28.320,30.762,29.785,25.879,-29.785,0
1583341172.434,38.574,33.203,30.762,29.297,-41.504,0
1583341172.438,37.109,34.668,30.273,28.809,48.340,0
1583341172.442,27.832,33.691,32.227,22.949,99.609,0
1583341172.446,23.438,33.691,35.645,20.020,12.695,0
1583341172.450,30.273,33.691,33.691,21.973,20.020,0
1583341172.447,37.109,32.227,31.738,21.973,46.875,0
1583341172.451,29.785,30.273,31.738,20.996,39.062,0
1583341172.455,23.438,30.762,30.762,17.090,53.711,0
1583341172.459,30.273,29.785,32.715,18.066,15.137,0
1583341172.463,34.668,30.273,31.738,23.438,-25.391,0
1583341172.467,32.227,33.203,30.273,26.367,-32.227,0
1583341172.471,30.762,34.180,31.738,29.297,16.602,0
1583341172.474,29.297,32.227,28.809,26.367,85.938,0
1583341172.478,35.645,30.273,25.391,21.484,77.637,0
1583341172.482,34.668,33.203,27.344,22.461,36.133,0
1583341172.486,28.809,34.180,29.785,28.809,5.371,0
1583341172.490,39.551,31.738,32.715,30.762,12.207,0
1583341172.528,41.992,30.273,32.715,24.902,37.598,0
1583341172.532,35.645,31.250,30.762,22.461,31.738,0
1583341172.536,25.391,32.227,31.250,20.508,42.480,0
1583341172.540,27.832,32.715,31.250,22.461,55.176,0
1583341172.544,38.086,34.180,29.297,29.297,25.391,0
1583341172.548,33.203,34.668,29.785,28.320,44.434,0
1583341172.552,27.832,34.668,31.738,21.484,37.109,0
1583341172.555,22.461,33.691,27.832,23.438,0.488,0
1583341172.559,26.367,34.668,24.902,25.391,-10.254,0
1583341172.563,41.992,35.156,22.461,24.902,54.688,0
1583341172.567,34.180,34.668,25.879,24.414,45.410,0
1583341172.571,23.926,33.691,28.809,19.531,1.465,0
1583341172.587,24.902,31.250,27.344,17.578,12.207,0
1583341172.591,26.855,29.785,28.809,17.578,1.465,0
1583341172.595,27.344,29.785,27.832,20.508,-9.277,0
1583341172.599,20.508,32.227,25.879,20.020,-6.836,0
1583341172.603,21.973,35.156,29.297,17.578,52.246,0
1583341172.607,33.691,33.203,31.738,19.531,81.543,0
1583341172.611,28.320,30.762,33.203,23.438,30.762,0
1583341172.614,24.414,32.715,36.133,22.461,30.762,0
1583341172.618,26.855,31.738,35.645,20.020,41.016,0
1583341172.622,29.297,31.250,35.156,21.484,39.551,0
1583341172.626,26.855,31.250,36.621,21.484,30.762,0
1583341172.630,25.391,30.273,36.621,23.438,18.066,0
1583341172.647,27.832,30.762,37.109,25.391,-5.859,0
1583341172.651,32.715,31.250,39.062,26.855,0.488,0
1583341172.655,29.785,31.250,38.086,27.344,64.941,0
1583341172.659,25.391,32.227,36.133,28.809,72.266,0
1583341172.663,28.809,34.180,35.645,30.273,79.102,0
1583341172.667,33.203,36.621,40.039,30.273,49.805,0
1583341172.671,39.551,37.598,38.574,33.691,20.508,0
1583341172.674,37.598,36.133,36.621,28.809,59.082,0
1583341172.678,26.367,33.691,37.598,20.020,43.945,0
1583341172.682,24.902,34.180,35.156,20.020,9.277,0
1583341172.686,32.715,35.645,36.621,20.508,16.113,0
1583341172.690,29.785,34.668,38.086,18.555,19.043,0
1583341172.687,28.809,36.621,39.062,17.090,-17.090,0
1583341172.691,26.367,34.668,38.574,16.113,6.348,0
1583341172.695,25.879,32.227,35.645,14.648,22.461,0
1583341172.699,28.809,32.227,35.156,16.113,17.578,0
1583341172.703,27.832,34.180,36.133,20.020,7.324,0
1583341172.707,27.832,36.133,37.598,17.578,-3.418,0
1583341172.711,29.297,35.156,36.621,15.625,3.906,0
1583341172.714,31.250,34.180,32.227,17.578,24.902,0
1583341172.718,28.320,35.645,29.297,15.625,28.809,0
1583341172.722,30.273,38.086,32.227,17.090,27.344,0
1583341172.726,34.180,37.598,33.691,19.043,33.691,0
1583341172.730,34.180,36.621,31.738,17.090,42.480,0
1583341172.747,37.109,34.668,26.367,20.508,76.660,0
1583341172.751,31.738,33.203,25.879,21.484,20.508,0
1583341172.755,21.973,30.762,32.715,20.020,17.578,0
1583341172.759,35.645,33.203,35.645,24.902,36.133,0
1583341172.763,47.363,37.109,35.645,25.879,19.043,0
1583341172.767,43.945,39.062,34.180,28.320,36.621,0
1583341172.771,39.062,42.969,30.273,30.762,74.219,0
1583341172.774,41.016,43.945,30.762,33.203,56.641,0
1583341172.778,46.875,41.992,35.156,35.645,45.898,0
1583341172.782,40.039,41.016,34.180,27.832,42.480,0
1583341172.786,26.367,40.527,31.738,23.438,30.273,0
1583341172.790,30.273,40.527,31.738,29.297,52.246,0
1583341172.752,42.969,41.504,32.715,30.273,31.738,0
1583341172.756,42.480,42.969,32.227,28.809,-0.488,0
1583341172.760,33.691,42.969,31.738,26.367,22.949,0
1583341172.764,32.715,41.016,28.320,26.367,-50.781,0
1583341172.768,43.457,37.598,28.320,27.344,-18.555,0
1583341172.772,47.852,36.133,32.227,26.855,59.570,0
1583341172.776,44.434,38.574,32.715,28.320,21.484,0
1583341172.779,49.805,38.574,33.691,35.645,21.484,0
1583341172.783,50.293,35.156,35.645,40.039,49.805,0
1583341172.787,36.133,33.691,36.133,24.414,23.926,0
1583341172.791,26.367,33.691,38.574,14.160,41.016,0
1583341172.795,19.531,33.203,38.574,18.066,51.758,0
1583341172.787,18.555,32.227,36.133,17.090,40.039,0
1583341172.791,26.367,32.715,35.645,20.508,41.016,0
1583341172.795,22.461,34.668,37.109,25.879,-15.625,0
1583341172.799,21.973,35.645,36.133,26.367,-9.766,0
1583341172.803,34.180,36.621,35.156,29.297,36.133,0
1583341172.807,40.527,34.668,32.715,26.367,6.836,0
1583341172.811,36.133,33.203,29.785,22.461,-6.836,0
1583341172.814,31.250,37.109,30.762,21.973,47.852,0
1583341172.818,34.668,41.992,31.250,23.926,121.582,0
1583341172.822,42.480,39.551,32.227,25.879,92.285,0
1583341172.826,39.062,37.109,33.691,24.902,50.781,0
1583341172.830,31.738,39.062,33.691,19.043,79.590,0
1583341172.828,36.133,35.645,35.645,21.484,67.383,0
1583341172.832,40.039,32.227,35.156,30.762,57.617,0
1583341172.836,39.062,31.250,33.691,34.180,41.016,0
1583341172.840,35.645,31.738,34.180,35.645,-9.277,0
1583341172.844,34.668,32.715,34.180,34.668,28.809,0
1583341172.848,33.691,33.691,34.668,33.691,120.605,0
1583341172.852,38.574,34.668,35.645,36.133,99.609,0
1583341172.855,45.898,31.250,35.156,37.598,56.641,0
1583341172.859,44.434,28.809,34.180,36.621,30.762,0
1583341172.863,46.875,30.762,34.668,38.574,19.043,0
1583341172.867,50.781,33.691,35.645,40.039,27.832,0
1583341172.871,52.246,33.691,35.156,40.527,36.133,0
1583341172.887,50.781,32.227,36.133,42.480,66.406,0
1583341172.891,49.805,30.762,40.039,40.527,77.148,0
1583341172.895,49.316,29.297,40.039,41.016,63.477,0
1583341172.899,48.340,29.785,39.062,40.527,50.293,0
1583341172.903,40.527,28.809,37.598,34.180,15.625,0
1583341172.907,36.621,31.250,35.156,31.250,17.090,0
1583341172.911,40.039,33.203,38.086,33.203,16.602,0
1583341172.914,35.156,32.715,39.062,24.414,8.301,0
1583341172.918,26.367,28.809,37.598,20.508,19.043,0
1583341172.922,29.785,30.762,37.109,25.879,24.902,0
1583341172.926,35.645,34.180,38.574,30.273,29.785,0
1583341172.930,39.551,35.645,43.457,34.180,15.625,0
1583341172.947,38.086,35.156,41.504,34.180,27.832,0
1583341172.951,27.344,30.273,36.621,32.227,10.742,0
1583341172.955,28.320,27.832,37.109,27.344,33.203,0
1583341172.959,34.668,31.250,38.574,22.949,-6.836,0
1583341172.963,37.109,34.180,37.109,26.367,-34.180,0
1583341172.967,31.738,32.715,36.133,31.250,35.156,0
1583341172.971,21.484,30.762,34.668,26.855,46.875,0
1583341172.974,31.250,29.785,33.691,21.484,67.383,0
1583341172.978,27.832,30.273,34.668,24.414,44.922,0
1583341172.982,21.973,29.785,35.156,23.438,44.434,0
1583341172.986,25.879,29.785,35.645,20.020,111.328,0
1583341172.990,24.414,31.738,36.133,23.438,82.520,0
1583341172.967,40.527,33.203,34.668,27.832,51.270,0
1583341172.971,36.621,34.668,30.273,22.949,50.293,0
1583341172.975,28.320,35.156,30.273,21.973,-0.977,0
1583341172.979,34.180,33.203,34.180,26.855,-0.977,0
1583341172.983,38.574,38.086,31.250,34.180,46.387,0
1583341172.987,35.156,39.551,34.668,36.133,41.504,0
1583341172.991,30.762,31.738,38.086,32.227,6.348,0
1583341172.994,29.785,31.738,36.621,31.250,18.555,0
1583341172.998,32.715,35.156,40.039,26.367,27.832,0
1583341173.002,38.574,34.668,36.621,22.949,25.391,0
1583341173.006,33.203,36.133,29.297,24.902,58.594,0
1583341173.010,24.414,36.621,29.785,24.902,64.941,0
1583341173.027,28.809,31.738,35.645,21.973,41.992,0
1583341173.031,35.645,32.715,34.668,21.973,64.453,0
1583341173.035,31.250,39.062,34.180,22.949,92.773,0
1583341173.039,31.250,40.039,29.785,26.367,60.059,0
1583341173.043,35.645,36.621,28.809,30.273,-12.695,0
1583341173.047,37.598,37.598,33.203,28.809,29.785,0
1583341173.051,32.715,38.086,36.133,23.926,44.922,0
1583341173.054,29.785,34.180,32.715,20.508,34.180,0
1583341173.058,37.598,33.691,28.320,25.391,50.293,0
1583341173.062,40.039,33.203,36.133,29.785,4.883,0
1583341173.066,33.691,33.203,34.668,25.391,9.277,0
1583341173.070,32.715,35.156,30.273,21.973,38.574,0
1583341173.087,36.621,35.156,33.203,26.367,46.387,0
1583341173.091,39.062,32.715,41.016,23.438,10.254,0
1583341173.095,38.574,34.180,39.062,20.020,-9.766,0
1583341173.099,39.062,35.645,27.344,28.320,7.324,0
1583341173.103,37.598,35.156,33.691,25.879,15.625,0
1583341173.107,39.551,37.109,32.227,24.414,43.457,0
1583341173.111,40.039,35.645,29.785,24.414,64.453,0
1583341173.114,32.715,34.668,34.180,20.996,86.426,0
1583341173.118,35.156,34.180,36.133,23.926,81.543,0
1583341173.122,42.480,35.645,35.645,26.367,-8.789,0
1583341173.126,42.480,37.109,34.180,19.531,-18.555,0
1583341173.130,36.621,37.598,35.645,21.973,80.566,0
1583341173.110,35.156,37.598,38.086,27.832,63.477,0
1583341173.114,33.691,35.645,36.621,15.137,-16.602,0
1583341173.118,33.203,36.621,37.109,11.230,63.477,0
1583341173.122,35.645,39.551,35.645,15.625,78.613,0
1583341173.126,29.297,36.133,33.691,19.043,-15.625,0
1583341173.130,22.461,34.668,33.691,18.066,6.836,0
1583341173.134,26.367,35.156,35.156,11.230,29.785,0
1583341173.137,31.250,34.668,30.762,18.066,9.277,0
1583341173.141,29.297,36.621,26.855,24.902,40.527,0
1583341173.145,25.391,37.109,32.715,23.438,47.852,0
1583341173.149,28.809,36.133,35.645,21.973,49.805,0
1583341173.153,30.273,35.156,35.645,19.531,35.645,0
1583341173.167,29.297,38.574,26.367,25.879,44.434,0
1583341173.171,25.879,39.062,25.391,19.531,117.188,0
1583341173.175,25.391,35.645,31.250,11.230,53.711,0
1583341173.179,34.180,38.086,29.297,20.020,30.273,0
1583341173.183,37.109,39.062,30.273,24.414,58.105,0
1583341173.187,26.855,37.109,32.227,22.461,52.246,0
1583341173.191,30.762,39.062,26.855,23.438,49.316,0
1583341173.194,39.062,38.574,28.809,21.973,47.363,0
1583341173.198,36.621,38.086,33.203,18.066,70.801,0
1583341173.202,34.180,38.086,30.273,22.461,63.965,0
1583341173.206,23.438,33.203,35.645,18.555,35.156,0
1583341173.210,25.391,32.227,34.668,12.695,32.227,0
1583341173.207,34.668,32.715,36.133,22.461,-4.883,0
1583341173.211,35.156,34.180,37.598,28.809,20.996,0
1583341173.215,29.785,34.668,36.133,18.066,37.598,0
1583341173.219,34.668,33.691,36.621,16.113,-30.273,0
1583341173.223,39.551,32.227,34.668,21.973,8.789,0
1583341173.227,31.250,32.715,33.691,30.273,19.043,0
1583341173.231,31.738,37.109,28.320,30.762,10.254,0
1583341173.234,34.180,37.109,34.668,18.555,42.969,0
1583341173.238,35.156,33.691,35.645,9.277,41.016,0
1583341173.242,45.410,30.762,28.809,29.785,16.602,0
1583341173.246,37.109,30.762,35.645,25.391,26.855,0
1583341173.250,24.902,34.180,32.715,6.348,63.965,0
1583341173.248,36.133,35.645,20.996,22.461,12.695,0
1583341173.252,44.434,34.668,22.461,18.555,-16.602,0
1583341173.256,30.762,34.668,22.949,4.883,42.969,0
1583341173.260,22.461,34.180,25.391,17.578,59.082,0
1583341173.264,36.621,35.156,25.391,19.043,50.781,0
1583341173.268,37.109,35.156,31.738,8.301,9.277,0
1583341173.272,30.762,35.645,33.691,14.648,18.066,0
1583341173.275,30.762,33.691,23.926,23.438,53.223,0
1583341173.279,28.809,30.762,24.902,17.578,46.875,0
1583341173.283,36.133,31.250,26.855,9.766,23.438,0
1583341173.287,36.621,30.762,31.250,9.277,-19.531,0
1583341173.291,22.461,30.273,31.250,8.789,-40.527,0
1583341173.307,26.855,31.738,24.414,20.508,25.879,0
1583341173.311,42.480,35.645,22.949,27.344,80.566,0
1583341173.315,34.180,30.762,30.762,14.160,41.992,0
1583341173.319,26.855,29.785,37.109,20.020,36.621,0
1583341173.323,36.621,34.180,28.320,25.879,-8.789,0
1583341173.327,40.039,30.273,23.438,31.738,29.297,0
1583341173.331,35.156,28.320,29.297,35.645,115.234,0
1583341173.334,26.367,28.809,30.762,14.160,46.875,0
1583341173.338,24.902,26.367,31.738,17.090,59.082,0
1583341173.342,23.438,25.879,35.156,15.137,25.391,0
1583341173.346,13.672,29.785,22.949,-4.883,13.672,0
1583341173.350,8.301,31.738,17.090,-17.090,83.496,0
1583341173.367,13.184,30.273,31.250,-9.766,28.320,0
1583341173.371,16.113,32.715,36.133,16.113,9.766,0
1583341173.375,20.508,34.180,33.691,20.996,23.438,0
1583341173.379,26.367,30.762,29.785,30.762,30.762,0
1583341173.383,16.602,34.180,28.320,19.531,34.668,0
1583341173.387,0.000,27.832,52.246,8.301,-31.250,0
1583341173.391,17.578,28.320,42.969,29.785,19.531,0
1583341173.394,39.062,39.062,14.648,38.574,37.109,0
1583341173.398,41.504,36.133,34.668,4.883,35.645,0
1583341173.402,33.691,33.691,39.062,28.320,98.145,0
1583341173.406,22.949,35.156,27.832,69.824,54.688,0
1583341173.410,28.320,35.156,34.180,46.387,77.637,0
1583341173.390,39.551,34.668,40.527,39.062,64.453,0
1583341173.394,44.922,34.668,26.367,34.668,17.090,0
1583341173.398,38.086,36.621,21.484,24.902,-17.090,0
1583341173.402,24.902,33.691,31.250,25.879,-45.410,0
1583341173.406,4.395,26.855,42.480,8.301,11.230,0
1583341173.410,19.043,32.227,38.574,6.348,75.195,0
1583341173.414,38.574,36.133,33.691,18.555,31.250,0
1583341173.417,30.762,31.738,39.062,20.996,-7.812,0
1583341173.421,17.578,30.273,33.691,32.227,35.645,0
1583341173.425,0.000,27.832,38.574,9.766,11.719,0
1583341173.429,9.277,26.855,44.922,5.859,11.719,0
1583341173.433,21.484,28.809,30.273,25.879,22.461,0
1583341173.448,9.766,30.273,33.203,24.902,59.082,0
1583341173.452,19.531,33.691,39.551,18.066,85.938,0
1583341173.456,29.297,32.715,37.598,19.043,70.801,0
1583341173.460,29.785,32.715,37.109,33.203,27.832,0
1583341173.464,39.551,33.691,36.621,46.875,-4.395,0
1583341173.468,35.156,31.738,35.156,31.738,19.043,0
1583341173.472,25.879,34.668,34.668,20.020,21.484,0
1583341173.475,21.973,34.668,32.715,13.672,-1.465,0
1583341173.479,38.574,30.762,28.320,18.555,16.113,0
1583341173.483,36.621,33.203,30.273,20.996,80.078,0
1583341173.487,18.066,35.156,32.715,13.672,51.758,0
1583341173.491,17.090,33.691,30.273,11.719,-18.555,0
1583341173.488,33.203,31.738,34.180,27.832,-25.391,0
1583341173.492,55.176,37.598,34.180,41.504,8.301,0
1583341173.496,44.922,36.621,29.785,23.438,32.715,0
1583341173.500,23.438,39.551,27.832,5.371,46.387,0
1583341173.504,38.086,35.645,38.574,23.438,46.875,0
1583341173.508,42.969,29.785,39.062,47.363,25.879,0
1583341173.512,21.973,31.250,25.391,27.832,28.809,0
1583341173.515,4.883,23.438,33.691,-1.953,36.133,0
1583341173.519,1.953,20.996,38.086,12.207,-1.953,0
1583341173.523,15.625,23.926,35.645,23.926,2.441,0
1583341173.527,14.160,25.879,35.645,28.809,47.852,0
1583341173.531,13.184,23.438,41.504,28.809,55.176,0
1583341173.527,30.273,24.902,35.156,19.531,75.195,0
1583341173.531,27.832,25.391,33.691,13.184,70.801,0
1583341173.535,11.719,25.879,41.992,19.043,9.766,0
1583341173.539,-3.418,33.203,34.668,41.016,72.754,0
1583341173.543,-2.441,30.762,33.691,46.387,119.629,0
1583341173.547,12.207,23.926,40.039,26.855,52.246,0
1583341173.551,31.738,29.297,35.156,24.902,33.203,0
1583341173.554,23.438,29.297,41.504,39.062,57.129,0
1583341173.558,3.906,29.297,45.410,17.578,67.383,0
1583341173.562,31.738,35.645,30.762,9.277,46.875,0
1583341173.566,30.762,30.762,33.203,19.531,32.715,0
1583341173.570,6.348,35.645,37.109,34.180,13.672,0
1583341173.587,12.207,36.133,36.621,31.738,-2.930,0
1583341173.591,26.855,25.391,38.086,15.625,28.809,0
1583341173.595,3.906,24.902,41.992,23.438,60.547,0
1583341173.599,-1.465,22.461,38.574,43.457,38.086,0
1583341173.603,6.836,22.461,37.109,40.039,54.199,0
1583341173.607,25.879,23.438,42.969,25.879,41.016,0
1583341173.611,38.574,28.809,35.156,21.973,-4.883,0
1583341173.614,11.230,31.250,28.809,27.832,27.344,0
1583341173.618,1.465,26.367,29.785,27.832,22.949,0
1583341173.622,21.484,26.855,32.227,35.156,15.137,0
1583341173.626,27.344,30.273,31.250,35.645,28.320,0
1583341173.630,14.160,27.344,27.832,27.344,44.922,0
1583341173.627,18.555,32.715,29.297,14.160,52.246,0
1583341173.631,33.203,35.645,29.785,9.277,1.465,0
1583341173.635,48.340,35.156,23.926,25.879,24.902,0
1583341173.639,36.133,37.109,23.926,40.527,60.547,0
1583341173.643,24.902,34.668,20.996,41.016,28.809,0
1583341173.647,30.762,32.227,30.762,44.922,7.812,0
1583341173.651,31.250,34.180,36.133,29.297,33.203,0
1583341173.654,29.785,32.227,36.621,22.949,65.430,0
1583341173.658,23.438,30.273,41.992,37.598,58.594,0
1583341173.662,24.902,30.273,41.504,31.738,10.254,0
1583341173.666,28.809,34.668,34.668,14.648,-0.977,0
1583341173.670,46.875,34.180,26.855,18.066,14.648,0
1583341173.667,33.203,26.855,35.645,35.156,58.594,0
1583341173.671,8.301,31.250,36.621,33.691,59.082,0
1583341173.675,26.855,33.203,36.133,29.297,41.992,0
1583341173.679,36.621,29.785,37.109,32.227,66.895,0
1583341173.683,38.574,33.203,28.320,32.227,36.621,0
1583341173.687,38.086,34.668,31.250,24.902,13.184,0
1583341173.691,41.016,36.133,31.250,31.250,76.172,0
1583341173.694,29.785,32.715,39.062,33.203,47.852,0
1583341173.698,18.555,28.809,43.457,13.184,20.508,0
1583341173.702,22.461,30.273,36.621,17.090,79.102,0
1583341173.706,12.695,31.250,40.039,23.926,42.480,0
1583341173.710,18.066,33.203,41.016,22.461,0.977,0
1583341173.727,20.996,30.762,43.457,20.020,1.465,0
1583341173.731,20.508,29.785,45.410,9.766,8.789,0
1583341173.735,28.320,32.715,36.133,22.461,-1.465,0
1583341173.739,24.902,32.227,35.645,33.691,49.316,0
1583341173.743,30.762,34.668,37.598,31.738,58.594,0
1583341173.747,40.527,37.598,35.645,29.297,-1.953,0
1583341173.751,35.645,38.574,33.691,15.137,-18.555,0
1583341173.754,28.809,38.574,31.738,16.113,0.488,0
1583341173.758,31.250,34.180,36.621,29.785,60.547,0
1583341173.762,32.715,33.691,36.621,36.621,60.547,0
1583341173.766,41.016,38.574,33.203,33.203,28.809,0
1583341173.770,37.109,36.621,33.691,28.809,50.781,0
1583341173.787,36.133,33.691,30.273,27.832,31.250,0
1583341173.791,44.922,35.156,28.809,23.926,30.273,0
1583341173.795,38.574,34.668,34.180,33.691,66.895,0
1583341173.799,30.273,34.180,35.156,34.180,34.668,0
1583341173.803,40.039,36.133,33.691,24.414,1.465,0
1583341173.807,48.828,34.180,33.691,27.344,46.875,0
1583341173.811,42.480,34.668,32.715,33.203,60.547,0
1583341173.814,36.133,39.551,31.738,33.691,75.684,0
1583341173.818,39.062,39.551,32.227,27.832,63.477,0
1583341173.822,46.875,38.574,32.227,23.926,50.293,0
1583341173.826,46.387,41.016,30.273,31.250,-3.906,0
1583341173.830,39.062,44.922,31.738,30.273,-21.484,0
1583341173.827,45.898,43.457,31.738,26.855,13.672,0
1583341173.831,54.688,42.480,32.715,27.832,-48.340,0
1583341173.835,50.293,39.062,32.715,26.855,-29.297,0
1583341173.839,40.527,35.156,31.250,29.785,34.668,0
1583341173.843,45.898,35.645,32.227,31.738,81.543,0
1583341173.847,55.664,37.598,33.691,33.691,47.852,0
1583341173.851,53.223,37.109,32.715,34.180,-39.062,0
1583341173.854,47.363,37.598,30.273,32.227,-24.902,0
1583341173.858,41.992,36.621,28.809,35.156,17.090,0
1583341173.862,42.969,33.203,29.297,35.156,41.504,0
1583341173.866,45.410,34.668,34.180,35.645,-24.414,0
1583341173.870,45.898,37.109,35.645,35.156,-52.246,0
1583341173.888,39.062,38.574,34.180,28.809,26.367,0
1583341173.892,40.527,39.062,32.715,24.902,41.504,0
1583341173.896,54.199,39.062,29.785,28.320,-5.859,0
1583341173.900,52.734,40.039,30.762,29.297,-0.977,0
1583341173.904,41.992,40.527,33.203,28.809,40.527,0
1583341173.908,37.598,41.504,32.715,29.785,50.781,0
1583341173.912,40.039,41.992,34.668,30.762,70.801,0
1583341173.915,46.387,42.480,34.180,29.785,92.285,0
1583341173.919,41.992,41.016,32.715,26.855,62.988,0
1583341173.923,37.109,40.039,32.715,25.391,63.965,0
1583341173.927,41.504,39.551,32.715,27.344,65.918,0
1583341173.931,41.992,37.109,33.203,29.785,24.902,0
1583341173.907,36.621,37.109,34.668,30.762,49.316,0
1583341173.911,32.715,41.016,38.086,33.203,36.621,0
1583341173.915,38.574,40.527,38.086,28.809,-7.812,0
1583341173.919,39.062,39.062,36.621,27.832,41.504,0
1583341173.923,31.250,37.109,36.621,30.273,82.031,0
1583341173.927,30.762,36.133,35.645,22.949,86.426,0
1583341173.931,35.156,40.039,33.691,19.531,23.926,0
1583341173.934,35.645,41.504,33.203,22.461,1.465,0
1583341173.938,37.598,40.039,35.156,23.438,0.488,0
1583341173.942,34.180,39.062,34.180,20.508,-6.836,0
1583341173.946,27.344,35.156,30.273,23.438,28.809,0
1583341173.950,34.180,33.691,31.738,28.809,21.973,0
1583341173.947,33.203,36.133,32.227,25.879,-13.672,0
1583341173.951,22.461,34.180,30.762,23.926,-11.230,0
1583341173.955,20.996,34.180,33.691,17.090,-24.902,0
1583341173.959,29.297,34.180,35.645,16.113,-16.602,0
1583341173.963,33.203,30.273,36.133,28.809,-6.836,0
1583341173.967,26.367,29.297,35.645,30.762,-12.207,0
1583341173.971,20.020,29.785,36.133,24.902,-13.672,0
1583341173.974,21.973,28.809,38.086,19.043,-2.441,0
1583341173.978,29.297,28.320,37.109,22.949,22.461,0
1583341173.982,32.227,32.227,36.133,34.180,20.508,0
1583341173.986,26.367,32.227,35.645,26.855,75.684,0
1583341173.990,27.832,30.762,36.133,24.414,83.984,0
1583341174.007,35.645,31.738,37.109,24.902,23.926,0
1583341174.011,40.039,33.203,34.180,23.438,3.906,0
1583341174.015,34.180,33.203,35.645,25.879,22.461,0
1583341174.019,27.832,32.715,35.645,26.367,41.992,0
1583341174.023,33.203,33.691,34.180,23.926,42.969,0
1583341174.027,35.645,33.691,39.551,22.461,62.012,0
1583341174.031,35.156,34.668,41.504,21.973,85.938,0
1583341174.034,30.762,35.156,39.551,20.508,51.270,0
1583341174.038,28.320,33.203,41.504,22.949,-12.695,0
1583341174.042,34.180,34.180,40.527,23.438,5.371,0
1583341174.046,26.855,32.227,39.062,22.949,89.844,0
1583341174.050,19.531,31.250,38.086,21.973,79.590,0
1583341174.047,28.809,34.668,36.133,21.484,78.125,0
1583341174.051,40.039,36.621,38.086,27.832,87.891,0
1583341174.055,45.410,36.133,39.062,32.227,48.340,0
1583341174.059,46.387,36.621,37.598,33.203,-3.906,0
1583341174.063,50.781,36.133,40.039,42.969,20.996,0
1583341174.067,48.340,32.227,45.898,38.086,69.336,0
1583341174.071,34.668,30.273,51.758,19.043,70.801,0
1583341174.074,30.762,25.879,52.734,22.949,58.594,0
1583341174.078,32.227,23.926,50.293,27.832,29.785,0
1583341174.082,28.809,23.438,53.711,26.367,-4.883,0
1583341174.086,33.203,23.438,55.176,26.367,11.230,0
1583341174.090,25.879,25.391,53.223,22.461,61.523,0
1583341174.087,18.555,26.855,52.246,22.949,33.691,0
1583341174.091,27.344,28.809,49.805,27.832,-2.441,0
1583341174.095,36.621,29.297,46.875,31.250,9.766,0
1583341174.099,38.574,31.250,44.434,32.227,10.742,0
1583341174.103,27.832,31.250,42.480,30.273,46.875,0
1583341174.107,24.902,30.762,42.969,27.832,14.648,0
1583341174.111,34.668,31.738,41.992,28.809,2.441,0
1583341174.114,35.156,31.738,39.551,24.902,-7.812,0
1583341174.118,23.926,27.832,40.527,21.484,-0.488,0
1583341174.122,23.438,26.367,41.016,22.949,-3.906,0
1583341174.126,33.203,28.320,39.551,28.809,30.762,0
1583341174.130,35.156,31.738,42.969,28.809,64.941,0
1583341174.147,27.832,33.203,42.480,22.461,10.254,0
1583341174.151,27.832,32.227,38.574,22.461,48.340,0
1583341174.155,35.156,32.227,38.086,25.879,97.168,0
1583341174.159,35.645,32.227,41.504,27.832,48.340,0
1583341174.163,30.273,31.250,42.480,28.809,-11.230,0
1583341174.167,29.785,30.762,39.551,33.203,-1.953,0
1583341174.171,29.297,31.250,38.574,27.832,46.387,0
1583341174.174,34.668,34.668,36.133,34.180,32.715,0
1583341174.178,39.062,37.109,37.598,31.250,40.039,0
1583341174.182,36.621,33.691,38.574,29.785,46.875,0
1583341174.186,43.457,33.691,37.109,38.086,-5.371,0
1583341174.190,49.805,36.133,33.691,39.062,55.176,0
1583341174.187,51.270,34.668,31.250,34.668,51.758,0
1583341174.191,47.363,36.621,35.645,32.715,24.902,0
1583341174.195,44.922,38.086,36.621,39.062,41.992,0
1583341174.199,45.410,35.156,36.621,30.762,45.410,0
1583341174.203,44.434,32.227,37.109,26.855,72.754,0
1583341174.207,42.480,34.180,31.250,30.762,28.320,0
1583341174.211,40.039,35.156,32.715,32.227,-13.672,0
1583341174.214,40.527,34.180,40.527,31.250,20.996,0
1583341174.218,44.434,34.668,38.086,34.668,41.016,0
1583341174.222,47.852,34.668,31.738,41.016,28.809,0
1583341174.226,42.480,33.203,31.738,39.062,25.879,0
1583341174.230,53.223,34.668,34.668,40.527,20.508,0
1583341174.287,68.848,36.621,35.156,45.898,0.977,0
1583341174.291,66.895,36.133,37.109,44.922,29.785,0
1583341174.295,61.035,35.645,36.621,38.086,-8.301,0
1583341174.299,61.035,35.156,35.645,37.598,23.438,0
1583341174.303,67.871,34.668,34.180,36.133,46.387,0
1583341174.307,70.312,32.715,36.621,36.133,2.930,0
1583341174.311,67.871,35.156,35.645,42.480,38.086,0
1583341174.314,71.289,36.621,33.691,35.156,23.438,0
1583341174.318,78.125,35.156,32.227,38.086,25.391,0
1583341174.322,81.055,33.691,34.180,47.363,96.191,0
1583341174.326,85.449,35.156,34.180,50.781,51.758,0
1583341174.330,86.426,38.574,32.715,53.223,-22.461,0
1583341174.310,83.008,39.062,34.180,45.898,-22.949,0
1583341174.314,86.914,40.527,31.250,41.504,45.898,0
1583341174.318,77.148,39.551,31.250,28.320,96.680,0
1583341174.322,67.383,33.203,31.250,23.438,82.031,0
1583341174.326,74.219,32.227,31.738,31.738,92.285,0
1583341174.330,84.961,35.645,28.320,35.156,93.750,0
1583341174.334,87.402,35.156,32.227,28.320,84.961,0
1583341174.337,79.102,33.691,33.203,24.902,51.270,0
1583341174.341,77.637,37.109,25.879,26.855,20.508,0
1583341174.345,80.078,36.621,30.273,33.691,34.668,0
1583341174.349,73.730,33.691,34.668,34.668,29.297,0
1583341174.353,61.035,33.203,31.250,25.879,28.809,0
1583341174.327,56.152,34.668,28.320,35.156,52.246,0
1583341174.331,58.594,36.133,29.297,40.527,63.965,0
1583341174.335,55.664,33.691,33.203,32.227,57.617,0
1583341174.339,44.922,31.738,37.598,25.391,73.242,0
1583341174.343,42.969,34.668,32.227,27.832,95.703,0
1583341174.347,45.898,36.133,29.297,35.156,75.684,0
1583341174.351,46.387,35.156,33.203,35.645,51.270,0
1583341174.354,41.504,33.203,39.062,27.832,26.855,0
1583341174.358,34.668,34.180,34.180,31.250,9.277,0
1583341174.362,35.645,33.203,35.156,36.133,28.809,0
1583341174.366,41.016,31.738,37.109,35.645,48.828,0
1583341174.370,36.621,30.273,31.250,34.180,62.012,0
1583341174.387,33.203,32.227,30.273,36.133,54.688,0
1583341174.391,33.691,32.227,33.203,32.227,80.566,0
1583341174.395,30.273,28.809,32.715,20.508,82.031,0
1583341174.399,32.227,29.297,30.762,22.949,66.895,0
1583341174.403,33.691,31.738,30.273,30.762,92.773,0
1583341174.407,23.438,31.738,33.691,31.250,65.430,0
1583341174.411,20.020,31.250,32.715,27.344,69.824,0
1583341174.414,24.414,31.738,30.273,18.555,31.738,0
1583341174.418,20.996,33.203,32.227,15.137,-31.738,0
1583341174.422,11.719,32.227,33.691,19.531,8.789,0
1583341174.426,13.184,33.203,28.809,25.391,60.547,0
1583341174.430,20.508,35.156,24.902,27.832,95.215,0
1583341174.428,17.090,36.133,27.832,23.926,134.277,0
1583341174.432,4.883,33.203,32.715,24.902,82.031,0
1583341174.436,6.836,32.227,32.715,29.297,24.414,0
1583341174.440,12.695,36.133,37.598,22.949,22.461,0
1583341174.444,11.719,37.109,32.715,23.926,81.543,0
1583341174.448,2.930,35.645,31.738,23.926,88.379,0
1583341174.452,-0.977,35.645,32.715,19.531,59.570,0
1583341174.455,8.301,38.086,26.855,28.320,33.203,0
1583341174.459,12.207,37.598,32.227,29.297,41.016,0
1583341174.463,4.883,40.039,33.203,23.438,56.152,0
1583341174.467,1.953,39.551,30.762,22.461,28.809,0
1583341174.471,4.883,36.133,31.738,22.949,19.043,0
1583341174.467,11.230,38.086,30.762,29.297,50.293,0
1583341174.471,7.324,35.645,36.133,15.625,99.609,0
1583341174.475,-0.977,32.227,40.039,9.277,45.410,0
1583341174.479,4.395,34.668,29.785,24.414,-15.137,0
1583341174.483,6.836,35.156,29.297,18.555,-5.859,0
1583341174.487,-2.441,34.180,39.062,13.672,-29.785,0
1583341174.491,-5.371,38.086,37.109,10.742,-4.395,0
1583341174.494,8.301,40.527,25.879,28.809,21.973,0
1583341174.498,13.184,37.109,28.809,39.062,-10.254,0
1583341174.502,10.254,34.668,28.809,27.344,15.137,0
1583341174.506,3.906,33.691,28.320,21.973,31.738,0
1583341174.510,7.812,36.621,29.785,25.879,1.465,0
1583341174.547,25.391,38.574,29.785,29.297,4.395,0
1583341174.551,32.715,37.109,31.738,29.785,54.688,0
1583341174.555,28.809,36.133,32.715,34.668,19.531,0
1583341174.559,25.391,33.691,30.762,30.762,-9.277,0
1583341174.563,32.715,29.785,33.691,27.344,64.941,0
1583341174.567,45.898,31.250,29.785,32.715,7.324,0
1583341174.571,45.410,31.738,26.367,32.715,-9.766,0
1583341174.574,37.598,32.715,33.203,33.203,34.668,0
1583341174.578,36.133,32.227,37.598,34.180,-21.484,0
1583341174.582,41.504,31.250,36.621,32.715,0.977,0
1583341174.586,45.410,33.203,31.738,38.086,29.297,0
1583341174.590,34.668,32.227,35.156,30.762,15.137,0
1583341174.634,35.645,31.250,41.016,27.344,37.109,0
1583341174.638,45.410,33.691,32.227,36.621,58.105,0
1583341174.642,43.945,36.621,28.320,26.855,54.199,0
1583341174.646,38.574,35.645,28.809,32.715,14.160,0
1583341174.650,34.180,34.180,29.297,32.715,14.160,0
1583341174.654,35.156,35.645,33.691,23.438,53.223,0
1583341174.658,41.992,33.691,33.691,35.645,70.312,0
1583341174.661,41.504,33.203,29.785,36.621,65.430,0
1583341174.665,32.227,35.156,29.785,28.320,43.457,0
1583341174.669,29.785,34.180,32.715,28.809,64.941,0
1583341174.673,38.086,31.738,32.715,36.133,56.641,0
1583341174.677,41.504,31.250,33.203,35.645,-0.977,0
1583341174.667,36.133,32.715,33.203,35.156,-8.789,0
1583341174.671,28.809,30.273,38.574,26.367,12.695,0
1583341174.675,35.156,31.738,39.062,30.762,13.184,0
1583341174.679,40.039,33.691,31.738,41.016,11.230,0
1583341174.683,31.738,35.645,30.762,32.227,46.387,0
1583341174.687,29.785,36.621,31.738,29.297,27.832,0
1583341174.691,34.668,34.180,31.250,38.086,38.086,0
1583341174.694,33.691,34.668,35.645,35.156,29.785,0
1583341174.698,22.461,33.691,35.645,24.414,-22.461,0
1583341174.702,14.648,27.832,42.480,21.973,-21.973,0
1583341174.706,23.438,30.762,39.062,16.113,25.879,0
1583341174.710,27.832,33.691,31.738,24.414,35.156,0
1583341174.728,25.391,27.832,33.203,30.273,52.734,0
1583341174.732,14.160,26.367,35.156,21.484,101.562,0
1583341174.736,16.113,29.297,39.551,30.762,73.242,0
1583341174.740,24.902,32.715,35.156,29.785,35.156,0
1583341174.744,29.785,33.203,36.133,27.344,-11.230,0
1583341174.748,19.043,33.203,36.133,27.832,-2.930,0
1583341174.752,12.695,32.715,34.180,21.484,75.684,0
1583341174.755,24.902,30.762,33.203,24.902,55.664,0
1583341174.759,20.996,30.762,31.738,25.391,-0.488,0
1583341174.763,14.648,30.273,38.086,19.043,19.531,0
1583341174.767,22.461,29.297,33.691,32.227,74.707,0
1583341174.771,24.902,32.715,29.785,36.133,62.012,0
1583341174.767,33.691,32.227,30.273,36.133,51.270,0
1583341174.771,53.223,29.297,33.203,50.293,51.270,0
1583341174.775,36.621,27.344,36.621,40.527,23.438,0
1583341174.779,24.902,26.855,35.645,30.273,8.301,0
1583341174.783,28.320,27.832,35.645,29.297,19.043,0
1583341174.787,18.555,26.855,40.527,8.789,20.996,0
1583341174.791,12.695,30.762,43.945,16.602,0.977,0
1583341174.794,21.484,32.227,40.527,33.203,39.062,0
1583341174.798,18.555,27.832,44.434,22.949,86.426,0
1583341174.802,22.949,33.203,40.527,26.367,52.734,0
1583341174.806,34.180,35.156,39.062,36.133,24.902,0
1583341174.810,29.297,28.809,39.062,29.785,44.922,0
1583341174.848,28.320,32.227,32.227,24.414,24.902,0
1583341174.852,39.062,34.668,32.715,28.320,34.180,0
1583341174.856,42.969,29.785,34.668,28.320,81.543,0
1583341174.860,34.180,29.297,35.156,28.320,48.828,0
1583341174.864,38.574,31.250,37.109,32.227,45.898,0
1583341174.868,43.945,33.203,37.598,35.156,98.633,0
1583341174.872,32.715,31.738,39.062,27.832,41.992,0
1583341174.875,24.414,32.227,42.480,15.137,-21.973,0
1583341174.879,30.273,34.668,39.062,20.020,51.270,0
1583341174.883,42.969,34.180,28.809,32.227,34.668,0
1583341174.887,45.898,32.227,31.250,28.809,20.996,0
1583341174.891,36.133,33.203,37.109,24.414,84.473,0
1583341174.853,41.992,33.691,35.156,29.785,112.305,0
1583341174.857,48.340,33.203,34.180,27.344,112.305,0
1583341174.861,41.504,31.738,36.133,21.484,54.199,0
1583341174.865,29.785,31.738,34.668,21.484,28.809,0
1583341174.869,29.785,32.227,33.691,22.461,55.176,0
1583341174.873,45.898,30.762,31.250,26.855,45.410,0
1583341174.877,52.246,31.250,33.203,31.250,46.387,0
1583341174.880,44.434,28.809,33.691,29.785,89.355,0
1583341174.884,39.551,28.320,35.645,27.832,70.312,0
1583341174.888,43.945,29.297,38.086,26.855,58.105,0
1583341174.892,51.270,30.273,39.551,37.598,90.332,0
1583341174.896,46.875,33.203,38.574,36.621,47.852,0
1583341174.855,35.645,30.273,36.133,22.461,27.832,0
1583341174.859,39.062,26.855,35.645,26.855,32.715,0
1583341174.863,40.039,31.250,33.203,30.273,61.035,0
1583341174.867,41.504,31.250,31.250,25.879,59.570,0
1583341174.871,41.992,27.344,37.109,27.344,7.324,0
1583341174.875,39.062,28.809,39.551,26.367,51.758,0
1583341174.879,44.922,27.344,35.645,29.785,105.957,0
1583341174.882,41.504,27.344,37.109,33.203,92.773,0
1583341174.886,31.738,26.855,41.016,29.297,72.266,0
1583341174.890,25.391,26.367,43.945,25.391,83.984,0
1583341174.894,29.785,28.320,44.434,22.461,75.195,0
1583341174.898,32.715,28.809,40.527,27.344,89.844,0
1583341174.888,34.180,30.762,38.574,28.809,123.535,0
1583341174.892,34.668,29.297,37.598,23.438,92.285,0
1583341174.896,34.668,29.297,36.621,26.855,70.312,0
1583341174.900,42.969,30.762,39.551,31.738,96.680,0
1583341174.904,36.133,33.203,42.480,30.273,129.395,0
1583341174.908,26.367,34.668,41.016,23.926,126.465,0
1583341174.912,38.086,34.668,37.598,24.902,137.207,0
1583341174.915,44.922,34.668,38.086,23.438,182.617,0
1583341174.919,39.551,34.180,36.621,12.695,187.012,0
1583341174.923,40.039,35.156,29.785,15.625,163.574,0
1583341174.927,47.852,33.691,26.367,26.855,184.082,0
1583341174.931,62.988,30.273,31.738,29.785,258.301,0
1583341174.947,69.336,29.297,35.645,31.250,305.664,0
1583341174.951,63.477,33.691,34.180,26.855,297.852,0
1583341174.955,59.570,38.086,32.715,28.809,284.668,0
1583341174.959,59.570,38.574,33.691,39.062,329.590,0
1583341174.963,56.641,40.527,29.297,36.621,367.676,0
1583341174.967,44.922,41.992,30.273,31.738,309.570,0
1583341174.971,31.738,41.504,34.668,22.949,279.785,0
1583341174.974,24.902,42.969,35.645,15.625,259.277,0
1583341174.978,25.391,41.504,34.668,20.020,228.516,0
1583341174.982,20.020,41.992,35.156,22.949,211.426,0
1583341174.986,8.301,41.992,37.598,18.555,156.738,0
1583341174.990,5.859,39.062,33.203,16.602,91.797,0
1583341175.007,11.230,38.086,32.227,20.996,82.031,0
1583341175.011,11.230,37.109,34.668,21.973,91.309,0
1583341175.015,3.906,37.109,34.180,20.996,93.262,0
1583341175.019,3.418,38.574,34.180,21.484,68.848,0
1583341175.023,14.160,37.598,32.715,21.484,52.734,0
1583341175.027,20.508,35.645,32.715,21.973,94.727,0
1583341175.031,17.090,33.691,36.621,26.367,93.262,0
1583341175.034,16.602,36.621,32.227,30.762,47.852,0
1583341175.038,26.367,39.551,29.785,29.785,67.383,0
1583341175.042,30.762,37.598,37.109,29.297,100.098,0
1583341175.046,20.996,35.156,37.598,27.832,59.570,0
1583341175.050,15.625,34.180,36.621,24.414,43.457,0
1583341175.027,19.043,33.691,35.156,28.320,23.926,0
1583341175.031,24.902,32.715,32.715,28.809,27.344,0
1583341175.035,19.531,32.227,33.203,22.949,15.137,0
1583341175.039,7.812,32.715,35.645,21.484,-29.297,0
1583341175.043,5.859,33.203,37.109,21.973,-57.129,0
1583341175.047,8.789,33.691,36.621,25.391,-75.684,0
1583341175.051,5.859,33.691,35.156,25.879,-100.586,0
1583341175.054,-9.277,34.668,38.574,20.020,-137.207,0
1583341175.058,-20.508,34.668,41.016,20.508,-157.227,0
1583341175.062,-15.625,33.691,39.062,23.926,-203.613,0
1583341175.066,-3.906,31.738,41.016,32.715,-235.840,0
1583341175.070,-5.371,38.086,33.691,33.691,-248.047,0
1583341175.107,-16.602,44.434,29.297,17.090,-260.254,0
1583341175.111,-19.531,41.504,27.344,2.441,-225.098,0
1583341175.115,-25.879,37.109,23.926,2.930,-184.082,0
1583341175.119,-45.410,37.109,24.902,1.465,-216.797,0
1583341175.123,-53.223,37.109,25.879,-5.859,-206.055,0
1583341175.127,-45.898,35.645,29.297,1.465,-180.176,0
1583341175.131,-51.270,34.668,30.762,3.418,-162.109,0
1583341175.134,-62.988,33.691,31.250,-1.465,-76.172,0
1583341175.138,-73.242,34.180,32.227,0.000,-116.211,0
1583341175.142,-73.730,33.691,30.762,4.883,-141.113,0
1583341175.146,-58.105,33.691,26.367,8.789,-107.910,0
1583341175.150,-46.875,33.203,26.855,5.859,-97.656,0
1583341175.128,-41.016,31.250,29.785,9.277,-67.383,0
1583341175.132,-31.738,32.715,27.344,13.672,-77.148,0
1583341175.136,-20.020,31.738,28.809,8.301,-108.398,0
1583341175.140,-16.113,28.320,30.273,10.742,-83.496,0
1583341175.144,-18.066,30.762,26.855,12.207,-59.082,0
1583341175.148,-16.602,29.785,31.738,10.742,-86.914,0
1583341175.152,-2.930,28.809,34.180,12.695,-91.797,0
1583341175.155,15.137,31.250,35.156,15.625,-66.895,0
1583341175.159,20.508,33.203,34.668,20.996,-45.410,0
1583341175.163,23.438,33.203,33.691,22.949,-50.293,0
1583341175.167,41.504,33.203,34.180,24.414,-93.262,0
1583341175.171,54.688,34.668,33.691,28.320,-38.574,0
1583341175.167,52.734,32.227,34.180,28.809,-40.527,0
1583341175.171,53.223,32.715,34.180,34.180,-33.691,0
1583341175.175,61.035,37.109,34.180,36.133,53.223,0
1583341175.179,69.336,37.598,31.250,31.250,13.184,0
1583341175.183,70.801,34.668,31.250,34.668,-38.086,0
1583341175.187,64.941,33.203,34.180,32.227,-14.160,0
1583341175.191,65.430,33.691,35.156,30.273,3.418,0
1583341175.194,70.801,32.715,36.621,35.645,-14.648,0
1583341175.198,69.336,31.738,37.598,34.668,-27.832,0
1583341175.202,63.477,33.691,34.668,36.133,-24.414,0
1583341175.206,58.105,34.668,29.785,37.598,-40.039,0
1583341175.210,56.641,34.180,35.156,35.156,-29.785,0
1583341175.227,61.035,36.621,40.527,32.227,9.766,0
1583341175.231,57.129,39.062,34.668,26.855,-4.395,0
1583341175.235,44.434,38.086,33.691,25.391,-1.953,0
1583341175.239,44.434,38.086,39.551,24.902,4.883,0
1583341175.243,56.152,39.062,35.645,27.344,10.254,0
1583341175.247,53.711,37.598,34.668,24.902,23.926,0
1583341175.251,46.387,38.574,36.133,21.484,75.684,0
1583341175.254,48.828,38.574,31.738,22.949,78.125,0
1583341175.258,52.734,40.039,31.250,23.926,0.977,0
1583341175.262,51.270,41.504,29.785,22.461,16.602,0
1583341175.266,41.992,39.062,30.273,23.438,45.410,0
1583341175.270,35.645,39.062,32.715,20.996,-23.926,0
1583341175.288,44.434,37.109,33.691,19.043,-34.180,0
1583341175.292,46.875,36.621,31.250,20.996,29.785,0
1583341175.296,43.457,40.527,23.926,21.484,45.410,0
1583341175.300,43.945,42.969,24.414,23.926,-14.648,0
1583341175.304,45.898,42.969,31.250,26.367,32.227,0
1583341175.308,45.898,40.527,34.668,28.809,57.129,0
1583341175.312,39.062,38.086,33.691,27.344,12.207,0
1583341175.315,33.691,40.527,32.227,22.949,58.105,0
1583341175.319,36.621,38.574,33.203,23.926,12.695,0
1583341175.323,40.527,36.621,35.156,25.879,20.508,0
1583341175.327,38.574,36.621,37.598,23.438,68.359,0
1583341175.331,35.645,35.156,38.086,25.879,52.734,0
1583341175.348,35.645,38.574,35.645,26.855,79.102,0
1583341175.352,41.504,38.574,34.180,25.879,78.125,0
1583341175.356,42.480,39.062,33.203,22.461,75.684,0
1583341175.360,37.598,39.062,33.691,21.484,78.613,0
1583341175.364,32.715,35.645,37.598,23.438,47.363,0
1583341175.368,33.203,36.133,35.645,21.484,22.461,0
1583341175.372,45.410,32.227,33.691,27.344,30.273,0
1583341175.375,54.688,33.203,34.668,34.668,60.059,0
1583341175.379,45.410,41.016,31.738,30.273,46.875,0
1583341175.383,32.715,45.898,28.809,14.648,17.578,0
1583341175.387,36.133,52.734,20.020,8.789,9.277,0
1583341175.391,36.621,55.176,11.719,4.883,30.762,0
1583341175.387,27.344,50.781,9.766,1.465,90.332,0
1583341175.391,29.785,52.734,8.789,2.441,67.871,0
1583341175.395,35.645,58.105,4.395,-2.930,34.668,0
1583341175.399,26.367,59.570,0.000,-9.766,33.203,0
1583341175.403,22.949,59.082,1.953,-10.254,11.230,0
1583341175.407,24.902,57.129,7.812,-9.277,41.016,0
1583341175.411,29.785,52.734,12.695,-6.348,21.484,0
1583341175.414,37.109,50.781,11.230,0.488,-2.441,0
1583341175.418,38.086,50.293,11.230,5.371,47.852,0
1583341175.422,36.133,44.922,11.719,10.254,6.836,0
1583341175.426,37.598,44.434,13.672,14.160,-8.301,0
1583341175.430,43.945,44.434,18.066,12.207,18.555,0
1583341175.468,45.410,42.480,18.555,13.184,9.277,0
1583341175.472,37.109,42.480,18.066,14.160,3.418,0
1583341175.476,41.016,41.016,18.066,11.719,1.953,0
1583341175.480,51.270,41.504,20.996,16.113,-55.664,0
1583341175.484,50.781,44.434,23.438,16.113,-4.395,0
1583341175.488,42.969,43.945,20.996,11.230,36.621,0
1583341175.492,41.992,39.062,23.438,14.160,47.852,0
1583341175.495,48.340,38.086,24.414,14.648,52.734,0
1583341175.499,48.828,42.969,24.414,15.625,7.324,0
1583341175.503,41.016,42.480,23.438,20.996,33.203,0
1583341175.507,39.062,40.527,20.996,24.414,31.738,0
1583341175.511,46.875,42.480,20.508,24.902,-12.695,0
1583341175.490,49.316,41.504,23.926,25.391,20.996,0
1583341175.494,41.016,39.551,28.320,25.391,63.965,0
1583341175.498,40.527,40.527,26.367,27.344,43.457,0
1583341175.502,44.434,41.016,27.832,33.203,51.270,0
1583341175.506,45.898,39.551,31.250,35.156,57.129,0
1583341175.510,48.340,40.039,31.250,36.621,24.414,0
1583341175.514,40.039,40.527,31.250,35.156,1.953,0
1583341175.517,38.086,37.598,28.809,32.715,8.301,0
1583341175.521,43.457,38.086,32.227,31.738,16.602,0
1583341175.525,42.969,38.086,34.180,31.738,60.547,0
1583341175.529,34.668,35.645,30.762,32.227,79.590,0
1583341175.533,30.273,34.180,30.762,30.273,35.645,0
1583341175.548,33.203,31.250,30.273,25.391,41.016,0
1583341175.552,33.203,28.320,30.273,20.996,44.434,0
1583341175.556,29.785,32.227,32.227,20.508,-0.977,0
1583341175.560,26.855,31.738,30.762,19.043,52.246,0
1583341175.564,30.273,32.227,30.762,18.555,87.402,0
1583341175.568,33.691,32.715,30.762,18.555,31.738,0
1583341175.572,23.438,32.227,30.762,17.578,45.898,0
1583341175.575,16.602,35.156,30.273,15.625,95.215,0
1583341175.579,25.879,37.598,27.344,17.578,53.711,0
1583341175.583,35.156,36.133,27.832,18.555,40.039,0
1583341175.587,38.086,35.156,29.785,17.090,63.965,0
1583341175.591,36.621,36.621,34.668,17.090,45.410,0
1583341175.567,39.551,36.621,31.738,20.020,45.410,0
1583341175.571,51.758,35.645,28.809,21.484,20.020,0
1583341175.575,48.340,31.250,32.227,18.555,-9.277,0
1583341175.579,35.645,31.250,29.785,14.648,-30.273,0
1583341175.583,31.738,33.691,29.785,14.648,5.859,0
1583341175.587,33.203,33.691,34.180,19.043,28.809,0
1583341175.591,34.668,33.691,35.156,20.020,15.625,0
1583341175.594,28.320,34.668,34.668,18.066,46.875,0
1583341175.598,21.973,36.133,33.691,15.625,77.637,0
1583341175.602,33.691,37.109,30.762,19.043,41.016,0
1583341175.606,48.828,36.621,29.297,31.738,-24.902,0
1583341175.610,33.203,30.273,37.598,25.391,21.484,0
1583341175.590,3.418,24.414,43.945,2.441,70.312,0
1583341175.594,5.371,23.438,42.969,2.930,53.223,0
1583341175.598,20.020,20.996,43.945,12.695,11.230,0
1583341175.602,14.160,21.484,45.898,8.301,66.406,0
1583341175.606,4.883,23.438,47.852,4.395,106.445,0
1583341175.610,12.695,25.391,46.875,11.230,58.594,0
1583341175.614,17.578,25.879,44.922,13.672,64.941,0
1583341175.617,15.625,25.391,41.992,7.324,58.594,0
1583341175.621,12.207,24.902,38.574,7.812,67.383,0
1583341175.625,12.695,25.391,39.062,14.160,64.941,0
1583341175.629,26.855,27.832,39.062,20.020,98.633,0
1583341175.633,32.715,27.344,42.969,21.973,97.168,0
1583341175.647,22.949,29.297,46.387,20.508,109.863,0
1583341175.651,21.484,33.203,41.016,21.973,108.398,0
1583341175.655,28.320,32.715,40.039,24.902,8.789,0
1583341175.659,34.180,31.250,43.945,27.344,9.766,0
1583341175.663,32.227,34.180,41.504,28.809,-10.254,0
1583341175.667,23.926,35.645,40.527,23.438,-0.488,0
1583341175.671,25.879,32.227,38.574,14.648,28.320,0
1583341175.674,36.133,32.227,34.668,20.020,7.812,0
1583341175.678,37.598,34.668,30.762,22.949,-12.207,0
1583341175.682,29.785,30.273,29.785,16.113,-9.766,0
1583341175.686,26.367,27.344,34.668,10.742,33.203,0
1583341175.690,32.715,30.762,36.621,13.184,55.176,0
1583341175.688,41.504,32.227,36.133,18.066,-11.230,0
1583341175.692,35.156,32.227,39.062,16.113,-12.695,0
1583341175.696,26.367,32.715,37.109,15.625,41.992,0
1583341175.700,30.762,33.203,37.109,22.949,23.926,0
1583341175.704,35.156,34.180,35.645,27.344,43.457,0
1583341175.708,31.250,35.156,32.227,26.367,23.438,0
1583341175.712,27.832,36.133,33.203,23.438,-12.695,0
1583341175.715,31.738,35.645,29.785,23.926,19.531,0
1583341175.719,37.109,36.133,29.785,26.367,12.695,0
1583341175.723,38.574,37.109,32.227,25.391,40.039,0
1583341175.727,35.156,36.133,36.133,26.367,50.293,0
1583341175.731,35.645,35.645,38.574,28.320,6.836,0
1583341175.747,40.039,35.156,35.645,25.879,-4.395,0
1583341175.751,40.039,36.621,35.645,22.949,-7.812,0
1583341175.755,34.180,38.086,33.691,19.531,10.254,0
1583341175.759,29.785,36.621,31.738,19.531,29.785,0
1583341175.763,34.668,36.133,34.180,22.461,43.457,0
1583341175.767,37.109,38.086,32.715,21.484,56.152,0
1583341175.771,26.855,37.109,33.203,19.531,44.922,0
1583341175.774,23.926,37.109,34.180,20.508,28.320,0
1583341175.778,28.320,36.133,31.250,23.438,8.789,0
1583341175.782,31.738,32.715,31.250,27.344,-21.973,0
1583341175.786,31.250,31.738,32.227,31.738,20.996,0
1583341175.790,24.902,30.273,32.227,26.367,67.383,0
1583341175.807,24.414,30.762,31.738,23.438,61.035,0
1583341175.811,29.785,31.250,29.785,28.809,18.066,0
1583341175.815,28.809,31.738,30.273,26.855,50.781,0
1583341175.819,20.020,30.273,32.227,23.438,23.926,0
1583341175.823,17.578,30.762,29.785,20.508,7.812,0
1583341175.827,22.949,29.785,30.273,19.531,34.668,0
1583341175.831,22.461,27.344,32.227,21.484,-5.371,0
1583341175.834,19.043,30.762,30.273,19.531,4.883,0
1583341175.838,20.020,33.691,28.320,17.578,25.391,0
1583341175.842,25.391,31.738,28.809,17.578,77.637,0
1583341175.846,27.344,30.762,32.227,17.578,102.051,0
1583341175.850,19.043,32.227,33.203,17.578,68.359,0
1583341175.850,19.531,32.715,31.738,21.973,20.996,0
1583341175.854,26.367,32.715,33.691,23.438,50.781,0
1583341175.858,29.785,32.227,35.156,20.508,124.512,0
1583341175.862,23.926,32.227,29.297,20.020,86.426,0
1583341175.866,16.113,32.715,24.902,18.555,13.672,0
1583341175.870,18.555,30.762,27.832,18.066,13.672,0
1583341175.874,29.297,32.227,32.715,22.461,67.871,0
1583341175.877,30.762,33.691,35.156,22.461,62.988,0
1583341175.881,24.902,32.227,37.109,22.949,21.973,0
1583341175.885,29.785,33.203,36.133,26.367,22.949,0
1583341175.889,39.551,35.645,31.738,25.879,29.297,0
1583341175.893,53.223,39.062,31.250,38.086,19.043,0
1583341175.907,52.246,35.156,36.133,43.945,32.715,0
1583341175.911,35.156,28.320,38.574,28.320,69.336,0
1583341175.915,30.273,26.367,40.527,18.555,84.473,0
1583341175.919,35.156,28.320,41.992,22.949,26.855,0
1583341175.923,32.227,28.809,41.992,20.020,27.344,0
1583341175.927,25.391,27.344,41.992,13.672,86.914,0
1583341175.931,31.738,30.273,42.480,19.043,70.312,0
1583341175.934,36.133,30.273,41.016,21.973,67.383,0
1583341175.938,31.250,29.297,38.086,20.020,36.621,0
1583341175.942,28.809,30.273,34.180,21.484,-17.090,0
1583341175.946,33.691,31.738,33.691,28.809,21.973,0
1583341175.950,39.062,31.738,40.039,28.320,16.602,0
1583341175.931,41.992,32.227,41.016,22.461,-16.113,0
1583341175.935,36.133,34.180,38.086,20.020,6.836,0
1583341175.939,33.691,36.133,40.039,24.414,31.738,0
1583341175.943,43.945,36.133,39.062,30.273,-28.809,0
1583341175.947,44.434,32.715,37.598,29.785,-30.762,0
1583341175.951,38.086,30.762,38.574,33.691,29.297,0
1583341175.955,34.668,30.762,39.062,34.180,10.254,0
1583341175.958,36.621,31.738,39.062,34.180,-8.789,0
1583341175.962,40.039,34.180,36.621,36.133,-8.789,0
1583341175.966,35.645,34.668,35.645,29.785,-11.230,0
1583341175.970,34.180,34.668,40.039,30.273,-15.137,0
1583341175.974,38.574,32.715,38.086,31.250,31.738,0
1583341175.967,43.457,32.227,36.133,26.855,28.809,0
1583341175.971,40.039,34.180,36.133,26.855,2.930,0
1583341175.975,35.156,34.668,35.156,30.762,33.203,0
1583341175.979,36.133,36.133,33.691,32.227,-6.348,0
1583341175.983,38.574,35.156,32.227,25.879,41.504,0
1583341175.987,37.109,32.715,32.227,20.996,66.406,0
1583341175.991,27.832,33.203,33.203,20.508,35.645,0
1583341175.994,26.855,34.180,33.691,21.973,27.832,0
1583341175.998,35.156,32.227,30.273,22.949,24.414,0
1583341176.002,39.551,32.715,27.832,17.090,-7.324,0
1583341176.006,36.133,34.180,30.762,17.090,-9.766,0
1583341176.010,36.133,33.691,31.738,25.879,31.738,0
1583341176.027,41.992,34.668,32.227,32.715,44.434,0
1583341176.031,44.922,34.180,35.645,37.109,86.914,0
1583341176.035,41.992,35.645,37.109,36.133,47.852,0
1583341176.039,34.668,37.109,37.109,32.227,-16.113,0
1583341176.043,36.133,35.156,34.668,31.738,42.480,0
1583341176.047,41.992,35.156,32.715,31.738,62.012,0
1583341176.051,38.086,35.645,33.203,30.273,9.277,0
1583341176.054,27.344,34.668,33.691,26.367,30.762,0
1583341176.058,25.391,33.203,32.227,23.926,26.367,0
1583341176.062,29.297,34.180,31.738,20.508,44.922,0
1583341176.066,32.715,36.621,35.156,20.508,54.199,0
1583341176.070,31.738,36.133,36.133,25.391,46.875,0
1583341176.087,26.855,34.668,34.180,23.438,25.391,0
1583341176.091,29.297,32.715,32.227,24.902,-19.531,0
1583341176.095,30.762,31.738,35.156,27.344,17.090,0
1583341176.099,25.879,34.668,37.109,23.438,41.016,0
1583341176.103,25.879,35.645,36.133,27.832,39.551,0
1583341176.107,31.738,35.156,33.203,31.738,58.105,0
1583341176.111,35.156,36.621,31.738,30.762,34.668,0
1583341176.114,33.203,36.621,31.250,31.250,28.320,0
1583341176.118,27.344,37.109,30.762,30.762,61.523,0
1583341176.122,29.785,38.574,32.227,33.691,56.152,0
1583341176.126,39.551,42.480,33.203,32.227,-11.230,0
1583341176.130,41.016,44.434,33.203,26.855,42.480,0
1583341176.148,36.133,41.016,33.691,29.297,76.172,0
1583341176.152,35.645,41.016,34.668,29.785,45.410,0
1583341176.156,36.621,41.016,34.668,25.879,39.062,0
1583341176.160,38.086,39.551,33.203,26.367,60.059,0
1583341176.164,34.668,41.016,35.156,28.809,83.008,0
1583341176.168,33.691,42.480,35.156,29.785,45.410,0
1583341176.172,38.574,41.016,33.203,28.320,78.125,0
1583341176.175,38.086,38.574,35.645,30.762,84.961,0
1583341176.179,28.320,37.598,35.645,31.250,34.180,0
1583341176.183,17.578,36.133,35.156,23.926,-31.250,0
1583341176.187,20.020,35.156,32.715,24.414,5.859,0
1583341176.191,24.414,36.133,29.785,27.344,56.152,0
1583341176.152,22.461,37.109,29.785,24.414,47.363,0
1583341176.156,22.949,36.133,32.227,18.066,20.508,0
1583341176.160,29.297,36.133,37.598,22.461,28.320,0
1583341176.164,37.109,35.156,36.133,27.344,45.410,0
1583341176.168,37.598,34.668,34.668,22.461,21.973,0
1583341176.172,27.344,33.691,37.598,23.926,-17.090,0
1583341176.176,25.879,32.715,34.180,23.926,-16.602,0
1583341176.179,33.203,34.180,36.621,22.461,-21.484,0
1583341176.183,34.668,34.180,36.621,20.996,-33.691,0
1583341176.187,30.762,34.180,32.227,21.973,-44.922,0
1583341176.191,27.832,34.180,34.668,25.879,-32.227,0
1583341176.195,34.180,36.133,35.645,25.391,51.758,0
1583341176.206,41.992,39.062,36.133,29.297,49.805,0
1583341176.210,36.621,41.504,35.645,27.832,40.527,0
1583341176.214,31.250,40.527,35.156,21.973,76.660,0
1583341176.218,33.691,41.016,36.133,26.367,18.555,0
1583341176.222,40.039,38.086,36.621,29.785,13.184,0
1583341176.226,39.062,36.133,36.133,23.926,6.836,0
1583341176.230,35.645,38.086,35.645,20.508,-15.137,0
1583341176.233,38.574,35.645,35.645,25.879,11.230,0
1583341176.237,42.969,31.738,37.598,30.762,11.230,0
1583341176.241,45.410,34.180,38.086,33.203,-19.531,0
1583341176.245,38.086,35.645,38.574,33.691,52.734,0
1583341176.249,37.598,32.715,37.598,33.691,87.402,0
1583341176.247,43.945,34.668,35.645,38.086,38.574,0
1583341176.251,41.016,33.203,31.738,33.691,30.273,0
1583341176.255,34.180,33.203,30.762,27.344,51.758,0
1583341176.259,30.762,33.691,33.203,27.344,65.430,0
1583341176.263,34.180,32.227,34.180,28.809,41.016,0
1583341176.267,41.016,32.715,33.691,34.180,47.852,0
1583341176.271,37.109,33.203,33.203,35.645,8.301,0
1583341176.274,25.879,33.691,32.715,34.668,-38.574,0
1583341176.278,32.715,33.691,32.715,27.832,25.879,0
1583341176.282,38.574,32.715,34.180,21.973,55.664,0
1583341176.286,35.156,30.762,33.691,25.391,-33.691,0
1583341176.290,32.227,30.273,35.156,27.344,18.555,0
1583341176.327,31.250,31.738,36.621,25.879,38.086,0
1583341176.331,34.668,31.250,36.133,27.832,12.695,0
1583341176.335,37.109,32.227,32.715,30.762,76.172,0
1583341176.339,33.203,33.691,30.762,31.250,37.598,0
1583341176.343,30.273,34.668,31.738,27.832,-5.371,0
1583341176.347,38.574,36.621,32.715,30.273,-10.254,0
1583341176.351,39.062,36.133,33.203,29.785,14.648,0
1583341176.354,29.785,38.086,30.273,23.438,39.551,0
1583341176.358,29.297,41.016,30.273,28.809,36.133,0
1583341176.362,30.762,38.574,31.738,27.832,17.090,0
1583341176.366,31.738,37.109,29.785,23.438,-0.488,0
1583341176.370,28.809,36.621,29.785,23.438,9.766,0
1583341176.347,26.855,37.109,29.785,25.879,-20.996,0
1583341176.351,31.250,39.062,33.203,24.902,-24.414,0
1583341176.355,38.086,36.621,33.203,21.973,61.523,0
1583341176.359,42.480,36.133,31.738,25.391,92.773,0
1583341176.363,37.109,37.598,32.715,27.344,61.523,0
1583341176.367,35.645,39.551,30.762,25.391,27.832,0
1583341176.371,41.016,40.527,32.227,29.297,27.344,0
1583341176.374,41.992,39.062,31.738,29.297,11.719,0
1583341176.378,37.109,37.109,29.785,28.809,3.418,0
1583341176.382,32.715,37.598,31.738,31.250,93.750,0
1583341176.386,38.574,39.551,32.227,31.250,99.121,0
1583341176.390,48.340,39.062,30.273,36.133,25.391,0
1583341176.387,44.922,40.527,30.273,36.621,33.691,0
1583341176.391,40.527,41.504,32.715,33.691,88.867,0
1583341176.395,43.457,38.574,33.691,33.203,68.848,0
1583341176.399,43.457,35.645,34.180,30.762,57.617,0
1583341176.403,42.969,35.156,31.738,32.227,65.918,0
1583341176.407,40.039,37.598,29.297,36.133,28.809,0
1583341176.411,39.062,38.574,29.297,36.133,-1.465,0
1583341176.414,46.875,37.598,30.273,32.227,36.621,0
1583341176.418,44.922,40.039,31.738,28.320,21.484,0
1583341176.422,35.645,41.016,33.691,30.273,-5.371,0
1583341176.426,33.203,39.062,35.156,32.227,33.203,0
1583341176.430,38.574,39.062,34.668,30.273,40.039,0
1583341176.447,41.016,38.574,34.668,31.738,52.734,0
1583341176.451,32.715,38.574,38.086,29.785,20.508,0
1583341176.455,27.832,37.109,38.086,25.879,17.578,0
1583341176.459,33.691,36.133,33.203,28.809,21.973,0
1583341176.463,40.527,35.156,29.785,30.762,22.461,0
1583341176.467,38.086,35.156,31.738,28.809,19.043,0
1583341176.471,34.180,36.621,32.227,28.809,8.301,0
1583341176.474,37.109,37.598,28.809,32.227,20.020,0
1583341176.478,41.016,38.086,26.367,35.645,76.172,0
1583341176.482,40.039,36.621,30.762,37.598,95.703,0
1583341176.486,36.621,37.109,33.691,36.133,8.301,0
1583341176.490,39.062,39.062,33.203,30.762,-11.719,0
1583341176.487,42.969,39.062,32.227,30.762,26.367,0
1583341176.491,41.504,36.621,30.273,31.250,11.230,0
1583341176.495,37.598,33.203,30.273,32.715,6.348,0
1583341176.499,42.969,33.203,32.715,41.504,12.207,0
1583341176.503,45.410,35.156,29.297,33.203,5.859,0
1583341176.507,38.086,36.133,25.879,21.484,25.391,0
1583341176.511,39.551,37.109,27.832,29.785,26.855,0
1583341176.514,34.180,38.086,27.832,26.367,32.227,0
1583341176.518,25.879,37.109,25.879,15.625,89.844,0
1583341176.522,27.344,37.598,25.391,16.602,65.430,0
1583341176.526,26.855,38.086,23.926,14.160,39.062,0
1583341176.530,27.344,37.109,22.949,17.090,110.840,0
1583341176.547,31.738,35.156,25.879,24.414,112.793,0
1583341176.551,34.180,35.156,26.855,24.902,81.055,0
1583341176.555,33.203,39.062,26.855,25.391,70.801,0
1583341176.559,28.809,37.109,26.855,22.949,20.020,0
1583341176.563,27.344,35.645,26.855,19.531,56.152,0
1583341176.567,35.645,36.621,27.832,19.043,60.547,0
1583341176.571,40.039,37.598,27.832,20.020,6.836,0
1583341176.574,32.227,39.062,30.273,20.020,50.781,0
1583341176.578,29.785,39.062,28.320,20.508,65.918,0
1583341176.582,38.086,39.551,28.320,27.832,8.789,0
1583341176.586,41.016,38.574,31.250,28.809,-25.879,0
1583341176.590,34.180,39.551,28.809,24.414,-21.973,0
1583341176.607,34.180,39.062,31.250,24.902,-12.207,0
1583341176.611,41.504,40.039,34.668,25.391,27.344,0
1583341176.615,44.434,40.527,34.180,25.391,33.203,0
1583341176.619,40.039,38.574,34.668,25.391,51.758,0
1583341176.623,30.762,36.621,35.156,23.926,62.012,0
1583341176.627,31.250,37.598,34.668,22.461,65.430,0
1583341176.631,37.598,36.621,35.156,22.949,47.363,0
1583341176.634,33.203,30.762,36.133,20.508,32.227,0
1583341176.638,26.855,29.297,34.180,20.020,28.809,0
1583341176.642,27.344,31.250,31.250,22.461,29.785,0
1583341176.646,35.156,31.250,29.297,23.926,23.438,0
1583341176.650,39.062,32.715,29.785,23.438,8.789,0
1583341176.649,33.203,34.180,31.738,20.020,41.504,0
1583341176.653,34.668,35.156,31.250,19.531,66.406,0
1583341176.657,41.992,36.133,32.715,20.508,47.363,0
1583341176.661,45.410,35.156,32.715,23.438,-10.254,0
1583341176.665,40.039,38.086,31.250,21.484,-18.066,0
1583341176.669,32.715,39.551,36.133,21.484,20.996,0
1583341176.673,30.273,37.598,35.645,23.438,33.203,0
1583341176.676,31.738,36.133,32.715,21.973,4.395,0
1583341176.680,29.785,35.645,34.180,21.484,-21.484,0
1583341176.684,24.902,38.086,35.156,20.508,-36.133,0
1583341176.688,24.902,37.598,30.273,19.531,-26.367,0
1583341176.692,32.715,36.621,26.855,20.508,11.230,0
1583341176.688,36.621,37.109,26.855,20.996,63.965,0
1583341176.692,31.738,35.645,28.320,20.020,53.223,0
1583341176.696,27.832,36.133,31.738,16.602,41.992,0
1583341176.700,34.668,37.109,35.156,16.113,41.504,0
1583341176.704,41.504,38.086,33.203,21.973,13.672,0
1583341176.708,37.109,38.086,32.227,21.973,62.988,0
1583341176.712,44.434,39.551,31.738,26.855,94.727,0
1583341176.715,61.523,41.992,32.715,39.551,61.523,0
1583341176.719,53.223,37.109,37.109,37.598,59.570,0
1583341176.723,23.926,33.203,40.527,21.484,31.250,0
1583341176.727,13.672,34.668,42.480,19.043,16.602,0
1583341176.731,22.461,34.180,46.875,25.879,61.523,0
1583341176.728,29.297,35.645,47.852,26.367,32.715,0
1583341176.732,25.391,35.156,45.410,19.531,-2.930,0
1583341176.736,19.043,30.762,43.945,16.602,22.949,0
1583341176.740,18.066,30.762,44.434,23.438,38.574,0
1583341176.744,22.949,30.273,41.504,25.879,13.184,0
1583341176.748,27.344,30.762,40.527,25.879,50.293,0
1583341176.752,20.508,31.738,39.551,22.949,44.434,0
1583341176.755,17.578,31.738,39.062,19.531,-2.930,0
1583341176.759,19.531,31.738,41.504,20.508,47.363,0
1583341176.763,18.066,30.762,39.551,20.996,69.336,0
1583341176.767,13.672,32.227,38.086,20.996,68.359,0
1583341176.771,12.207,34.668,37.598,16.113,81.055,0
1583341176.768,18.555,33.203,33.691,12.207,12.207,0
1583341176.772,26.855,32.227,25.391,13.184,-48.340,0
1583341176.776,26.855,35.156,20.508,11.230,-3.906,0
1583341176.780,26.367,39.062,22.949,12.695,-5.371,0
1583341176.784,33.691,39.551,25.391,13.184,14.160,0
1583341176.788,40.527,40.039,25.391,16.113,56.152,0
1583341176.792,41.504,42.969,25.391,21.484,74.707,0
1583341176.795,36.621,41.504,24.902,23.438,63.965,0
1583341176.799,32.715,37.598,23.926,27.832,36.621,0
1583341176.803,33.691,42.480,25.391,28.320,57.129,0
1583341176.807,35.156,45.410,26.855,27.344,95.215,0
1583341176.811,30.273,39.551,24.902,27.344,91.797,0
1583341176.826,28.320,39.062,22.461,25.879,105.469,0
1583341176.830,35.156,40.527,26.855,29.785,61.523,0
1583341176.834,34.180,36.621,29.785,33.203,-27.344,0
1583341176.838,30.273,36.133,26.855,31.738,-4.395,0
1583341176.842,27.344,35.645,27.344,28.809,-11.719,0
1583341176.846,31.250,36.621,28.809,31.250,-21.973,0
1583341176.850,39.551,38.086,29.297,32.227,20.020,0
1583341176.853,35.156,37.109,30.273,25.391,57.129,0
1583341176.857,26.855,36.621,31.250,20.996,71.289,0
1583341176.861,28.320,36.621,31.738,23.926,39.062,0
1583341176.865,34.180,39.062,29.785,30.273,1.953,0
1583341176.869,29.297,40.527,28.320,27.832,74.219,0
1583341176.887,23.926,41.504,29.297,23.926,73.242,0
1583341176.891,25.391,40.527,26.367,26.367,-23.926,0
1583341176.895,28.809,37.598,25.391,23.926,-53.711,0
1583341176.899,30.273,39.062,28.809,22.461,-22.949,0
1583341176.903,29.297,38.574,31.738,24.902,-24.414,0
1583341176.907,28.320,37.598,32.227,25.391,-2.441,0
1583341176.911,28.809,36.133,35.156,22.949,29.785,0
1583341176.914,30.762,36.133,34.668,19.043,4.395,0
1583341176.918,29.297,37.598,32.715,19.531,-10.742,0
1583341176.922,23.926,37.598,34.180,19.043,37.109,0
1583341176.926,27.344,39.062,33.691,15.625,32.227,0
1583341176.930,38.574,40.039,30.273,16.113,-54.688,0
1583341176.946,36.621,39.062,28.809,18.066,8.301,0
1583341176.950,30.762,40.039,28.320,18.066,53.223,0
1583341176.954,29.297,39.551,28.320,17.090,44.434,0
1583341176.958,36.133,39.551,29.297,18.555,83.008,0
1583341176.962,37.598,35.645,34.668,17.090,49.316,0
1583341176.966,24.902,30.762,38.574,14.648,38.086,0
1583341176.970,21.484,30.762,37.598,17.090,26.367,0
1583341176.973,30.273,31.250,37.109,20.996,6.348,0
1583341176.977,34.668,32.715,40.527,23.438,60.547,0
1583341176.981,30.762,33.691,43.457,23.926,64.941,0
1583341176.985,30.273,32.715,41.016,24.902,3.906,0
1583341176.989,36.621,35.645,41.016,30.273,5.859,0
1583341177.008,40.039,37.109,41.016,28.809,35.645,0
1583341177.012,35.156,35.156,41.992,23.926,24.902,0
1583341177.016,31.738,35.156,43.945,23.926,27.344,0
1583341177.020,36.133,36.133,39.062,25.879,30.273,0
1583341177.024,41.992,37.109,37.109,29.785,29.297,0
1583341177.028,38.086,37.109,39.062,27.344,10.742,0
1583341177.032,30.273,34.668,38.574,22.949,1.953,0
1583341177.035,30.273,34.180,36.621,23.926,8.301,0
1583341177.039,40.039,34.180,34.180,25.391,45.410,0
1583341177.043,43.457,32.227,34.180,24.902,51.758,0
1583341177.047,34.668,34.180,34.668,25.879,84.473,0
1583341177.051,28.320,35.645,32.715,22.949,62.500,0
1583341177.050,32.227,34.668,33.203,23.438,62.012,0
1583341177.054,35.645,34.668,33.203,25.391,85.938,0
1583341177.058,29.297,35.645,32.227,24.414,71.777,0
1583341177.062,29.297,37.109,30.273,28.320,67.383,0
1583341177.066,34.180,35.645,27.344,31.250,69.336,0
1583341177.070,35.645,33.691,26.855,30.273,67.383,0
1583341177.074,36.133,34.180,29.785,28.320,43.945,0
1583341177.077,37.109,33.691,30.273,27.344,35.645,0
1583341177.081,41.992,33.691,29.297,31.738,68.359,0
1583341177.085,48.340,34.180,30.273,35.156,53.711,0
1583341177.089,42.969,32.227,29.785,30.762,43.457,0
1583341177.093,34.668,31.738,26.855,26.367,54.199,0
1583341177.109,40.039,34.180,24.414,26.367,35.156,0
1583341177.113,54.199,35.645,23.926,32.715,66.895,0
1583341177.117,59.082,36.133,25.391,39.551,61.523,0
1583341177.121,41.016,33.691,29.785,33.691,64.941,0
1583341177.125,23.926,28.809,32.715,22.949,80.566,0
1583341177.129,30.762,27.344,35.645,25.879,-11.719,0
1583341177.133,31.738,26.855,38.086,24.902,-28.320,0
1583341177.136,26.367,28.320,33.691,20.508,47.363,0
1583341177.140,24.414,30.273,31.738,20.508,52.246,0
1583341177.144,26.367,28.320,33.691,18.066,74.707,0
1583341177.148,32.227,28.809,31.250,19.043,43.945,0
1583341177.152,33.691,31.250,27.832,22.949,7.324,0
1583341177.128,29.297,31.250,30.762,24.414,27.344,0
1583341177.132,27.832,31.250,34.668,25.879,32.227,0
1583341177.136,37.598,33.691,34.180,29.785,23.438,0
1583341177.140,38.086,33.691,32.227,28.809,37.598,0
1583341177.144,29.297,31.738,30.273,21.973,27.832,0
1583341177.148,26.367,32.227,32.715,19.043,-0.977,0
1583341177.152,30.762,30.762,33.203,17.578,-18.066,0
1583341177.155,33.691,31.250,33.691,16.113,-13.672,0
1583341177.159,27.344,33.203,37.598,13.184,25.879,0
1583341177.163,17.578,31.250,41.016,11.719,20.508,0
1583341177.167,21.484,30.273,41.016,17.578,27.832,0
1583341177.171,30.762,32.227,40.527,20.996,39.551,0
1583341177.147,24.414,32.227,38.574,15.625,115.234,0
1583341177.151,16.602,29.785,38.086,13.184,125.977,0
1583341177.155,21.973,29.785,40.527,18.555,0.977,0
1583341177.159,25.879,32.715,37.598,19.043,31.250,0
1583341177.163,25.391,33.691,33.203,21.484,113.770,0
1583341177.167,25.879,33.691,33.203,26.367,56.152,0
1583341177.171,31.250,32.227,38.574,25.879,10.742,0
1583341177.174,42.480,35.156,37.598,27.344,23.438,0
1583341177.178,41.504,35.156,38.574,31.250,15.625,0
1583341177.182,32.715,33.691,40.039,32.227,7.812,0
1583341177.186,34.180,33.691,38.574,32.715,41.504,0
1583341177.190,38.574,34.668,38.086,31.250,4.883,0
1583341177.188,40.527,34.180,36.621,28.809,5.371,0
1583341177.192,37.109,29.785,37.109,25.879,62.500,0
1583341177.196,33.203,31.250,36.133,25.879,72.266,0
1583341177.200,35.156,34.668,35.156,26.855,49.805,0
1583341177.204,34.180,35.156,35.156,17.578,20.508,0
1583341177.208,31.738,35.645,32.715,13.672,41.504,0
1583341177.212,31.250,35.156,31.738,21.484,63.965,0
1583341177.215,30.273,34.180,33.691,21.973,117.188,0
1583341177.219,34.668,36.621,35.645,24.902,46.387,0
1583341177.223,34.180,39.062,37.109,25.879,-31.738,0
1583341177.227,27.344,39.062,34.668,20.020,-20.996,0
1583341177.231,27.344,37.598,38.086,24.414,24.902,0
1583341177.230,32.715,39.062,41.504,28.809,56.152,0
1583341177.234,33.203,39.551,39.062,25.391,21.484,0
1583341177.238,29.297,39.062,37.598,27.344,33.203,0
1583341177.242,28.809,39.551,36.621,26.855,26.855,0
1583341177.246,37.598,39.551,34.180,26.367,-12.207,0
1583341177.250,43.457,40.039,36.133,26.855,33.203,0
1583341177.254,33.203,41.504,38.574,25.879,81.543,0
1583341177.257,23.926,40.039,37.109,21.973,51.758,0
1583341177.261,27.344,37.598,37.109,20.508,-20.508,0
1583341177.265,32.715,36.621,35.645,22.949,7.812,0
1583341177.269,27.832,36.621,36.621,23.926,40.527,0
1583341177.273,20.996,37.598,39.062,22.949,33.691,0
1583341177.287,27.344,39.551,37.598,21.484,72.754,0
1583341177.291,34.668,39.062,35.156,21.484,75.195,0
1583341177.295,32.227,37.598,35.156,21.484,83.496,0
1583341177.299,27.344,36.621,36.133,18.555,15.137,0
1583341177.303,27.344,35.156,35.645,14.648,11.230,0
1583341177.307,32.227,35.645,36.133,14.648,85.449,0
1583341177.311,30.273,35.156,36.133,11.230,70.312,0
1583341177.314,25.879,36.133,33.691,13.672,28.320,0
1583341177.318,24.414,35.645,33.691,20.508,6.836,0
1583341177.322,27.832,34.180,35.156,23.438,-10.254,0
1583341177.326,39.062,31.738,36.621,30.762,-5.859,0
1583341177.330,39.062,34.180,36.621,29.785,-43.945,0
1583341177.348,28.320,37.598,32.715,21.973,-36.621,0
1583341177.352,35.156,37.109,30.762,26.367,33.691,0
1583341177.356,41.016,37.109,30.273,31.738,33.203,0
1583341177.360,31.738,35.645,30.273,31.250,-23.926,0
1583341177.364,25.391,35.645,31.250,26.855,-26.855,0
1583341177.368,22.949,35.156,31.738,20.508,-0.488,0
1583341177.372,26.855,36.133,32.715,17.578,18.066,0
1583341177.375,29.297,38.086,32.715,18.066,15.625,0
1583341177.379,22.949,37.109,33.203,16.602,66.406,0
1583341177.383,21.973,36.621,33.691,15.137,76.172,0
1583341177.387,29.297,37.109,32.715,19.043,40.039,0
1583341177.391,31.250,38.086,33.691,20.508,51.758,0
1583341177.390,24.902,37.109,33.691,19.531,50.781,0
1583341177.394,22.461,35.645,32.715,19.043,53.223,0
1583341177.398,32.227,35.156,32.715,17.578,79.102,0
1583341177.402,39.551,35.645,32.227,19.043,69.824,0
1583341177.406,33.691,35.645,33.203,23.926,79.102,0
1583341177.410,29.297,34.668,33.203,25.879,66.406,0
1583341177.414,31.738,33.203,34.668,26.855,-0.488,0
1583341177.417,37.598,32.715,33.691,22.949,-15.625,0
1583341177.421,38.574,33.203,32.227,21.973,-3.418,0
1583341177.425,32.715,34.180,34.668,25.391,-20.996,0
1583341177.429,35.156,34.180,35.156,23.438,3.418,0
1583341177.433,40.039,33.203,37.109,25.879,78.613,0
1583341177.428,37.598,32.227,37.109,26.855,59.082,0
1583341177.432,30.273,32.715,39.062,26.855,26.367,0
1583341177.436,28.320,34.668,40.527,29.785,54.199,0
1583341177.440,39.062,36.133,35.156,34.180,77.637,0
1583341177.444,43.457,37.598,33.691,32.227,36.621,0
1583341177.448,35.156,38.574,35.645,25.879,45.898,0
1583341177.452,34.180,39.551,34.668,23.438,64.453,0
1583341177.455,44.434,39.062,35.156,24.902,28.320,0
1583341177.459,53.711,39.062,34.668,26.367,39.551,0
1583341177.463,52.246,40.527,33.691,23.438,52.734,0
1583341177.467,43.945,39.551,35.645,18.066,37.598,0
1583341177.471,42.480,37.598,36.133,15.137,85.449,0
1583341177.508,47.363,37.109,31.738,20.020,86.426,0
1583341177.512,43.945,39.062,27.344,27.344,65.430,0
1583341177.516,34.668,36.133,30.273,25.391,26.855,0
1583341177.520,31.250,33.691,34.668,22.461,-0.977,0
1583341177.524,32.227,36.133,33.691,24.414,27.832,0
1583341177.528,28.320,34.180,33.203,22.461,55.664,0
1583341177.532,24.902,32.715,32.715,20.508,28.809,0
1583341177.535,25.879,34.668,30.273,24.414,-34.180,0
1583341177.539,27.344,34.668,32.227,25.391,-1.465,0
1583341177.543,30.273,31.738,32.715,24.414,82.031,0
1583341177.547,29.785,31.738,30.762,29.297,34.180,0
1583341177.551,22.949,33.203,33.203,28.809,-25.879,0
1583341177.571,28.809,32.715,35.645,28.809,67.383,0
1583341177.575,37.109,34.668,36.621,33.203,117.676,0
1583341177.579,29.785,36.621,30.762,27.344,82.031,0
1583341177.583,24.902,35.645,30.762,22.949,29.297,0
1583341177.587,30.762,37.109,34.180,25.879,9.277,0
1583341177.591,38.574,37.598,34.180,30.762,38.574,0
1583341177.595,37.598,37.109,34.668,29.785,9.277,0
1583341177.598,31.250,37.598,33.691,26.855,4.395,0
1583341177.602,33.691,37.109,34.180,31.250,74.707,0
1583341177.606,43.457,36.133,33.691,32.715,49.805,0
1583341177.610,41.016,37.109,34.668,29.297,0.000,0
1583341177.614,32.227,35.645,33.691,31.250,5.371,0
1583341177.587,30.762,32.715,30.762,31.738,19.043,0
1583341177.591,32.715,31.738,30.762,29.785,24.902,0
1583341177.595,33.691,32.227,32.715,32.715,1.953,0
1583341177.599,29.785,32.227,34.668,32.715,-4.395,0
1583341177.603,24.902,29.785,39.062,29.785,8.301,0
1583341177.607,28.809,29.297,39.551,25.879,-8.789,0
1583341177.611,32.227,30.762,35.645,27.832,-15.625,0
1583341177.614,28.320,31.250,36.621,29.785,-0.488,0
1583341177.618,24.414,30.273,40.527,27.832,-18.555,0
1583341177.622,29.785,31.738,41.504,30.762,16.602,0
1583341177.626,35.156,32.227,38.086,31.250,74.707,0
1583341177.630,29.785,30.762,39.062,29.785,40.527,0
1583341177.627,27.832,31.250,39.551,28.320,8.301,0
1583341177.631,30.273,33.203,35.645,30.273,85.449,0
1583341177.635,33.691,34.180,33.203,32.715,106.934,0
1583341177.639,37.109,34.180,33.691,29.785,32.715,0
1583341177.643,30.273,34.668,36.621,24.902,10.742,0
1583341177.647,24.414,34.180,34.668,20.508,5.859,0
1583341177.651,32.715,37.109,30.762,21.484,2.441,0
1583341177.654,36.621,40.527,32.227,22.461,-13.672,0
1583341177.658,30.762,41.016,33.691,20.020,-9.277,0
1583341177.662,30.762,40.527,33.203,18.555,19.043,0
1583341177.666,33.691,40.039,33.691,21.484,-10.742,0
1583341177.670,41.016,40.039,32.227,27.832,-9.277,0
1583341177.687,42.480,41.504,32.715,35.156,23.438,0
1583341177.691,35.156,43.945,35.156,32.715,34.180,0
1583341177.695,36.621,41.016,33.691,28.809,16.113,0
1583341177.699,42.969,38.574,33.203,32.715,26.855,0
1583341177.703,44.434,41.504,35.156,36.133,62.012,0
1583341177.707,35.645,41.992,38.086,37.109,65.918,0
1583341177.711,32.227,40.527,38.086,33.203,45.410,0
1583341177.714,39.062,41.504,36.621,30.273,30.273,0
1583341177.718,43.457,41.504,33.203,33.691,83.008,0
1583341177.722,44.922,43.945,31.738,41.016,77.148,0
1583341177.726,51.758,45.410,31.738,47.852,12.207,0
1583341177.730,44.922,37.598,35.156,41.016,64.941,0
1583341177.710,27.344,33.691,41.992,25.391,123.047,0
1583341177.714,16.602,31.250,41.016,18.066,48.828,0
1583341177.718,11.719,24.902,40.527,22.949,27.344,0
1583341177.722,17.090,23.438,42.480,26.367,47.363,0
1583341177.726,23.926,23.926,44.922,24.902,25.879,0
1583341177.730,19.531,24.902,45.898,22.461,13.184,0
1583341177.734,15.625,26.855,43.945,19.531,-2.441,0
1583341177.737,25.391,29.785,42.480,26.367,0.000,0
1583341177.741,34.180,28.320,43.457,33.691,31.738,0
1583341177.745,37.109,29.785,44.434,34.180,38.574,0
1583341177.749,32.227,33.691,40.039,35.156,24.414,0
1583341177.753,27.344,30.762,38.574,32.715,29.785,0
1583341177.788,31.738,30.762,39.551,32.227,19.531,0
1583341177.792,33.691,31.250,36.133,31.738,80.078,0
1583341177.796,26.367,33.691,34.180,26.367,81.543,0
1583341177.800,20.508,37.109,34.668,23.926,81.543,0
1583341177.804,28.320,35.156,36.621,26.367,64.941,0
1583341177.808,33.203,35.156,36.133,25.391,-2.441,0
1583341177.812,27.832,36.133,34.668,22.949,8.789,0
1583341177.815,24.414,35.645,34.180,23.926,2.930,0
1583341177.819,28.809,36.133,35.645,26.367,-4.395,0
1583341177.823,35.156,38.086,39.062,27.832,72.754,1
1583341177.827,34.668,39.551,38.574,30.273,39.551,0
1583341177.831,32.715,37.109,39.062,32.227,-58.105,0
1583341177.808,34.180,36.133,40.527,31.250,41.992,0
1583341177.812,39.062,38.574,40.039,34.180,131.348,0
1583341177.816,41.016,37.598,42.969,34.180,75.684,0
1583341177.820,30.762,37.598,40.039,31.250,16.113,0
1583341177.824,27.832,37.598,37.109,27.832,-38.574,0
1583341177.828,36.621,34.668,38.574,27.832,-32.227,0
1583341177.832,39.551,32.227,41.504,30.762,9.766,0
1583341177.835,32.715,31.738,40.527,28.320,20.020,0
1583341177.839,31.250,33.203,38.574,26.855,24.902,0
1583341177.843,35.645,33.691,35.156,26.855,2.930,0
1583341177.847,37.109,34.180,31.250,24.902,34.180,0
1583341177.851,35.645,36.621,32.715,24.414,73.730,0
1583341177.848,31.250,36.621,32.227,25.391,51.270,0
1583341177.852,33.203,35.156,30.762,26.855,36.621,0
1583341177.856,38.086,33.203,27.832,26.367,34.180,0
1583341177.860,33.691,33.203,24.902,23.926,67.871,0
1583341177.864,24.902,34.668,25.879,20.020,36.621,0
1583341177.868,21.973,34.668,30.762,15.137,28.320,0
1583341177.872,21.973,33.691,28.320,13.672,46.387,0
1583341177.875,21.973,34.180,26.367,19.531,34.668,0
1583341177.879,16.602,34.180,26.855,19.531,32.227,0
1583341177.883,10.742,31.738,28.809,12.695,25.391,0
1583341177.887,15.137,31.250,28.809,11.719,39.062,0
1583341177.891,20.996,30.762,23.926,12.207,50.781,0
1583341177.888,21.973,28.320,22.949,14.160,38.574,0
1583341177.892,20.996,28.809,25.879,17.578,50.781,0
1583341177.896,26.367,32.227,28.320,22.461,32.715,0
1583341177.900,35.645,29.785,26.855,24.902,36.621,0
1583341177.904,34.668,28.809,25.391,27.832,0.488,0
1583341177.908,27.832,29.297,26.367,28.320,-40.527,0
1583341177.912,32.715,31.250,28.809,27.344,2.930,0
1583341177.915,40.039,33.203,29.785,30.273,43.457,0
1583341177.919,38.086,34.668,29.297,28.809,66.406,0
1583341177.923,30.273,36.133,28.809,22.949,21.484,0
1583341177.927,25.879,34.180,30.762,21.484,23.438,0
1583341177.931,29.297,32.227,31.250,18.555,52.246,0
1583341177.966,35.645,34.668,31.738,25.879,-13.184,0
1583341177.970,33.691,35.645,32.715,26.367,-28.320,0
1583341177.974,29.297,35.156,31.250,20.508,36.133,0
1583341177.978,34.668,36.621,30.273,26.367,47.363,0
1583341177.982,37.109,37.598,31.738,25.391,40.039,0
1583341177.986,33.203,37.109,31.738,23.926,29.785,0
1583341177.990,29.785,37.109,26.855,23.438,53.711,0
1583341177.993,31.738,35.156,27.832,24.902,55.176,0
1583341177.997,31.250,33.691,34.180,24.414,9.766,0
1583341178.001,25.391,36.621,32.715,20.020,26.855,0
1583341178.005,23.438,38.574,30.273,20.996,19.531,0
1583341178.009,21.973,38.086,32.227,20.508,24.414,0
1583341177.987,27.344,35.156,33.691,17.090,69.824,0
1583341177.991,25.879,33.691,35.645,18.555,12.695,0
1583341177.995,17.578,33.203,34.668,19.531,-12.207,0
1583341177.999,18.555,32.715,31.250,21.484,24.902,0
1583341178.003,22.949,31.738,35.645,23.926,8.301,0
1583341178.007,35.156,27.344,41.016,33.691,53.711,0
1583341178.011,43.457,31.738,40.039,39.062,48.828,0
1583341178.014,23.438,40.527,36.621,17.578,24.414,0
1583341178.018,8.789,41.992,31.738,-6.836,8.301,0
1583341178.022,16.602,41.504,29.297,-5.859,50.781,0
1583341178.026,20.020,42.480,30.273,2.441,39.062,0
1583341178.030,13.672,42.480,29.297,-2.930,-3.906,0
1583341178.028,12.695,42.969,28.809,-9.277,31.250,0
1583341178.032,24.414,41.992,28.320,-1.465,68.848,0
1583341178.036,26.855,41.992,27.832,3.906,48.828,0
1583341178.040,15.137,39.551,26.367,-2.930,43.945,0
1583341178.044,12.695,34.668,25.879,-2.441,53.711,0
1583341178.048,20.996,36.133,25.391,6.348,14.648,0
1583341178.052,23.438,38.574,26.367,8.789,30.273,0
1583341178.055,15.625,37.598,27.344,9.277,38.574,0
1583341178.059,17.578,37.598,26.855,11.230,34.668,0
1583341178.063,31.738,38.574,25.391,16.602,67.871,0
1583341178.067,37.109,37.598,25.879,20.996,18.555,0
1583341178.071,32.715,35.156,28.320,20.020,-4.395,0
1583341178.147,30.762,37.598,28.320,19.043,55.664,0
1583341178.151,33.203,39.062,25.879,21.484,102.051,0
1583341178.155,40.527,40.039,24.902,22.461,76.660,0
1583341178.159,41.016,41.992,24.414,20.020,26.367,0
1583341178.163,33.203,41.504,25.879,18.555,3.906,0
1583341178.167,35.645,40.039,26.367,20.996,-38.086,0
1583341178.171,42.480,38.086,26.367,20.508,2.930,0
1583341178.174,44.434,38.574,27.832,21.484,47.363,0
1583341178.178,39.062,39.062,30.273,23.926,34.180,0
1583341178.182,34.668,38.086,26.367,22.949,63.965,0
1583341178.186,41.992,38.574,22.949,22.461,82.520,0
1583341178.190,45.898,38.086,28.809,21.973,26.367,0
1583341178.150,37.598,40.039,28.809,20.508,-12.695,0
1583341178.154,33.203,41.504,25.391,18.555,62.988,0
1583341178.158,39.062,40.527,26.855,20.508,58.105,0
1583341178.162,42.969,38.086,29.785,22.461,34.668,0
1583341178.166,36.133,37.109,31.250,20.996,45.410,0
1583341178.170,31.738,38.574,32.715,19.531,52.734,0
1583341178.174,35.645,37.598,33.691,20.996,49.805,0
1583341178.177,41.992,38.086,33.691,26.855,31.250,0
1583341178.181,40.527,37.109,33.691,28.320,44.434,0
1583341178.185,32.715,37.109,35.156,26.855,16.113,0
1583341178.189,33.203,36.621,36.621,27.832,15.137,0
1583341178.193,43.945,35.645,35.645,29.297,45.898,0
1583341178.174,46.875,37.598,36.621,32.227,34.668,0
1583341178.178,39.062,37.109,39.062,29.297,22.461,0
1583341178.182,36.621,34.180,37.109,29.297,36.133,0
1583341178.186,41.992,32.715,33.691,31.738,-0.977,0
1583341178.190,42.480,34.668,37.109,31.250,-9.766,0
1583341178.194,36.621,35.156,40.527,28.809,23.438,0
1583341178.198,30.762,34.180,38.086,23.926,33.203,0
1583341178.201,33.203,33.691,35.645,22.949,13.672,0
1583341178.205,35.645,33.203,35.156,19.043,3.906,0
1583341178.209,32.227,33.203,35.645,16.113,31.250,0
1583341178.213,31.250,33.203,37.109,20.020,6.836,0
1583341178.217,34.180,34.180,35.645,20.508,1.465,0
1583341178.247,38.574,32.227,34.180,22.949,49.316,0
1583341178.251,37.598,28.809,34.180,18.555,98.633,0
1583341178.255,31.250,30.762,34.180,14.648,98.145,0
1583341178.259,32.715,34.180,33.203,24.414,48.828,0
1583341178.263,39.551,33.691,33.691,30.273,48.828,0
1583341178.267,38.086,32.227,27.832,31.250,27.344,0
1583341178.271,33.691,35.156,22.949,29.297,49.805,0
1583341178.274,32.227,37.598,25.879,26.367,47.363,0
1583341178.278,39.551,37.109,28.809,31.250,26.855,0
1583341178.282,48.340,37.109,27.344,35.156,21.484,0
1583341178.286,47.852,38.086,24.902,34.180,15.625,0
1583341178.290,45.898,38.086,24.902,33.203,-51.758,0
1583341178.307,51.758,37.109,23.438,30.273,-43.945,0
1583341178.311,55.176,38.574,22.461,29.297,35.645,0
1583341178.315,46.875,39.062,21.484,29.785,-3.906,0
1583341178.319,37.598,41.504,21.484,31.250,32.227,0
1583341178.323,39.062,43.457,18.555,30.273,107.910,0
1583341178.327,43.945,37.598,19.531,29.297,39.551,0
1583341178.331,39.062,36.133,24.902,29.785,6.836,0
1583341178.334,31.738,33.691,25.391,31.738,44.434,0
1583341178.338,38.086,31.250,23.438,40.527,41.992,0
1583341178.342,47.363,37.598,20.508,37.109,35.645,0
1583341178.346,40.039,41.504,18.066,26.855,56.152,0
1583341178.350,34.180,41.992,22.949,34.180,29.785,0
1583341178.311,31.250,38.574,24.902,34.180,41.992,0
1583341178.315,33.203,37.598,26.367,31.738,108.887,0
1583341178.319,40.039,39.062,28.809,33.203,76.172,0
1583341178.323,40.039,41.504,28.320,30.273,-1.953,0
1583341178.327,37.109,38.086,29.297,28.320,0.488,0
1583341178.331,35.645,35.156,27.832,27.832,-16.602,0
1583341178.335,37.109,39.062,25.391,31.250,-4.883,0
1583341178.338,34.180,40.039,27.832,30.273,47.363,0
1583341178.342,27.344,37.598,29.297,27.344,43.457,0
1583341178.346,26.367,35.645,28.809,28.320,24.902,0
1583341178.350,33.203,34.668,29.785,28.320,-17.090,0
1583341178.354,31.738,34.180,29.297,24.902,-25.879,0
1583341178.366,23.438,36.133,28.809,24.902,33.691,0
1583341178.370,24.902,35.645,30.762,26.367,49.316,0
1583341178.374,30.273,32.715,28.320,25.879,59.570,0
1583341178.378,30.762,32.715,27.832,23.438,34.668,0
1583341178.382,28.320,33.691,29.297,22.949,-34.180,0
1583341178.386,26.855,36.133,29.785,25.391,-24.902,0
1583341178.390,31.250,37.109,31.250,22.949,-5.371,0
1583341178.393,37.109,38.086,32.227,21.973,-32.715,0
1583341178.397,33.691,40.039,32.715,26.855,-12.207,0
1583341178.401,25.391,39.551,31.250,27.344,48.828,0
1583341178.405,28.809,38.574,30.762,27.832,39.062,0
1583341178.409,34.668,38.574,31.250,25.879,43.457,0
1583341178.426,31.738,39.062,32.715,25.879,38.574,0
1583341178.430,27.832,37.598,35.645,27.832,-8.789,0
1583341178.434,32.715,35.156,32.715,28.320,33.691,0
1583341178.438,39.062,35.645,31.250,30.273,108.398,0
1583341178.442,37.598,35.156,33.203,30.762,72.754,0
1583341178.446,37.109,35.156,35.156,32.715,33.691,0
1583341178.450,35.156,34.668,32.227,30.762,114.746,0
1583341178.453,40.039,34.668,32.715,28.320,121.582,0
1583341178.457,45.898,37.109,32.715,31.738,98.633,0
1583341178.461,41.016,35.645,33.203,29.297,63.965,0
1583341178.465,37.598,34.668,33.691,27.832,33.203,0
1583341178.469,41.016,35.156,30.273,32.715,47.363,0
1583341178.446,42.969,36.621,30.762,31.250,36.133,0
1583341178.450,41.992,38.086,30.273,27.832,45.898,0
1583341178.454,34.668,35.156,28.809,23.438,31.738,0
1583341178.458,28.320,34.180,28.320,20.508,32.227,0
1583341178.462,33.203,34.180,27.832,24.414,37.109,0
1583341178.466,29.785,34.668,30.762,26.367,41.504,0
1583341178.470,22.461,33.691,34.668,23.926,34.180,0
1583341178.473,27.832,34.180,38.086,26.367,51.758,0
1583341178.477,32.227,36.133,39.062,26.367,2.441,0
1583341178.481,37.598,34.668,35.645,27.344,-13.184,0
1583341178.485,35.645,33.691,36.133,27.344,51.758,0
1583341178.489,28.320,35.156,36.621,21.973,63.477,0
1583341178.527,31.250,36.133,35.156,19.043,73.242,0
1583341178.531,32.715,33.203,35.156,16.113,37.109,0
1583341178.535,26.855,31.738,33.691,19.043,32.227,0
1583341178.539,27.832,34.180,35.156,22.461,48.828,0
1583341178.543,34.180,35.645,37.598,24.414,17.578,0
1583341178.547,38.086,36.133,39.551,25.879,23.926,0
1583341178.551,33.203,36.621,41.016,21.973,73.242,0
1583341178.554,23.926,35.645,40.039,19.531,61.035,0
1583341178.558,26.367,34.668,40.039,23.438,16.602,0
1583341178.562,32.227,33.203,38.574,23.926,30.273,0
1583341178.566,30.762,33.203,36.133,25.879,57.129,0
1583341178.570,23.926,35.645,35.156,24.414,19.531,0
1583341178.547,22.949,35.645,35.645,18.555,-30.762,0
1583341178.551,27.832,32.715,37.598,20.508,-11.719,0
1583341178.555,32.715,32.715,37.598,22.461,61.035,0
1583341178.559,31.250,34.668,38.574,24.902,44.434,0
1583341178.563,31.738,33.203,37.109,27.344,-3.906,0
1583341178.567,39.062,35.645,34.668,28.809,43.945,0
1583341178.571,41.504,37.598,35.645,31.250,58.105,0
1583341178.574,37.109,38.086,34.668,30.762,57.617,0
1583341178.578,33.203,39.062,33.203,30.762,62.988,0
1583341178.582,33.691,36.133,32.227,30.273,2.930,0
1583341178.586,41.016,35.645,31.250,32.227,15.137,0
1583341178.590,39.062,35.645,33.691,30.762,29.297,0
1583341178.587,32.227,35.156,36.133,27.832,24.902,0
1583341178.591,33.203,35.645,33.691,31.738,43.457,0
1583341178.595,34.668,32.227,28.320,27.832,34.180,0
1583341178.599,33.691,30.273,30.273,20.508,8.789,0
1583341178.603,29.297,30.762,33.203,25.879,9.766,0
1583341178.607,24.902,29.785,34.180,25.879,20.020,0
1583341178.611,26.855,30.273,33.691,22.461,38.086,0
1583341178.614,26.855,32.715,33.203,20.508,31.250,0
1583341178.618,20.508,32.715,32.227,17.578,-17.578,0
1583341178.622,15.137,30.273,36.621,18.066,47.852,0
1583341178.626,22.461,31.738,41.992,20.020,75.195,0
1583341178.630,25.879,33.203,40.039,18.555,19.043,0
1583341178.647,20.508,34.180,38.574,17.090,44.434,0
1583341178.651,20.996,33.691,38.574,20.508,62.500,0
1583341178.655,25.391,31.250,39.062,22.461,29.297,0
1583341178.659,28.809,30.762,37.598,21.973,20.996,0
1583341178.663,34.180,32.227,35.645,25.391,28.320,0
1583341178.667,30.762,31.250,37.109,23.926,36.133,0
1583341178.671,32.227,27.832,35.645,19.531,1.465,0
1583341178.674,44.434,26.855,31.250,26.367,12.207,0
1583341178.678,41.992,28.320,34.180,29.297,22.461,0
1583341178.682,34.668,29.297,36.621,26.855,11.230,0
1583341178.686,34.668,28.809,37.598,29.297,28.809,0
1583341178.690,38.086,28.320,38.086,27.344,-4.395,0
1583341178.707,37.598,29.785,37.598,26.855,-27.344,0
1583341178.711,30.762,33.203,36.621,25.879,36.621,0
1583341178.715,27.832,34.668,34.668,25.391,72.754,0
1583341178.719,31.250,32.227,33.691,25.879,47.363,0
1583341178.723,34.668,30.762,35.156,22.949,66.406,0
1583341178.727,32.715,31.250,33.203,20.508,30.273,0
1583341178.731,25.879,32.227,28.320,17.578,65.430,0
1583341178.734,24.902,33.691,25.391,14.648,73.730,0
1583341178.738,29.785,31.738,26.367,13.184,62.988,0
1583341178.742,27.344,31.250,28.320,9.766,74.707,0
1583341178.746,22.949,34.180,28.320,11.719,27.344,0
1583341178.750,21.484,33.203,28.809,15.137,9.277,0
1583341178.767,24.414,32.715,27.344,15.625,-8.789,0
1583341178.771,24.414,34.668,24.902,15.137,-16.113,0
1583341178.775,21.484,36.133,25.879,14.648,23.438,0
1583341178.779,21.484,33.691,29.297,14.648,54.688,0
1583341178.783,28.809,33.691,29.785,14.648,11.719,0
1583341178.787,34.180,36.133,29.297,16.602,29.785,0
1583341178.791,27.344,32.227,28.320,18.555,131.348,0
1583341178.794,26.855,31.250,29.785,20.508,90.820,0
1583341178.798,37.598,34.668,33.203,22.949,50.781,0
1583341178.802,41.504,35.156,34.668,21.973,58.594,0
1583341178.806,38.086,35.156,35.645,23.926,15.137,0
1583341178.810,32.715,35.645,32.227,28.320,-29.785,0
1583341178.807,30.762,35.156,30.273,26.367,22.949,0
1583341178.811,34.180,32.715,32.227,22.949,57.617,0
1583341178.815,34.180,35.645,30.762,21.484,58.594,0
1583341178.819,29.785,35.156,28.809,20.508,63.477,0
1583341178.823,26.367,31.250,27.344,20.508,66.895,0
1583341178.827,31.738,33.203,30.273,20.020,9.766,0
1583341178.831,37.109,36.133,32.715,21.484,1.953,0
1583341178.834,30.273,34.668,33.691,20.508,93.750,0
1583341178.838,29.297,33.691,33.691,19.531,50.293,0
1583341178.842,37.109,38.574,32.715,23.926,68.848,0
1583341178.846,36.133,40.039,35.645,24.414,60.059,0
1583341178.850,30.762,38.086,36.133,24.414,30.273,0
1583341178.827,25.879,36.133,34.668,24.902,19.531,0
1583341178.831,25.391,34.668,34.180,23.438,19.531,0
1583341178.835,29.297,35.645,31.738,25.391,42.480,0
1583341178.839,28.320,36.133,29.785,23.438,77.148,0
1583341178.843,26.855,33.691,29.297,14.160,121.094,0
1583341178.847,30.273,35.156,27.344,16.113,37.598,0
1583341178.851,36.133,36.133,25.391,22.949,4.395,0
1583341178.854,34.180,34.668,25.391,20.508,12.207,0
1583341178.858,30.273,35.156,28.809,20.996,-5.371,0
1583341178.862,32.227,33.691,29.297,20.996,-21.973,0
1583341178.866,35.645,34.180,32.227,25.879,24.414,0
1583341178.870,40.527,36.133,33.203,29.297,36.133,0
1583341178.869,36.621,36.621,31.250,24.414,-30.273,0
1583341178.873,34.180,36.621,33.203,23.438,-30.762,0
1583341178.877,38.574,39.062,31.738,22.949,42.969,0
1583341178.881,43.457,40.039,29.785,26.367,77.637,0
1583341178.885,39.551,38.086,34.668,27.832,47.363,0
1583341178.889,32.715,36.133,35.156,23.926,7.812,1
1583341178.893,36.621,34.668,32.227,23.926,-29.785,0
1583341178.896,41.992,36.621,31.250,22.949,-2.441,0
1583341178.900,37.109,35.156,29.297,20.020,6.836,0
1583341178.904,32.227,32.715,32.227,21.973,13.672,0
1583341178.908,35.645,36.621,33.691,24.414,15.137,0
1583341178.912,39.551,38.086,37.598,25.391,-22.949,0
1583341178.927,37.109,34.668,39.062,23.926,19.531,0
1583341178.931,32.715,32.715,36.621,22.461,53.711,0
1583341178.935,29.785,32.227,34.180,22.949,-11.230,0
1583341178.939,33.691,30.762,33.691,20.996,-20.508,0
1583341178.943,40.039,33.203,33.691,24.902,21.484,0
1583341178.947,35.645,37.598,34.180,23.926,22.949,0
1583341178.951,28.320,37.598,33.691,18.066,62.012,0
1583341178.954,34.668,37.598,33.203,21.973,21.973,0
1583341178.958,40.039,35.156,35.156,26.855,-0.488,0
1583341178.962,33.203,33.691,41.504,29.297,24.414,0
1583341178.966,24.902,35.156,41.504,24.902,9.277,0
1583341178.970,23.438,34.668,39.551,22.949,0.000,0
1583341178.988,29.785,33.691,38.574,24.414,18.555,0
1583341178.992,31.738,34.180,37.109,22.461,21.484,0
1583341178.996,24.414,35.156,36.621,20.020,9.277,0
1583341179.000,25.879,35.645,34.180,20.996,42.480,0
1583341179.004,36.133,35.645,32.715,24.902,27.832,0
1583341179.008,36.133,36.133,33.203,23.438,6.348,0
1583341179.012,31.250,37.109,32.227,22.949,47.363,0
1583341179.015,22.949,35.645,31.250,23.926,62.500,0
1583341179.019,26.855,35.645,30.273,22.461,71.777,0
1583341179.023,39.062,34.180,32.227,21.973,32.715,0
1583341179.027,38.086,32.227,35.156,20.020,16.602,0
1583341179.031,34.180,32.227,35.645,21.484,70.801,0
1583341179.047,37.109,33.203,35.156,24.414,76.660,0
1583341179.051,41.016,33.691,35.156,21.484,55.176,0
1583341179.055,38.574,33.691,34.668,20.020,84.961,0
1583341179.059,31.738,32.227,34.180,22.461,74.707,0
1583341179.063,31.250,32.227,34.180,24.902,54.199,0
1583341179.067,35.645,33.203,34.668,22.461,65.430,0
1583341179.071,31.738,34.668,34.180,22.461,24.902,0
1583341179.074,24.414,34.180,31.738,22.949,38.574,0
1583341179.078,21.973,32.227,30.762,18.066,91.797,0
1583341179.082,20.996,30.762,34.180,16.113,83.984,0
1583341179.086,21.973,30.762,37.109,19.531,42.480,0
1583341179.090,18.066,31.738,38.086,22.949,41.504,0
1583341179.066,13.184,33.203,36.133,15.625,-15.625,0
1583341179.070,22.461,33.691,38.086,11.230,-0.977,0
1583341179.074,24.902,34.180,41.504,18.555,81.055,0
1583341179.078,20.020,33.691,38.574,21.484,65.430,0
1583341179.082,22.949,33.691,40.527,24.414,30.762,0
1583341179.086,30.273,34.668,38.574,26.367,11.230,0
1583341179.090,35.156,35.645,34.180,26.855,28.809,0
1583341179.093,33.691,37.598,35.156,24.902,30.762,0
1583341179.097,28.320,37.109,35.645,20.996,34.180,0
1583341179.101,26.855,37.598,32.715,16.602,58.594,0
1583341179.105,34.668,39.062,32.715,14.648,58.594,0
1583341179.109,35.156,36.621,35.645,14.648,97.656,0
1583341179.107,29.297,36.133,36.133,17.090,68.359,0
1583341179.111,31.250,37.109,36.133,19.043,24.414,0
1583341179.115,37.109,36.133,38.086,21.484,36.621,0
1583341179.119,38.574,37.109,37.109,18.555,-11.719,0
1583341179.123,30.273,37.109,35.645,13.184,-15.625,0
1583341179.127,24.902,36.133,34.668,20.508,-0.977,0
1583341179.131,33.203,33.203,30.762,23.926,65.430,0
1583341179.134,31.250,30.273,28.320,22.461,49.316,0
1583341179.138,18.066,31.250,31.250,20.508,37.598,0
1583341179.142,20.020,33.691,36.133,21.973,49.805,0
1583341179.146,28.809,35.156,37.109,27.344,22.461,0
1583341179.150,38.086,36.621,36.133,30.762,47.852,0
1583341179.167,40.527,37.598,35.645,34.668,24.414,0
1583341179.171,32.715,36.133,37.598,35.645,23.438,0
1583341179.175,31.250,36.133,36.621,34.668,-10.254,0
1583341179.179,39.551,37.109,34.668,37.598,26.367,0
1583341179.183,44.922,38.086,35.156,38.574,60.547,0
1583341179.187,42.480,38.086,35.645,40.039,-25.391,0
1583341179.191,43.945,39.062,34.668,41.992,-16.113,0
1583341179.194,47.852,41.016,33.203,38.574,36.133,0
1583341179.198,48.828,41.504,34.180,38.086,41.504,0
1583341179.202,44.922,41.992,37.109,40.039,65.918,0
1583341179.206,41.504,41.504,37.109,36.621,30.273,0
1583341179.210,45.410,40.039,36.133,35.645,-14.160,0
1583341179.227,52.246,38.574,34.180,37.109,30.762,0
1583341179.231,49.316,36.621,35.645,34.668,45.410,0
1583341179.235,41.504,36.621,38.574,34.668,64.453,0
1583341179.239,43.457,37.598,37.598,34.180,29.785,0
1583341179.243,50.781,36.621,34.668,33.203,-18.555,0
1583341179.247,52.734,35.645,35.645,33.203,-14.648,0
1583341179.251,49.805,36.621,35.645,32.227,20.020,0
1583341179.254,51.270,38.086,35.156,31.738,20.020,0
1583341179.258,57.129,38.574,35.645,31.738,11.230,0
1583341179.262,53.223,37.109,35.645,36.621,16.602,0
1583341179.266,42.480,35.645,36.133,31.738,44.434,0
1583341179.270,41.016,33.691,35.645,25.391,25.879,0
1583341179.268,43.457,32.715,35.156,32.227,47.363,0
1583341179.272,43.457,34.180,33.203,34.180,80.078,0
1583341179.276,39.062,35.156,32.715,30.762,-9.277,0
1583341179.280,32.227,34.668,33.203,29.785,-32.227,0
1583341179.284,34.668,33.691,32.227,30.762,-20.508,0
1583341179.288,41.016,32.227,32.715,32.227,24.414,0
1583341179.292,37.598,32.227,30.762,30.762,65.430,0
1583341179.295,31.738,32.227,29.785,29.785,47.363,0
1583341179.299,32.715,29.785,30.762,29.297,39.551,0
1583341179.303,38.086,29.785,30.762,26.855,23.438,0
1583341179.307,39.062,30.273,31.738,27.344,53.711,0
1583341179.311,30.762,28.809,33.203,24.902,34.180,0
1583341179.327,24.414,29.297,33.203,20.996,30.762,0
1583341179.331,32.227,32.715,32.715,24.414,71.777,0
1583341179.335,40.039,33.203,30.762,29.297,17.090,0
1583341179.339,33.203,33.691,30.273,27.344,37.598,0
1583341179.343,27.344,33.203,33.203,25.879,53.711,0
1583341179.347,32.715,31.250,36.133,28.809,-13.672,0
1583341179.351,36.621,32.715,35.645,26.855,20.508,0
1583341179.354,31.250,33.203,35.645,24.414,41.504,0
1583341179.358,23.438,31.738,34.180,21.484,12.695,0
1583341179.362,25.879,31.250,30.273,18.555,7.812,0
1583341179.366,26.367,32.715,29.297,19.043,47.852,0
1583341179.370,25.879,34.668,29.297,20.020,19.531,0
1583341179.347,25.879,36.133,30.762,18.555,9.277,0
1583341179.351,26.855,35.645,31.250,20.508,81.543,0
1583341179.355,35.645,33.691,32.715,25.879,95.215,0
1583341179.359,38.574,33.691,30.273,25.879,99.609,0
1583341179.363,28.320,32.227,31.250,23.438,71.289,0
1583341179.367,26.855,31.738,36.621,22.949,44.434,0
1583341179.371,34.668,34.668,36.133,24.902,87.402,0
1583341179.374,38.086,37.109,36.621,28.320,113.770,0
1583341179.378,33.691,36.133,37.598,28.809,32.715,0
1583341179.382,32.227,34.668,37.598,29.297,-13.672,0
1583341179.386,40.527,34.180,36.621,33.691,-15.625,0
1583341179.390,46.875,33.203,35.645,35.645,18.555,0
1583341179.387,42.969,33.203,35.645,34.668,87.402,0
1583341179.391,36.133,33.691,31.738,34.180,50.293,0
1583341179.395,37.109,32.715,32.715,35.156,43.945,0
1583341179.399,44.922,33.203,34.668,33.203,73.730,0
1583341179.403,42.480,33.691,32.715,31.738,72.266,0
1583341179.407,36.621,33.691,33.691,34.180,-7.324,0
1583341179.411,36.133,34.180,37.109,34.668,25.879,0
1583341179.414,36.621,34.668,36.621,31.738,14.648,0
1583341179.418,34.180,34.668,33.691,23.438,-53.711,0
1583341179.422,25.879,32.715,33.203,18.555,-2.441,0
1583341179.426,14.160,33.203,31.250,20.996,3.418,0
1583341179.430,20.508,35.645,29.297,21.484,-52.246,0
1583341179.447,35.156,38.574,30.762,22.461,-2.930,0
1583341179.451,30.273,35.645,32.227,22.461,67.871,0
1583341179.455,27.832,35.156,33.203,20.508,40.527,0
1583341179.459,29.297,36.621,36.621,20.020,59.570,0
1583341179.463,32.227,36.621,37.598,21.973,101.562,0
1583341179.467,30.273,35.645,36.133,24.902,78.613,0
1583341179.471,24.902,35.156,35.645,22.461,6.348,0
1583341179.474,28.320,33.203,32.715,17.578,27.832,0
1583341179.478,35.156,30.273,35.645,23.438,4.395,0
1583341179.482,36.621,32.715,39.062,26.367,-25.879,0
1583341179.486,31.250,34.180,37.109,24.902,64.453,0
1583341179.490,26.855,33.691,36.621,27.832,39.551,0
1583341179.507,30.762,32.715,34.668,25.879,4.883,0
1583341179.511,31.738,31.738,34.668,24.902,10.742,0
1583341179.515,25.391,34.180,37.109,25.879,23.438,0
1583341179.519,22.949,37.598,36.133,24.902,53.223,0
1583341179.523,28.809,38.574,35.156,27.832,31.250,0
