timestamps,TP9,AF7,AF8,TP10,Right AUX,Marker0
1583423606.217,-1.465,3.418,-0.977,13.672,21.973,0
1583423606.221,-5.371,17.578,-11.230,-10.742,67.871,0
1583423606.225,-5.371,31.738,-0.488,-11.230,62.988,0
1583423606.229,-9.766,30.273,11.719,5.371,42.480,0
1583423606.233,-11.719,8.789,18.066,17.578,71.777,0
1583423606.237,-1.465,-2.930,16.602,23.926,50.781,0
1583423606.241,13.184,10.254,12.695,19.043,30.273,0
1583423606.244,-7.324,17.578,20.996,24.414,43.945,0
1583423606.248,2.441,23.926,21.484,43.457,62.988,0
1583423606.252,27.832,15.625,31.738,40.527,61.523,0
1583423606.256,20.508,-7.324,38.574,19.043,65.918,0
1583423606.260,25.879,-6.836,26.367,0.977,44.434,0
1583423606.256,16.602,7.324,19.043,21.973,48.340,0
1583423606.260,-2.441,2.930,29.297,30.762,41.016,0
1583423606.264,13.672,5.371,33.203,9.277,57.129,0
1583423606.268,7.324,4.883,23.438,13.672,77.637,0
1583423606.272,7.324,-6.836,23.438,31.738,40.527,0
1583423606.276,41.504,8.301,46.875,65.430,41.992,0
1583423606.280,60.059,48.340,75.684,83.008,13.184,0
1583423606.283,63.477,63.477,100.586,67.871,-10.742,0
1583423606.287,81.543,71.289,121.582,80.566,68.359,0
1583423606.291,70.801,82.520,130.859,111.328,91.309,0
1583423606.295,78.613,83.008,128.418,101.074,16.602,0
1583423606.299,101.074,79.590,137.695,94.238,13.672,0
1583423606.297,72.754,77.637,138.184,86.914,44.434,0
1583423606.301,51.758,64.453,110.352,82.520,21.973,0
1583423606.305,49.316,58.594,98.633,88.867,21.484,0
1583423606.309,33.691,81.055,96.680,70.312,37.598,0
1583423606.313,20.020,86.426,78.613,60.547,48.828,0
1583423606.317,-3.418,53.223,53.223,60.059,80.566,0
1583423606.321,-27.344,27.832,40.039,49.316,109.375,0
1583423606.324,-25.879,25.879,30.273,-2.441,80.078,0
1583423606.328,-20.508,3.906,21.973,-32.227,-14.160,0
1583423606.332,-0.488,-19.531,22.949,23.926,16.602,0
1583423606.336,13.184,-4.883,10.742,45.410,116.211,0
1583423606.340,-3.906,15.137,-1.953,-15.137,48.828,0
1583423606.357,-19.531,23.926,-16.113,-57.129,22.949,0
1583423606.361,-22.949,27.344,-25.391,-14.648,18.066,0
1583423606.365,-6.348,26.855,-20.020,11.230,-43.945,0
1583423606.369,-1.465,35.645,-27.832,-42.480,0.488,0
1583423606.373,-10.254,39.062,-28.320,-62.988,34.668,0
1583423606.377,5.859,42.969,-32.715,-48.828,44.922,0
1583423606.381,3.906,33.203,-34.668,-49.316,39.062,0
1583423606.384,11.719,33.203,-37.598,-56.641,11.719,0
1583423606.388,28.809,52.734,-45.410,-85.938,8.301,0
1583423606.392,27.344,53.711,-42.969,-78.613,-10.742,0
1583423606.396,29.785,59.570,-47.852,-46.387,48.828,0
1583423606.400,15.625,58.594,-47.852,-58.105,43.457,0
1583423606.396,25.391,50.781,-50.781,-73.730,14.160,0
1583423606.400,42.969,40.527,-54.688,-61.035,31.250,0
1583423606.404,30.762,65.918,-46.875,-72.266,101.562,0
1583423606.408,26.367,159.668,-55.176,-77.148,92.773,0
1583423606.412,41.992,227.539,-56.641,-53.711,49.805,0
1583423606.416,53.711,246.582,-53.223,-93.750,4.883,0
1583423606.420,64.941,242.676,-59.082,-7.324,-13.184,0
1583423606.423,83.984,191.895,-54.688,42.969,61.035,0
1583423606.427,100.098,101.074,-45.898,-53.223,55.176,0
1583423606.431,106.934,28.320,-38.574,-42.480,36.621,0
1583423606.435,91.797,-0.488,-33.203,25.879,2.441,0
1583423606.439,86.426,-11.719,-23.438,65.918,-8.301,0
1583423606.437,112.793,-41.992,-21.973,50.293,13.184,0
1583423606.441,133.301,-60.547,-33.691,9.277,39.551,0
1583423606.445,113.770,-77.148,-28.809,2.441,34.180,0
1583423606.449,132.812,-84.473,-19.043,43.457,65.430,0
1583423606.453,172.852,-77.637,-18.555,78.125,54.199,0
1583423606.457,181.641,-86.914,-7.324,87.891,69.824,0
1583423606.461,187.988,-102.051,-0.488,74.219,84.473,0
1583423606.464,194.824,-87.891,-4.883,96.680,17.090,0
1583423606.468,206.543,-56.152,-5.859,157.715,2.930,0
1583423606.472,210.449,-56.152,2.930,148.926,-17.578,0
1583423606.476,204.102,-82.031,4.395,118.652,-32.715,0
1583423606.480,222.168,-115.234,2.930,132.812,29.785,0
1583423606.497,229.980,-136.230,12.207,171.875,80.078,0
1583423606.501,231.934,-128.418,9.766,164.062,24.902,0
1583423606.505,237.793,-114.746,6.348,100.586,23.438,0
1583423606.509,238.281,-104.980,12.207,100.586,52.246,0
1583423606.513,243.652,-84.961,9.277,117.188,2.441,0
1583423606.517,222.656,-91.309,19.043,96.191,7.812,0
1583423606.521,219.727,-102.051,20.020,49.805,62.012,0
1583423606.524,211.914,-93.750,10.254,39.551,55.664,0
1583423606.528,207.031,-90.332,17.090,44.434,40.527,0
1583423606.532,200.195,-103.516,20.508,41.992,-12.207,0
1583423606.536,154.785,-127.930,21.973,59.570,36.133,0
1583423606.540,156.250,-152.344,22.461,32.715,62.988,0
1583423606.537,180.176,-151.855,21.484,19.043,-3.418,0
1583423606.541,139.648,-136.719,24.414,46.875,-14.648,0
1583423606.545,149.414,-126.953,20.020,43.457,59.570,0
1583423606.549,150.391,-105.957,21.973,22.949,91.797,0
1583423606.553,122.559,-88.867,23.926,25.879,54.199,0
1583423606.557,150.391,-74.707,31.738,46.875,48.340,0
1583423606.561,138.184,-71.777,33.203,24.414,36.133,0
1583423606.564,127.441,-115.723,25.391,-0.488,88.379,0
1583423606.568,175.293,-145.996,27.832,40.527,101.562,0
1583423606.572,171.875,-163.086,35.156,73.242,52.734,0
1583423606.576,142.090,-180.176,45.410,66.895,5.859,0
1583423606.580,140.625,-180.176,42.969,34.668,8.789,0
1583423606.576,127.930,-185.059,31.738,27.344,49.316,0
1583423606.580,78.613,-181.152,34.180,62.012,29.785,0
1583423606.584,121.582,-170.898,38.574,64.941,24.902,0
1583423606.588,123.535,-165.527,36.621,48.340,25.879,0
1583423606.592,10.742,-159.180,40.039,39.062,76.660,0
1583423606.596,23.438,-175.781,37.598,41.992,82.031,0
1583423606.600,17.090,-192.871,34.180,71.777,37.598,0
1583423606.603,3.418,-181.152,37.109,72.754,37.109,0
1583423606.607,30.762,-183.594,43.945,34.668,45.410,0
1583423606.611,74.707,-194.824,53.711,39.062,100.098,0
1583423606.615,72.266,-179.688,65.430,82.520,104.004,0
1583423606.619,71.777,-169.922,63.477,89.355,36.621,0
1583423606.637,86.426,-183.105,51.758,67.871,52.734,0
1583423606.641,35.645,-186.523,53.223,70.801,72.266,0
1583423606.645,45.898,-194.824,45.898,67.871,7.324,0
1583423606.649,45.410,-211.426,52.246,93.750,25.391,0
1583423606.653,59.570,-220.703,65.918,119.629,59.570,0
1583423606.657,60.547,-239.258,56.641,110.840,28.320,0
1583423606.661,-38.086,-239.746,49.316,119.629,15.625,0
1583423606.664,-17.578,-222.168,59.570,150.391,-2.441,0
1583423606.668,55.176,-198.242,87.402,161.133,26.855,0
1583423606.672,35.156,-208.008,88.379,115.723,44.922,0
1583423606.676,6.348,-262.207,69.824,128.906,39.551,0
1583423606.680,20.020,-296.875,61.035,141.602,43.457,0
1583423606.677,23.438,-293.945,54.199,126.953,12.207,0
1583423606.681,20.020,-281.250,51.758,122.070,14.160,0
1583423606.685,-7.812,-258.301,48.340,114.258,34.180,0
1583423606.689,-27.344,-212.891,39.062,126.953,27.832,0
1583423606.693,-27.832,-174.805,39.062,98.633,27.344,0
1583423606.697,-28.320,-201.172,36.133,65.430,69.336,0
1583423606.701,-30.273,-231.934,30.273,56.152,73.242,0
1583423606.704,-23.926,-268.555,40.039,67.383,3.418,0
1583423606.708,-11.719,-312.012,45.410,104.004,-5.371,0
1583423606.712,-0.977,-373.047,45.410,84.473,1.953,0
1583423606.716,-18.066,-360.352,47.852,63.477,14.648,0
1583423606.720,-16.113,-203.613,40.039,77.637,53.223,0
1583423606.719,-5.371,-194.824,28.320,55.176,24.414,0
1583423606.723,-33.203,-267.090,34.668,50.781,25.391,0
1583423606.727,-47.363,-302.246,47.852,32.227,39.551,0
1583423606.731,-23.926,-332.031,40.527,45.898,14.160,0
1583423606.735,1.953,-293.457,27.344,62.500,56.641,0
1583423606.739,9.277,-248.047,29.785,57.617,84.961,0
1583423606.743,0.977,-106.445,35.156,54.688,71.777,0
1583423606.746,1.465,-47.852,38.574,14.648,38.574,0
1583423606.750,-12.695,-156.738,37.109,23.926,45.410,0
1583423606.754,-16.113,-201.172,37.109,24.902,64.941,0
1583423606.758,5.859,-229.492,41.016,-8.789,25.391,0
1583423606.762,-1.953,-228.516,39.551,-51.270,-0.488,0
1583423606.777,-14.160,-182.617,40.039,-55.664,62.012,0
1583423606.781,8.301,264.160,37.109,-60.547,94.238,0
1583423606.785,8.789,421.875,29.785,-55.176,90.820,0
1583423606.789,-20.020,41.992,23.438,-64.941,60.059,0
1583423606.793,-19.531,-80.566,20.020,-108.887,22.949,0
1583423606.797,2.441,-126.953,15.625,-116.699,39.062,0
1583423606.801,-8.301,-193.359,16.113,-132.812,18.555,0
1583423606.804,-27.344,-205.078,21.484,-142.090,-16.602,0
1583423606.808,36.133,-200.195,15.625,-99.609,37.598,0
1583423606.812,47.363,-112.793,4.883,-110.352,66.406,0
1583423606.816,8.789,-135.254,0.000,-125.488,32.715,0
1583423606.820,37.598,-144.531,0.000,-120.117,50.781,0
1583423606.817,53.711,-91.309,4.395,-112.793,89.844,0
1583423606.821,64.453,-162.598,6.836,-71.777,74.707,0
1583423606.825,56.641,-189.941,10.254,-65.918,-6.348,0
1583423606.829,71.289,-220.215,7.324,-85.938,-28.320,0
1583423606.833,83.984,-224.121,5.859,-85.938,15.137,0
1583423606.837,49.316,-208.008,15.137,-86.914,16.602,0
1583423606.841,35.156,-196.289,16.113,-54.199,8.789,0
1583423606.844,49.316,-223.633,9.766,-43.945,27.832,0
1583423606.848,42.480,-34.180,9.277,-62.988,67.871,0
1583423606.852,34.668,188.965,18.066,-41.016,85.938,0
1583423606.856,27.344,47.852,23.438,-24.902,47.852,0
1583423606.860,14.160,-121.582,17.090,-19.043,23.438,0
1583423606.857,22.949,-167.969,23.926,8.301,49.316,0
1583423606.861,20.020,-181.152,34.668,12.207,29.297,0
1583423606.865,13.184,-205.566,31.738,3.418,41.992,0
1583423606.869,21.484,-220.703,28.809,33.691,85.938,0
1583423606.873,50.293,-224.121,32.227,63.477,53.711,0
1583423606.877,18.555,-240.234,33.203,58.594,1.465,0
1583423606.881,23.438,-291.992,29.785,61.523,18.555,0
1583423606.884,68.359,-175.293,30.273,72.754,59.570,0
1583423606.888,49.805,-130.371,39.062,73.730,5.859,0
1583423606.892,41.016,-242.188,45.898,56.152,-27.832,0
1583423606.896,73.730,-259.277,46.387,62.988,-11.719,0
1583423606.900,66.406,-309.082,51.758,66.406,41.504,0
1583423606.916,2.441,-317.871,49.316,32.227,67.383,0
1583423606.920,4.395,-291.992,39.551,31.250,79.102,0
1583423606.924,39.551,-249.023,43.457,65.430,57.617,0
1583423606.928,8.301,-183.594,41.504,53.223,7.324,0
1583423606.932,-30.273,-200.684,40.527,51.758,16.113,0
1583423606.936,-11.230,35.645,35.156,77.148,52.246,0
1583423606.940,20.996,158.691,27.344,81.055,63.965,0
1583423606.943,30.762,-63.477,33.203,88.379,86.914,0
1583423606.947,9.277,-156.250,39.062,81.543,69.824,0
1583423606.951,18.066,-195.312,36.133,66.895,20.020,0
1583423606.955,19.043,-247.070,37.598,79.102,20.508,0
1583423606.959,0.977,-277.832,38.086,73.242,17.090,0
1583423606.957,-20.020,-278.809,32.227,66.406,72.266,0
1583423606.961,4.395,-288.574,25.391,46.387,68.848,0
1583423606.965,-0.488,-285.156,18.555,56.641,6.836,0
1583423606.969,-17.090,-256.836,23.438,59.570,17.090,0
1583423606.973,0.488,-240.234,20.508,53.223,68.359,0
1583423606.977,5.371,-260.742,24.414,59.570,61.035,0
1583423606.981,-13.184,-270.996,28.320,51.270,51.758,0
1583423606.984,20.020,-260.742,14.160,50.781,65.430,0
1583423606.988,38.086,-250.488,7.812,57.129,20.020,0
1583423606.992,2.930,-260.742,7.812,62.012,-2.930,0
1583423606.996,30.273,-271.484,10.254,44.922,-40.039,0
1583423607.000,39.551,-237.305,17.090,49.805,-18.066,0
1583423606.998,21.973,-221.191,15.137,77.148,-11.230,0
1583423607.002,40.039,-123.535,14.160,64.453,-21.484,0
1583423607.006,63.477,100.098,11.719,36.621,19.043,0
1583423607.010,61.523,160.156,9.277,23.438,73.730,0
1583423607.014,35.645,31.738,11.230,33.691,55.664,0
1583423607.018,39.062,-26.855,11.230,46.387,-4.883,0
1583423607.022,50.781,-39.551,14.160,18.066,-0.977,0
1583423607.025,67.871,-23.926,14.648,-18.066,-0.488,0
1583423607.029,76.172,35.645,11.230,17.090,-15.137,0
1583423607.033,65.918,42.480,9.766,47.363,43.457,0
1583423607.037,71.289,-17.090,17.578,8.301,61.035,0
1583423607.041,92.285,-20.020,19.531,9.766,72.754,0
1583423607.056,92.773,122.559,22.949,27.832,55.176,0
1583423607.060,53.223,201.172,26.367,12.695,17.578,0
1583423607.064,54.199,51.758,21.973,48.828,48.828,0
1583423607.068,96.680,-160.156,29.297,33.691,26.855,0
1583423607.072,90.820,-276.855,34.180,17.090,62.012,0
1583423607.076,68.848,-242.188,31.738,55.664,71.289,0
1583423607.080,83.496,-144.531,29.297,49.316,63.965,0
1583423607.083,83.984,-154.297,27.832,21.973,34.180,0
1583423607.087,92.773,-189.941,25.391,0.000,28.809,0
1583423607.091,94.238,-164.062,27.832,-5.859,63.965,0
1583423607.095,74.219,-83.008,30.273,29.297,33.691,0
1583423607.099,87.402,-41.016,25.391,34.180,45.898,0
1583423607.097,74.219,-56.641,28.320,30.273,42.969,0
1583423607.101,84.473,-111.328,31.250,5.859,46.875,0
1583423607.105,71.777,-205.078,34.668,-26.855,48.828,0
1583423607.109,54.199,-280.273,29.785,-4.883,38.086,0
1583423607.113,66.406,-296.875,26.855,7.812,58.105,0
1583423607.117,67.871,-297.363,32.227,20.508,51.758,0
1583423607.121,77.148,-284.668,33.691,18.555,33.203,0
1583423607.124,72.266,-256.836,29.297,-35.156,48.828,0
1583423607.128,54.199,-238.281,24.902,-50.781,46.387,0
1583423607.132,34.668,-188.965,27.344,-3.418,1.465,0
1583423607.136,82.520,-140.137,26.367,10.742,-6.348,0
1583423607.140,77.148,-148.926,22.461,-3.418,39.551,0
1583423607.136,38.574,-167.480,17.578,-10.742,59.570,0
1583423607.140,65.918,-196.289,19.043,-10.254,74.707,0
1583423607.144,84.961,-194.824,19.043,-8.789,54.688,0
1583423607.148,97.656,-179.199,15.625,0.977,-7.812,0
1583423607.152,75.684,-195.312,27.832,1.465,-13.184,0
1583423607.156,22.949,-194.824,27.832,-2.441,8.301,0
1583423607.160,61.035,-143.066,13.184,40.527,73.730,0
1583423607.163,91.797,-95.215,10.742,40.527,105.469,0
1583423607.167,64.453,-54.688,7.812,36.133,74.219,0
1583423607.171,92.285,-38.086,-6.348,76.172,28.809,0
1583423607.175,121.094,-43.945,11.719,61.523,0.488,0
1583423607.179,91.797,-78.125,31.250,37.598,47.363,0
1583423607.197,50.781,-151.855,28.320,25.879,105.469,0
1583423607.201,62.988,-160.156,36.621,19.043,51.270,0
1583423607.205,92.773,-189.453,27.344,8.301,28.320,0
1583423607.209,59.570,-192.871,22.461,26.367,55.664,0
1583423607.213,41.016,-203.613,36.621,57.617,49.805,0
1583423607.217,76.660,-272.949,37.598,48.828,24.414,0
1583423607.221,95.703,-134.766,35.156,41.016,34.180,0
1583423607.224,62.500,0.977,34.180,57.617,18.066,0
1583423607.228,12.695,-49.805,30.762,62.988,55.664,0
1583423607.232,60.059,-83.984,23.926,59.082,92.285,0
1583423607.236,139.648,-109.375,19.043,81.055,36.133,0
1583423607.240,120.117,-122.070,19.531,94.238,-26.855,0
1583423607.237,102.051,-107.910,19.043,107.422,-14.648,0
1583423607.241,126.465,-81.543,12.207,125.000,38.574,0
1583423607.245,138.184,-81.055,13.184,130.859,64.941,0
1583423607.249,120.605,-97.168,22.461,119.141,35.156,0
1583423607.253,126.953,-94.238,16.602,117.188,1.465,0
1583423607.257,156.250,-81.055,8.789,121.582,29.297,0
1583423607.261,166.992,-83.984,16.113,103.027,60.059,0
1583423607.264,160.645,-103.516,8.301,111.816,6.836,0
1583423607.268,148.926,-195.312,2.441,140.137,-2.441,0
1583423607.272,181.152,-281.738,9.277,130.371,7.812,0
1583423607.276,145.508,-280.762,0.000,71.777,-2.930,0
1583423607.280,153.320,-280.273,-17.578,86.914,49.316,0
1583423607.277,184.082,-274.902,-0.977,136.719,75.684,0
1583423607.281,137.695,-272.949,27.832,109.863,23.926,0
1583423607.285,123.047,-272.949,23.926,88.379,-17.578,0
1583423607.289,137.695,-257.324,15.625,93.750,20.020,0
1583423607.293,123.535,-254.395,17.090,74.707,40.527,0
1583423607.297,122.070,-246.094,16.602,59.570,40.039,0
1583423607.301,92.285,-212.402,19.043,72.754,104.492,0
1583423607.304,85.938,-200.684,19.043,66.406,172.363,0
1583423607.308,98.633,-189.941,24.902,72.266,124.023,0
1583423607.312,85.449,-195.312,23.438,86.914,13.184,0
1583423607.316,83.008,-202.148,23.438,99.121,22.461,0
1583423607.320,104.980,-173.340,32.715,112.793,41.992,0
1583423607.337,142.090,-136.719,21.484,123.535,29.785,0
1583423607.341,76.172,-110.840,33.691,114.746,35.645,0
1583423607.345,70.312,-107.910,45.410,116.211,56.641,0
1583423607.349,137.695,-108.887,50.293,148.926,25.879,0
1583423607.353,91.309,-93.750,47.363,146.973,44.434,0
1583423607.357,92.285,-92.285,46.875,142.090,64.941,0
1583423607.361,164.551,-98.145,51.270,153.809,52.246,0
1583423607.364,169.922,-59.570,42.480,181.641,76.172,0
1583423607.368,143.555,-3.418,48.340,173.828,96.191,0
1583423607.372,163.086,39.551,45.410,185.059,109.863,0
1583423607.376,231.445,40.527,39.062,231.445,34.668,0
1583423607.380,226.562,42.969,36.133,255.371,21.484,0
1583423607.377,225.098,51.758,40.527,245.605,60.547,0
1583423607.381,236.328,44.922,43.457,245.605,56.641,0
1583423607.385,222.656,40.527,32.227,290.527,45.410,0
1583423607.389,298.340,46.875,31.738,324.219,70.801,0
1583423607.393,322.754,53.223,36.133,323.242,73.242,0
1583423607.397,294.922,45.898,35.645,290.527,77.148,0
1583423607.401,246.582,31.738,24.414,307.129,97.656,0
1583423607.404,230.469,39.062,14.648,334.961,113.281,0
1583423607.408,278.809,52.246,13.672,321.777,91.309,0
1583423607.412,258.301,61.523,20.996,315.918,83.496,0
1583423607.416,261.230,83.496,28.320,316.406,156.250,0
1583423607.420,280.762,86.914,18.555,304.199,202.148,0
1583423607.437,268.066,79.590,14.648,299.316,185.547,0
1583423607.441,280.273,83.496,21.484,289.551,191.406,0
1583423607.445,268.066,83.984,25.391,280.273,217.773,0
1583423607.449,225.098,80.078,21.973,279.785,242.676,0
1583423607.453,251.465,82.031,18.555,291.016,243.164,0
1583423607.457,268.555,81.543,20.020,287.109,280.762,0
1583423607.461,228.516,62.988,18.555,247.070,334.473,0
1583423607.464,230.957,41.016,20.508,242.188,333.984,0
1583423607.468,239.258,48.828,21.973,260.742,345.703,0
1583423607.472,192.383,62.012,17.578,248.047,371.582,0
1583423607.476,178.711,78.125,13.184,237.305,361.816,0
1583423607.480,171.875,67.871,19.531,254.883,366.699,0
1583423607.477,184.082,131.836,20.020,256.348,363.281,0
1583423607.481,227.051,266.113,15.625,244.629,389.160,0
1583423607.485,226.074,275.391,21.973,235.352,433.594,0
1583423607.489,209.961,247.070,15.625,241.699,442.871,0
1583423607.493,242.188,228.027,1.465,250.977,470.215,0
1583423607.497,244.629,190.918,14.160,259.766,473.145,0
1583423607.501,252.441,168.457,18.555,251.953,486.816,0
1583423607.504,289.062,155.762,3.906,259.766,524.902,0
1583423607.508,294.434,135.742,3.906,295.410,564.941,0
1583423607.512,295.410,107.910,18.555,315.430,572.266,0
1583423607.516,289.062,93.750,22.949,278.320,542.969,0
1583423607.520,302.246,105.957,14.160,228.516,541.016,0
1583423607.517,358.887,116.211,11.719,250.000,562.988,0
1583423607.521,347.656,110.352,12.207,274.902,591.309,0
1583423607.525,325.684,85.449,17.090,257.812,617.676,0
1583423607.529,350.586,56.641,23.926,221.191,631.348,0
1583423607.533,319.336,65.918,19.043,214.844,620.605,0
1583423607.537,318.359,81.543,14.160,258.789,601.074,0
1583423607.541,334.473,92.285,29.785,250.977,591.797,0
1583423607.544,311.035,104.004,38.086,229.980,605.469,0
1583423607.548,317.383,95.215,28.320,216.797,614.258,0
1583423607.552,259.277,84.961,25.391,196.777,594.727,0
1583423607.556,253.418,86.914,25.879,208.008,596.191,0
1583423607.560,293.945,81.055,25.879,197.754,605.957,0
1583423607.577,248.047,74.219,24.902,152.344,604.004,0
1583423607.581,198.730,73.242,25.879,138.672,577.637,0
1583423607.585,198.242,70.801,24.414,178.711,573.730,0
1583423607.589,208.984,61.523,34.668,177.246,599.121,0
1583423607.593,170.898,54.688,41.016,139.648,583.496,0
1583423607.597,166.992,53.711,27.344,134.766,554.199,0
1583423607.601,172.363,41.504,28.809,122.559,524.902,0
1583423607.604,144.043,39.062,30.762,98.633,510.254,0
1583423607.608,158.203,59.082,24.902,48.828,511.719,0
1583423607.612,126.953,59.570,23.926,43.945,508.301,0
1583423607.616,94.727,57.617,29.785,88.867,499.023,0
1583423607.620,110.352,52.734,33.203,60.547,492.188,0
1583423607.616,103.027,39.551,32.227,6.836,469.238,0
1583423607.620,67.383,42.480,37.109,-7.812,429.688,0
1583423607.624,41.016,42.969,36.621,16.113,420.410,0
1583423607.628,71.777,49.805,32.227,3.906,438.477,0
1583423607.632,37.109,49.805,27.344,-50.293,417.480,0
1583423607.636,14.648,42.480,25.391,-38.574,380.859,0
1583423607.640,29.297,41.504,22.461,-35.156,354.004,0
1583423607.643,24.902,41.016,17.578,-50.293,345.215,0
1583423607.647,34.668,41.016,20.020,-70.801,357.910,0
1583423607.651,16.602,30.273,32.715,-88.867,350.098,0
1583423607.655,-4.395,1.465,41.016,-66.406,319.824,0
1583423607.659,49.805,17.578,20.996,-36.133,282.715,0
1583423607.656,63.965,56.641,6.836,-78.613,298.340,0
1583423607.660,62.500,64.941,2.930,-139.160,299.805,0
1583423607.664,27.832,68.359,-1.465,-135.254,302.246,0
1583423607.668,1.465,67.383,-1.953,-145.020,289.062,0
1583423607.672,14.648,66.895,-10.742,-159.180,247.559,0
1583423607.676,-12.207,63.965,-15.625,-170.410,240.234,0
1583423607.680,-21.973,70.801,-3.418,-147.949,232.910,0
1583423607.683,18.066,84.961,-7.324,-130.371,222.656,0
1583423607.687,16.113,80.078,-17.090,-132.324,172.852,0
1583423607.691,7.324,87.891,-16.602,-141.602,130.371,0
1583423607.695,37.598,106.934,-17.578,-135.254,157.715,0
1583423607.699,39.551,103.027,-14.648,-134.277,167.969,0
1583423607.716,11.230,82.031,-17.090,-156.250,142.578,0
1583423607.720,-28.809,43.457,-23.438,-150.391,105.957,0
1583423607.724,-23.926,26.367,-17.578,-145.020,100.098,0
1583423607.728,21.973,66.406,-10.254,-121.582,102.051,0
1583423607.732,82.031,92.285,-18.066,-120.117,71.777,0
1583423607.736,44.922,81.543,-23.438,-147.461,64.941,0
1583423607.740,-25.879,25.391,-13.672,-149.414,57.129,0
1583423607.743,-2.930,-10.742,-14.160,-128.418,44.434,0
1583423607.747,8.789,-1.465,-23.926,-110.840,33.691,0
1583423607.751,20.020,-8.789,-19.531,-91.797,29.297,0
1583423607.755,24.414,-14.160,-11.719,-104.004,39.551,0
1583423607.759,6.836,-22.949,-9.766,-129.883,20.020,0
1583423607.757,8.789,-32.227,-16.602,-126.953,-11.719,0
1583423607.761,-14.648,-42.969,-7.324,-117.188,0.977,0
1583423607.765,-30.273,-47.363,7.324,-120.605,8.789,0
1583423607.769,-9.766,-35.156,3.418,-197.754,2.930,0
1583423607.773,4.395,-33.691,7.812,-185.059,-0.977,0
1583423607.777,-16.113,-36.621,11.230,-137.207,-19.531,0
1583423607.781,-63.965,-33.203,13.184,-163.086,-26.855,0
1583423607.784,-55.664,-30.762,14.648,-186.523,-48.828,0
1583423607.788,-67.383,-25.391,13.184,-178.223,-42.969,0
1583423607.792,-102.051,-32.227,15.625,-150.879,-36.133,0
1583423607.796,-88.379,-50.293,17.090,-145.508,-62.012,0
1583423607.800,-60.547,-45.410,17.090,-164.062,-43.457,0
1583423607.797,-69.824,-41.504,19.043,-141.602,-46.875,0
1583423607.801,-67.871,-62.012,17.578,-139.160,-68.359,0
1583423607.805,-69.824,-57.129,15.137,-145.020,-57.129,0
1583423607.809,-96.191,-34.668,20.996,-137.695,-54.199,0
1583423607.813,-115.234,-55.664,28.809,-139.160,-66.406,0
1583423607.817,-98.633,-72.754,30.762,-113.281,-47.852,0
1583423607.821,-94.727,-73.242,30.273,-122.070,-74.707,0
1583423607.824,-108.398,-91.797,33.203,-130.371,-94.727,0
1583423607.828,-114.258,-113.281,33.203,-139.648,-100.098,0
1583423607.832,-117.676,-108.398,36.621,-141.113,-104.980,0
1583423607.836,-123.535,-104.004,37.598,-131.348,-73.242,0
1583423607.840,-120.117,-112.793,37.109,-145.508,-62.012,0
1583423607.857,-110.352,-118.652,42.969,-146.973,-62.988,0
1583423607.861,-121.582,-133.789,45.898,-141.602,-88.867,0
1583423607.865,-121.094,-127.441,46.875,-126.465,-109.375,0
1583423607.869,-138.184,-101.562,45.410,-117.676,-83.008,0
1583423607.873,-150.879,-85.449,44.922,-117.676,-87.891,0
1583423607.877,-142.578,-66.406,41.016,-96.680,-93.750,0
1583423607.881,-133.789,-62.988,37.109,-122.070,-120.605,0
1583423607.884,-118.164,-69.336,40.527,-120.605,-133.789,0
1583423607.888,-120.117,-76.660,41.504,-112.793,-119.629,0
1583423607.892,-107.422,-83.008,36.621,-136.719,-115.723,0
1583423607.896,-122.559,-89.355,37.109,-105.469,-87.402,0
1583423607.900,-143.555,-117.676,39.551,-91.797,-99.609,0
1583423607.897,-127.930,-130.371,39.551,-107.422,-115.234,0
1583423607.901,-122.070,-124.023,39.062,-114.258,-99.121,0
1583423607.905,-120.117,-123.535,41.992,-111.816,-90.820,0
1583423607.909,-89.355,-109.375,36.621,-67.383,-109.375,0
1583423607.913,-81.543,-111.816,39.062,-33.691,-119.141,0
1583423607.917,-96.680,-103.516,48.340,-45.410,-118.652,0
1583423607.921,-65.918,-83.008,43.457,-79.590,-96.191,0
1583423607.924,-55.664,-78.613,41.504,-104.004,-81.543,0
1583423607.928,-74.707,-67.383,42.969,-96.191,-85.938,0
1583423607.932,-48.828,-73.242,36.621,-83.984,-96.191,0
1583423607.936,-50.293,-88.379,35.156,-91.309,-116.211,0
1583423607.940,-72.754,-100.098,43.945,-55.176,-77.148,0
1583423607.937,-75.195,-114.746,54.199,-20.996,-64.941,0
1583423607.941,-56.641,-108.398,49.316,-90.332,-72.754,0
1583423607.945,-66.895,-113.770,46.875,-88.867,-81.543,0
1583423607.949,-56.641,-101.074,54.199,-56.152,-109.375,0
1583423607.953,-43.945,-139.160,53.223,-95.215,-89.355,0
1583423607.957,-105.957,-214.844,53.711,-122.070,-74.219,0
1583423607.961,-110.840,-223.633,60.547,-122.559,-76.172,0
1583423607.964,-114.746,-235.840,66.406,-122.559,-88.379,0
1583423607.968,-123.047,-242.188,57.617,-108.398,-93.262,0
1583423607.972,-105.957,-207.520,38.574,-90.820,-68.359,0
1583423607.976,-128.906,-221.191,58.594,-105.469,-83.008,0
1583423607.980,-187.012,-242.188,67.871,-125.000,-86.914,0
1583423607.997,-211.914,-242.188,49.805,-131.836,-47.363,0
1583423608.001,-194.336,-251.953,53.223,-92.285,-75.684,0
1583423608.005,-198.730,-226.074,49.316,-141.113,-65.430,0
1583423608.009,-227.051,-181.152,36.133,-191.406,-30.273,0
1583423608.013,-249.023,-164.551,40.527,-134.766,-41.504,0
1583423608.017,-260.742,-189.941,53.223,-102.539,-37.598,0
1583423608.021,-280.273,-224.609,48.340,-92.285,-52.246,0
1583423608.024,-266.113,-223.145,38.574,-101.074,-78.125,0
1583423608.028,-277.344,-213.379,39.551,-89.355,-50.781,0
1583423608.032,-244.629,-227.051,39.062,-73.242,-27.832,0
1583423608.036,-188.477,-217.773,41.992,-113.770,-41.016,0
1583423608.040,-283.203,-213.867,51.758,-182.129,-65.430,0
1583423608.036,-296.387,-197.266,53.223,-185.059,-97.168,0
1583423608.040,-267.090,-168.945,58.105,-88.867,-131.348,0
1583423608.044,-292.969,-155.762,68.359,-62.500,-111.816,0
1583423608.048,-285.645,-142.090,66.406,-168.945,-138.672,0
1583423608.052,-288.574,-105.957,71.289,-117.188,-172.852,0
1583423608.056,-347.168,-88.867,85.449,-37.598,-146.973,0
1583423608.060,-338.379,-98.145,80.566,-75.684,-169.434,0
1583423608.063,-295.410,-107.910,76.172,-37.598,-215.332,0
1583423608.067,-299.805,-103.027,74.219,-55.664,-218.262,0
1583423608.071,-337.891,-115.723,76.660,-53.223,-229.492,0
1583423608.075,-319.824,-119.141,77.637,-53.711,-238.770,0
1583423608.079,-257.324,-110.840,66.895,-99.609,-243.652,0
1583423608.076,-264.160,-129.395,69.336,-93.262,-242.188,0
1583423608.080,-268.066,-135.742,74.219,-78.125,-221.191,0
1583423608.084,-275.879,-144.531,77.637,-76.172,-232.422,0
1583423608.088,-281.250,-145.996,79.102,-73.730,-236.816,0
1583423608.092,-258.789,-151.367,81.055,-55.664,-223.145,0
1583423608.096,-232.910,-173.828,84.961,-19.531,-234.375,0
1583423608.100,-233.887,-160.645,88.379,46.387,-231.445,0
1583423608.103,-246.094,-149.902,99.609,59.082,-231.934,0
1583423608.107,-228.027,-146.973,93.750,23.926,-244.629,0
1583423608.111,-208.984,-125.977,82.520,-1.465,-248.535,0
1583423608.115,-215.332,-117.188,79.102,-52.246,-240.234,0
1583423608.119,-270.020,-108.398,80.078,-62.500,-221.191,0
1583423608.137,-277.344,-110.352,83.984,-25.879,-222.656,0
1583423608.141,-213.867,-101.562,80.566,19.531,-208.496,0
1583423608.145,-207.031,-75.684,72.754,31.738,-190.430,0
1583423608.149,-227.539,-73.730,71.777,27.344,-173.828,0
1583423608.153,-220.703,-74.219,73.730,48.828,-177.734,0
1583423608.157,-215.332,-67.383,76.172,67.871,-168.945,0
1583423608.161,-216.309,-71.777,74.707,82.520,-161.621,0
1583423608.164,-219.238,-64.941,69.824,114.746,-147.949,0
1583423608.168,-209.473,-59.570,72.266,150.391,-114.746,0
1583423608.172,-166.992,-63.477,75.195,121.094,-119.629,0
1583423608.176,-176.270,-59.082,69.336,132.812,-90.332,0
1583423608.180,-195.801,-74.219,68.359,160.645,-51.758,0
1583423608.176,-173.340,-89.355,77.148,122.070,-48.340,0
1583423608.180,-183.105,-94.238,85.449,102.051,-42.480,0
1583423608.184,-160.156,-102.051,67.383,88.379,-46.875,0
1583423608.188,-121.094,-99.609,54.688,94.727,-49.316,0
1583423608.192,-166.504,-88.379,51.758,61.523,-22.949,0
1583423608.196,-169.434,-83.008,37.598,59.082,-1.953,0
1583423608.200,-157.227,-76.660,28.809,50.293,-10.742,0
1583423608.203,-201.660,-64.453,21.484,-0.488,-52.246,0
1583423608.207,-179.688,-55.176,17.090,-8.789,-28.809,0
1583423608.211,-149.414,-66.895,22.949,-5.859,-50.781,0
1583423608.215,-162.109,-63.965,22.461,-19.531,-103.027,0
1583423608.219,-181.152,-52.246,12.207,-33.691,-53.223,0
1583423608.216,-172.363,-59.082,9.277,-17.578,-32.715,0
1583423608.220,-134.766,-48.828,4.883,-54.688,-61.523,0
1583423608.224,-152.832,-51.758,-10.254,-89.355,-93.262,0
1583423608.228,-194.824,-56.641,-15.137,-80.566,-93.262,0
1583423608.232,-175.293,-45.410,-13.672,-93.750,-108.398,0
1583423608.236,-160.645,-43.945,-7.324,-86.914,-138.184,0
1583423608.240,-162.598,-39.551,-8.301,-147.461,-140.625,0
1583423608.243,-166.992,-38.086,-8.301,-222.168,-157.715,0
1583423608.247,-157.227,-23.926,7.812,-177.246,-190.430,0
1583423608.251,-107.910,7.812,23.926,-136.719,-173.828,0
1583423608.255,-59.082,23.926,41.504,-126.465,-175.781,0
1583423608.259,-58.105,48.828,67.383,-70.801,-176.758,0
1583423608.277,-47.852,78.613,109.863,-9.277,-167.480,0
1583423608.281,-1.465,104.004,133.789,18.555,-176.758,0
1583423608.285,16.602,131.348,137.695,57.129,-181.641,0
1583423608.289,14.160,141.113,146.484,43.457,-170.410,0
1583423608.293,48.828,135.254,153.809,41.504,-154.297,0
1583423608.297,73.730,122.559,156.250,55.664,-164.062,0
1583423608.301,74.707,106.934,143.555,4.395,-185.547,0
1583423608.304,63.477,93.262,130.371,-32.227,-190.918,0
1583423608.308,59.570,83.496,125.000,-49.805,-184.082,0
1583423608.312,57.617,85.449,122.070,-43.945,-220.703,0
1583423608.316,77.148,82.520,124.512,-22.949,-219.238,0
1583423608.320,93.750,81.543,116.211,-18.555,-200.684,0
1583423608.317,84.473,84.961,106.934,-33.691,-224.121,0
1583423608.321,108.887,75.195,102.539,-52.246,-204.590,0
1583423608.325,131.836,74.707,91.797,-31.738,-199.219,0
1583423608.329,155.762,82.520,84.473,-41.016,-208.008,0
1583423608.333,166.504,67.871,89.355,-43.457,-235.840,0
1583423608.337,119.141,52.734,92.285,-24.414,-228.027,0
1583423608.341,106.445,47.852,89.844,-20.020,-165.527,0
1583423608.344,140.137,42.480,91.309,-15.137,-168.457,0
1583423608.348,156.250,40.039,90.820,-8.301,-175.293,0
1583423608.352,108.887,20.996,100.586,-8.301,-160.645,0
1583423608.356,115.723,2.441,87.402,7.812,-145.508,0
1583423608.360,172.852,11.719,135.254,9.277,-117.188,0
1583423608.357,143.066,24.902,305.176,-52.734,-129.395,0
1583423608.361,120.117,23.926,401.367,-56.641,-147.461,0
1583423608.365,122.559,19.531,400.391,-34.180,-109.375,0
1583423608.369,123.047,17.090,379.883,-24.414,-128.906,0
1583423608.373,146.973,12.207,348.145,-8.789,-107.422,0
1583423608.377,151.855,5.371,322.266,-8.789,-97.656,0
1583423608.381,118.652,6.348,300.781,18.555,-128.906,0
1583423608.384,115.234,1.953,278.320,8.789,-81.055,0
1583423608.388,148.926,-1.953,251.465,-39.062,-71.289,0
1583423608.392,141.113,-1.953,232.910,-38.574,-56.152,0
1583423608.396,103.027,-17.578,209.961,-38.086,-41.016,0
1583423608.400,110.840,-33.691,188.477,-37.109,-54.199,0
1583423608.417,127.930,-49.316,176.758,4.883,-51.758,0
1583423608.421,140.137,-49.316,153.809,-6.836,-36.621,0
1583423608.425,139.160,-35.645,133.301,-36.133,-84.961,0
1583423608.429,153.320,-35.156,126.465,7.324,-30.762,0
1583423608.433,169.434,-43.457,118.652,6.348,-31.250,0
1583423608.437,149.414,-46.387,106.445,18.066,-97.656,0
1583423608.441,147.461,-34.180,95.215,23.438,-26.855,0
1583423608.444,148.926,-10.742,82.520,8.789,-8.301,0
1583423608.448,156.738,-1.953,64.453,-0.488,-28.809,0
1583423608.452,193.359,0.977,49.805,5.371,-35.156,0
1583423608.456,186.035,0.977,30.762,53.223,-55.176,0
1583423608.460,180.664,6.348,0.000,51.758,-19.531,0
1583423608.457,211.426,16.602,-23.926,63.477,-10.254,0
1583423608.461,221.680,23.926,-44.922,50.293,-18.066,0
1583423608.465,202.148,25.391,-64.453,47.363,47.363,0
1583423608.469,188.477,18.066,-66.895,85.938,62.012,0
1583423608.473,208.984,19.043,-67.871,73.242,23.926,0
1583423608.477,230.469,22.949,-78.125,63.477,8.301,0
1583423608.481,208.984,25.391,-79.590,45.410,-18.555,0
1583423608.484,180.664,32.227,-71.777,61.523,-32.715,0
1583423608.488,189.453,32.227,-70.801,80.078,4.395,0
1583423608.492,225.586,18.066,-60.059,59.082,25.391,0
1583423608.496,219.727,20.996,-35.645,43.945,-2.930,0
1583423608.500,179.688,38.086,-38.086,41.016,58.594,0
1583423608.497,194.336,36.133,-48.828,45.410,55.176,0
1583423608.501,233.398,34.180,-55.176,59.570,-1.953,0
1583423608.505,274.902,28.320,-55.176,87.891,-4.395,0
1583423608.509,256.348,23.926,-35.156,75.684,-10.742,0
1583423608.513,259.766,16.113,-11.719,41.016,20.508,0
1583423608.517,212.891,-4.395,1.953,69.336,8.301,0
1583423608.521,168.457,12.207,-5.859,106.934,39.062,0
1583423608.524,196.777,45.898,-33.691,86.914,41.016,0
1583423608.528,155.273,54.199,-29.785,99.609,-1.953,0
1583423608.532,134.766,62.988,40.527,120.117,7.812,0
1583423608.536,123.535,73.730,106.934,117.676,15.625,0
1583423608.540,90.820,85.938,132.324,124.023,44.434,0
1583423608.556,134.277,94.727,148.438,154.785,95.703,0
1583423608.560,142.090,102.051,151.855,148.926,64.453,0
1583423608.564,106.934,119.629,135.254,131.348,35.156,0
1583423608.568,133.301,133.789,125.000,168.945,61.523,0
1583423608.572,153.809,136.719,108.398,156.250,23.438,0
1583423608.576,178.711,136.230,106.934,127.930,-18.555,0
1583423608.580,186.035,158.691,126.465,93.262,40.527,0
1583423608.583,175.293,185.547,130.859,54.199,108.887,0
1583423608.587,151.367,194.824,126.953,14.648,57.129,0
1583423608.591,214.844,213.379,125.000,16.602,-14.160,0
1583423608.595,334.961,219.727,117.676,71.289,-35.156,0
1583423608.599,347.168,221.680,106.445,34.668,-20.508,0
1583423608.617,303.223,222.656,97.168,-41.504,18.555,0
1583423608.621,247.070,198.242,79.590,-117.188,1.953,0
1583423608.625,218.750,173.340,48.340,-170.410,-14.160,0
1583423608.629,206.543,153.320,28.809,-157.715,-12.695,0
1583423608.633,174.805,136.230,19.043,-172.852,-27.832,0
1583423608.637,156.738,117.676,5.371,-180.176,9.766,0
1583423608.641,113.770,101.562,-12.695,-148.926,52.734,0
1583423608.644,85.449,86.426,-26.855,-114.258,-46.387,0
1583423608.648,119.141,69.824,-42.480,-87.891,-31.250,0
1583423608.652,102.539,56.152,-59.082,-81.543,35.156,0
1583423608.656,99.609,50.781,-67.383,-55.176,23.438,0
1583423608.660,116.211,47.852,-73.730,-33.691,8.301,0
1583423608.636,87.402,41.016,-74.219,-61.523,-7.812,0
1583423608.640,64.453,35.156,-81.055,-100.098,26.855,0
1583423608.644,95.215,25.879,-89.844,-106.445,9.277,0
1583423608.648,113.281,24.414,-92.773,-136.719,8.301,0
1583423608.652,82.031,18.555,-95.215,-165.039,57.129,0
1583423608.656,81.543,11.719,-97.656,-194.336,34.180,0
1583423608.660,83.496,5.371,-92.285,-215.820,35.156,0
1583423608.663,41.016,-15.137,-74.219,-211.426,25.879,0
1583423608.667,-23.438,-26.855,-67.383,-229.492,59.570,0
1583423608.671,-27.344,-42.969,-67.871,-215.820,56.152,0
1583423608.675,3.906,-56.152,-63.965,-182.617,36.133,0
1583423608.679,-20.508,-54.688,-59.570,-204.590,46.875,0
1583423608.696,-80.078,-74.219,-53.711,-217.285,-13.672,0
1583423608.700,-79.590,-82.031,-49.805,-203.613,-29.297,0
1583423608.704,-63.965,-67.383,-44.922,-167.480,23.926,0
1583423608.708,-77.637,-57.617,-41.504,-120.605,45.410,0
1583423608.712,-113.770,-54.199,-37.598,-89.355,60.547,0
1583423608.716,-107.910,-64.453,-33.203,-59.570,36.133,0
1583423608.720,-82.520,-56.641,-29.785,-44.434,48.828,0
1583423608.723,-58.594,-38.574,-32.715,-55.664,60.059,0
1583423608.727,-47.363,-30.273,-29.297,-60.547,5.859,0
1583423608.731,-32.227,-19.531,-26.855,-60.059,0.000,0
1583423608.735,-14.160,-20.508,-22.949,-54.199,52.246,0
1583423608.739,-3.418,-23.438,-15.137,-83.496,46.387,0
1583423608.737,8.789,-24.414,-16.602,-102.051,-36.621,0
1583423608.741,-13.184,-32.715,-15.625,-70.312,-72.266,0
1583423608.745,-12.207,-34.180,-5.371,-56.152,-34.668,0
1583423608.749,-21.484,-27.344,-1.465,-68.359,39.551,0
1583423608.753,-31.738,-20.508,-6.348,-44.434,56.152,0
1583423608.757,10.254,-14.160,-6.836,-30.762,7.812,0
1583423608.761,-15.625,-7.812,-0.977,-44.922,-15.625,0
1583423608.764,-34.180,2.441,9.277,-18.555,36.133,0
1583423608.768,-19.043,0.977,11.719,15.137,75.195,0
1583423608.772,-35.156,-3.906,17.090,20.508,42.480,0
1583423608.776,-14.648,3.906,21.484,30.762,37.109,0
1583423608.780,10.254,-4.395,22.949,37.109,48.340,0
1583423608.799,12.695,-5.859,16.602,-4.883,38.086,0
1583423608.803,7.324,-17.578,5.859,-29.785,44.434,0
1583423608.807,-8.789,-35.645,0.000,-23.438,85.449,0
1583423608.811,-10.742,-47.363,-2.441,-29.297,67.383,0
1583423608.815,-26.367,-60.059,-5.371,-20.996,20.508,0
1583423608.819,-27.832,-77.148,-0.977,-33.691,40.527,0
1583423608.823,-5.859,-90.820,4.883,-37.598,22.461,0
1583423608.826,-9.766,-83.008,2.930,-51.270,-29.297,0
1583423608.830,-13.184,-71.777,3.418,-60.547,-34.180,0
1583423608.834,-24.902,-66.895,4.395,-29.785,17.578,0
1583423608.838,-23.926,-74.707,2.930,5.859,30.762,0
1583423608.842,-5.859,-92.285,1.953,21.484,37.109,0
1583423608.836,-43.457,-110.352,2.441,7.324,26.855,0
1583423608.840,-68.848,-115.723,1.953,-0.977,-14.160,0
1583423608.844,-52.734,-111.328,4.395,-1.465,26.367,0
1583423608.848,-52.246,-108.398,2.930,1.465,51.758,0
1583423608.852,-46.387,-96.191,1.953,7.324,33.203,0
1583423608.856,-46.387,-82.520,7.324,13.184,52.734,0
1583423608.860,-51.758,-73.242,5.859,31.250,55.176,0
1583423608.863,-26.367,-63.477,9.766,53.711,28.809,0
1583423608.867,-19.043,-71.289,14.648,51.758,39.551,0
1583423608.871,-29.297,-80.078,9.277,53.711,20.996,0
1583423608.875,-58.594,-79.102,2.930,72.266,58.105,0
1583423608.879,-48.340,-78.613,0.488,59.082,83.008,0
1583423608.876,-28.809,-54.199,3.906,64.941,41.504,0
1583423608.880,-48.340,-36.621,0.977,56.152,44.922,0
1583423608.884,-62.988,-42.969,4.883,61.523,62.500,0
1583423608.888,-47.363,-39.551,6.836,90.332,65.430,0
1583423608.892,-36.621,-28.320,1.953,100.586,-1.465,0
1583423608.896,-35.645,-26.367,-3.418,31.250,8.789,0
1583423608.900,-27.832,-28.320,-3.906,-17.090,-1.465,0
1583423608.903,-22.949,-10.742,1.953,16.602,22.949,0
1583423608.907,-30.273,-8.789,3.418,17.578,29.785,0
1583423608.911,-35.645,-27.344,6.836,5.371,13.672,0
1583423608.915,-9.766,-24.414,0.977,-21.973,9.766,0
1583423608.919,23.926,-22.461,-20.996,24.902,-20.996,0
1583423608.916,43.457,-45.410,-13.672,97.656,36.621,0
1583423608.920,17.090,-68.359,16.113,50.781,70.312,0
1583423608.924,-31.738,-71.777,23.926,28.320,67.871,0
1583423608.928,-56.641,-73.730,19.531,50.293,31.250,0
1583423608.932,-15.137,-70.312,14.648,61.035,22.949,0
1583423608.936,-6.348,-71.777,19.531,62.500,41.016,0
1583423608.940,-31.738,-70.801,16.113,40.039,76.660,0
1583423608.943,-10.254,-59.082,10.742,55.176,58.105,0
1583423608.947,6.836,-41.504,15.625,59.570,8.789,0
1583423608.951,-0.977,-42.969,17.578,60.547,8.301,0
1583423608.955,-22.949,-36.133,20.020,59.082,18.555,0
1583423608.959,-65.430,-28.320,14.648,74.707,27.832,0
1583423608.977,-68.359,-33.203,4.395,95.703,-13.184,0
1583423608.981,-39.062,-26.855,-1.953,117.676,58.594,0
1583423608.985,-17.578,-32.227,-1.953,111.328,65.918,0
1583423608.989,0.488,-31.250,3.906,104.004,43.945,0
1583423608.993,-18.555,-23.438,5.859,106.445,74.707,0
1583423608.997,-38.574,-28.809,2.441,137.695,9.766,0
1583423609.001,-25.879,-30.273,-1.465,154.785,-44.434,0
1583423609.004,-11.230,-17.578,-11.719,150.391,-2.441,0
1583423609.008,-21.484,-8.301,-24.414,137.207,99.609,0
1583423609.012,-35.156,-7.324,-24.902,110.840,76.660,0
1583423609.016,-29.785,-8.301,-23.438,68.848,30.762,0
1583423609.020,-24.414,2.441,-26.855,60.547,44.434,0
1583423609.057,-31.738,16.113,-23.926,104.004,39.551,0
1583423609.061,-32.227,27.832,-26.367,83.984,10.742,0
1583423609.065,-5.859,71.777,-48.340,14.160,24.414,0
1583423609.069,48.828,96.680,-50.293,78.613,14.648,0
1583423609.073,29.785,68.359,-14.160,197.754,54.199,0
1583423609.077,-37.598,53.223,4.395,160.156,75.195,0
1583423609.081,-49.805,41.992,-1.465,106.934,24.902,0
1583423609.084,-32.227,36.133,-2.441,110.352,38.086,0
1583423609.088,-30.273,22.949,13.672,96.680,70.801,0
1583423609.092,-39.551,15.137,19.531,95.215,48.828,0
1583423609.096,-53.711,30.273,15.625,81.543,18.555,0
1583423609.100,-68.359,22.461,27.832,65.918,25.391,0
1583423609.079,-20.996,20.996,32.227,48.340,34.668,0
1583423609.083,2.930,28.320,36.133,57.129,64.941,0
1583423609.087,-21.484,28.320,43.457,75.195,84.473,0
1583423609.091,-36.133,23.926,44.434,84.961,88.867,0
1583423609.095,-17.578,14.648,50.293,59.570,86.914,0
1583423609.099,14.648,2.930,54.688,54.688,49.805,0
1583423609.103,6.836,-2.930,53.711,111.816,55.176,0
1583423609.106,7.812,1.953,61.523,74.707,122.070,0
1583423609.110,44.922,4.395,63.477,-15.137,82.520,0
1583423609.114,66.406,0.488,59.570,-35.156,65.918,0
1583423609.118,58.105,2.930,68.359,-10.742,26.855,0
1583423609.122,78.613,0.000,72.754,20.508,-14.648,0
1583423609.156,102.539,5.371,74.219,21.973,38.086,0
1583423609.160,99.609,14.648,76.172,28.320,78.613,0
1583423609.164,89.844,12.695,72.754,41.504,87.891,0
1583423609.168,98.145,13.672,69.824,7.324,48.340,0
1583423609.172,120.605,7.324,69.336,0.000,13.672,0
1583423609.176,96.191,-0.488,71.289,26.855,26.855,0
1583423609.180,83.496,4.395,74.707,53.223,7.324,0
1583423609.183,98.633,9.766,72.266,24.902,65.918,0
1583423609.187,93.262,6.836,75.195,-14.648,71.777,0
1583423609.191,114.258,13.184,78.125,-22.949,38.574,0
1583423609.195,119.629,14.160,80.566,11.719,39.551,0
1583423609.199,87.891,21.973,77.637,7.812,-9.766,0
1583423609.197,94.238,38.574,72.266,-3.418,15.625,0
1583423609.201,112.305,42.480,71.777,-22.461,72.754,0
1583423609.205,105.469,45.898,66.406,-48.828,60.547,0
1583423609.209,93.750,52.734,61.523,18.066,43.945,0
1583423609.213,96.680,65.430,57.129,65.430,62.500,0
1583423609.217,93.750,58.594,57.129,23.438,85.938,0
1583423609.221,102.051,64.453,47.363,-26.855,81.543,0
1583423609.224,82.031,77.637,39.062,-16.113,-19.043,0
1583423609.228,56.641,77.637,36.133,-12.695,3.906,0
1583423609.232,63.965,76.660,33.203,-37.109,28.809,0
1583423609.236,52.246,70.801,31.250,-71.289,-20.996,0
1583423609.240,26.367,66.406,21.973,-93.262,13.184,0
1583423609.202,-0.977,64.941,19.531,-83.984,12.207,0
1583423609.206,3.418,62.012,18.555,-73.242,16.602,0
1583423609.210,29.297,67.383,11.230,-91.797,33.203,0
1583423609.214,8.789,65.918,11.719,-89.355,86.426,0
1583423609.218,-13.184,57.617,14.160,-49.805,80.078,0
1583423609.222,-15.625,58.105,10.742,-27.832,24.414,0
1583423609.226,-30.273,52.734,9.766,-40.039,26.855,0
1583423609.229,-5.371,51.270,5.859,-59.082,34.180,0
1583423609.233,-2.930,54.688,3.906,-70.312,52.734,0
1583423609.237,-10.742,54.688,4.883,-84.473,68.359,0
1583423609.241,9.766,54.199,0.000,-76.660,6.348,0
1583423609.245,-10.742,43.945,0.977,-34.180,15.137,0
1583423609.257,6.348,41.992,-1.465,-44.922,81.543,0
1583423609.261,18.555,55.176,-6.836,-85.449,68.359,0
1583423609.265,2.930,46.875,-8.301,-91.309,41.504,0
1583423609.269,19.531,38.086,-6.836,-63.965,29.297,0
1583423609.273,-11.719,40.039,-2.441,-49.805,43.945,0
1583423609.277,-33.691,27.832,-1.465,-68.848,25.879,0
1583423609.281,-14.160,30.762,-2.441,-58.594,-26.855,0
1583423609.284,-3.906,41.504,-0.488,-26.855,-8.789,0
1583423609.288,10.254,36.621,2.441,-4.883,51.758,0
1583423609.292,-6.836,33.691,2.441,16.113,56.641,0
1583423609.296,-19.531,45.410,-9.277,-4.395,11.719,0
1583423609.300,-10.254,53.711,-11.230,-35.645,56.641,0
1583423609.297,-11.230,47.852,-0.488,-26.367,86.426,0
1583423609.301,-16.113,42.969,4.883,-49.316,42.480,0
1583423609.305,-9.277,37.109,3.906,-57.129,70.312,0
1583423609.309,16.602,30.762,9.766,13.184,58.105,0
1583423609.313,12.695,32.227,16.113,50.781,13.184,0
1583423609.317,-5.859,31.250,10.742,26.855,-6.348,0
1583423609.321,-16.113,32.227,8.789,1.953,27.832,0
1583423609.324,-0.488,35.645,9.277,-13.672,20.020,0
1583423609.328,19.043,30.762,3.906,-26.855,-10.742,0
1583423609.332,32.715,36.621,-1.953,-14.160,38.574,0
1583423609.336,11.719,44.922,-2.930,13.184,73.242,0
1583423609.340,-7.812,42.480,-4.395,23.438,74.707,0
1583423609.357,28.809,37.598,-0.488,20.996,-12.695,0
1583423609.361,46.387,40.039,0.000,16.113,-46.875,0
1583423609.365,33.691,43.457,0.977,24.902,50.781,0
1583423609.369,29.785,42.969,7.812,45.410,35.645,0
1583423609.373,27.832,39.551,7.324,76.172,7.324,0
1583423609.377,47.363,34.668,9.277,54.199,34.180,0
1583423609.381,42.969,31.250,14.648,31.250,56.641,0
1583423609.384,26.367,34.180,13.184,46.875,36.621,0
1583423609.388,45.410,47.363,14.160,54.199,36.133,0
1583423609.392,62.988,50.293,16.602,79.102,69.336,0
1583423609.396,59.082,52.246,17.578,91.309,24.414,0
1583423609.400,48.828,61.523,17.578,74.219,36.621,0
1583423609.397,55.176,62.012,12.695,61.523,69.336,0
1583423609.401,68.359,61.035,15.137,61.523,36.621,0
1583423609.405,71.289,69.824,15.625,60.059,11.719,0
1583423609.409,64.941,73.242,8.301,73.242,35.156,0
1583423609.413,53.711,61.523,11.230,83.984,45.410,0
1583423609.417,70.312,57.129,12.207,47.852,53.711,0
1583423609.421,68.848,59.570,10.254,44.434,20.996,0
1583423609.424,38.086,55.664,16.113,74.707,38.574,0
1583423609.428,61.035,52.246,17.090,94.727,33.691,0
1583423609.432,64.941,41.016,11.719,84.473,18.555,0
1583423609.436,55.176,31.738,12.207,40.039,49.316,0
1583423609.440,73.730,44.434,19.043,42.969,66.406,0
1583423609.437,90.820,44.434,20.508,65.918,34.668,0
1583423609.441,55.176,37.109,17.090,60.059,-13.672,0
1583423609.445,34.668,37.598,20.508,35.156,17.578,0
1583423609.449,44.434,30.762,24.902,30.273,11.230,0
1583423609.453,28.320,29.297,17.578,61.523,22.949,0
1583423609.457,38.086,39.062,23.926,104.980,24.414,0
1583423609.461,83.984,74.219,70.312,97.656,-20.020,0
1583423609.464,140.625,104.004,103.516,112.305,28.809,0
1583423609.468,151.367,106.934,97.168,157.227,61.523,0
1583423609.472,142.578,111.328,85.938,127.930,57.617,0
1583423609.476,140.625,117.676,86.914,90.820,36.621,0
1583423609.480,125.977,108.887,84.473,107.910,56.641,0
1583423609.497,117.676,98.145,82.031,137.207,46.387,0
1583423609.501,102.051,98.145,89.844,137.695,86.914,0
1583423609.505,101.074,92.285,86.426,112.793,125.977,0
1583423609.509,111.328,71.777,72.266,73.242,34.668,0
1583423609.513,112.305,61.523,58.105,76.660,4.395,0
1583423609.517,97.168,63.477,51.758,107.422,38.574,0
1583423609.521,89.355,53.711,46.875,104.980,59.570,0
1583423609.524,108.887,52.734,42.480,103.516,44.434,0
1583423609.528,114.746,61.035,38.574,90.332,33.691,0
1583423609.532,69.824,50.781,37.109,131.348,42.969,0
1583423609.536,59.082,46.387,37.598,152.832,23.926,0
1583423609.540,92.773,55.176,32.715,80.078,30.762,0
1583423609.538,101.562,57.617,26.367,56.641,49.316,0
1583423609.542,96.680,47.363,25.391,99.121,76.172,0
1583423609.546,109.375,44.434,25.879,94.727,37.109,0
1583423609.550,93.750,53.223,22.461,108.398,31.250,0
1583423609.554,64.941,43.945,21.484,117.188,57.617,0
1583423609.558,72.754,36.621,19.043,145.020,38.574,0
1583423609.562,81.543,44.922,15.137,126.465,45.410,0
1583423609.565,113.770,49.316,15.137,42.969,55.664,0
1583423609.569,123.047,46.387,17.578,61.523,19.531,0
1583423609.573,100.098,38.086,17.578,110.840,10.254,0
1583423609.577,62.012,39.062,23.926,99.609,31.738,0
1583423609.581,64.941,47.363,27.832,93.262,16.113,0
1583423609.577,101.074,47.363,29.785,142.578,66.406,0
1583423609.581,97.168,44.434,30.762,165.039,67.871,0
1583423609.585,65.918,40.527,24.902,123.047,20.020,0
1583423609.589,79.590,39.551,27.344,99.121,22.949,0
1583423609.593,96.191,47.363,30.762,105.469,16.113,0
1583423609.597,93.750,43.457,21.484,110.840,-3.418,0
1583423609.601,56.152,38.086,19.043,118.164,52.246,0
1583423609.604,42.969,31.738,20.508,123.535,66.895,0
1583423609.608,64.453,15.625,19.043,126.465,-3.906,0
1583423609.612,64.941,19.043,15.137,132.324,48.828,0
1583423609.616,87.402,34.668,12.695,124.023,54.199,0
1583423609.620,112.305,40.039,13.672,100.586,64.453,0
1583423609.636,85.938,37.109,13.672,110.352,164.062,0
1583423609.640,53.223,32.227,13.672,155.762,111.816,0
1583423609.644,43.945,32.227,10.742,153.809,14.648,0
1583423609.648,64.453,34.180,6.836,123.047,24.902,0
1583423609.652,106.934,29.785,9.277,134.277,38.086,0
1583423609.656,107.910,26.367,14.648,160.156,31.250,0
1583423609.660,105.469,27.832,12.207,167.969,71.289,0
1583423609.663,96.191,33.691,10.254,139.160,117.188,0
1583423609.667,105.469,44.922,11.230,110.840,84.473,0
1583423609.671,112.793,44.922,10.254,113.281,72.754,0
1583423609.675,107.910,34.668,9.766,105.469,70.801,0
1583423609.679,114.746,29.785,11.719,125.977,66.895,0
1583423609.677,98.145,26.367,12.695,139.648,27.344,0
1583423609.681,122.070,30.273,12.207,96.680,30.273,0
1583423609.685,133.301,36.133,12.207,99.121,48.340,0
1583423609.689,104.004,33.691,12.695,148.926,18.066,0
1583423609.693,103.516,31.738,9.277,173.828,36.133,0
1583423609.697,127.441,35.156,0.977,88.379,60.059,0
1583423609.701,102.539,40.527,0.977,20.996,30.762,0
1583423609.704,77.148,38.574,9.766,63.477,44.922,0
1583423609.708,91.309,33.691,12.207,94.238,58.594,0
1583423609.712,97.168,26.367,9.766,91.309,-1.953,0
1583423609.716,112.305,24.902,13.184,101.074,-5.371,0
1583423609.720,117.188,31.738,15.137,137.695,24.414,0
1583423609.717,90.332,32.227,16.113,130.371,11.230,0
1583423609.721,87.891,32.715,18.066,88.379,-13.672,0
1583423609.725,79.102,26.367,18.066,41.992,17.578,0
1583423609.729,51.270,28.809,17.578,24.414,43.945,0
1583423609.733,52.246,34.668,13.184,47.363,34.668,0
1583423609.737,49.316,28.809,12.207,92.773,74.707,0
1583423609.741,38.086,30.273,13.672,63.965,63.477,0
1583423609.744,44.922,26.367,10.742,12.207,38.574,0
1583423609.748,53.223,18.066,14.648,59.570,56.641,0
1583423609.752,36.621,26.367,19.531,66.895,49.316,0
1583423609.756,34.668,33.691,16.113,52.246,90.332,0
1583423609.760,63.477,30.762,7.812,44.922,68.848,0
1583423609.776,76.660,14.648,0.977,41.504,62.500,0
1583423609.780,67.871,9.277,0.000,52.246,83.496,0
1583423609.784,81.055,20.996,-1.953,18.555,51.270,0
1583423609.788,67.871,18.066,-0.488,0.488,44.434,0
1583423609.792,46.875,18.555,2.930,45.898,42.480,0
1583423609.796,52.246,20.996,-5.371,20.020,91.797,0
1583423609.800,62.988,20.996,-5.371,-31.250,121.582,0
1583423609.803,89.355,28.809,4.883,-4.883,66.406,0
1583423609.807,85.938,22.949,7.324,19.043,11.230,0
1583423609.811,47.852,19.043,0.977,24.902,49.805,0
1583423609.815,42.969,30.762,-2.441,7.324,75.195,0
1583423609.819,67.871,24.414,5.371,-10.254,14.648,0
1583423609.856,61.523,24.414,6.836,14.648,53.711,0
1583423609.860,32.715,28.809,8.789,53.223,71.289,0
1583423609.864,29.785,24.414,11.719,78.125,74.707,0
1583423609.868,48.828,24.414,12.207,30.273,97.168,0
1583423609.872,41.016,29.297,8.301,-46.875,83.984,0
1583423609.876,12.695,30.762,5.859,-0.488,98.145,0
1583423609.880,14.160,32.227,11.719,54.199,68.359,0
1583423609.883,1.465,33.691,12.207,0.488,65.918,0
1583423609.887,3.418,32.227,6.836,-45.898,87.891,0
1583423609.891,-1.953,23.926,8.789,-2.930,53.711,0
1583423609.895,-3.418,26.367,9.766,-25.391,21.484,0
1583423609.899,13.672,34.668,5.859,-80.078,45.898,0
1583423609.860,3.906,30.273,0.977,-94.727,31.738,0
1583423609.864,-18.066,27.344,-0.488,-75.684,-4.883,0
1583423609.868,-31.738,30.273,2.930,-49.805,68.848,0
1583423609.872,-42.969,36.621,6.348,-65.918,110.840,0
1583423609.876,-45.410,29.297,10.742,-75.195,45.410,0
1583423609.880,-16.602,17.578,14.160,-52.734,29.785,0
1583423609.884,-10.254,20.020,19.531,-19.043,-4.395,0
1583423609.887,-64.453,23.438,22.461,-32.715,3.418,0
1583423609.891,-75.195,21.973,18.555,-52.246,60.547,0
1583423609.895,-82.031,16.602,29.785,-21.484,13.672,0
1583423609.899,-94.727,16.602,37.109,-90.332,20.508,0
1583423609.903,-125.488,22.949,31.738,-118.164,52.734,0
1583423609.916,-140.625,21.973,30.762,-46.875,25.391,0
1583423609.920,-129.395,18.066,33.203,17.090,49.805,0
1583423609.924,-145.996,18.555,29.785,-79.102,48.340,0
1583423609.928,-152.344,27.344,24.414,-180.664,-3.418,0
1583423609.932,-131.836,40.527,27.344,-130.859,47.852,0
1583423609.936,-133.789,35.156,30.273,-126.465,68.359,0
1583423609.940,-150.391,19.043,36.621,-104.980,1.465,0
1583423609.943,-152.344,25.879,37.598,-87.402,-6.836,0
1583423609.947,-108.398,42.969,28.320,-81.055,-7.812,0
1583423609.951,-101.562,50.293,23.438,-83.984,-11.719,0
1583423609.955,-138.672,42.969,33.203,-63.477,45.898,0
1583423609.959,-120.117,25.391,42.969,1.465,37.109,0
1583423609.976,-96.191,34.668,45.410,27.344,21.484,0
1583423609.980,-88.379,46.875,41.992,-65.430,27.344,0
1583423609.984,-79.102,36.133,37.598,-64.941,-38.574,0
1583423609.988,-77.148,29.785,41.992,-14.160,-78.613,0
1583423609.992,-89.355,36.621,39.062,-37.109,-39.551,0
1583423609.996,-111.328,29.297,30.762,-66.406,-23.926,0
1583423610.000,-71.777,29.297,27.832,-98.145,-23.926,0
1583423610.003,-58.594,49.805,27.344,-70.801,-14.160,0
1583423610.007,-93.750,50.293,37.109,-5.371,53.711,0
1583423610.011,-100.586,29.297,46.875,-7.324,62.012,0
1583423610.015,-92.773,38.574,41.016,-81.543,34.668,0
1583423610.019,-84.961,54.199,32.715,-86.914,59.570,0
1583423609.997,-90.332,38.574,30.762,-30.762,44.922,0
1583423610.001,-53.711,34.180,26.367,-34.668,41.016,0
1583423610.005,-63.965,29.297,24.414,-52.246,48.828,0
1583423610.009,-109.375,29.297,26.367,-54.688,57.129,0
1583423610.013,-74.707,32.227,27.344,-50.781,42.480,0
1583423610.017,-64.941,29.297,27.344,-42.969,21.484,0
1583423610.021,-118.164,37.598,22.949,-42.969,11.719,0
1583423610.024,-120.605,44.922,16.113,-42.480,60.547,0
1583423610.028,-117.676,45.898,18.066,-24.414,39.551,0
1583423610.032,-104.004,51.270,20.508,-2.930,19.043,0
1583423610.036,-70.312,50.781,12.695,-10.254,71.289,0
1583423610.040,-69.824,49.316,13.184,9.277,44.922,0
1583423610.076,-90.332,38.574,22.949,27.832,30.762,0
1583423610.080,-98.633,35.156,26.367,43.457,32.227,0
1583423610.084,-83.008,46.387,26.367,57.129,43.457,0
1583423610.088,-58.594,27.344,40.039,62.500,97.168,0
1583423610.092,-48.828,31.250,31.738,76.660,108.887,0
1583423610.096,-77.148,39.062,15.137,75.684,69.336,0
1583423610.100,-79.102,39.551,15.625,77.148,44.922,0
1583423610.103,-62.500,56.641,16.113,67.871,38.574,0
1583423610.107,-79.102,48.340,24.902,68.848,6.836,0
1583423610.111,-81.543,49.316,22.461,99.609,-3.906,0
1583423610.115,-101.562,49.805,25.391,125.977,43.945,0
1583423610.119,-73.730,49.316,30.273,148.926,104.980,0
1583423610.099,-10.254,66.406,15.625,96.191,86.914,0
1583423610.103,-71.289,69.336,6.836,23.438,18.066,0
1583423610.107,-99.121,63.965,1.953,54.199,0.000,0
1583423610.111,-50.781,60.547,0.488,50.781,33.203,0
1583423610.115,-31.250,61.035,-1.465,20.996,7.812,0
1583423610.119,-39.062,61.523,-2.441,32.715,-15.137,0
1583423610.123,-66.406,65.430,-2.930,35.645,1.465,0
1583423610.126,-56.641,74.707,-10.254,20.020,15.137,0
1583423610.130,-37.109,74.219,-8.301,9.766,27.832,0
1583423610.134,-29.785,66.895,0.000,15.625,20.508,0
1583423610.138,-44.922,71.777,0.000,57.129,14.648,0
1583423610.142,-39.551,74.707,-2.930,85.938,49.805,0
1583423610.156,-29.297,69.824,-0.488,66.406,30.762,0
1583423610.160,-21.973,60.547,7.324,58.594,19.043,0
1583423610.164,-6.348,58.594,12.695,37.598,10.742,0
1583423610.168,-17.578,61.523,13.184,32.227,34.668,0
1583423610.172,7.812,56.152,13.184,40.527,32.715,0
1583423610.176,4.395,53.711,7.324,8.301,18.066,0
1583423610.180,-20.508,50.781,4.395,-40.039,73.242,0
1583423610.183,-31.738,43.945,13.672,-34.668,89.844,0
1583423610.187,-28.809,44.922,20.020,-12.695,57.617,0
1583423610.191,-18.555,56.152,12.695,-19.531,4.883,0
1583423610.195,-1.465,58.105,16.602,-26.367,36.133,0
1583423610.199,4.395,53.711,22.949,-31.738,69.336,0
1583423610.196,-23.926,53.711,25.879,-37.109,47.852,0
1583423610.200,12.207,49.316,30.273,-28.809,-6.836,0
1583423610.204,28.320,48.828,36.621,-13.672,7.812,0
1583423610.208,-21.484,48.340,39.551,16.113,37.598,0
1583423610.212,-35.645,36.621,41.504,25.879,28.320,0
1583423610.216,-32.227,33.691,38.574,3.418,18.066,0
1583423610.220,-36.621,40.527,33.203,-25.391,29.785,0
1583423610.223,-17.578,39.062,37.109,-42.480,42.969,0
1583423610.227,5.859,37.598,39.062,-43.945,41.504,0
1583423610.231,2.441,34.668,41.016,-29.785,84.961,0
1583423610.235,-16.602,16.602,43.457,-40.527,56.641,0
1583423610.239,-32.227,19.531,33.691,-70.801,17.578,0
1583423610.256,-15.137,27.344,28.809,-43.457,38.574,0
1583423610.260,-10.742,19.043,32.715,-38.574,-0.977,0
1583423610.264,-15.625,20.020,29.785,-72.266,-10.254,0
1583423610.268,-42.969,15.137,21.484,-73.242,47.363,0
1583423610.272,-77.148,9.277,20.020,-77.148,45.898,0
1583423610.276,-53.711,14.648,21.484,-75.195,20.020,0
1583423610.280,-41.992,12.695,28.809,-48.828,5.859,0
1583423610.283,-29.297,18.066,25.879,-72.266,90.332,0
1583423610.287,-20.020,10.742,20.508,-93.750,70.801,0
1583423610.291,-20.996,-4.395,27.832,-74.707,43.945,0
1583423610.295,-16.602,5.859,31.738,-66.895,112.793,0
1583423610.299,-42.969,17.090,28.320,-68.359,104.004,0
1583423610.276,-52.246,13.672,29.297,-94.727,97.168,0
1583423610.280,-72.754,-1.953,31.250,-106.445,77.637,0
1583423610.284,-85.449,-6.836,29.297,-68.848,93.750,0
1583423610.288,-69.336,-6.836,39.062,-68.359,110.352,0
1583423610.292,-51.758,-7.812,48.828,-127.930,58.594,0
1583423610.296,-17.090,-6.836,36.621,-114.258,7.812,0
1583423610.300,-24.902,-10.742,34.668,-62.012,-5.859,0
1583423610.303,-24.902,-5.859,44.922,-58.594,2.930,0
1583423610.307,-17.090,2.930,47.363,-71.777,-4.883,0
1583423610.311,-45.410,-1.953,54.688,-50.293,21.484,0
1583423610.315,-16.602,-2.441,59.570,-33.691,87.402,0
1583423610.319,-26.855,13.672,60.059,-84.961,47.852,0
1583423610.356,-43.945,20.996,67.871,-138.672,-29.297,0
1583423610.360,-36.621,20.508,59.570,-141.602,-11.230,0
1583423610.364,-25.879,21.973,52.734,-100.586,48.828,0
1583423610.368,12.207,10.254,64.453,-62.012,18.066,0
1583423610.372,4.883,0.977,71.777,-69.336,-32.715,0
1583423610.376,-39.062,9.766,71.289,-96.191,-8.789,0
1583423610.380,-26.367,18.555,66.406,-70.312,2.441,0
1583423610.383,-13.184,25.391,62.500,-47.363,-21.484,0
1583423610.387,-10.254,24.902,54.688,-55.176,-31.738,0
1583423610.391,15.137,17.090,67.383,-69.336,-4.883,0
1583423610.395,14.648,31.250,60.059,-94.727,31.738,0
1583423610.399,-7.812,37.109,65.918,-43.945,55.176,0
1583423610.417,-19.043,49.316,77.148,-35.156,37.598,0
1583423610.421,-30.762,46.387,72.754,-60.059,33.203,0
1583423610.425,-42.969,37.109,65.918,-47.852,27.344,0
1583423610.429,-30.273,35.645,55.176,-62.012,4.883,0
1583423610.433,-45.898,35.156,51.270,-93.750,25.391,0
1583423610.437,-47.363,28.809,47.363,-115.234,18.066,0
1583423610.441,-67.871,30.762,45.410,-102.051,18.555,0
1583423610.444,-67.871,42.969,44.922,-73.730,46.387,0
1583423610.448,-30.273,35.156,40.527,-79.590,50.781,0
1583423610.452,-21.484,20.020,42.480,-100.586,8.301,0
1583423610.456,-24.414,22.461,45.410,-74.707,42.480,0
1583423610.460,-29.297,18.555,46.875,-36.133,87.891,0
1583423610.421,-29.297,12.695,44.434,-26.855,64.453,0
1583423610.425,-43.945,6.348,43.457,-18.555,41.992,0
1583423610.429,-29.297,10.742,36.621,-21.973,80.566,0
1583423610.433,-22.949,27.344,26.855,-37.109,122.070,0
1583423610.437,-20.996,22.461,36.133,-28.809,64.941,0
1583423610.441,4.395,19.043,39.551,-29.297,21.484,0
1583423610.445,-4.883,17.090,34.668,-51.270,37.109,0
1583423610.448,-0.977,25.391,31.738,-19.531,36.133,0
1583423610.452,-12.695,43.945,30.762,16.602,13.184,0
1583423610.456,-18.555,22.461,28.809,35.645,0.488,0
1583423610.460,-33.691,20.996,17.090,10.254,5.859,0
1583423610.464,-36.621,16.113,16.602,-3.906,6.836,0
1583423610.476,-23.438,9.277,26.855,26.855,-18.066,0
1583423610.480,-39.551,15.625,33.203,30.273,29.297,0
1583423610.484,-25.391,7.324,39.551,19.043,42.480,0
1583423610.488,-32.715,6.348,61.035,7.812,53.223,0
1583423610.492,-64.453,8.301,54.199,-24.414,61.523,0
1583423610.496,-48.828,4.395,51.270,-4.883,15.137,0
1583423610.500,22.949,19.043,62.988,35.645,53.223,0
1583423610.503,34.668,16.113,56.641,0.977,32.715,0
1583423610.507,-9.766,5.371,56.152,29.297,-13.672,0
1583423610.511,-12.695,15.137,49.805,74.707,40.527,0
1583423610.515,8.789,18.555,49.316,60.547,55.664,0
1583423610.519,-18.066,1.953,59.082,63.965,51.758,0
1583423610.517,-30.762,13.184,42.480,48.340,34.668,0
1583423610.521,-4.395,40.039,9.277,35.645,-4.395,0
1583423610.525,22.461,32.227,14.160,30.762,-35.156,0
1583423610.529,27.832,34.180,16.602,11.230,9.277,0
1583423610.533,15.625,41.992,16.113,4.395,44.922,0
1583423610.537,16.602,30.762,33.203,13.184,57.129,0
1583423610.541,22.949,17.578,41.504,15.137,68.848,0
1583423610.544,10.742,9.766,45.410,8.789,64.453,0
1583423610.548,5.859,-3.418,43.945,-13.672,41.016,0
1583423610.552,-8.789,6.348,38.086,-22.461,41.992,0
1583423610.556,24.902,20.508,34.668,-29.297,14.648,0
1583423610.560,57.129,17.578,35.645,-23.926,-25.879,0
1583423610.576,61.035,28.809,39.062,-8.789,29.297,0
1583423610.580,25.391,32.715,40.039,6.836,48.340,0
1583423610.584,-23.926,35.645,37.598,-6.348,33.203,0
1583423610.588,-8.789,32.227,35.156,-21.484,41.992,0
1583423610.592,-36.133,7.812,44.434,2.441,8.301,0
1583423610.596,-20.508,0.488,48.828,23.926,22.461,0
1583423610.600,0.977,12.695,23.926,42.480,20.996,0
1583423610.603,-22.461,24.902,7.812,14.648,19.043,0
1583423610.607,-34.668,45.898,13.672,-35.156,29.785,0
1583423610.611,-84.961,43.945,14.648,-62.012,22.461,0
1583423610.615,-99.121,42.480,11.719,-103.027,0.488,0
1583423610.619,-116.211,56.152,16.113,-124.023,-14.160,0
1583423610.638,-128.418,47.852,9.766,-127.441,14.648,0
1583423610.642,-132.324,44.922,-18.555,-158.203,68.359,0
1583423610.646,-156.738,53.711,-32.227,-177.246,60.547,0
1583423610.650,-138.672,60.059,-34.668,-174.805,14.648,0
1583423610.654,-158.203,50.293,-47.852,-224.121,17.090,0
1583423610.658,-166.992,50.781,-56.641,-270.996,51.270,0
1583423610.662,-156.250,72.266,-63.965,-287.109,68.359,0
1583423610.665,-177.734,71.289,-70.312,-282.715,68.359,0
1583423610.669,-191.406,51.758,-62.012,-294.434,79.102,0
1583423610.673,-168.945,80.078,-69.336,-323.730,93.750,0
1583423610.677,-161.133,95.215,-65.918,-309.570,110.840,0
1583423610.681,-148.438,92.773,-55.176,-301.758,80.566,0
1583423610.657,-111.816,104.980,-68.359,-277.344,54.199,0
1583423610.661,-126.465,102.051,-70.312,-240.723,58.594,0
1583423610.665,-131.836,92.773,-62.012,-236.328,39.062,0
1583423610.669,-107.910,77.148,-61.523,-214.355,39.551,0
1583423610.673,-98.145,65.918,-67.383,-220.215,77.637,0
1583423610.677,-92.773,58.594,-66.406,-227.539,15.137,0
1583423610.681,-82.031,65.918,-56.152,-218.262,-1.465,0
1583423610.684,-43.945,75.684,-51.270,-169.434,8.301,0
1583423610.688,-53.711,79.102,-54.688,-136.230,12.207,0
1583423610.692,-51.270,77.637,-54.688,-125.488,23.438,0
1583423610.696,-32.227,76.660,-45.410,-90.332,14.648,0
1583423610.700,-77.637,71.289,-40.039,-88.867,76.660,0
1583423610.717,-97.656,55.176,-41.504,-73.730,66.406,0
1583423610.721,-65.918,45.410,-40.527,-68.848,64.453,0
1583423610.725,-59.570,38.574,-29.785,-55.176,53.223,0
1583423610.729,-71.289,50.293,-22.949,-37.598,42.969,0
1583423610.733,-77.148,53.223,-22.949,-31.250,59.570,0
1583423610.737,-42.969,28.809,-19.043,3.906,38.086,0
1583423610.741,-46.875,12.695,-7.324,13.672,46.387,0
1583423610.744,-78.613,26.367,-5.859,8.789,14.648,0
1583423610.748,-61.035,38.574,-3.418,27.344,2.930,0
1583423610.752,-62.012,23.438,9.766,35.645,58.105,0
1583423610.756,-78.125,20.996,6.836,14.160,89.355,0
1583423610.760,-70.801,25.879,3.418,-2.441,82.031,0
1583423610.756,-55.176,28.809,7.812,28.809,48.828,0
1583423610.760,-69.336,25.879,12.207,33.691,28.320,0
1583423610.764,-57.129,24.414,12.695,28.809,22.461,0
1583423610.768,-43.457,16.602,10.742,22.949,23.926,0
1583423610.772,-66.406,-2.930,15.625,10.254,17.090,0
1583423610.776,-80.078,-7.812,22.461,32.715,39.551,0
1583423610.780,-60.547,8.789,22.461,46.875,24.414,0
1583423610.783,-55.176,17.578,30.762,47.363,1.465,0
1583423610.787,-65.918,13.672,39.062,41.016,6.348,0
1583423610.791,-61.035,11.719,40.527,29.297,38.574,0
1583423610.795,-65.918,8.789,47.852,30.273,15.625,0
1583423610.799,-52.246,15.625,47.852,24.902,2.930,0
1583423610.797,-80.078,20.020,41.992,14.160,35.645,0
1583423610.801,-99.609,12.695,41.016,-5.371,14.160,0
1583423610.805,-66.406,11.230,46.387,16.113,23.926,0
1583423610.809,-66.895,15.625,53.223,30.273,17.578,0
1583423610.813,-83.496,18.555,57.617,12.695,56.641,0
1583423610.817,-89.355,13.672,57.129,8.301,51.758,0
1583423610.821,-120.605,15.137,48.828,-11.230,41.016,0
1583423610.824,-142.578,14.160,48.828,-41.992,79.102,0
1583423610.828,-154.785,-1.465,51.270,-60.547,29.785,0
1583423610.832,-166.016,6.348,44.434,-76.172,-11.719,0
1583423610.836,-159.668,11.719,40.527,-50.781,5.371,0
1583423610.840,-172.363,2.441,39.551,-46.875,-14.648,0
1583423610.856,-185.059,3.418,35.645,-82.520,-3.906,0
1583423610.860,-200.195,3.906,27.344,-88.379,39.551,0
1583423610.864,-199.219,7.324,30.273,-70.312,58.594,0
1583423610.868,-181.152,16.602,38.086,-66.895,2.441,0
1583423610.872,-175.293,26.367,34.668,-77.148,-33.203,0
1583423610.876,-168.457,24.414,37.109,-90.820,14.160,0
1583423610.880,-200.195,24.414,39.062,-100.098,65.430,0
1583423610.883,-181.152,43.457,36.133,-62.988,43.945,0
1583423610.887,-140.625,57.617,32.227,-56.641,-5.859,0
1583423610.891,-166.016,54.688,38.574,-87.891,48.340,0
1583423610.895,-172.852,50.781,50.781,-71.289,43.457,0
1583423610.899,-175.293,39.062,47.363,-59.082,2.441,0
1583423610.916,-176.758,39.551,41.504,-86.914,8.301,0
1583423610.920,-155.273,47.363,35.645,-96.191,14.160,0
1583423610.924,-149.902,35.645,33.691,-88.867,11.230,0
1583423610.928,-164.551,28.320,27.344,-88.379,-5.371,0
1583423610.932,-166.016,26.367,21.973,-85.449,-18.555,0
1583423610.936,-154.785,27.832,30.273,-102.539,-34.180,0
1583423610.940,-110.840,32.227,38.574,-80.566,-20.020,0
1583423610.943,-110.352,36.621,37.109,-54.688,24.902,0
1583423610.947,-167.480,52.246,25.879,-100.098,42.969,0
1583423610.951,-151.367,50.781,18.555,-111.328,26.367,0
1583423610.955,-110.840,43.945,17.090,-77.148,8.301,0
1583423610.959,-112.793,49.805,17.578,-65.430,35.156,0
1583423610.936,-122.070,46.875,24.902,-64.941,41.016,0
1583423610.940,-87.891,49.316,28.320,-80.566,18.555,0
1583423610.944,-87.891,48.340,27.344,-84.961,-5.859,0
1583423610.948,-88.867,41.016,30.273,-59.082,29.297,0
1583423610.952,-66.895,49.316,28.320,-43.457,80.078,0
1583423610.956,-71.289,43.945,33.203,-42.969,73.730,0
1583423610.960,-65.430,31.250,39.062,-61.523,51.270,0
1583423610.963,-55.664,42.480,29.785,-31.250,2.441,0
1583423610.967,-52.734,46.387,23.438,1.465,-35.645,0
1583423610.971,-42.969,41.504,21.973,-28.809,27.832,0
1583423610.975,-42.480,32.715,23.926,-27.344,87.891,0
1583423610.979,-28.809,28.809,20.508,-34.668,57.129,0
1583423610.996,-34.180,40.039,12.695,-50.781,17.578,0
1583423611.000,-73.730,27.344,20.020,-18.555,-20.996,0
1583423611.004,-45.898,23.438,21.484,-17.578,-29.785,0
1583423611.008,-21.484,35.645,16.113,-18.555,-33.203,0
1583423611.012,-72.266,33.203,20.508,-30.762,-38.086,0
1583423611.016,-87.402,26.855,21.973,-30.762,-9.277,0
1583423611.020,-62.500,21.484,23.438,13.184,86.914,0
1583423611.023,-39.062,31.738,22.461,-7.812,87.402,0
1583423611.027,-28.809,33.203,19.043,-29.785,39.551,0
1583423611.031,-80.566,24.414,20.996,-37.109,61.523,0
1583423611.035,-85.938,18.066,17.578,-62.500,11.719,0
1583423611.039,-72.754,13.672,16.602,-62.500,-31.738,0
1583423611.036,-84.473,18.555,21.484,-41.504,-39.551,0
1583423611.040,-75.195,33.203,23.926,-53.711,-24.414,0
1583423611.044,-97.168,36.133,29.785,-67.871,-19.043,0
1583423611.048,-90.820,36.621,31.250,-56.641,-15.625,0
1583423611.052,-68.848,26.367,32.227,-73.242,-5.371,0
1583423611.056,-73.242,33.203,31.250,-57.129,59.570,0
1583423611.060,-50.293,36.133,33.691,-42.480,103.027,0
1583423611.063,-35.156,23.438,36.133,-84.473,56.641,0
1583423611.067,-39.551,27.344,30.273,-70.801,42.969,0
1583423611.071,-15.137,18.066,29.785,-30.762,58.105,0
1583423611.075,11.230,13.672,26.855,-9.277,42.969,0
1583423611.079,35.645,23.438,27.832,-7.324,33.203,0
1583423611.076,75.684,25.879,28.320,-15.137,55.176,0
1583423611.080,109.863,24.902,26.367,-6.836,53.711,0
1583423611.084,93.262,19.531,31.738,7.324,19.043,0
1583423611.088,123.535,17.578,24.414,21.484,-15.625,0
1583423611.092,147.949,9.766,11.719,13.184,27.832,0
1583423611.096,118.164,16.113,13.672,4.883,85.938,0
1583423611.100,112.793,17.090,15.137,55.664,6.348,0
1583423611.103,143.555,1.465,21.484,85.938,-22.949,0
1583423611.107,164.551,2.930,18.066,59.082,36.133,0
1583423611.111,143.066,18.066,19.531,64.941,-7.812,0
1583423611.115,135.742,40.039,22.949,83.984,20.508,0
1583423611.119,136.719,32.227,16.602,90.820,77.637,0
1583423611.136,171.875,12.207,7.324,102.051,30.762,0
1583423611.140,198.730,12.695,7.324,111.328,-0.977,0
1583423611.144,163.574,12.695,19.531,124.023,46.875,0
1583423611.148,127.930,12.207,26.367,111.328,93.262,0
1583423611.152,129.883,9.766,31.738,87.402,97.656,0
1583423611.156,121.582,10.742,31.738,68.359,40.527,0
1583423611.160,122.559,9.277,35.156,93.262,62.988,0
1583423611.163,136.230,16.602,43.457,118.164,66.406,0
1583423611.167,135.254,22.949,43.457,125.000,67.383,0
1583423611.171,145.996,13.672,39.062,108.398,102.539,0
1583423611.175,133.789,14.648,38.574,80.078,40.527,0
1583423611.179,117.676,18.555,34.668,85.938,7.324,0
1583423611.196,112.305,20.020,36.621,104.980,28.320,0
1583423611.200,85.449,16.113,41.992,93.262,7.324,0
1583423611.204,72.266,18.555,48.340,99.121,17.090,0
1583423611.208,78.125,26.367,56.641,114.258,-0.488,0
1583423611.212,79.590,25.391,58.594,116.211,-0.977,0
1583423611.216,76.660,26.367,55.176,110.840,78.125,0
1583423611.220,68.359,29.785,52.246,76.172,36.133,0
1583423611.223,70.312,29.785,50.781,49.316,3.906,0
1583423611.227,83.008,34.668,49.316,60.547,-5.859,0
1583423611.231,89.355,28.320,54.199,64.453,-4.883,0
1583423611.235,79.102,27.344,54.688,33.203,42.969,0
1583423611.239,40.527,35.645,52.734,11.719,28.809,0
1583423611.216,39.062,34.668,62.012,36.621,10.254,0
1583423611.220,55.176,29.297,68.848,31.738,11.719,0
1583423611.224,32.715,20.020,67.383,15.625,22.461,0
1583423611.228,2.441,21.484,62.988,3.418,-2.930,0
1583423611.232,8.789,36.133,53.223,1.465,9.277,0
1583423611.236,24.414,38.574,49.316,2.930,61.523,0
1583423611.240,40.527,37.109,50.293,-33.691,58.105,0
1583423611.243,46.387,25.391,47.852,-28.809,51.270,0
1583423611.247,23.926,20.996,47.363,11.719,23.438,0
1583423611.251,26.855,27.344,52.734,22.461,1.953,0
1583423611.255,31.738,23.926,56.152,12.695,27.344,0
1583423611.259,24.902,34.668,56.641,19.043,30.762,0
1583423611.276,82.031,45.410,58.105,40.527,16.113,0
1583423611.280,95.215,40.527,54.199,53.711,-6.348,0
1583423611.284,81.543,45.410,53.223,60.547,-16.113,0
1583423611.288,119.629,44.922,57.617,64.941,28.320,0
1583423611.292,104.980,34.180,56.641,47.852,54.688,0
1583423611.296,86.914,24.414,54.688,38.574,9.766,0
1583423611.300,122.070,22.949,53.711,40.527,-11.719,0
1583423611.303,115.234,36.133,48.340,25.391,20.508,0
1583423611.307,81.543,41.016,50.293,13.184,62.988,0
1583423611.311,47.363,35.645,54.199,19.043,72.754,0
1583423611.315,23.926,26.367,55.176,13.184,55.176,0
1583423611.319,27.832,21.973,59.570,-16.602,48.828,0
1583423611.316,10.742,23.438,62.500,-24.414,37.109,0
1583423611.320,-5.371,27.832,58.594,-18.066,70.312,0
1583423611.324,3.906,23.926,59.082,-2.441,118.652,0
1583423611.328,-7.812,25.391,56.152,-5.371,81.543,0
1583423611.332,-21.484,28.320,47.363,-31.250,58.594,0
1583423611.336,-7.812,21.973,48.340,-39.062,64.941,0
1583423611.340,-11.230,19.043,51.758,-25.879,55.176,0
1583423611.343,1.953,26.367,41.992,-19.043,24.414,0
1583423611.347,-1.953,21.973,40.527,-24.902,-15.625,0
1583423611.351,-14.160,0.977,44.922,-24.414,27.344,0
1583423611.355,9.766,8.301,41.016,2.441,40.527,0
1583423611.359,21.973,26.367,37.109,23.438,24.902,0
1583423611.356,32.715,23.926,35.645,3.906,-9.277,0
1583423611.360,59.570,28.320,40.039,0.000,52.734,0
1583423611.364,66.406,25.879,38.086,28.320,92.773,0
1583423611.368,75.195,26.367,33.691,47.852,30.273,0
1583423611.372,114.258,33.203,27.344,47.363,44.922,0
1583423611.376,144.043,28.320,24.414,52.246,55.176,0
1583423611.380,151.855,27.832,23.438,77.637,69.824,0
1583423611.383,149.902,10.742,20.508,106.934,87.891,0
1583423611.387,166.016,2.930,19.043,113.281,91.797,0
1583423611.391,166.992,20.508,13.672,100.098,25.879,0
1583423611.395,190.918,31.250,14.648,104.980,11.719,0
1583423611.399,206.543,39.551,17.090,123.535,65.918,0
1583423611.417,192.383,32.227,18.555,129.395,35.156,0
1583423611.421,204.102,29.785,18.066,102.539,-35.645,0
1583423611.425,218.750,42.480,12.695,89.355,-8.789,0
1583423611.429,223.145,35.156,15.137,110.352,84.473,0
1583423611.433,226.074,13.672,27.832,139.648,60.059,0
1583423611.437,235.840,11.719,28.320,155.273,16.602,0
1583423611.441,215.820,30.762,14.648,120.117,2.930,0
1583423611.444,204.590,43.945,9.766,105.957,-24.414,0
1583423611.448,202.148,46.875,6.348,117.188,54.688,0
1583423611.452,187.988,47.852,3.418,93.262,104.004,0
1583423611.456,191.895,41.504,5.371,75.684,41.504,0
1583423611.460,191.406,40.039,0.488,84.473,59.570,0
1583423611.457,192.871,45.898,-5.859,96.191,50.781,0
1583423611.461,200.684,45.898,-2.930,116.699,20.020,0
1583423611.465,206.543,47.363,-0.977,112.305,39.062,0
1583423611.469,215.332,41.016,2.441,103.027,-1.465,0
1583423611.473,235.352,30.273,7.812,124.512,-1.953,0
1583423611.477,228.027,29.297,3.418,127.930,45.898,0
1583423611.481,213.867,21.973,3.906,122.559,33.691,0
1583423611.484,224.609,20.508,9.277,125.000,76.172,0
1583423611.488,238.770,29.297,8.301,138.184,83.496,0
1583423611.492,234.375,23.438,10.254,147.461,18.066,0
1583423611.496,210.449,24.902,8.789,147.461,-8.789,0
1583423611.500,219.238,31.738,6.348,157.227,22.949,0
1583423611.497,232.910,26.855,8.301,180.664,5.371,0
1583423611.501,233.887,30.273,8.301,210.449,3.418,0
1583423611.505,212.402,24.902,6.836,227.051,72.754,0
1583423611.509,190.918,18.555,3.906,206.055,53.223,0
1583423611.513,218.750,19.531,2.441,204.102,52.246,0
1583423611.517,235.352,18.066,1.953,208.984,68.359,0
1583423611.521,210.449,17.578,5.859,190.918,69.824,0
1583423611.524,200.684,5.859,8.301,167.969,60.059,0
1583423611.528,210.938,6.836,0.977,158.691,75.195,0
1583423611.532,171.387,20.996,-4.883,182.129,62.012,0
1583423611.536,158.691,23.926,0.000,180.176,34.180,0
1583423611.540,187.500,17.578,6.348,147.949,79.102,0
1583423611.556,190.430,21.484,8.301,127.441,55.176,0
1583423611.560,174.805,29.785,12.207,117.188,-2.441,0
1583423611.564,150.879,32.227,15.625,124.023,15.137,0
1583423611.568,145.996,35.645,18.555,148.438,75.684,0
1583423611.572,143.066,29.785,19.531,140.625,82.520,0
1583423611.576,135.254,22.949,20.508,131.348,36.621,0
1583423611.580,142.090,25.879,20.508,147.461,9.766,0
1583423611.583,166.504,37.109,23.438,179.688,-4.883,0
1583423611.587,178.223,46.875,26.367,199.219,52.734,0
1583423611.591,186.035,42.480,30.762,200.684,83.008,0
1583423611.595,194.824,30.273,31.738,211.426,35.645,0
1583423611.599,224.121,37.598,27.344,195.312,43.945,0
1583423611.596,215.820,45.410,25.391,174.805,54.688,0
1583423611.600,210.938,43.457,23.438,152.832,21.973,0
1583423611.604,201.660,40.527,23.438,158.203,34.180,0
1583423611.608,196.777,39.551,24.902,164.551,76.660,0
1583423611.612,201.172,42.480,26.855,139.160,19.043,0
1583423611.616,185.059,45.898,28.320,128.906,15.137,0
1583423611.620,170.410,36.133,27.344,121.582,62.012,0
1583423611.623,163.574,39.551,30.273,113.281,103.516,0
1583423611.627,159.180,42.480,34.668,98.633,75.684,0
1583423611.631,165.039,20.508,38.086,59.082,18.555,0
1583423611.635,114.746,23.438,34.668,53.223,55.664,0
1583423611.639,75.195,35.645,27.344,58.594,125.977,0
1583423611.636,88.867,41.016,26.367,39.551,64.941,0
1583423611.640,80.566,36.133,27.832,12.695,8.789,0
1583423611.644,80.078,23.438,33.203,44.434,64.453,0
1583423611.648,86.914,33.691,37.109,87.402,43.945,0
1583423611.652,104.004,62.012,62.012,92.285,34.180,0
1583423611.656,145.996,104.004,103.516,122.070,57.617,0
1583423611.660,211.914,136.230,135.254,161.133,-2.930,0
1583423611.663,234.863,147.949,160.156,181.641,-29.785,0
1583423611.667,230.957,171.387,171.875,186.035,50.293,0
1583423611.671,277.832,202.637,178.223,168.945,67.871,0
1583423611.675,310.059,208.008,186.523,159.180,21.484,0
1583423611.679,287.598,208.984,191.895,170.898,-2.441,0
1583423611.697,278.320,212.402,203.125,197.266,-39.551,0
1583423611.701,278.809,223.633,217.285,215.820,-13.184,0
1583423611.705,272.949,233.887,228.027,215.332,43.945,0
1583423611.709,281.738,252.930,251.465,227.051,51.758,0
1583423611.713,331.055,272.949,275.879,250.488,60.547,0
1583423611.717,323.730,270.996,280.273,246.094,22.461,0
1583423611.721,278.809,279.297,293.945,239.258,39.062,0
1583423611.724,302.246,295.410,301.758,257.324,18.555,0
1583423611.728,303.223,309.570,313.965,278.320,26.367,0
1583423611.732,310.547,326.660,336.914,291.504,89.355,0
1583423611.736,346.191,335.938,357.422,308.105,14.160,0
1583423611.740,337.891,350.098,379.395,315.918,14.160,0
1583423611.737,336.426,373.535,389.648,337.402,86.426,0
1583423611.741,347.656,387.695,394.531,379.883,61.035,0
1583423611.745,375.000,390.625,407.227,408.691,46.875,0
1583423611.749,386.719,376.465,401.855,397.461,57.129,0
1583423611.753,379.883,365.723,383.301,386.719,28.809,0
1583423611.757,386.719,362.305,371.582,391.113,34.180,0
1583423611.761,395.996,355.957,363.770,382.324,62.988,0
1583423611.764,373.535,356.934,366.699,382.324,64.941,0
1583423611.768,361.328,351.074,368.164,385.742,18.066,0
1583423611.772,389.648,334.473,361.328,388.184,-11.719,0
1583423611.776,357.422,329.102,356.934,396.484,51.270,0
1583423611.780,332.031,328.125,356.445,381.836,52.734,0
1583423611.776,374.023,341.309,355.469,403.320,41.504,0
1583423611.780,395.020,342.773,360.352,445.801,16.113,0
1583423611.784,394.531,331.543,351.074,449.707,45.410,0
1583423611.788,416.504,333.008,345.215,435.059,99.609,0
1583423611.792,428.223,331.543,351.074,412.598,60.059,0
1583423611.796,400.879,325.195,344.727,422.852,41.992,0
1583423611.800,383.789,314.453,334.473,414.551,31.250,0
1583423611.803,413.574,300.781,323.730,390.625,20.996,0
1583423611.807,420.898,309.082,323.242,392.090,63.965,0
1583423611.811,407.715,316.895,333.496,411.133,52.734,0
1583423611.815,418.457,313.965,333.496,441.406,0.488,0
1583423611.819,459.473,317.871,338.867,458.008,35.645,0
1583423611.836,471.680,340.820,355.957,467.285,49.316,0
1583423611.840,449.219,348.633,372.070,474.121,41.504,0
1583423611.844,487.305,374.023,387.695,506.348,109.375,0
1583423611.848,482.422,383.301,387.207,508.301,143.066,0
1583423611.852,459.473,365.723,386.230,466.797,97.656,0
1583423611.856,443.848,373.535,389.160,468.750,57.617,0
1583423611.860,392.578,375.488,396.973,496.582,83.008,0
1583423611.863,380.371,387.207,408.691,514.160,62.012,0
1583423611.867,375.977,395.996,405.273,500.000,45.898,0
1583423611.871,357.422,390.137,391.113,441.406,24.414,0
1583423611.875,313.965,377.930,376.953,431.152,41.504,0
1583423611.879,267.578,371.582,364.746,437.012,87.402,0
1583423611.876,242.676,374.512,349.121,401.855,41.016,0
1583423611.880,175.781,374.512,350.098,344.238,58.105,0
1583423611.884,97.168,356.934,359.375,304.688,77.148,0
1583423611.888,56.641,352.539,347.656,283.691,30.273,0
1583423611.892,26.855,338.379,339.355,247.070,24.414,0
1583423611.896,14.160,323.242,337.402,206.543,-4.883,0
1583423611.900,12.207,316.406,327.637,171.875,-49.805,0
1583423611.903,-12.207,314.941,324.707,146.484,-18.066,0
1583423611.907,-45.898,305.176,324.219,129.883,50.781,0
1583423611.911,-80.078,285.156,310.547,109.375,67.871,0
1583423611.915,-87.891,283.691,300.293,78.613,25.879,0
1583423611.919,-76.172,272.461,295.898,89.355,42.969,0
1583423611.916,-91.309,261.230,288.086,71.777,52.734,0
1583423611.920,-111.816,235.840,271.973,-0.488,-6.836,0
1583423611.924,-134.277,223.633,264.160,-53.711,8.789,0
1583423611.928,-167.969,235.840,260.742,-88.379,34.180,0
1583423611.932,-182.617,231.934,254.395,-99.609,40.527,0
1583423611.936,-219.727,226.562,266.602,-135.254,62.988,0
1583423611.940,-269.043,228.516,272.461,-202.148,34.180,0
1583423611.943,-316.406,240.234,267.090,-238.281,64.453,0
1583423611.947,-341.797,253.906,266.602,-214.355,58.594,0
1583423611.951,-254.395,256.348,270.020,-136.719,-15.137,0
1583423611.955,-114.258,259.277,274.414,-23.926,-15.625,0
1583423611.959,15.625,256.836,267.578,88.379,-9.766,0
1583423611.976,112.793,252.441,259.766,209.961,35.156,0
1583423611.980,179.688,256.836,265.625,284.180,46.875,0
1583423611.984,228.027,256.348,271.484,299.316,31.250,0
1583423611.988,286.621,258.789,272.949,302.246,50.781,0
1583423611.992,312.012,261.230,273.438,294.434,81.055,0
1583423611.996,309.570,256.348,276.855,309.082,57.129,0
1583423612.000,321.289,264.160,280.762,330.566,69.824,0
1583423612.003,352.539,271.973,285.156,343.262,80.078,0
1583423612.007,362.793,271.973,291.016,365.234,19.531,0
1583423612.011,367.188,277.344,289.551,403.809,38.574,0
1583423612.015,364.746,267.578,287.598,424.805,87.891,0
1583423612.019,372.070,263.184,287.109,436.035,62.500,0
1583423612.017,393.555,271.973,286.133,468.262,2.930,0
1583423612.021,396.484,269.531,282.227,458.984,52.246,0
1583423612.025,394.043,268.066,273.438,457.520,51.758,0
1583423612.029,387.207,265.625,269.531,491.699,17.090,0
1583423612.033,387.695,270.020,274.414,518.066,39.551,0
1583423612.037,376.465,246.094,251.465,534.668,70.312,0
1583423612.041,344.238,181.641,188.965,508.301,76.172,0
1583423612.044,292.969,131.348,127.930,445.312,41.016,0
1583423612.048,288.574,123.535,117.676,421.875,26.855,0
1583423612.052,333.008,152.344,146.973,487.305,30.762,0
1583423612.056,309.082,178.223,170.898,544.922,62.988,0
1583423612.060,344.238,186.523,186.523,557.617,56.641,0
1583423612.076,427.246,207.031,208.496,590.332,31.250,0
1583423612.080,455.566,224.609,233.887,637.695,18.066,0
1583423612.084,543.945,230.957,239.258,652.832,15.625,0
1583423612.088,647.461,243.652,248.047,675.781,53.223,0
1583423612.092,677.246,253.906,266.113,709.473,50.781,0
1583423612.096,695.312,254.883,273.438,778.320,44.434,0
1583423612.100,806.641,248.047,270.996,810.547,102.051,0
1583423612.103,891.602,247.070,275.391,850.098,76.172,0
1583423612.107,917.969,261.230,278.320,906.250,43.457,0
1583423612.111,964.844,264.648,270.020,875.488,84.961,0
1583423612.115,981.934,265.137,266.602,855.469,81.543,0
1583423612.119,956.055,261.230,269.531,819.824,19.043,0
1583423612.116,873.047,259.277,282.715,793.945,58.105,0
1583423612.120,831.543,273.438,292.969,751.465,69.824,0
1583423612.124,800.293,274.414,294.922,717.285,51.758,0
1583423612.128,735.840,270.996,293.457,667.480,77.637,0
1583423612.132,704.102,266.602,289.551,610.352,59.570,0
1583423612.136,659.668,259.277,283.691,580.566,54.199,0
1583423612.140,639.648,250.000,272.461,561.523,20.996,0
1583423612.143,618.164,236.328,263.672,567.383,-25.391,0
1583423612.147,551.758,222.168,256.348,555.664,-27.832,0
1583423612.151,487.793,217.773,240.234,501.465,27.344,0
1583423612.155,433.594,203.613,225.586,473.145,65.918,0
1583423612.159,387.207,194.824,214.844,458.496,60.059,0
1583423612.156,359.863,196.777,205.566,447.266,75.684,0
1583423612.160,347.656,184.082,198.730,406.738,23.438,0
1583423612.164,327.148,175.781,189.941,351.562,7.324,0
1583423612.168,292.480,171.875,183.105,331.543,75.195,0
1583423612.172,294.434,165.039,169.922,273.438,89.355,0
1583423612.176,312.988,160.645,161.621,193.848,89.844,0
1583423612.180,335.449,166.016,159.668,131.836,60.059,0
1583423612.183,347.656,167.969,162.598,149.902,63.965,0
1583423612.187,364.258,159.668,165.527,196.777,77.637,0
1583423612.191,373.535,154.297,155.273,202.637,73.242,0
1583423612.195,376.953,138.184,136.230,177.246,61.523,0
1583423612.199,412.598,122.559,121.582,172.363,65.430,0
1583423612.217,448.730,112.793,95.215,191.406,56.641,0
1583423612.221,466.309,83.008,70.801,208.008,33.691,0
1583423612.225,494.629,57.617,43.945,161.621,41.016,0
1583423612.229,470.215,23.438,-0.488,95.703,4.395,0
1583423612.233,507.324,-17.578,-11.230,125.000,20.996,0
1583423612.237,601.074,-22.461,-4.395,149.414,46.875,0
1583423612.241,607.910,-20.508,0.977,150.391,13.672,0
1583423612.244,608.887,-16.602,-1.953,165.039,-4.395,0
1583423612.248,617.676,-15.625,-10.254,188.477,9.277,0
1583423612.252,627.930,-13.184,-11.230,195.801,23.438,0
1583423612.256,623.535,-2.441,-13.184,177.246,62.988,0
1583423612.260,631.348,-5.371,-12.207,174.316,44.922,0
1583423612.256,626.465,0.000,-23.438,188.965,50.781,0
1583423612.260,609.375,12.695,-31.738,225.586,45.898,0
1583423612.264,608.887,21.484,-17.090,239.746,42.480,0
1583423612.268,610.352,35.156,-13.184,247.070,96.680,0
1583423612.272,562.988,20.508,-14.648,262.207,119.629,0
1583423612.276,531.738,7.324,-18.555,231.934,127.441,0
1583423612.280,519.043,13.184,-33.203,179.688,49.805,0
1583423612.283,498.535,-5.859,-32.715,170.410,5.859,0
1583423612.287,480.957,-22.461,-33.203,164.551,91.797,0
1583423612.291,459.961,-30.762,-42.969,159.668,124.023,0
1583423612.295,455.078,-40.527,-46.875,164.551,89.844,0
1583423612.299,452.637,-26.855,-62.012,156.250,89.355,0
1583423612.296,416.504,-57.617,-78.125,104.004,62.012,0
1583423612.300,398.926,24.414,-76.660,68.359,57.129,0
1583423612.304,407.227,276.367,-76.172,116.699,92.773,0
1583423612.308,415.527,284.180,-66.895,158.691,81.543,0
1583423612.312,423.340,174.316,-61.035,151.367,75.195,0
1583423612.316,428.223,123.535,-63.477,132.812,116.699,0
1583423612.320,419.922,93.750,-43.457,167.480,134.766,0
1583423612.323,429.199,85.449,-13.184,223.633,117.188,0
1583423612.327,427.734,90.820,4.395,226.074,99.609,0
1583423612.331,398.926,100.586,20.996,227.539,113.281,0
1583423612.335,362.305,93.262,38.086,212.891,160.645,0
1583423612.339,360.840,97.168,54.199,185.547,170.898,0
1583423612.356,342.285,121.582,88.867,207.520,151.855,0
1583423612.360,302.734,137.695,125.488,210.938,104.492,0
1583423612.364,280.273,159.180,141.113,216.309,100.098,0
1583423612.368,250.977,167.969,150.391,196.777,128.418,0
1583423612.372,206.543,168.945,166.992,153.320,125.977,0
1583423612.376,153.320,188.477,173.340,131.836,118.164,0
1583423612.380,113.281,194.336,174.805,110.840,67.383,0
1583423612.383,52.734,200.195,179.688,96.191,74.219,0
1583423612.387,9.766,208.496,170.410,41.504,99.121,0
1583423612.391,-42.480,198.730,163.574,-1.465,83.984,0
1583423612.395,-59.570,189.453,170.410,-17.090,91.797,0
1583423612.399,-59.082,191.895,176.758,-20.020,53.711,0
1583423612.396,-75.684,187.988,184.082,28.320,28.320,0
1583423612.400,-79.590,183.105,184.082,17.578,27.832,0
1583423612.404,-97.656,215.820,182.129,-42.480,1.465,0
1583423612.408,-97.168,229.980,187.988,-56.641,18.555,0
1583423612.412,-90.332,179.688,187.500,-55.176,44.922,0
1583423612.416,-104.980,151.367,190.430,-62.988,55.664,0
1583423612.420,-130.371,146.484,192.383,-59.570,41.504,0
1583423612.423,-136.230,131.836,187.500,-24.414,3.906,0
1583423612.427,-146.484,124.512,183.105,-15.137,-4.395,0
1583423612.431,-163.574,120.605,184.570,-31.738,-25.879,0
1583423612.435,-184.570,113.770,183.105,-57.129,2.930,0
1583423612.439,-177.734,113.281,172.852,-51.758,76.172,0
1583423612.436,-182.129,108.887,176.270,-0.488,44.434,0
1583423612.440,-205.078,109.863,187.988,36.133,42.480,0
1583423612.444,-179.688,102.051,185.547,34.668,83.984,0
1583423612.448,-152.832,86.914,174.805,19.043,51.270,0
1583423612.452,-167.480,91.309,169.434,33.691,25.879,0
1583423612.456,-181.152,90.820,166.504,38.574,25.391,0
1583423612.460,-125.977,98.145,171.875,15.137,21.484,0
1583423612.463,-167.969,112.793,187.500,8.789,27.832,0
1583423612.467,-233.887,113.281,195.801,-6.836,36.133,0
1583423612.471,-192.871,110.352,188.965,-24.902,30.762,0
1583423612.475,-183.594,127.441,187.988,-24.902,-7.812,0
1583423612.479,-220.215,153.809,187.500,-38.574,3.418,0
1583423612.496,-211.914,144.043,186.523,-42.480,17.090,0
1583423612.500,-205.078,130.859,195.801,-59.570,1.465,0
1583423612.504,-212.891,137.207,202.148,-79.102,-28.320,0
1583423612.508,-190.918,139.648,203.125,-90.332,-35.645,0
1583423612.512,-224.121,110.352,203.613,-124.023,-20.996,0
1583423612.516,-223.633,101.074,198.730,-110.840,-44.434,0
1583423612.520,-209.961,117.676,197.266,-88.867,-32.227,0
1583423612.523,-194.824,122.070,196.289,-101.074,6.348,0
1583423612.527,-185.547,132.812,187.988,-96.680,30.762,0
1583423612.531,-171.387,139.648,184.570,-101.562,-2.441,0
1583423612.535,-164.062,134.766,187.500,-109.375,-48.340,0
1583423612.539,-201.172,121.094,185.059,-98.633,11.719,0
1583423612.536,-203.125,123.047,181.152,-98.145,59.082,0
1583423612.540,-195.312,139.648,186.035,-91.309,53.223,0
1583423612.544,-211.914,145.020,185.547,-84.961,18.066,0
1583423612.548,-211.914,136.719,168.945,-101.562,5.859,0
1583423612.552,-222.168,132.324,166.992,-117.188,18.066,0
1583423612.556,-258.789,121.094,168.457,-124.023,-9.766,0
1583423612.560,-287.109,116.211,157.227,-163.574,-27.344,0
1583423612.563,-304.688,122.070,141.602,-229.492,26.367,0
1583423612.567,-313.477,108.887,134.277,-233.887,28.320,0
1583423612.571,-319.824,87.402,135.742,-212.891,47.363,0
1583423612.575,-340.332,79.590,129.395,-215.820,59.570,0
1583423612.579,-333.496,89.355,120.117,-201.660,6.836,0
1583423612.576,-334.473,84.961,125.000,-187.500,16.602,0
1583423612.580,-317.383,82.031,136.719,-193.359,30.273,0
1583423612.584,-282.227,76.660,138.184,-206.543,10.742,0
1583423612.588,-319.824,70.801,136.719,-217.285,-20.020,0
1583423612.592,-352.539,73.242,132.324,-251.465,-40.039,0
1583423612.596,-359.863,64.453,128.418,-272.949,-16.602,0
1583423612.600,-356.934,64.941,130.859,-271.973,24.414,0
1583423612.603,-362.305,63.965,129.395,-274.902,59.082,0
1583423612.607,-403.809,48.828,124.023,-284.180,24.414,0
1583423612.611,-400.879,47.852,123.535,-299.316,4.883,0
1583423612.615,-426.270,46.387,119.141,-327.637,20.996,0
1583423612.619,-439.941,29.297,111.816,-344.238,-37.109,0
1583423612.636,-438.965,13.184,110.352,-359.863,-11.719,0
1583423612.640,-470.703,4.395,112.793,-377.930,20.996,0
1583423612.644,-460.938,-1.465,110.840,-364.746,5.371,0
1583423612.648,-451.660,-10.742,104.004,-352.539,6.836,0
1583423612.652,-454.590,-18.066,96.680,-358.398,-35.156,0
1583423612.656,-454.590,-20.508,95.215,-397.949,23.926,0
1583423612.660,-495.117,-29.297,96.191,-408.691,92.773,0
1583423612.663,-551.270,-25.879,91.797,-369.141,25.879,0
1583423612.667,-509.277,-14.160,89.844,-349.609,36.133,0
1583423612.671,-503.418,-21.484,93.750,-325.684,7.324,0
1583423612.675,-555.664,-27.344,98.145,-319.824,30.762,0
1583423612.679,-536.621,-35.645,100.586,-324.219,48.340,0
1583423612.676,-542.969,-37.109,101.562,-314.453,-0.977,0
1583423612.680,-556.641,-41.016,99.609,-316.406,36.621,0
1583423612.684,-539.062,-47.363,102.051,-342.773,35.645,0
1583423612.688,-565.918,-54.688,97.168,-371.094,-4.395,0
1583423612.692,-556.641,-62.012,104.980,-369.629,-28.809,0
1583423612.696,-562.988,-71.777,114.258,-355.469,10.254,0
1583423612.700,-579.590,-83.984,96.680,-360.352,-5.859,0
1583423612.703,-547.363,-97.656,77.637,-388.184,-12.207,0
1583423612.707,-538.574,-111.816,57.617,-399.902,33.691,0
1583423612.711,-494.141,-132.324,55.176,-377.441,-32.715,0
1583423612.715,-434.570,-147.461,57.129,-392.090,-50.781,0
1583423612.719,-423.828,-141.602,49.805,-388.184,45.410,0
1583423612.716,-415.039,-138.184,48.340,-358.887,56.152,0
1583423612.720,-382.324,-156.738,25.391,-358.887,23.438,0
1583423612.724,-308.105,-170.410,6.348,-338.867,4.883,0
1583423612.728,-246.094,-160.156,3.906,-263.672,41.992,0
1583423612.732,-253.418,-179.688,-33.203,-209.961,57.129,0
1583423612.736,-265.625,-222.168,-92.773,-215.332,-11.230,0
1583423612.740,-220.703,-241.699,-132.324,-205.078,26.367,0
1583423612.743,-181.152,-263.672,-164.551,-206.543,77.148,0
1583423612.747,-169.434,-289.062,-187.988,-181.641,10.742,0
1583423612.751,-114.258,-282.715,-204.102,-125.977,-20.996,0
1583423612.755,-57.617,-291.992,-220.703,-106.445,8.301,0
1583423612.759,-50.781,-314.453,-236.816,-98.633,53.711,0
1583423612.776,-30.762,-318.848,-246.582,-72.266,29.785,0
1583423612.780,47.852,-307.617,-247.070,-27.344,19.043,0
1583423612.784,70.312,-296.387,-251.465,-33.203,28.320,0
1583423612.788,57.129,-296.387,-249.512,-60.547,4.883,0
1583423612.792,70.312,-297.363,-251.465,-52.246,-14.160,0
1583423612.796,87.891,-278.320,-259.766,-48.828,0.977,0
1583423612.800,80.078,-262.207,-262.207,8.789,1.465,0
1583423612.803,63.965,-261.230,-262.695,52.246,-23.926,0
1583423612.807,69.824,-256.348,-264.648,36.621,-4.395,0
1583423612.811,138.672,-240.723,-265.137,20.996,10.254,0
1583423612.815,122.559,-234.863,-260.254,27.344,5.371,0
1583423612.819,79.102,-231.934,-252.930,23.438,13.184,0
1583423612.817,114.258,-220.215,-251.465,-3.906,45.410,0
1583423612.821,104.492,-215.332,-251.953,0.000,48.340,0
1583423612.825,109.863,-220.703,-244.629,18.555,68.848,0
1583423612.829,104.004,-225.098,-240.723,-9.277,52.246,0
1583423612.833,51.758,-221.191,-230.469,-19.043,27.832,0
1583423612.837,2.930,-230.957,-224.609,9.766,-0.977,0
1583423612.841,-5.859,-246.094,-226.074,8.301,28.320,0
1583423612.844,-14.160,-240.723,-225.098,1.465,11.230,0
1583423612.848,-34.180,-235.352,-221.191,-9.766,-11.230,0
1583423612.852,-36.133,-240.234,-214.844,-22.461,46.387,0
1583423612.856,-50.293,-230.469,-209.961,-13.184,18.555,0
1583423612.860,-44.434,-217.285,-205.566,-8.301,48.828,0
1583423612.857,-79.102,-221.680,-202.148,-32.227,90.820,0
1583423612.861,-82.520,-224.121,-200.195,-57.617,74.707,0
1583423612.865,-102.539,-229.492,-192.871,-36.133,56.152,0
1583423612.869,-111.816,-218.262,-185.547,-15.625,58.594,0
1583423612.873,-86.426,-202.637,-186.035,-42.480,74.219,0
1583423612.877,-107.910,-202.637,-187.500,-62.988,46.387,0
1583423612.881,-95.215,-192.383,-177.246,-38.574,-2.441,0
1583423612.884,-85.449,-195.801,-158.691,-20.020,-2.930,0
1583423612.888,-75.195,-193.359,-150.879,-33.691,-0.488,0
1583423612.892,-49.316,-181.641,-144.531,-41.016,18.066,0
1583423612.896,-70.801,-177.246,-145.020,-61.523,31.250,0
1583423612.900,-104.492,-174.316,-148.438,-71.777,8.789,0
1583423612.917,-77.637,-169.922,-149.414,-66.895,-2.441,0
1583423612.921,-45.898,-173.828,-149.414,-67.383,31.250,0
1583423612.925,-20.020,-158.691,-136.230,-55.176,63.965,0
1583423612.929,-32.227,-141.113,-128.418,-50.293,68.848,0
1583423612.933,-22.461,-148.438,-131.348,-20.996,75.195,0
1583423612.937,-2.930,-150.879,-134.277,-24.414,49.316,0
1583423612.941,-35.156,-155.762,-133.789,-59.082,24.902,0
1583423612.944,-38.574,-142.090,-126.465,-62.012,54.199,0
1583423612.948,-8.301,-121.582,-112.793,-34.668,45.898,0
1583423612.952,7.812,-118.164,-105.957,-31.738,27.832,0
1583423612.956,-2.441,-113.281,-109.375,-55.664,33.691,0
1583423612.960,-24.902,-113.770,-106.934,-46.875,23.926,0
1583423612.956,-41.016,-107.910,-107.910,-45.898,46.875,0
1583423612.960,-54.688,-119.141,-112.305,-66.895,52.246,0
1583423612.964,-68.848,-121.582,-115.723,-90.820,37.598,0
1583423612.968,-94.238,-115.234,-115.234,-93.262,52.246,0
1583423612.972,-105.469,-124.023,-115.234,-108.887,43.945,0
1583423612.976,-105.957,-118.652,-114.746,-92.773,78.613,0
1583423612.980,-77.148,-110.352,-111.816,-106.445,113.281,0
1583423612.983,-83.984,-108.398,-115.723,-161.133,57.617,0
1583423612.987,-108.887,-113.770,-115.723,-151.855,48.340,0
1583423612.991,-87.402,-126.465,-111.816,-131.348,89.355,0
1583423612.995,-69.824,-124.023,-113.770,-145.508,46.875,0
1583423612.999,-90.332,-118.164,-114.746,-168.945,52.246,0
1583423612.996,-99.609,-119.141,-105.469,-149.414,30.762,0
1583423613.000,-92.773,-108.887,-107.910,-157.715,28.809,0
1583423613.004,-113.770,-112.793,-114.258,-180.664,47.852,0
1583423613.008,-140.137,-118.164,-110.840,-182.617,3.906,0
1583423613.012,-120.605,-114.746,-109.863,-179.688,27.832,0
1583423613.016,-90.820,-113.281,-105.957,-167.969,13.672,0
1583423613.020,-97.168,-106.445,-108.398,-198.730,14.160,0
1583423613.023,-140.625,-112.793,-106.445,-200.684,20.020,0
1583423613.027,-146.973,-113.281,-104.980,-209.961,1.465,0
1583423613.031,-138.184,-100.098,-105.469,-198.730,-5.859,0
1583423613.035,-145.020,-102.051,-107.422,-184.082,10.254,0
1583423613.039,-146.484,-99.609,-108.887,-213.379,26.855,0
1583423613.057,-183.105,-99.609,-104.004,-246.582,2.930,0
1583423613.061,-195.312,-101.562,-99.609,-250.000,54.688,0
1583423613.065,-193.359,-99.609,-99.609,-221.191,65.430,0
1583423613.069,-176.270,-94.238,-96.191,-222.656,28.320,0
1583423613.073,-158.691,-84.961,-98.145,-239.746,82.520,0
1583423613.077,-200.684,-94.727,-93.262,-225.586,74.219,0
1583423613.081,-208.008,-94.238,-89.355,-230.469,53.223,0
1583423613.084,-213.867,-80.078,-97.656,-253.418,64.941,0
1583423613.088,-228.027,-86.426,-91.797,-266.113,40.039,0
1583423613.092,-241.211,-93.750,-86.426,-292.969,13.184,0
1583423613.096,-241.699,-96.191,-89.355,-273.438,-15.137,0
1583423613.100,-250.488,-99.121,-86.914,-281.250,9.766,0
1583423613.097,-245.605,-95.703,-85.938,-323.242,28.809,0
1583423613.101,-255.371,-95.215,-83.496,-337.891,21.484,0
1583423613.105,-257.812,-102.051,-79.590,-328.613,45.410,0
1583423613.109,-258.301,-107.910,-83.496,-314.453,28.809,0
1583423613.113,-277.832,-104.004,-85.938,-310.059,44.922,0
1583423613.117,-240.234,-88.867,-86.914,-317.383,84.961,0
1583423613.121,-186.523,-73.730,-82.520,-322.754,12.207,0
1583423613.124,-206.055,-69.824,-71.777,-276.855,4.883,0
1583423613.128,-199.707,-66.406,-70.801,-262.695,66.406,0
1583423613.132,-168.457,-62.988,-68.848,-257.812,44.434,0
1583423613.136,-144.043,-52.734,-66.406,-209.961,66.406,0
1583423613.140,-103.027,-51.758,-70.801,-177.246,58.105,0
1583423613.137,-68.848,-53.223,-73.242,-166.504,46.387,0
1583423613.141,-57.129,-51.270,-70.801,-135.742,55.664,0
1583423613.145,-37.598,-52.734,-73.242,-90.820,21.973,0
1583423613.149,-5.371,-41.504,-76.660,-81.055,83.984,0
1583423613.153,-18.066,-48.828,-73.242,-61.035,61.035,0
1583423613.157,-6.836,-59.570,-66.895,-38.574,-15.625,0
1583423613.161,16.113,-48.340,-63.965,-35.645,25.879,0
1583423613.164,15.137,-54.688,-66.895,-35.156,55.664,0
1583423613.168,23.926,-55.664,-71.289,-38.086,1.953,0
1583423613.172,-3.418,-51.758,-69.824,-33.203,5.371,0
1583423613.176,-22.949,-58.594,-69.824,-42.969,24.414,0
1583423613.180,-4.395,-57.129,-66.895,-46.875,-57.617,0
1583423613.196,2.441,-57.617,-63.477,-21.973,-79.102,0
1583423613.200,19.043,-48.828,-64.453,-11.230,23.926,0
1583423613.204,28.320,-45.898,-62.988,-9.277,-2.441,0
1583423613.208,8.301,-53.711,-62.012,-0.488,-44.922,0
1583423613.212,-1.465,-42.969,-65.430,6.836,99.609,0
1583423613.216,0.977,-48.828,-67.383,-8.301,80.078,0
1583423613.220,3.418,-53.711,-64.453,0.000,-14.160,0
1583423613.223,22.949,-35.156,-60.059,16.602,10.254,0
1583423613.227,44.922,-26.367,-58.105,29.297,56.152,0
1583423613.231,50.781,-33.203,-54.199,59.082,65.430,0
1583423613.235,72.266,-41.992,-53.223,54.688,9.277,0
1583423613.239,76.660,-39.062,-53.223,62.012,-19.531,0
1583423613.236,89.844,-29.297,-51.758,83.496,-16.602,0
1583423613.240,140.137,-25.391,-53.711,102.539,6.348,0
1583423613.244,133.789,-35.156,-52.734,106.934,31.250,0
1583423613.248,109.375,-44.922,-52.734,87.891,32.715,0
1583423613.252,119.141,-46.387,-53.711,104.004,13.184,0
1583423613.256,133.789,-45.898,-54.688,125.000,6.348,0
1583423613.260,116.699,-47.363,-58.105,100.098,18.066,0
1583423613.263,125.977,-41.992,-57.129,106.445,0.488,0
1583423613.267,136.719,-39.062,-54.199,113.281,33.691,0
1583423613.271,107.422,-46.875,-52.734,127.930,42.969,0
1583423613.275,146.484,-39.062,-54.199,135.742,45.410,0
1583423613.279,158.691,-33.691,-57.129,121.094,65.430,0
1583423613.277,105.957,-35.645,-57.129,104.980,69.824,0
1583423613.281,81.055,-33.691,-61.523,92.285,55.664,0
1583423613.285,91.309,-37.109,-65.918,114.258,55.664,0
1583423613.289,129.395,-36.621,-64.453,124.512,1.953,0
1583423613.293,130.859,-35.645,-63.477,95.215,6.836,0
1583423613.297,120.605,-41.992,-62.012,82.520,53.223,0
1583423613.301,111.816,-39.062,-59.570,91.797,48.828,0
1583423613.304,97.656,-43.945,-60.547,86.426,40.039,0
1583423613.308,126.953,-41.504,-56.641,67.871,58.594,0
1583423613.312,107.910,-34.180,-46.387,80.078,88.379,0
1583423613.316,63.965,-36.621,-50.293,104.492,47.852,0
1583423613.320,100.586,-40.039,-57.129,69.336,13.184,0
1583423613.336,125.977,-36.133,-54.199,59.570,31.738,0
1583423613.340,105.469,-28.809,-53.223,86.426,49.316,0
1583423613.344,104.980,-32.715,-51.758,92.285,56.641,0
1583423613.348,125.977,-26.855,-49.805,98.145,62.988,0
1583423613.352,143.066,-20.996,-45.410,84.473,99.121,0
1583423613.356,168.457,-22.949,-39.551,65.918,54.688,0
1583423613.360,169.434,-14.160,-37.598,73.242,54.199,0
1583423613.363,170.898,-9.766,-46.387,76.172,85.449,0
1583423613.367,172.363,-14.160,-50.293,68.359,65.430,0
1583423613.371,136.230,-20.020,-41.504,61.523,91.797,0
1583423613.375,125.488,-29.785,-38.574,46.875,71.777,0
1583423613.379,106.934,-24.414,-31.738,32.715,32.227,0
1583423613.377,111.816,-15.137,-27.344,20.020,47.852,0
1583423613.381,111.816,-26.367,-29.297,22.461,84.961,0
1583423613.385,93.750,-29.785,-29.297,21.484,80.078,0
1583423613.389,72.754,-37.109,-31.250,38.086,23.926,0
1583423613.393,78.125,-38.086,-30.273,52.246,1.953,0
1583423613.397,103.516,-24.414,-28.320,26.855,84.961,0
1583423613.401,97.168,-28.809,-31.738,15.625,104.492,0
1583423613.404,96.191,-28.809,-33.203,12.207,0.488,0
1583423613.408,75.195,-35.156,-25.391,19.531,-14.648,0
1583423613.412,61.035,-38.086,-23.438,20.996,65.918,0
1583423613.416,73.242,-31.738,-31.250,4.395,61.523,0
1583423613.420,65.918,-38.086,-33.691,-9.766,21.973,0
1583423613.417,66.895,-36.133,-28.809,-13.672,-8.301,0
1583423613.421,50.293,-35.156,-22.461,-9.766,0.488,0
1583423613.425,21.484,-39.551,-20.508,-7.812,46.387,0
1583423613.429,6.836,-32.715,-30.762,-20.996,81.543,0
1583423613.433,15.625,-33.691,-24.902,-16.113,86.426,0
1583423613.437,36.133,-50.293,-17.578,-1.953,74.707,0
1583423613.441,5.371,-56.152,-19.531,-10.742,41.504,0
1583423613.444,-11.719,-31.738,-21.484,-12.695,31.250,0
1583423613.448,16.113,-10.254,-26.855,0.488,38.086,0
1583423613.452,26.855,-10.742,-29.785,-5.859,48.340,0
1583423613.456,25.391,-15.137,-29.785,-8.301,36.621,0
1583423613.460,34.180,-27.832,-28.320,7.812,2.441,0
1583423613.476,20.508,-41.504,-25.879,8.789,21.973,0
1583423613.480,33.691,-27.344,-29.785,-0.488,52.734,0
1583423613.484,29.297,-20.996,-35.156,-0.488,39.062,0
1583423613.488,41.992,-25.879,-38.574,1.465,76.660,0
1583423613.492,52.246,-23.438,-28.320,22.949,78.125,0
1583423613.496,45.410,-29.785,-20.996,38.086,28.809,0
1583423613.500,67.871,-26.367,-24.414,28.809,44.434,0
1583423613.503,50.781,-25.879,-28.320,-10.254,40.039,0
1583423613.507,38.086,-34.180,-27.344,-16.602,35.645,0
1583423613.511,45.410,-32.715,-27.832,10.254,42.480,0
1583423613.515,36.621,-40.039,-34.180,-2.441,34.180,0
1583423613.519,49.316,-39.551,-31.738,-20.508,-12.695,0
1583423613.516,71.289,-25.879,-25.879,-5.859,0.000,0
1583423613.520,50.293,-29.297,-24.902,11.230,63.477,0
1583423613.524,17.578,-27.344,-26.367,3.418,63.477,0
1583423613.528,6.836,-23.926,-23.926,-8.789,41.504,0
1583423613.532,19.043,-26.855,-20.996,-18.066,22.949,0
1583423613.536,8.789,-39.062,-23.438,-1.465,77.148,0
1583423613.540,-8.301,-44.434,-23.438,15.137,68.359,0
1583423613.543,23.926,-25.879,-21.484,-7.324,41.016,0
1583423613.547,42.969,-24.414,-24.902,-10.254,34.180,0
1583423613.551,41.016,-25.391,-28.320,1.465,27.344,0
1583423613.555,52.734,-17.578,-24.902,8.789,70.801,0
1583423613.559,56.641,-19.531,-25.391,6.348,61.523,0
1583423613.557,35.645,-13.672,-22.949,-6.836,27.344,0
1583423613.561,17.578,-12.695,-11.230,-5.371,1.465,0
1583423613.565,19.531,-12.207,-8.301,28.809,22.949,0
1583423613.569,42.480,-8.301,-13.672,45.898,83.496,0
1583423613.573,39.551,-15.625,-9.766,3.418,23.438,0
1583423613.577,18.066,-16.113,-7.812,-16.113,35.156,0
1583423613.581,4.883,-18.066,-10.742,-11.230,92.285,0
1583423613.584,-13.672,-19.531,-12.207,-13.184,52.734,0
1583423613.588,5.371,-15.625,-14.160,-15.137,68.359,0
1583423613.592,15.137,-9.277,-13.184,-39.062,67.383,0
1583423613.596,-29.297,-7.324,-7.324,-11.719,53.711,0
1583423613.600,-49.316,-7.812,-7.324,9.766,89.355,3
1583423613.616,-40.527,-3.418,-12.695,-32.715,59.570,0
1583423613.620,-35.645,5.371,-15.137,-53.711,33.203,0
1583423613.624,-38.086,8.789,-11.230,-45.898,-0.488,0
1583423613.628,-47.852,4.883,-8.789,-24.414,4.883,0
1583423613.632,-41.016,-1.465,-10.254,-27.832,1.953,0
1583423613.636,-39.062,-8.301,-7.324,-24.902,18.555,0
1583423613.640,-59.570,-0.488,-4.883,-39.551,31.738,0
1583423613.643,-55.664,0.000,-5.859,-45.898,22.949,0
1583423613.647,-62.500,-20.996,0.488,-24.414,88.379,0
1583423613.651,-53.711,-28.809,5.371,-45.898,59.570,0
1583423613.655,-50.293,-21.484,-6.836,-63.477,45.898,0
1583423613.659,-80.566,-6.348,-16.113,-58.105,65.430,0
1583423613.656,-84.961,4.395,-24.902,-88.867,2.441,0
1583423613.660,-88.867,0.000,-27.832,-103.027,23.438,0
1583423613.664,-89.355,-10.254,-19.531,-80.078,100.098,0
1583423613.668,-90.820,-15.625,-13.184,-48.828,31.250,0
1583423613.672,-95.215,-3.906,-15.625,-45.898,17.090,0
1583423613.676,-90.332,-2.930,-22.461,-57.617,62.012,0
1583423613.680,-79.590,-1.465,-19.531,-83.008,21.484,0
1583423613.683,-68.848,0.000,-17.090,-93.750,54.199,0
1583423613.687,-79.590,-9.766,-16.602,-62.988,47.363,0
1583423613.691,-78.125,-2.441,-19.043,-91.797,50.293,0
1583423613.695,-83.008,0.000,-17.578,-128.418,75.195,0
1583423613.699,-95.215,-5.371,-12.695,-97.168,50.293,0
1583423613.717,-62.500,-5.371,-7.324,-71.289,49.805,0
1583423613.721,-46.387,-11.719,-4.395,-84.961,53.711,0
1583423613.725,-66.406,-13.184,-7.324,-88.379,63.965,0
1583423613.729,-48.340,-9.277,-8.789,-64.941,80.566,0
1583423613.733,-34.180,-13.184,-5.371,-39.551,28.809,0
1583423613.737,-25.879,-15.137,-7.812,-38.086,-0.977,0
1583423613.741,-5.859,-13.672,-7.812,-35.156,11.230,0
1583423613.744,-15.625,-9.766,-6.836,-24.414,-3.906,0
1583423613.748,-0.977,-0.977,-5.371,-22.461,9.766,0
1583423613.752,-9.766,1.465,2.441,-35.645,-1.465,0
1583423613.756,-30.273,5.859,5.371,-53.223,-14.160,0
1583423613.760,-17.090,2.930,2.930,-53.711,16.602,0
1583423613.756,-1.465,2.930,0.977,-46.875,56.152,0
1583423613.760,24.902,9.766,1.465,-18.066,11.230,0
1583423613.764,19.531,3.906,5.859,-15.625,-22.461,0
1583423613.768,48.340,2.930,0.000,-29.297,-17.090,0
1583423613.772,93.750,-1.953,-6.348,-12.207,11.230,0
1583423613.776,96.191,-9.277,0.000,10.254,39.062,0
1583423613.780,121.094,-2.930,1.953,19.043,73.242,0
1583423613.783,127.441,-3.906,2.930,28.320,49.805,0
1583423613.787,121.094,-4.883,9.277,32.715,23.926,0
1583423613.791,145.508,4.883,3.906,52.734,47.363,0
1583423613.795,176.270,5.859,-2.930,74.219,12.207,0
1583423613.799,175.293,6.348,-1.953,79.102,66.406,0
1583423613.796,165.039,8.789,0.488,71.289,123.047,0
1583423613.800,193.848,4.883,6.348,80.566,101.562,0
1583423613.804,187.988,4.395,9.277,98.145,34.668,0
1583423613.808,182.617,3.418,5.371,70.312,6.836,0
1583423613.812,207.031,-0.977,5.371,58.594,36.621,0
1583423613.816,194.824,-6.348,7.812,71.289,45.898,0
1583423613.820,181.641,-12.695,10.254,73.730,36.621,0
1583423613.823,198.242,-6.836,11.230,80.078,4.883,0
1583423613.827,195.801,-3.418,12.207,80.078,46.875,0
1583423613.831,183.594,-7.812,19.531,86.426,48.340,0
1583423613.835,208.008,-4.883,22.949,141.602,83.496,0
1583423613.839,237.305,3.418,6.836,159.668,41.016,0
1583423613.856,231.445,15.137,-9.766,109.375,-77.637,0
1583423613.860,200.195,16.113,-8.301,95.215,39.551,0
1583423613.864,200.195,18.066,-11.230,118.164,52.734,0
1583423613.868,220.215,25.391,-23.438,113.770,24.414,0
1583423613.872,191.406,31.250,-22.949,112.793,67.871,0
1583423613.876,169.434,35.645,-19.531,112.305,81.055,0
1583423613.880,160.645,30.273,-20.996,109.863,52.246,0
1583423613.883,163.574,16.602,-14.648,113.770,52.246,0
1583423613.887,176.270,19.531,-11.719,115.723,54.199,0
1583423613.891,178.711,28.320,-11.230,103.027,22.461,0
1583423613.895,192.871,32.715,-7.812,106.934,27.832,0
1583423613.899,201.172,26.855,-9.766,99.609,34.668,0
1583423613.896,194.336,26.367,-10.742,80.566,9.766,0
1583423613.900,196.289,24.902,-11.719,52.734,-21.484,0
1583423613.904,187.500,20.508,-14.160,37.598,27.344,0
1583423613.908,158.203,20.508,-14.160,55.176,52.734,0
1583423613.912,147.949,6.348,-13.672,40.039,17.090,0
1583423613.916,147.461,0.000,-12.695,38.086,18.066,0
1583423613.920,137.207,5.371,-14.160,46.875,75.195,0
1583423613.923,133.789,8.301,-13.672,41.504,59.082,0
1583423613.927,129.883,4.395,-20.020,35.645,24.414,0
1583423613.931,105.957,-9.766,-18.555,15.625,41.504,0
1583423613.935,92.773,-20.020,-8.789,-4.395,12.207,0
1583423613.939,87.402,-4.883,-13.184,-1.465,20.020,0
1583423613.937,71.289,-1.465,-13.184,11.230,21.973,0
1583423613.941,77.637,-12.207,-2.930,7.812,-35.156,0
1583423613.945,79.102,-10.254,-0.488,-4.883,12.695,0
1583423613.949,48.340,-10.254,-3.906,-3.906,63.477,0
1583423613.953,20.508,-12.207,-3.906,0.977,24.902,0
1583423613.957,16.602,-25.391,1.953,22.949,34.180,0
1583423613.961,18.066,-28.320,6.348,-5.371,50.293,0
1583423613.964,27.344,-20.020,-2.930,-39.551,96.680,0
1583423613.968,12.695,-25.391,0.488,-6.836,59.082,0
1583423613.972,4.883,-17.090,8.789,3.418,35.156,0
1583423613.976,5.859,-3.906,6.348,2.930,72.266,0
1583423613.980,-17.578,-0.488,8.789,-2.930,62.988,0
1583423613.996,-19.531,-4.883,11.719,-10.742,37.598,0
1583423614.000,-9.277,-11.719,14.648,-5.859,63.965,0
1583423614.004,-5.859,-6.836,14.648,-7.324,62.988,0
1583423614.008,-3.906,-1.465,8.789,-15.625,17.090,0
1583423614.012,-3.418,-2.930,9.277,-1.465,58.105,0
1583423614.016,-8.301,-4.395,17.090,10.742,114.746,0
1583423614.020,-30.762,-9.277,14.648,-2.441,66.895,0
1583423614.023,-9.277,-2.930,9.277,3.418,44.434,0
1583423614.027,21.484,6.836,10.254,10.742,31.738,0
1583423614.031,26.367,-0.488,7.324,24.414,20.996,0
1583423614.035,34.668,-1.465,2.930,23.926,98.145,0
1583423614.039,26.855,-9.277,7.812,31.738,133.301,0
1583423614.036,9.277,-18.555,8.301,31.250,-5.859,0
1583423614.040,12.695,-14.648,4.395,39.062,-44.922,0
1583423614.044,34.180,-6.348,4.883,54.688,73.242,0
1583423614.048,44.434,-4.883,5.371,56.641,45.898,0
1583423614.052,50.293,-9.277,6.836,45.410,-14.160,0
1583423614.056,47.363,-5.371,7.812,47.363,28.809,0
1583423614.060,60.059,-0.977,8.301,65.918,50.781,0
1583423614.063,69.336,-1.953,7.812,71.777,46.875,0
1583423614.067,68.359,-0.488,6.348,56.641,23.926,0
1583423614.071,70.801,-1.465,5.859,51.758,26.855,0
1583423614.075,62.500,0.488,5.371,72.266,-8.789,0
1583423614.079,88.867,12.695,3.906,79.102,39.551,0
1583423614.076,89.355,20.508,2.441,74.219,87.402,0
1583423614.080,76.172,30.273,2.930,74.219,45.898,0
1583423614.084,70.312,28.809,7.812,88.867,66.895,0
1583423614.088,65.430,25.391,8.789,87.891,42.969,0
1583423614.092,82.520,31.250,9.766,66.895,11.719,0
1583423614.096,53.223,25.879,16.602,72.266,25.391,0
1583423614.100,43.945,23.926,14.648,81.055,32.227,0
1583423614.103,56.641,22.461,12.207,68.359,27.344,0
1583423614.107,49.805,14.160,9.277,53.223,66.895,0
1583423614.111,65.430,20.020,3.906,34.180,32.715,0
1583423614.115,70.801,26.855,4.883,47.363,-43.457,0
1583423614.119,39.551,18.066,5.371,64.941,26.367,0
1583423614.136,29.297,11.230,4.883,68.359,109.375,0
1583423614.140,27.344,16.602,3.418,48.828,69.824,0
1583423614.144,35.156,23.926,-1.465,30.762,-11.719,0
1583423614.148,40.039,20.508,-5.371,55.664,23.438,0
1583423614.152,34.668,18.066,-5.859,51.270,43.945,0
1583423614.156,42.969,16.602,-4.395,36.133,16.113,0
1583423614.160,25.391,5.859,-3.906,12.695,53.711,0
1583423614.163,28.320,9.766,0.000,15.625,79.590,0
1583423614.167,29.785,21.973,2.930,33.203,64.453,0
1583423614.171,31.250,10.742,5.371,40.039,77.637,0
1583423614.175,27.832,7.812,15.137,49.316,30.273,0
1583423614.179,19.531,20.020,11.719,34.180,6.348,0
1583423614.176,24.902,21.484,7.324,16.113,50.293,0
1583423614.180,-1.465,16.113,13.184,14.160,36.621,0
1583423614.184,-13.184,16.113,15.137,12.695,37.598,0
1583423614.188,9.277,16.113,11.719,23.926,49.316,0
1583423614.192,-0.488,12.695,9.277,9.277,26.855,0
1583423614.196,-21.973,11.719,8.301,1.953,-10.742,0
1583423614.200,-20.020,14.648,8.301,0.977,26.855,0
1583423614.203,-27.344,15.625,8.789,-21.484,63.965,0
1583423614.207,-29.297,20.020,9.766,-19.531,29.297,0
1583423614.211,-18.066,15.137,12.695,0.000,52.734,0
1583423614.215,8.301,11.230,8.301,-3.906,47.363,0
1583423614.219,10.742,15.625,11.230,-3.418,28.320,0
1583423614.216,-7.324,13.184,20.508,3.906,63.477,0
1583423614.220,-8.301,21.973,19.043,3.906,33.691,0
1583423614.224,-2.930,25.391,18.066,11.719,29.297,0
1583423614.228,6.348,20.020,21.484,2.930,37.598,0
1583423614.232,13.672,24.414,17.578,-7.812,40.527,0
1583423614.236,8.789,19.531,19.043,11.230,96.191,0
1583423614.240,10.742,12.207,20.996,8.789,43.945,0
1583423614.243,13.184,13.184,21.484,-7.812,31.250,0
1583423614.247,24.902,18.066,23.926,12.695,70.801,0
1583423614.251,27.832,24.902,20.996,27.832,85.449,0
1583423614.255,23.438,23.438,17.578,13.184,65.430,0
1583423614.259,27.832,19.531,8.301,3.418,27.832,0
1583423614.276,42.969,14.160,2.441,17.578,-5.859,0
1583423614.280,41.992,16.113,1.465,20.996,-9.766,0
1583423614.284,39.062,20.996,-1.953,15.625,69.824,0
1583423614.288,39.062,21.484,0.488,3.418,82.520,0
1583423614.292,38.574,25.879,1.465,-1.953,18.555,0
1583423614.296,41.992,26.855,3.906,24.414,49.316,0
1583423614.300,23.438,25.879,1.953,25.391,71.777,0
1583423614.303,23.926,38.086,-0.977,0.977,77.148,0
1583423614.307,22.461,42.969,-0.977,-16.602,99.609,0
1583423614.311,6.348,35.156,-6.348,0.488,36.621,0
1583423614.315,17.578,31.738,-6.348,37.109,41.016,0
1583423614.319,32.227,39.062,4.395,29.785,68.848,0
1583423614.317,20.996,43.457,9.277,2.930,95.703,0
1583423614.321,-11.230,39.062,10.254,-8.789,80.078,0
1583423614.325,-7.812,38.086,14.160,4.883,32.227,0
1583423614.329,0.977,32.227,15.137,10.254,16.113,0
1583423614.333,-18.555,19.531,12.207,0.000,78.125,0
1583423614.337,-4.395,15.625,10.254,-31.250,69.824,0
1583423614.341,-13.184,21.973,9.766,-38.086,18.066,0
1583423614.344,-46.387,21.484,6.348,-9.766,16.602,0
1583423614.348,-42.969,17.578,7.812,-32.227,32.715,0
1583423614.352,-44.922,5.371,13.672,-49.805,36.621,0
1583423614.356,-37.109,7.324,9.766,-36.621,40.039,0
1583423614.360,-20.508,23.438,6.348,-31.738,23.926,0
1583423614.356,-62.988,20.996,14.648,-48.340,6.348,0
1583423614.360,-89.355,8.789,23.438,-79.590,23.926,0
1583423614.364,-82.520,6.348,14.160,-90.332,49.316,0
1583423614.368,-100.586,11.719,10.254,-88.867,63.477,0
1583423614.372,-116.211,9.277,13.672,-80.078,28.320,0
1583423614.376,-120.605,9.766,9.277,-107.422,20.508,0
1583423614.380,-137.207,14.160,8.301,-138.184,33.691,0
1583423614.383,-152.344,5.859,9.766,-115.723,39.551,0
1583423614.387,-136.230,3.906,17.090,-121.094,48.828,0
1583423614.391,-140.625,14.160,23.438,-140.137,-6.836,0
1583423614.395,-146.484,13.672,24.414,-137.695,25.879,0
1583423614.399,-155.273,9.277,22.949,-133.789,108.398,0
1583423614.416,-168.945,-3.418,20.508,-123.047,85.449,0
1583423614.420,-157.715,-15.137,17.090,-123.047,13.184,0
1583423614.424,-155.762,-6.836,9.766,-149.414,27.344,0
1583423614.428,-152.344,0.000,3.906,-150.391,41.992,0
1583423614.432,-149.414,0.000,2.441,-129.883,50.293,0
1583423614.436,-153.809,-7.324,5.371,-129.395,82.031,0
1583423614.440,-149.414,-6.836,8.789,-135.254,101.074,0
1583423614.443,-139.160,5.371,5.371,-137.695,40.039,0
1583423614.447,-125.488,6.348,0.977,-122.559,26.367,0
1583423614.451,-112.305,5.371,1.465,-117.676,52.246,0
1583423614.455,-125.977,3.906,-0.977,-115.723,1.953,0
1583423614.459,-133.789,3.906,-6.348,-117.188,23.926,0
1583423614.456,-116.699,8.789,-10.254,-110.352,49.805,0
1583423614.460,-98.145,7.324,-9.277,-91.309,24.414,0
1583423614.464,-81.543,10.254,-2.441,-86.426,38.086,0
1583423614.468,-88.379,14.160,-1.465,-98.145,15.625,0
1583423614.472,-89.844,14.160,3.906,-88.867,-10.742,0
1583423614.476,-71.777,21.973,9.766,-59.570,8.789,0
1583423614.480,-73.242,31.738,11.230,-39.062,21.484,0
1583423614.483,-32.227,34.180,18.555,-38.574,37.109,0
1583423614.487,-10.254,17.578,28.809,-20.020,-7.812,0
1583423614.491,-21.484,1.953,35.645,-11.230,0.488,0
1583423614.495,5.371,10.742,37.598,-12.207,41.016,0
1583423614.499,20.508,24.902,34.180,-8.301,15.137,0
1583423614.496,9.766,23.438,33.691,-14.160,20.508,0
1583423614.500,20.020,25.879,39.062,2.441,15.137,0
1583423614.504,23.926,28.320,47.852,13.672,13.672,0
1583423614.508,24.902,20.996,67.871,21.973,72.754,0
1583423614.512,36.621,9.277,75.195,31.738,19.531,0
1583423614.516,48.828,11.719,72.266,54.199,-20.508,0
1583423614.520,54.688,14.160,79.102,70.801,8.301,0
1583423614.523,53.223,10.742,87.402,57.129,55.176,0
1583423614.527,51.758,16.602,77.637,46.387,77.637,0
1583423614.531,52.246,35.645,59.570,54.199,69.336,0
1583423614.535,50.293,41.504,67.383,51.758,56.641,0
1583423614.539,57.129,20.508,86.426,56.152,66.895,0
1583423614.556,47.363,14.648,89.844,47.363,15.625,0
1583423614.560,54.688,12.695,63.477,47.852,-18.555,0
1583423614.564,54.199,-37.109,60.059,60.547,37.598,0
1583423614.568,30.273,-37.598,80.078,39.551,47.363,0
1583423614.572,23.438,24.902,73.242,15.625,68.848,0
1583423614.576,12.695,28.809,46.875,-2.441,43.945,0
1583423614.580,4.883,13.672,18.066,21.973,31.738,0
1583423614.583,18.066,39.062,3.906,22.949,24.414,0
1583423614.587,7.324,30.273,7.812,-13.184,-34.668,0
1583423614.591,-10.742,5.859,-5.371,-18.066,-3.418,0
1583423614.595,-3.906,-9.277,-4.395,-9.766,16.602,0
1583423614.599,-17.578,-4.395,11.230,0.977,25.879,0
1583423614.596,-41.992,21.484,2.441,-15.137,60.547,0
1583423614.600,-45.898,34.180,-4.395,-33.691,41.504,0
1583423614.604,-41.504,36.621,-2.441,-24.414,46.875,0
1583423614.608,-32.227,29.785,-0.977,-22.949,50.293,0
1583423614.612,-21.973,27.344,1.953,-11.230,17.578,0
1583423614.616,-4.883,24.414,3.906,-6.348,18.066,0
1583423614.620,-23.926,22.461,1.465,2.441,51.270,0
1583423614.623,-22.461,28.320,1.465,30.273,39.551,0
1583423614.627,10.742,35.156,-0.488,31.250,52.246,0
1583423614.631,24.414,33.203,-4.395,21.973,47.363,0
1583423614.635,25.879,43.945,-4.395,40.527,38.086,0
1583423614.639,24.414,58.105,-6.348,55.664,38.086,0
1583423614.638,47.363,56.641,-5.371,59.570,74.219,0
1583423614.642,55.176,48.340,-4.395,57.129,26.855,0
1583423614.646,47.852,33.203,-5.859,50.293,-36.133,0
1583423614.650,45.898,26.855,-4.395,64.941,-0.977,0
