timestamps,TP9,AF7,AF8,TP10,Right AUX,Marker0
1583423469.917,59.570,-2.441,19.531,126.953,-73.730,0
1583423469.921,60.059,-4.883,21.484,138.184,-99.609,0
1583423469.925,70.801,-0.488,22.461,107.910,-137.695,0
1583423469.929,55.664,5.859,22.461,92.773,-135.254,0
1583423469.933,41.016,3.906,23.438,123.535,-107.422,0
1583423469.937,37.598,-12.207,22.461,119.629,-122.559,0
1583423469.941,26.855,-16.602,24.414,89.355,-143.066,0
1583423469.944,20.508,-5.859,23.438,73.730,-131.348,0
1583423469.948,39.062,-3.418,19.531,85.449,-130.371,0
1583423469.952,52.734,-1.953,22.949,117.188,-99.609,0
1583423469.956,40.039,-5.859,30.273,107.910,-132.812,0
1583423469.960,46.387,-3.418,33.203,85.938,-170.410,0
1583423469.956,61.035,0.000,34.668,93.262,-157.227,0
1583423469.960,60.059,-2.441,38.086,106.934,-140.625,0
1583423469.964,49.805,-4.395,42.969,118.652,-103.516,0
1583423469.968,33.203,-9.766,44.922,94.238,-122.070,0
1583423469.972,41.504,-17.090,39.551,58.105,-146.973,0
1583423469.976,37.109,-17.090,37.109,70.312,-133.789,0
1583423469.980,25.391,-5.859,45.410,95.703,-116.699,0
1583423469.983,48.828,4.395,46.875,84.473,-126.953,0
1583423469.987,46.875,8.301,38.086,56.152,-132.812,0
1583423469.991,25.391,5.859,39.062,55.664,-152.344,0
1583423469.995,21.484,18.066,39.062,71.289,-153.809,0
1583423469.999,13.672,26.367,31.738,56.641,-153.809,0
1583423469.997,18.066,17.090,27.344,23.926,-165.039,0
1583423470.001,35.645,1.465,36.133,38.574,-151.367,0
1583423470.005,29.785,11.230,42.969,71.777,-142.578,0
1583423470.009,16.113,25.391,39.551,63.965,-148.438,0
1583423470.013,4.395,25.391,35.156,25.391,-174.316,0
1583423470.017,13.184,21.973,35.645,28.809,-175.781,0
1583423470.021,49.805,19.531,44.434,60.059,-149.902,0
1583423470.024,48.828,26.367,60.059,76.660,-169.434,0
1583423470.028,29.785,43.945,74.707,75.684,-179.199,0
1583423470.032,43.945,56.641,83.008,76.660,-151.855,0
1583423470.036,51.270,54.688,91.309,106.934,-138.184,0
1583423470.040,65.918,61.035,86.426,83.008,-178.223,0
1583423470.057,80.078,56.641,92.773,70.801,-205.566,0
1583423470.061,59.570,54.199,107.422,74.219,-183.105,0
1583423470.065,68.848,61.035,104.004,72.754,-190.430,0
1583423470.069,69.824,66.406,87.402,85.938,-201.172,0
1583423470.073,29.297,39.062,79.590,63.965,-217.773,0
1583423470.077,40.039,14.160,80.566,49.805,-221.680,0
1583423470.081,42.969,22.461,77.148,57.129,-201.660,0
1583423470.084,7.324,36.133,81.543,64.453,-188.477,0
1583423470.088,28.809,65.918,81.055,56.152,-219.727,0
1583423470.092,61.523,73.730,78.125,22.949,-221.191,0
1583423470.096,37.598,51.758,85.938,26.367,-240.234,0
1583423470.100,22.461,47.363,83.984,47.363,-272.949,0
1583423470.097,36.621,55.664,72.754,28.809,-248.535,0
1583423470.101,17.578,56.641,65.918,16.113,-222.656,0
1583423470.105,9.277,45.410,49.805,-1.465,-222.656,0
1583423470.109,8.301,26.367,35.645,-9.277,-233.398,0
1583423470.113,-18.555,17.578,20.020,-20.996,-252.441,0
1583423470.117,-20.996,22.461,6.836,-39.551,-251.953,0
1583423470.121,-6.348,18.555,7.324,-38.086,-251.465,0
1583423470.124,-21.484,23.926,11.230,-49.805,-245.605,0
1583423470.128,-1.465,33.691,24.414,-27.344,-244.141,0
1583423470.132,31.738,53.711,46.387,5.859,-274.414,0
1583423470.136,37.109,86.914,69.824,12.695,-278.320,0
1583423470.140,56.152,95.703,86.914,49.805,-280.762,0
1583423470.137,74.707,105.469,94.238,62.988,-267.578,0
1583423470.141,79.590,112.305,98.633,42.969,-264.160,0
1583423470.145,88.379,99.121,106.445,34.668,-302.246,0
1583423470.149,103.516,99.609,120.117,57.617,-275.879,0
1583423470.153,106.445,118.652,122.070,97.656,-234.375,0
1583423470.157,93.750,116.699,126.953,92.773,-240.234,0
1583423470.161,100.098,100.586,135.254,78.125,-255.859,0
1583423470.164,95.215,88.379,130.859,75.195,-290.527,0
1583423470.168,38.574,60.547,87.891,52.734,-277.832,0
1583423470.172,1.465,14.648,41.016,13.184,-256.348,0
1583423470.176,-9.766,-21.973,19.043,-30.273,-258.301,0
1583423470.180,-37.598,-43.945,5.859,-44.434,-255.859,0
1583423470.197,-58.594,-45.898,12.695,-24.414,-277.344,0
1583423470.201,-45.410,-17.090,23.438,-16.113,-263.672,0
1583423470.205,-36.133,-11.230,20.996,-30.762,-252.441,0
1583423470.209,-57.617,-41.992,4.883,-62.988,-288.574,0
1583423470.213,-68.359,-63.965,-4.395,-61.035,-289.551,0
1583423470.217,-88.379,-63.477,-19.043,-35.645,-273.438,0
1583423470.221,-100.098,-58.594,-33.691,-56.152,-281.250,0
1583423470.224,-84.961,-61.523,-18.555,-49.316,-287.598,0
1583423470.228,-65.918,-42.480,7.812,-20.996,-276.367,0
1583423470.232,-65.918,-34.668,11.719,-12.695,-271.484,0
1583423470.236,-80.078,-58.105,-3.418,-4.883,-275.879,0
1583423470.240,-95.215,-69.336,-18.555,-23.926,-293.945,0
1583423470.236,-108.398,-62.500,-19.531,-28.809,-297.852,0
1583423470.240,-96.191,-57.129,-14.648,-3.418,-284.668,0
1583423470.244,-97.656,-61.523,-12.207,9.766,-292.969,0
1583423470.248,-109.375,-72.266,-16.602,2.441,-307.129,0
1583423470.252,-112.305,-72.754,-25.391,-14.160,-303.711,0
1583423470.256,-112.305,-73.242,-22.461,-5.859,-276.855,0
1583423470.260,-101.074,-81.055,-18.555,0.977,-253.906,0
1583423470.263,-92.773,-63.965,-5.371,-8.789,-227.539,0
1583423470.267,-86.426,-68.359,2.930,-23.926,-278.320,0
1583423470.271,-90.332,-81.543,-5.859,-28.809,-306.641,0
1583423470.275,-100.098,-64.453,-7.812,-6.348,-255.859,0
1583423470.279,-86.426,-57.617,-10.254,-20.996,-243.164,0
1583423470.297,-75.195,-63.477,-12.207,-44.434,-255.859,0
1583423470.301,-90.332,-57.129,-16.113,-36.133,-273.926,0
1583423470.305,-96.680,-41.504,-16.113,-13.672,-270.020,0
1583423470.309,-83.496,-29.297,-9.277,4.883,-246.094,0
1583423470.313,-78.613,-16.602,-0.488,-26.855,-254.883,0
1583423470.317,-80.566,-15.137,-3.418,-51.758,-306.641,0
1583423470.321,-72.266,-20.996,-10.742,-13.672,-284.668,0
1583423470.324,-68.848,-16.602,-9.277,-0.488,-294.922,0
1583423470.328,-55.664,-19.043,-7.324,0.977,-304.688,0
1583423470.332,-48.340,-28.320,-7.812,-14.160,-290.527,0
1583423470.336,-57.617,-21.484,-4.395,-20.996,-294.434,0
1583423470.340,-42.480,-35.156,2.930,11.230,-284.180,0
1583423470.337,-23.438,-39.062,-8.789,13.672,-303.711,0
1583423470.341,-23.926,-20.508,-10.742,-8.789,-301.270,0
1583423470.345,-17.090,-21.484,-1.953,-10.742,-286.621,0
1583423470.349,-28.320,-25.391,1.953,18.555,-270.508,0
1583423470.353,-34.180,-15.137,3.418,28.320,-252.930,0
1583423470.357,-32.227,-11.719,0.000,14.160,-269.043,0
1583423470.361,-41.016,-13.184,-1.465,2.930,-282.715,0
1583423470.364,-19.531,-3.418,-1.465,11.230,-278.809,0
1583423470.368,2.441,7.812,-4.395,25.879,-265.625,0
1583423470.372,4.395,13.184,-5.859,12.207,-268.066,0
1583423470.376,-5.859,3.906,-5.371,-9.766,-303.711,0
1583423470.380,1.465,8.301,-3.418,6.348,-279.785,0
1583423470.376,14.648,22.949,0.000,24.414,-270.020,0
1583423470.380,18.066,20.996,0.000,15.137,-278.809,0
1583423470.384,30.762,14.648,1.953,13.184,-261.719,0
1583423470.388,28.809,16.113,6.348,27.832,-260.254,0
1583423470.392,37.109,20.996,6.348,42.480,-250.977,0
1583423470.396,70.801,13.184,10.254,37.598,-261.230,0
1583423470.400,79.590,15.137,15.625,16.602,-279.785,0
1583423470.403,65.430,20.996,14.648,20.508,-257.812,0
1583423470.407,53.711,12.695,11.719,38.574,-259.766,0
1583423470.411,50.781,19.043,9.277,34.180,-271.484,0
1583423470.415,59.570,32.715,8.789,26.855,-264.648,0
1583423470.419,41.992,40.039,10.254,24.902,-268.066,0
1583423470.437,30.762,46.387,13.184,45.898,-248.535,0
1583423470.441,23.438,39.551,15.625,55.176,-256.836,0
1583423470.445,25.879,41.016,10.742,18.555,-266.602,0
1583423470.449,21.484,41.992,1.953,-19.043,-252.441,0
1583423470.453,-0.977,40.527,5.859,-17.090,-252.441,0
1583423470.457,-8.301,53.711,13.184,-18.555,-249.512,0
1583423470.461,-5.371,73.730,12.695,-37.598,-255.371,0
1583423470.464,0.977,87.891,16.602,-71.777,-277.832,0
1583423470.468,-17.578,96.191,18.555,-103.027,-282.227,0
1583423470.472,-22.949,98.633,19.043,-88.379,-272.461,0
1583423470.476,-27.832,111.816,20.996,-75.684,-277.344,0
1583423470.480,-55.664,111.816,23.438,-73.730,-291.504,0
1583423470.476,-52.734,99.609,24.902,-53.223,-295.898,0
1583423470.480,-50.781,107.910,27.832,9.766,-270.020,0
1583423470.484,-57.129,113.770,32.227,58.105,-272.461,0
1583423470.488,-36.133,104.492,31.738,46.387,-287.598,0
1583423470.492,-14.648,105.957,29.785,30.273,-285.156,0
1583423470.496,-12.207,107.910,28.809,28.809,-271.973,0
1583423470.500,-21.484,100.098,33.691,6.348,-274.902,0
1583423470.503,-17.090,93.262,38.574,-31.738,-299.316,0
1583423470.507,-18.066,91.797,39.551,-59.570,-282.227,0
1583423470.511,-30.273,83.984,44.434,-51.270,-293.457,0
1583423470.515,-44.922,71.777,53.223,-26.855,-332.520,0
1583423470.519,-51.270,86.914,61.523,-26.367,-349.609,0
1583423470.537,-35.156,108.887,75.195,-25.391,-314.453,0
1583423470.541,-5.859,121.094,100.098,-1.465,-285.645,0
1583423470.545,8.301,138.672,123.535,37.109,-300.781,0
1583423470.549,-18.555,134.277,116.211,26.855,-300.781,0
1583423470.553,-70.312,95.703,80.078,-19.043,-308.594,0
1583423470.557,-101.562,61.523,68.848,-7.812,-355.469,0
1583423470.561,-105.957,75.684,81.543,32.715,-353.516,0
1583423470.564,-145.020,82.520,70.801,18.555,-326.660,0
1583423470.568,-200.684,69.824,53.223,-60.059,-355.957,0
1583423470.572,-193.359,100.098,72.266,-79.102,-358.887,0
1583423470.576,-175.293,127.930,105.957,-17.090,-342.285,0
1583423470.580,-200.684,108.887,94.238,-21.973,-331.055,0
1583423470.577,-213.379,83.496,66.406,-59.082,-328.125,0
1583423470.581,-237.305,70.801,81.055,-83.496,-369.629,0
1583423470.585,-255.859,77.637,94.727,-97.168,-376.465,0
1583423470.589,-255.859,64.453,72.266,-83.984,-361.816,0
1583423470.593,-254.883,44.434,52.246,-88.379,-367.188,0
1583423470.597,-256.836,41.504,45.898,-106.934,-354.492,0
1583423470.601,-248.047,31.250,42.480,-124.512,-361.816,0
1583423470.604,-225.586,22.461,36.133,-119.629,-361.816,0
1583423470.608,-220.215,13.184,32.715,-99.121,-330.566,0
1583423470.612,-203.125,4.395,33.691,-130.371,-318.359,0
1583423470.616,-169.434,12.207,32.715,-118.652,-303.711,0
1583423470.620,-151.367,3.418,30.762,-90.332,-315.430,0
1583423470.617,-110.352,-1.953,29.785,-112.305,-349.609,0
1583423470.621,-91.309,37.598,29.297,-94.727,-342.285,0
1583423470.625,-100.586,38.086,28.809,-74.219,-308.105,0
1583423470.629,-50.781,9.766,32.715,-42.969,-305.664,0
1583423470.633,-31.738,10.254,32.227,-13.184,-319.824,0
1583423470.637,-44.434,21.973,30.273,0.977,-313.477,0
1583423470.641,-43.457,26.855,28.320,19.043,-323.730,0
1583423470.644,-40.039,21.484,29.297,41.016,-312.500,0
1583423470.648,-50.293,23.926,30.273,77.148,-288.574,0
1583423470.652,-48.828,18.555,33.691,66.895,-285.156,0
1583423470.656,-45.410,13.672,36.621,11.719,-297.852,0
1583423470.660,-35.156,20.020,26.855,-4.883,-306.152,0
1583423470.667,-50.293,18.066,24.414,4.395,-288.574,0
1583423470.671,-80.566,12.207,31.250,-18.555,-298.340,0
1583423470.675,-97.656,1.953,32.715,-103.027,-330.078,0
1583423470.679,-132.812,4.395,33.203,-180.176,-364.746,0
1583423470.683,-173.828,5.371,30.273,-200.684,-376.953,0
1583423470.687,-189.941,-5.371,29.785,-208.984,-387.695,0
1583423470.691,-166.016,3.906,29.297,-221.191,-404.297,0
1583423470.694,-110.352,20.996,24.414,-191.406,-371.582,0
1583423470.698,-24.902,9.277,24.414,-74.707,-362.793,0
1583423470.702,77.637,-4.883,29.785,42.480,-342.285,0
1583423470.706,164.551,-10.254,25.879,104.980,-269.531,0
1583423470.710,220.215,-21.973,21.484,140.625,-229.004,0
1583423470.716,229.004,-19.531,18.066,172.852,-196.777,0
1583423470.720,218.750,-28.809,19.531,212.891,-210.938,0
1583423470.724,225.586,-22.949,18.066,215.332,-209.473,0
1583423470.728,233.887,-6.836,13.672,178.711,-167.480,0
1583423470.732,221.680,-6.836,17.578,152.344,-174.316,0
1583423470.736,224.609,-6.836,16.113,181.152,-171.875,0
1583423470.740,240.234,-36.133,28.809,190.918,-190.918,0
1583423470.743,253.906,-59.570,20.996,178.711,-189.941,0
1583423470.747,266.113,-43.945,4.883,176.270,-133.301,0
1583423470.751,265.625,-7.324,11.719,209.961,-113.281,0
1583423470.755,277.832,18.555,2.930,250.488,-86.914,0
1583423470.759,301.270,-5.859,-0.488,253.418,-71.777,0
1583423470.757,303.223,-14.648,6.836,226.562,-81.543,0
1583423470.761,305.176,6.348,7.324,234.375,-75.684,0
1583423470.765,306.152,8.789,2.930,261.719,-53.711,0
1583423470.769,308.105,3.906,9.277,239.746,-53.223,0
1583423470.773,292.480,7.812,29.785,231.934,-77.637,0
1583423470.777,277.832,25.391,22.949,250.488,-94.238,0
1583423470.781,280.762,30.762,15.137,256.348,-92.773,0
1583423470.784,278.320,35.645,52.246,237.305,-90.332,0
1583423470.788,287.109,61.523,84.961,215.820,-68.848,0
1583423470.792,312.012,64.453,105.469,239.746,-83.008,0
1583423470.796,333.008,86.914,118.164,283.203,-84.473,0
1583423470.800,390.137,131.836,127.930,312.500,-34.180,0
1583423470.796,395.020,153.320,136.230,320.801,-41.016,0
1583423470.800,354.004,160.156,129.395,302.734,-50.781,0
1583423470.804,365.234,170.898,143.066,314.941,-65.430,0
1583423470.808,370.605,196.777,154.297,335.449,-67.871,0
1583423470.812,381.348,215.332,163.086,339.844,-28.320,0
1583423470.816,403.809,211.914,172.363,351.074,-37.598,0
1583423470.820,400.391,207.031,177.734,369.629,-41.016,0
1583423470.823,380.371,212.891,181.641,375.488,-30.273,0
1583423470.827,378.418,218.262,190.918,340.332,-48.828,0
1583423470.831,367.188,234.863,208.008,290.039,-31.250,0
1583423470.835,370.117,255.371,213.867,271.973,-24.414,0
1583423470.839,418.945,264.648,220.703,344.727,-26.367,0
1583423470.856,427.734,253.418,229.980,409.180,-2.930,0
1583423470.860,393.066,247.559,229.980,379.395,14.160,0
1583423470.864,366.699,267.090,227.051,351.074,40.039,0
1583423470.868,334.473,266.602,224.609,345.703,41.992,0
1583423470.872,317.383,242.676,204.102,308.594,6.348,0
1583423470.876,298.828,207.031,178.223,250.000,4.883,0
1583423470.880,230.469,175.293,157.715,191.406,-13.184,0
1583423470.883,189.941,174.316,135.742,179.688,-16.113,0
1583423470.887,199.219,162.598,113.281,209.961,29.785,0
1583423470.891,178.223,134.766,92.773,171.387,27.832,0
1583423470.895,153.320,124.512,72.266,131.348,27.832,0
1583423470.899,134.766,116.699,61.523,152.832,44.434,0
1583423470.897,132.812,109.863,54.688,163.086,63.477,0
1583423470.901,109.863,95.215,48.340,139.160,67.383,0
1583423470.905,99.609,83.008,44.922,96.680,42.480,0
1583423470.909,97.656,79.590,38.574,89.844,27.832,0
1583423470.913,72.754,71.777,34.180,98.633,40.527,0
1583423470.917,82.031,56.152,29.297,88.867,29.297,0
1583423470.921,70.801,40.039,26.367,55.176,11.719,0
1583423470.924,29.297,25.391,20.020,9.277,1.953,0
1583423470.928,17.578,20.020,9.766,-16.602,-13.184,0
1583423470.932,2.441,4.395,9.277,-46.387,-20.996,0
1583423470.936,-11.719,-14.648,10.254,-95.215,-40.527,0
1583423470.940,-9.766,-5.371,3.418,-139.160,-46.387,0
1583423470.956,-31.738,7.324,-5.859,-147.461,-64.453,0
1583423470.960,-60.059,9.766,-9.277,-151.855,-95.215,0
1583423470.964,-67.383,-5.371,-9.277,-156.738,-113.770,0
1583423470.968,-65.430,-10.742,-15.137,-190.918,-142.090,0
1583423470.972,-76.660,-12.695,-17.578,-187.012,-144.531,0
1583423470.976,-90.332,-20.020,-10.254,-160.645,-142.090,0
1583423470.980,-121.094,-14.648,-15.625,-187.012,-168.457,0
1583423470.983,-134.766,-21.484,-23.926,-216.797,-188.477,0
1583423470.987,-151.367,-26.855,-20.508,-217.773,-217.285,0
1583423470.991,-167.480,-7.812,-19.531,-217.773,-210.449,0
1583423470.995,-187.500,-15.137,-25.391,-236.816,-214.844,0
1583423470.999,-226.074,-28.809,-23.438,-253.906,-262.695,0
1583423470.997,-239.258,-18.555,-20.996,-268.066,-263.672,0
1583423471.001,-260.254,-15.137,-21.484,-276.367,-262.207,0
1583423471.005,-288.574,-29.785,-17.578,-268.555,-295.898,0
1583423471.009,-291.504,-27.832,-23.926,-283.691,-325.195,0
1583423471.013,-299.805,-23.438,-29.297,-308.594,-357.910,0
1583423471.017,-340.820,-37.109,-21.973,-298.340,-366.211,0
1583423471.021,-367.188,-33.691,-14.648,-298.340,-354.492,0
1583423471.024,-354.492,-25.879,-23.438,-312.500,-345.703,0
1583423471.028,-330.078,-27.832,-21.484,-289.551,-367.188,0
1583423471.032,-295.898,-19.043,-12.207,-245.117,-389.160,0
1583423471.036,-298.828,-16.602,-17.090,-221.680,-369.141,0
1583423471.040,-316.406,-22.461,-21.973,-205.566,-368.164,0
1583423471.056,-274.414,-20.996,-17.090,-183.105,-336.914,0
1583423471.060,-233.887,-29.297,-11.230,-153.809,-319.824,0
1583423471.064,-209.961,-33.691,-10.742,-95.703,-336.914,0
1583423471.068,-191.895,-29.297,-6.836,-36.621,-292.969,0
1583423471.072,-182.617,-35.645,-1.465,-33.203,-265.625,0
1583423471.076,-158.203,-25.879,-0.977,-46.875,-281.250,0
1583423471.080,-144.043,-12.695,-0.977,-23.438,-285.645,0
1583423471.083,-103.027,-2.441,-1.465,9.277,-283.691,0
1583423471.087,-72.754,11.719,2.930,25.879,-235.352,0
1583423471.091,-78.613,10.742,14.160,30.273,-256.836,0
1583423471.095,-75.684,15.625,9.766,49.316,-285.156,0
1583423471.099,-63.477,20.020,6.348,80.566,-242.188,0
1583423471.076,-57.617,8.789,9.766,79.590,-248.047,0
1583423471.080,-45.410,12.695,3.418,53.711,-246.094,0
1583423471.084,-31.250,15.137,4.395,74.219,-245.117,0
1583423471.088,-30.273,18.555,3.418,103.027,-240.234,0
1583423471.092,-11.230,10.742,0.488,103.516,-228.516,0
1583423471.096,-19.043,0.488,-2.930,82.520,-236.328,0
1583423471.100,-21.484,1.953,-7.324,74.219,-212.891,0
1583423471.103,11.230,2.441,-13.672,91.309,-193.359,0
1583423471.107,41.992,11.230,-19.043,115.234,-180.176,0
1583423471.111,28.809,20.996,-17.578,111.328,-162.598,0
1583423471.115,32.227,11.230,-13.184,109.375,-180.176,0
1583423471.119,48.340,12.695,-11.230,117.676,-175.781,0
1583423471.137,74.707,25.391,-18.555,113.281,-172.363,0
1583423471.141,72.266,26.367,-26.367,98.145,-208.984,0
1583423471.145,38.086,29.297,-39.551,88.867,-183.105,0
1583423471.149,37.598,22.949,-66.895,118.164,-158.691,0
1583423471.153,48.828,15.625,-108.398,144.043,-161.133,0
1583423471.157,56.152,8.789,-162.109,144.043,-168.457,0
1583423471.161,74.707,17.578,-210.938,124.023,-188.965,0
1583423471.164,72.754,29.297,-246.094,130.371,-160.156,0
1583423471.168,76.172,30.762,-267.090,167.480,-137.207,0
1583423471.172,99.609,35.645,-268.066,186.523,-138.184,0
1583423471.176,102.051,22.461,-263.672,176.270,-138.672,0
1583423471.180,91.309,8.789,-264.160,152.832,-146.484,0
1583423471.176,79.590,28.320,-262.695,176.270,-136.719,0
1583423471.180,91.309,19.043,-263.672,219.727,-114.258,0
1583423471.184,96.191,-1.465,-259.766,205.078,-100.098,0
1583423471.188,73.242,8.301,-256.836,176.270,-114.258,0
1583423471.192,83.984,16.113,-259.277,187.012,-107.910,0
1583423471.196,92.285,20.508,-253.418,209.961,-66.406,0
1583423471.200,95.703,23.926,-237.305,202.637,-90.820,0
1583423471.203,128.418,42.480,-217.285,202.637,-109.863,0
1583423471.207,164.551,59.082,-195.801,235.840,-67.383,0
1583423471.211,192.383,67.383,-167.969,278.809,-66.895,0
1583423471.215,281.738,96.680,-121.582,362.793,-58.105,0
1583423471.219,411.621,124.023,-77.637,437.500,-13.184,0
1583423471.216,431.152,130.371,-57.617,427.246,-16.113,0
1583423471.220,398.438,135.742,-46.875,426.758,4.883,0
1583423471.224,345.703,132.324,-32.715,398.438,20.508,0
1583423471.228,267.090,122.070,-31.250,331.055,-23.438,0
1583423471.232,235.840,133.789,-17.578,304.199,-36.133,0
1583423471.236,227.051,144.043,9.766,312.500,-34.668,0
1583423471.240,213.379,142.090,14.160,300.293,-52.734,0
1583423471.243,206.543,130.371,16.113,254.883,-59.570,0
1583423471.247,188.965,117.676,29.297,238.281,-85.449,0
1583423471.251,149.902,92.773,15.137,237.305,-75.195,0
1583423471.255,122.559,54.688,-0.977,227.051,-35.645,0
1583423471.259,127.441,35.645,15.625,213.867,-11.719,0
1583423471.276,133.301,27.344,41.016,177.734,-23.438,0
1583423471.280,118.652,26.367,50.781,170.898,-39.062,0
1583423471.284,99.121,17.090,62.500,187.500,-36.133,0
1583423471.288,89.355,7.812,68.359,166.992,-44.922,0
1583423471.292,69.824,1.465,70.312,130.371,-33.203,0
1583423471.296,53.711,-18.555,87.402,115.234,-54.199,0
1583423471.300,54.688,-35.645,99.609,120.117,-88.379,0
1583423471.303,56.152,-24.902,108.887,121.582,-86.426,0
1583423471.307,50.293,-19.043,116.699,102.539,-77.148,0
1583423471.311,33.691,-26.367,125.000,74.219,-65.430,0
1583423471.315,12.695,-33.691,134.766,66.895,-96.680,0
1583423471.319,9.766,-37.109,133.789,86.914,-106.934,0
1583423471.317,26.855,-27.344,134.277,72.754,-97.168,0
1583423471.321,15.137,-29.297,128.418,32.715,-117.188,0
1583423471.325,-24.414,-26.367,116.699,41.992,-113.281,0
1583423471.329,-28.809,-31.250,121.094,53.223,-117.676,0
1583423471.333,-27.832,-40.039,129.395,58.594,-128.906,0
1583423471.337,-16.113,-34.668,126.953,45.898,-146.484,0
1583423471.341,-31.738,-32.715,115.723,8.301,-159.180,0
1583423471.344,-59.570,-35.645,111.816,8.301,-142.578,0
1583423471.348,-58.105,-29.297,116.699,16.113,-148.438,0
1583423471.352,-43.457,-45.410,123.047,5.859,-200.684,0
1583423471.356,-44.922,-42.480,119.629,6.348,-193.359,0
1583423471.360,-43.457,-22.949,110.840,31.250,-128.418,0
1583423471.357,-42.480,-29.785,105.469,38.086,-138.184,0
1583423471.361,-38.086,-32.227,96.680,10.254,-169.434,0
1583423471.365,-27.832,-20.020,90.820,0.000,-175.781,0
1583423471.369,-40.527,-8.789,94.238,24.902,-164.551,0
1583423471.373,-35.156,-18.555,97.168,45.898,-145.020,0
1583423471.377,-20.996,-15.625,98.145,35.645,-144.531,0
1583423471.381,-23.438,-6.348,104.980,32.227,-155.762,0
1583423471.384,-26.855,-10.742,94.727,32.227,-160.156,0
1583423471.388,-24.414,-25.391,88.379,48.340,-161.621,0
1583423471.392,-18.066,-29.297,71.777,56.641,-166.992,0
1583423471.396,-8.789,-17.578,30.273,31.250,-175.781,0
1583423471.400,-14.160,-18.066,34.180,30.273,-159.180,0
1583423471.417,-14.160,-23.438,57.617,65.430,-153.320,0
1583423471.421,20.508,-4.883,66.406,69.824,-145.996,0
1583423471.425,43.457,0.488,80.566,55.664,-139.160,0
1583423471.429,53.711,-0.977,90.820,51.758,-133.301,0
1583423471.433,58.105,26.367,103.516,63.965,-113.281,0
1583423471.437,53.223,35.156,130.371,110.840,-137.207,0
1583423471.441,78.125,55.664,135.742,113.770,-133.789,0
1583423471.444,117.188,76.660,143.555,92.285,-123.047,0
1583423471.448,141.113,75.195,150.879,139.648,-128.418,0
1583423471.452,146.484,95.703,164.062,170.410,-107.422,0
1583423471.456,148.438,103.516,171.387,175.293,-110.352,0
1583423471.460,138.184,95.215,165.527,174.805,-104.004,0
1583423471.476,129.395,83.496,165.039,151.855,-88.867,0
1583423471.480,128.418,73.730,147.461,164.551,-81.055,0
1583423471.484,111.816,59.082,139.648,167.480,-79.102,0
1583423471.488,103.516,46.875,141.113,121.094,-79.590,0
1583423471.492,89.844,51.270,115.723,119.629,-99.609,0
1583423471.496,78.613,56.152,92.285,134.766,-109.375,0
1583423471.500,70.312,51.758,101.562,130.371,-83.496,0
1583423471.503,102.539,48.828,110.840,132.812,-79.590,0
1583423471.507,134.766,43.457,117.188,134.766,-94.238,0
1583423471.511,111.328,45.410,135.742,138.672,-121.582,0
1583423471.515,120.605,70.801,137.207,165.527,-107.910,0
1583423471.519,121.094,68.848,145.996,169.922,-93.262,0
1583423471.497,116.699,57.129,155.273,136.230,-115.723,0
1583423471.501,146.973,75.195,128.418,156.250,-75.195,0
1583423471.505,139.648,100.098,139.160,183.594,-52.246,0
1583423471.509,115.234,94.727,171.387,201.660,-73.242,0
1583423471.513,151.367,99.121,157.715,219.727,-75.684,0
1583423471.517,170.410,113.770,160.156,219.727,-67.383,0
1583423471.521,165.039,111.328,162.109,217.285,-91.797,0
1583423471.524,168.457,114.258,155.762,220.215,-112.793,0
1583423471.528,171.387,117.676,170.410,248.535,-104.492,0
1583423471.532,187.012,124.023,176.758,249.512,-68.359,0
1583423471.536,177.246,143.555,176.270,241.211,-56.641,0
1583423471.540,159.668,146.973,166.504,234.863,-63.965,0
1583423471.556,153.809,130.371,173.340,220.215,-102.539,0
1583423471.560,157.227,148.926,186.523,213.867,-121.582,0
1583423471.564,169.922,178.711,184.570,217.285,-72.266,0
1583423471.568,167.969,183.105,178.223,234.863,-46.387,0
1583423471.572,188.477,173.828,165.527,235.352,-28.320,0
1583423471.576,179.199,143.066,177.734,214.355,-68.359,0
1583423471.580,175.293,139.648,179.688,230.957,-88.867,0
1583423471.583,191.406,148.926,169.434,261.230,-48.340,0
1583423471.587,187.988,134.277,175.293,239.746,-53.711,0
1583423471.591,174.316,146.973,189.453,244.629,-43.457,0
1583423471.595,177.246,151.367,199.707,271.973,-41.016,0
1583423471.599,190.430,137.207,193.848,240.723,-67.871,0
1583423471.597,187.500,139.648,188.477,250.488,-51.758,0
1583423471.601,134.277,140.137,183.594,207.520,-62.500,0
1583423471.605,107.422,123.535,165.527,189.941,-57.617,0
1583423471.609,130.371,97.656,160.645,203.125,-45.410,0
1583423471.613,155.273,107.910,148.438,189.453,-57.617,0
1583423471.617,155.273,125.000,152.344,188.965,-81.543,0
1583423471.621,142.578,119.141,163.086,155.273,-74.707,0
1583423471.624,164.551,113.770,151.367,188.477,-83.984,0
1583423471.628,134.277,115.723,126.953,194.336,-99.609,0
1583423471.632,55.664,95.215,158.203,131.348,-81.055,0
1583423471.636,53.223,76.660,153.809,131.348,-67.383,0
1583423471.640,58.105,74.707,112.305,127.930,-63.477,0
1583423471.636,33.691,80.078,108.887,108.887,-52.734,0
1583423471.640,34.180,79.590,104.492,116.211,-71.777,0
1583423471.644,36.621,62.500,109.863,91.797,-80.566,0
1583423471.648,56.152,65.918,94.727,66.406,-58.594,0
1583423471.652,65.918,65.918,94.727,93.750,-51.270,0
1583423471.656,52.734,60.547,114.746,118.652,-28.320,0
1583423471.660,72.754,54.199,112.793,117.676,-43.457,0
1583423471.663,82.031,59.082,97.168,128.906,-78.125,0
1583423471.667,74.707,81.543,97.168,148.438,-44.922,0
1583423471.671,89.355,89.844,102.539,136.230,-31.250,0
1583423471.675,81.543,77.637,105.957,121.582,-37.109,0
1583423471.679,76.660,55.664,107.422,147.949,-39.062,0
1583423471.697,65.430,55.664,109.863,148.438,-52.734,0
1583423471.701,72.754,69.824,104.492,142.090,-45.898,0
1583423471.705,100.098,72.754,98.633,157.715,-48.340,0
1583423471.709,94.238,64.453,106.934,145.996,-41.504,0
1583423471.713,102.051,62.988,105.469,144.043,-13.184,0
1583423471.717,115.234,58.594,102.051,177.734,-28.320,0
1583423471.721,96.680,63.477,111.816,171.387,-10.254,0
1583423471.724,112.305,77.637,101.074,122.559,2.930,0
1583423471.728,112.305,72.754,83.984,106.934,-36.621,0
1583423471.732,95.703,61.035,94.727,142.578,-42.480,0
1583423471.736,77.637,58.105,98.145,166.992,-36.621,0
1583423471.740,76.172,57.129,83.008,127.930,-31.250,0
1583423471.736,74.707,54.688,72.266,104.980,-29.785,0
1583423471.740,75.684,42.969,72.266,133.301,-56.641,0
1583423471.744,92.285,43.457,81.543,141.602,-51.758,0
1583423471.748,91.309,43.945,83.496,141.113,-49.805,0
1583423471.752,91.309,48.828,78.613,116.211,-27.832,0
1583423471.756,96.191,56.152,86.426,121.094,-14.160,0
1583423471.760,96.191,55.176,94.727,157.227,-32.715,0
1583423471.763,105.469,68.359,83.008,155.762,-17.578,0
1583423471.767,99.121,55.664,83.984,136.230,-53.711,0
1583423471.771,84.473,53.223,100.098,120.605,-93.262,0
1583423471.775,78.613,83.496,78.125,108.398,-66.895,0
1583423471.779,63.477,57.617,78.613,110.840,-36.133,0
1583423471.796,84.961,26.855,97.168,118.164,-31.738,0
1583423471.800,98.145,49.805,81.543,120.605,-38.086,0
1583423471.804,69.336,62.500,72.754,110.352,-1.465,0
1583423471.808,81.543,53.711,73.242,112.793,5.859,0
1583423471.812,106.934,44.434,76.172,137.695,-28.809,0
1583423471.816,93.262,44.434,74.219,123.047,-12.695,0
1583423471.820,83.008,57.129,64.941,94.238,-11.719,0
1583423471.823,72.266,55.176,69.824,96.191,-43.457,0
1583423471.827,79.102,45.898,76.172,115.234,-39.062,0
1583423471.831,81.543,22.461,81.543,118.164,-23.926,0
1583423471.835,84.961,27.832,81.543,106.934,-20.020,0
1583423471.839,80.566,48.340,66.895,110.352,-30.273,0
1583423471.837,66.895,62.988,60.059,87.402,-37.109,0
1583423471.841,83.008,63.477,65.918,107.910,-17.578,0
1583423471.845,70.801,37.598,71.289,113.281,-25.879,0
1583423471.849,57.617,39.551,65.430,93.262,-49.316,0
1583423471.853,69.336,50.293,60.059,106.934,-40.527,0
1583423471.857,58.105,34.668,64.453,75.195,-22.949,0
1583423471.861,71.289,30.273,68.359,72.754,-47.852,0
1583423471.864,69.336,49.316,72.266,98.145,-41.016,0
1583423471.868,47.363,58.594,76.660,83.496,-20.508,0
1583423471.872,55.664,49.805,73.242,66.895,-52.246,0
1583423471.876,49.805,31.250,63.477,64.941,-87.891,0
1583423471.880,50.293,29.785,53.223,65.918,-65.918,0
1583423471.877,48.828,30.273,59.570,56.152,-43.945,0
1583423471.881,36.621,30.762,66.406,43.945,-43.945,0
1583423471.885,35.156,23.926,59.082,30.762,-52.246,0
1583423471.889,26.367,11.230,64.453,53.711,-75.195,0
1583423471.893,30.273,31.738,61.523,76.660,-73.730,0
1583423471.897,38.574,46.875,53.711,64.453,-55.664,0
1583423471.901,56.641,36.133,61.035,48.828,-47.852,0
1583423471.904,67.383,31.250,66.895,51.758,-60.547,0
1583423471.908,41.504,28.320,69.336,77.637,-76.172,0
1583423471.912,25.879,36.133,67.383,59.570,-78.613,0
1583423471.916,45.410,66.895,70.312,45.410,-66.406,0
1583423471.920,76.172,82.031,105.469,80.078,-72.754,0
1583423471.936,101.562,83.008,131.348,105.957,-70.801,0
1583423471.940,110.840,99.609,127.930,119.629,-69.336,0
1583423471.944,120.605,122.559,146.484,130.371,-82.031,0
1583423471.948,120.117,126.953,156.738,110.840,-85.938,0
1583423471.952,124.512,126.953,161.621,130.371,-93.262,0
1583423471.956,141.113,137.207,173.828,181.152,-105.957,0
1583423471.960,128.418,129.395,164.551,165.527,-96.191,0
1583423471.963,117.676,122.559,155.273,144.043,-91.309,0
1583423471.967,116.211,127.930,144.043,118.164,-106.445,0
1583423471.971,107.910,117.188,135.254,117.188,-86.914,0
1583423471.975,86.426,112.793,126.465,125.977,-56.641,0
1583423471.979,87.891,100.586,119.141,83.008,-76.172,0
1583423471.977,88.379,89.355,119.629,71.289,-83.008,0
1583423471.981,67.871,85.449,98.633,113.770,-71.777,0
1583423471.985,60.547,72.266,88.379,120.605,-61.035,0
1583423471.989,58.594,82.031,84.961,75.684,-85.449,0
1583423471.993,58.105,94.727,77.148,42.480,-104.492,0
1583423471.997,46.875,73.242,86.914,62.012,-90.820,0
1583423472.001,45.898,62.988,90.820,77.148,-89.844,0
1583423472.004,39.062,77.637,88.379,59.570,-76.172,0
1583423472.008,32.715,81.543,81.543,42.969,-77.637,0
1583423472.012,54.688,67.383,78.613,52.246,-106.445,0
1583423472.016,59.570,59.570,81.543,69.336,-114.746,0
1583423472.020,73.242,72.266,83.008,80.566,-96.680,0
1583423472.016,77.148,77.148,84.961,59.570,-82.520,0
1583423472.020,66.895,76.172,92.773,56.152,-78.613,0
1583423472.024,61.523,79.590,98.145,78.613,-87.402,0
1583423472.028,69.824,87.891,94.238,92.773,-79.590,0
1583423472.032,90.332,79.102,91.797,65.918,-90.820,0
1583423472.036,85.938,73.730,95.215,58.105,-116.211,0
1583423472.040,90.820,91.797,102.051,95.215,-85.449,0
1583423472.043,119.141,97.168,108.887,110.352,-62.988,0
1583423472.047,115.234,88.379,120.605,103.516,-89.844,0
1583423472.051,116.699,99.609,130.859,113.281,-94.727,0
1583423472.055,128.906,112.305,133.301,134.766,-67.383,0
1583423472.059,142.090,115.723,135.254,165.039,-50.781,0
1583423472.077,153.320,117.188,139.648,172.852,-50.293,0
1583423472.081,166.504,115.234,144.043,156.250,-78.613,0
1583423472.085,167.969,121.582,148.926,171.387,-73.242,0
1583423472.089,186.035,127.441,158.691,198.730,-42.969,0
1583423472.093,208.496,143.555,167.969,222.168,-25.879,0
1583423472.097,198.730,146.484,170.410,192.383,-42.480,0
1583423472.101,201.660,132.812,166.992,196.777,-50.781,0
1583423472.104,206.055,145.508,164.062,229.004,-57.129,0
1583423472.108,219.238,174.316,167.969,234.863,-54.199,0
1583423472.112,232.422,182.129,167.969,219.238,-12.207,0
1583423472.116,222.656,171.387,161.133,204.590,-10.742,0
1583423472.120,212.891,149.902,159.180,231.445,-23.438,0
1583423472.117,214.844,143.066,166.504,234.863,-37.598,0
1583423472.121,214.355,149.902,160.156,213.379,-28.320,0
1583423472.125,218.750,148.438,149.414,198.242,-17.090,0
1583423472.129,222.168,148.438,149.902,211.914,3.418,0
1583423472.133,200.684,133.789,148.438,236.328,1.465,0
1583423472.137,183.105,120.117,139.648,212.891,-25.391,0
1583423472.141,188.965,110.840,135.742,182.617,-37.109,0
1583423472.144,168.457,109.375,137.695,179.199,-11.719,0
1583423472.148,152.832,115.234,129.883,168.457,21.484,0
1583423472.152,148.438,109.863,117.676,175.781,10.742,0
1583423472.156,135.742,109.863,107.422,142.578,-33.691,0
1583423472.160,125.488,123.047,105.957,115.723,-37.598,0
1583423472.157,114.258,120.605,110.840,142.090,-15.137,0
1583423472.161,106.934,112.305,119.141,139.160,-17.090,0
1583423472.165,110.352,108.398,109.375,127.930,-26.855,0
1583423472.169,107.422,101.562,98.633,107.910,-47.852,0
1583423472.173,82.520,107.910,104.004,114.258,-47.363,0
1583423472.177,70.312,109.863,108.887,114.258,-42.969,0
1583423472.181,75.195,111.816,105.469,89.355,-34.668,0
1583423472.184,81.055,116.699,107.910,106.934,-52.734,0
1583423472.188,83.984,106.445,116.699,128.906,-82.520,0
1583423472.192,76.172,107.422,110.840,133.301,-56.641,0
1583423472.196,85.449,112.793,101.562,117.188,-2.930,0
1583423472.200,95.215,105.469,89.844,89.355,-26.855,0
1583423472.216,69.824,102.051,82.520,91.797,-31.250,0
1583423472.220,54.688,91.797,72.754,95.215,-10.742,0
1583423472.224,62.012,83.984,77.148,117.188,-11.719,0
1583423472.228,89.844,80.566,81.543,109.375,-9.766,0
1583423472.232,100.586,83.984,82.031,78.613,-32.227,0
1583423472.236,82.031,90.332,81.543,117.188,-32.715,0
1583423472.240,88.379,82.520,78.125,138.672,-14.160,0
1583423472.243,92.285,81.055,80.566,115.723,-41.016,0
1583423472.247,109.375,91.309,69.336,102.051,-19.531,0
1583423472.251,125.488,80.566,66.895,101.562,-11.719,0
1583423472.255,95.703,76.660,73.242,114.258,-0.977,0
1583423472.259,79.590,82.031,80.078,124.512,13.672,0
1583423472.257,100.098,62.500,79.102,107.910,-6.348,0
1583423472.261,107.422,49.316,70.801,104.980,4.883,0
1583423472.265,99.609,81.543,80.078,116.211,11.230,0
1583423472.269,120.605,104.004,84.473,124.023,11.230,0
1583423472.273,119.629,95.215,83.984,110.840,15.625,0
1583423472.277,126.465,84.961,92.773,111.816,-16.113,0
1583423472.281,129.395,85.449,95.215,140.137,-12.207,0
1583423472.284,130.859,96.680,88.379,146.484,15.137,0
1583423472.288,138.672,92.773,94.238,137.207,30.762,0
1583423472.292,135.254,82.520,99.121,138.184,26.855,0
1583423472.296,140.625,88.379,97.656,151.367,5.859,0
1583423472.300,141.602,96.191,101.074,147.461,3.418,0
1583423472.296,145.996,100.586,99.609,132.812,22.949,0
1583423472.300,143.066,96.680,88.379,128.906,12.695,0
1583423472.304,124.512,76.172,86.426,142.578,-18.066,0
1583423472.308,126.953,72.754,87.402,147.949,-5.371,0
1583423472.312,123.047,75.195,89.844,128.906,-6.836,0
1583423472.316,101.074,71.289,89.355,99.609,-14.648,0
1583423472.320,99.121,83.496,92.773,111.328,3.906,0
1583423472.323,116.699,74.219,110.352,151.855,-16.113,0
1583423472.327,110.840,67.871,115.723,145.996,-28.809,0
1583423472.331,110.840,90.332,114.258,109.375,-5.859,0
1583423472.335,122.070,98.145,124.023,125.977,7.812,0
1583423472.339,112.305,105.957,124.023,151.367,-2.930,0
1583423472.356,107.910,117.188,123.047,148.438,-8.789,0
1583423472.360,99.609,119.141,127.441,126.465,-18.066,0
1583423472.364,104.004,110.352,125.977,111.816,-23.926,0
1583423472.368,95.215,102.539,123.535,118.652,-24.414,0
1583423472.372,70.801,105.957,118.652,121.094,-27.344,0
1583423472.376,58.594,89.844,110.840,88.379,-25.391,0
1583423472.380,43.945,55.664,100.586,60.547,-49.805,0
1583423472.383,41.016,53.711,85.938,64.453,-52.246,0
1583423472.387,31.738,64.941,78.125,70.801,-61.523,0
1583423472.391,-16.602,55.176,82.031,43.945,-49.316,0
1583423472.395,-64.453,38.574,69.824,-22.461,-35.645,0
1583423472.399,-82.520,28.320,49.316,-48.340,-52.734,0
1583423472.396,-83.496,25.391,45.410,-43.945,-57.617,0
1583423472.400,-96.191,20.996,45.898,-43.457,-59.082,0
1583423472.404,-118.652,9.766,34.668,-72.266,-62.988,0
1583423472.408,-124.512,8.789,22.949,-95.215,-83.984,0
1583423472.412,-132.324,5.859,17.578,-77.637,-76.660,0
1583423472.416,-133.789,-1.953,12.695,-80.566,-80.078,0
1583423472.420,-138.672,0.488,9.766,-93.750,-80.078,0
1583423472.423,-127.930,-10.742,3.418,-98.145,-85.449,0
1583423472.427,-102.539,-18.066,-0.977,-82.031,-95.703,0
1583423472.431,-106.445,-19.043,4.395,-57.617,-94.727,0
1583423472.435,-122.070,-15.137,4.883,-69.824,-126.953,0
1583423472.439,-121.094,-9.277,-1.465,-89.355,-125.000,0
1583423472.437,-111.328,-18.555,-3.906,-63.965,-86.426,0
1583423472.441,-103.027,-20.508,1.465,-45.898,-54.199,0
1583423472.445,-85.449,-14.648,3.906,-40.527,-55.664,0
1583423472.449,-74.219,-16.113,2.441,-52.246,-79.102,0
1583423472.453,-82.031,-23.926,-1.953,-47.363,-98.145,0
1583423472.457,-92.773,-25.391,-5.371,-10.254,-102.051,0
1583423472.461,-75.195,-12.207,-3.418,0.488,-102.051,0
1583423472.464,-78.613,-13.184,-1.953,-24.902,-92.285,0
1583423472.468,-84.961,-33.691,-4.883,-41.016,-97.656,0
1583423472.472,-72.754,-22.461,-8.301,-4.883,-75.195,0
1583423472.476,-57.617,-15.137,-12.207,19.531,-57.617,0
1583423472.480,-53.223,-15.137,-14.648,-1.465,-101.562,0
1583423472.497,-62.012,-8.301,-15.137,-22.461,-104.492,0
1583423472.501,-59.570,-10.742,-10.254,-10.254,-91.309,0
1583423472.505,-54.688,-2.930,-5.371,9.766,-96.680,0
1583423472.509,-62.012,-5.859,-4.395,-4.395,-83.984,0
1583423472.513,-78.125,-11.719,-7.812,-29.785,-79.102,0
1583423472.517,-77.637,-9.766,-8.789,-25.879,-77.637,0
1583423472.521,-78.613,-32.227,-4.883,-22.949,-108.398,0
1583423472.524,-88.379,-32.227,-6.348,-34.180,-123.535,0
1583423472.528,-91.309,-8.301,-10.742,-52.734,-105.469,0
1583423472.532,-69.824,-19.043,-4.883,-22.461,-100.098,0
1583423472.536,-52.246,-37.598,0.977,15.137,-104.980,0
1583423472.540,-81.543,-24.414,-8.789,-12.695,-124.023,0
1583423472.536,-87.402,-8.789,-17.578,-36.621,-113.281,0
1583423472.540,-67.871,-10.254,-18.066,-27.832,-111.816,0
1583423472.544,-47.363,-2.441,-18.555,-4.883,-124.512,0
1583423472.548,-36.133,-3.906,-15.625,9.766,-105.957,0
1583423472.552,-34.668,-10.742,-14.648,-0.488,-107.910,0
1583423472.556,-29.785,-10.254,-19.043,-5.371,-110.840,0
1583423472.560,-50.781,-6.836,-19.043,9.766,-99.121,0
1583423472.563,-42.969,-2.930,-12.207,29.785,-89.355,0
1583423472.567,-66.895,-9.766,-6.836,-2.441,-95.215,0
1583423472.571,-107.910,-9.766,-6.348,-45.410,-125.000,0
1583423472.575,-84.473,1.953,-8.301,-18.066,-132.324,0
1583423472.579,-60.059,13.672,-12.207,6.348,-107.422,0
1583423472.576,-29.785,18.066,-8.301,21.484,-110.352,0
1583423472.580,8.301,20.996,-5.859,42.480,-69.336,0
1583423472.584,7.324,5.371,-4.883,33.691,-92.285,0
1583423472.588,20.996,-14.160,-0.488,67.871,-118.164,0
1583423472.592,46.875,-9.766,-8.789,92.285,-69.824,0
1583423472.596,51.270,8.301,-17.090,69.336,-60.059,0
1583423472.600,56.641,13.672,-10.254,69.824,-62.500,0
1583423472.603,68.359,5.371,-2.441,99.609,-50.293,0
1583423472.607,95.215,12.695,1.465,133.301,-38.086,0
1583423472.611,141.602,32.227,3.418,142.090,-31.738,0
1583423472.615,177.734,31.738,10.254,165.527,10.742,0
1583423472.619,193.848,22.949,12.207,205.566,50.293,0
1583423472.636,234.863,14.648,14.648,256.836,49.316,0
1583423472.640,282.227,20.996,13.672,281.738,69.824,0
1583423472.644,339.844,26.367,11.230,304.199,114.746,0
1583423472.648,388.184,7.324,14.160,367.676,149.902,0
1583423472.652,435.059,13.672,24.414,414.062,178.223,0
1583423472.656,487.793,33.203,27.832,437.012,208.984,0
1583423472.660,500.977,33.691,22.949,438.965,218.262,0
1583423472.663,506.836,37.598,20.508,442.383,238.770,0
1583423472.667,487.793,47.852,21.973,453.613,269.043,0
1583423472.671,426.758,39.551,18.066,413.574,271.484,0
1583423472.675,370.117,18.555,13.672,343.262,251.953,0
1583423472.679,336.914,5.859,16.602,305.664,232.422,0
1583423472.676,316.895,12.695,18.555,320.801,259.766,0
1583423472.680,277.832,20.508,16.602,301.758,270.508,0
1583423472.684,252.930,25.879,17.090,234.863,242.188,0
1583423472.688,233.398,28.809,23.926,199.707,214.844,0
1583423472.692,195.312,15.625,23.926,188.477,192.383,0
1583423472.696,186.035,0.977,20.020,193.359,184.082,0
1583423472.700,198.242,14.648,37.109,200.684,177.734,0
1583423472.703,224.121,69.336,87.402,202.637,173.340,0
1583423472.707,247.559,130.859,140.137,245.117,180.664,0
1583423472.711,268.555,168.945,179.688,306.152,163.086,0
1583423472.715,291.016,196.289,208.496,319.824,122.559,0
1583423472.719,290.039,226.074,222.656,302.734,119.141,0
1583423472.717,249.023,216.797,213.867,237.305,133.789,0
1583423472.721,190.918,189.941,189.941,202.148,104.492,0
1583423472.725,191.895,172.852,159.668,241.699,87.891,0
1583423472.729,231.934,137.207,135.742,268.555,112.305,0
1583423472.733,237.305,132.812,156.250,272.461,106.445,0
1583423472.737,274.414,162.109,197.754,330.078,139.160,0
1583423472.741,297.852,161.621,192.871,361.328,161.133,0
1583423472.744,261.230,121.094,158.691,319.336,122.559,0
1583423472.748,229.004,94.727,141.113,273.926,125.977,0
1583423472.752,208.496,87.891,117.676,254.883,144.531,0
1583423472.756,191.406,74.219,106.934,244.629,150.879,0
1583423472.760,164.062,55.176,93.262,214.844,171.875,0
1583423472.776,135.742,25.879,80.078,170.410,166.992,0
1583423472.780,117.676,20.020,73.242,141.113,145.996,0
1583423472.784,100.586,30.273,75.684,159.668,145.020,0
1583423472.788,95.215,51.270,88.867,156.250,137.695,0
1583423472.792,82.031,48.828,74.219,117.188,134.277,0
1583423472.796,46.875,21.973,60.547,92.773,94.727,0
1583423472.800,28.809,17.578,62.500,86.914,79.590,0
1583423472.803,13.672,20.996,53.711,95.703,129.395,0
1583423472.807,20.996,34.668,62.500,78.125,118.652,0
1583423472.811,27.344,40.039,78.125,54.199,87.402,0
1583423472.815,6.348,23.438,69.336,60.059,67.383,0
1583423472.819,18.555,46.387,83.008,77.637,66.406,0
1583423472.816,51.270,82.031,111.816,98.633,65.918,0
1583423472.820,67.383,97.656,123.047,94.727,50.293,0
1583423472.824,76.172,105.469,122.559,94.238,43.457,0
1583423472.828,76.660,102.539,132.812,132.812,38.574,0
1583423472.832,68.848,97.168,138.672,141.113,35.156,0
1583423472.836,49.316,83.496,118.164,88.867,20.020,0
1583423472.840,31.250,69.824,107.910,50.293,29.785,0
1583423472.843,30.762,71.777,106.445,63.965,43.457,0
1583423472.847,31.738,83.008,110.840,89.355,50.781,0
1583423472.851,29.297,66.406,99.609,62.988,33.203,0
1583423472.855,9.766,50.781,71.777,21.484,5.371,0
1583423472.859,4.883,52.246,65.430,26.367,25.391,0
1583423472.856,7.324,40.527,52.734,42.480,19.531,0
1583423472.860,-2.441,27.344,39.551,34.180,32.227,0
1583423472.864,-2.930,21.484,44.434,17.578,46.875,0
1583423472.868,0.000,22.949,34.668,17.090,24.902,0
1583423472.872,-8.301,10.254,28.320,25.391,21.484,0
1583423472.876,-15.137,4.395,28.320,22.461,30.762,0
1583423472.880,-27.344,-5.371,23.926,16.113,32.227,0
1583423472.883,-31.250,-22.949,23.926,7.324,4.883,0
1583423472.887,-25.879,1.953,20.020,17.090,6.836,0
1583423472.891,-25.391,32.715,16.602,10.742,21.484,0
1583423472.895,-25.879,40.039,19.043,-9.766,9.277,0
1583423472.899,-29.785,41.504,24.902,-19.531,2.441,0
1583423472.916,-20.020,35.645,24.414,0.977,-5.371,0
1583423472.920,5.371,33.203,14.648,22.949,24.902,0
1583423472.924,1.953,20.020,21.484,-0.488,47.852,0
1583423472.928,-29.297,20.996,38.086,-36.621,32.715,0
1583423472.932,-25.391,20.508,45.410,0.977,27.344,0
1583423472.936,-17.578,-0.488,49.805,35.156,23.926,0
1583423472.940,-17.578,1.953,41.992,13.672,13.672,0
1583423472.943,-12.207,-0.488,38.574,-10.254,1.465,0
1583423472.947,-5.859,-7.324,33.691,-7.324,-7.324,0
1583423472.951,0.000,3.906,28.809,18.555,-8.789,0
1583423472.955,-12.207,1.465,34.180,19.531,-8.301,0
1583423472.959,-1.953,0.488,34.180,-5.371,-11.719,0
1583423472.956,8.789,4.883,31.738,-4.883,14.648,0
1583423472.960,9.766,2.441,31.250,29.785,21.973,0
1583423472.964,24.902,-3.418,32.227,55.664,27.832,0
1583423472.968,17.090,-10.742,38.086,37.598,34.668,0
1583423472.972,19.531,-6.836,41.504,22.949,24.414,0
1583423472.976,41.016,18.555,54.199,46.875,29.785,0
1583423472.980,72.266,53.711,88.379,96.191,20.996,0
1583423472.983,93.262,60.059,105.957,103.027,10.254,0
1583423472.987,73.730,50.781,96.191,82.031,24.414,0
1583423472.991,46.875,48.340,83.008,86.914,17.578,0
1583423472.995,54.688,59.570,75.195,98.145,14.648,0
1583423472.999,87.402,76.172,87.402,109.375,25.879,0
1583423472.997,83.984,83.984,106.445,109.863,51.270,0
1583423473.001,81.543,83.008,110.840,123.047,58.594,0
1583423473.005,101.562,83.008,110.840,146.973,44.434,0
1583423473.009,93.262,81.055,116.699,142.090,59.082,0
1583423473.013,92.773,70.312,112.305,113.770,42.969,0
1583423473.017,82.520,54.688,101.074,107.422,4.395,0
1583423473.021,41.992,61.035,85.938,125.000,34.180,0
1583423473.024,36.621,67.383,65.430,105.957,20.996,0
1583423473.028,41.992,55.176,57.129,73.242,11.230,0
1583423473.032,18.555,45.410,48.340,51.758,43.945,0
1583423473.036,11.230,34.180,39.551,64.453,10.742,0
1583423473.040,17.578,24.414,38.086,89.355,38.086,0
1583423473.057,14.160,24.414,40.527,59.570,56.641,0
1583423473.061,3.906,32.715,35.645,34.668,49.805,0
1583423473.065,0.977,30.273,25.879,47.852,34.180,0
1583423473.069,9.277,23.438,22.949,64.453,42.480,0
1583423473.073,4.883,17.578,25.391,59.570,59.570,0
1583423473.077,2.441,-5.371,29.785,41.016,31.738,0
1583423473.081,-0.977,-17.578,26.367,36.133,33.691,0
1583423473.084,3.906,-7.812,19.531,52.246,67.871,0
1583423473.088,7.324,0.977,24.414,55.664,46.387,0
1583423473.092,10.254,1.465,26.855,33.691,31.250,0
1583423473.096,-0.488,-21.484,26.855,32.227,25.879,0
1583423473.100,-5.859,-14.648,32.227,58.105,46.387,0
1583423473.098,4.395,19.531,29.297,51.758,35.645,0
1583423473.102,9.277,8.301,30.762,36.133,-15.137,0
1583423473.106,18.066,-8.301,37.598,37.109,-3.418,0
1583423473.110,22.461,2.441,36.621,54.199,21.484,0
1583423473.114,22.461,23.438,35.645,70.312,28.320,0
1583423473.118,37.598,18.555,41.016,81.055,24.414,0
1583423473.122,42.969,8.301,40.527,57.617,20.996,0
1583423473.125,36.621,1.465,31.738,53.223,7.324,0
1583423473.129,36.133,-2.930,22.461,75.684,4.883,0
1583423473.133,40.039,-1.465,33.203,73.242,-20.020,0
1583423473.137,55.176,0.488,40.039,70.312,-4.395,0
1583423473.141,66.406,4.395,40.527,97.168,29.785,0
1583423473.137,63.965,15.137,37.109,125.488,41.016,0
1583423473.141,56.152,24.902,25.391,91.309,56.641,0
1583423473.145,54.688,18.555,17.578,46.875,33.203,0
1583423473.149,60.547,20.020,12.695,49.805,14.648,0
1583423473.153,68.359,21.973,8.301,64.941,25.391,0
1583423473.157,62.988,18.066,5.371,82.520,22.949,0
1583423473.161,51.758,11.230,13.184,63.477,16.113,0
1583423473.164,54.688,-9.277,12.695,38.574,21.484,0
1583423473.168,66.406,-20.020,8.789,66.406,35.156,0
1583423473.172,41.016,-7.812,3.906,72.266,32.227,0
1583423473.176,8.301,17.578,-3.906,25.391,39.062,0
1583423473.180,-20.020,29.297,-9.766,-40.039,36.133,0
1583423473.196,-26.855,19.043,-3.418,-35.156,2.441,0
1583423473.200,-1.953,22.949,0.977,10.254,1.465,0
1583423473.204,11.230,30.762,-2.441,14.160,22.949,0
1583423473.208,25.879,21.973,-5.859,16.602,15.625,0
1583423473.212,49.805,13.672,-3.418,19.531,20.508,0
1583423473.216,41.504,7.324,1.953,32.227,16.113,0
1583423473.220,47.363,8.301,4.395,49.316,20.508,0
1583423473.223,56.641,22.949,8.301,35.156,26.855,0
1583423473.227,57.129,33.203,11.230,31.250,35.156,0
1583423473.231,54.688,34.180,11.719,41.992,49.805,0
1583423473.235,34.180,33.691,12.695,44.922,11.719,0
1583423473.239,40.039,43.457,23.438,45.410,11.719,0
1583423473.237,59.082,48.828,41.992,42.480,26.367,0
1583423473.241,62.988,54.688,57.617,71.777,11.719,0
1583423473.245,76.660,82.520,68.848,97.168,27.344,0
1583423473.249,105.469,83.984,77.637,94.238,29.297,0
1583423473.253,116.211,86.914,87.891,97.656,18.555,0
1583423473.257,119.629,104.004,99.609,120.117,20.508,0
1583423473.261,134.277,117.188,109.863,156.250,32.227,0
1583423473.264,138.672,121.094,111.816,142.578,47.363,0
1583423473.268,130.859,104.980,110.840,102.539,17.578,0
1583423473.272,117.676,106.445,105.957,105.469,-20.508,0
1583423473.276,100.098,101.074,93.750,126.465,4.395,0
1583423473.280,78.125,88.867,98.145,122.559,17.578,0
1583423473.277,76.660,85.938,106.445,96.191,25.879,0
1583423473.281,51.758,80.566,105.469,60.547,19.531,0
1583423473.285,24.414,71.289,102.051,74.219,-1.465,0
1583423473.289,18.555,77.148,91.309,83.496,29.297,0
1583423473.293,7.812,80.078,86.914,47.363,0.488,0
1583423473.297,-8.301,71.289,85.938,5.859,-11.719,0
1583423473.301,-25.391,69.336,79.102,-8.301,-24.902,0
1583423473.304,-35.645,62.988,88.867,2.930,-77.148,0
1583423473.308,-34.180,74.219,90.820,5.371,-53.223,0
1583423473.312,-45.410,67.383,74.707,-20.020,-35.645,0
1583423473.316,-67.871,53.223,62.500,-53.223,-59.570,0
1583423473.320,-81.543,57.617,63.965,-43.945,-47.852,0
1583423473.336,-78.125,55.176,67.871,-47.363,-62.500,0
1583423473.340,-86.426,58.594,58.594,-90.820,-79.102,0
1583423473.344,-112.305,48.340,49.316,-113.281,-87.891,0
1583423473.348,-122.070,54.199,53.223,-107.910,-66.895,0
1583423473.352,-100.098,88.867,83.008,-77.148,-57.129,0
1583423473.356,-85.449,112.305,109.863,-59.082,-80.078,0
1583423473.360,-103.516,132.812,116.211,-79.102,-51.758,0
1583423473.363,-121.582,143.066,101.562,-91.309,-66.406,0
1583423473.367,-149.414,126.953,83.008,-105.469,-80.078,0
1583423473.371,-171.387,108.887,78.613,-136.230,-99.121,0
1583423473.375,-193.848,103.516,63.965,-166.504,-114.258,0
1583423473.379,-201.660,90.332,53.711,-178.223,-99.609,0
1583423473.377,-191.895,73.730,55.664,-150.879,-93.262,0
1583423473.381,-173.340,75.684,49.316,-142.578,-64.941,0
1583423473.385,-159.180,69.336,45.410,-146.973,-78.613,0
1583423473.389,-127.441,62.988,63.965,-105.957,-100.586,0
1583423473.393,-73.242,74.707,77.637,-43.457,-82.520,0
1583423473.397,-52.246,82.520,80.566,-12.695,-77.637,0
1583423473.401,-16.113,104.492,95.703,-7.324,-61.035,0
1583423473.404,24.902,107.910,107.422,8.789,-64.941,0
1583423473.408,26.855,84.961,93.750,37.109,-78.125,0
1583423473.412,12.207,71.777,77.637,60.547,-82.031,0
1583423473.416,7.324,59.570,75.195,50.781,-80.078,0
1583423473.420,28.809,41.992,70.312,41.504,-91.309,0
1583423473.436,41.504,21.973,64.453,70.312,-75.684,0
1583423473.440,40.039,1.465,62.500,107.422,-80.566,0
1583423473.444,53.711,5.859,55.176,97.168,-83.984,0
1583423473.448,73.242,23.926,55.664,77.637,-67.871,0
1583423473.452,85.938,14.160,63.965,95.703,-51.270,0
1583423473.456,67.871,14.160,55.664,104.492,-56.641,0
1583423473.460,65.430,33.691,54.199,107.422,-40.039,0
1583423473.463,73.730,41.504,55.176,79.102,-53.223,0
1583423473.467,80.566,58.105,53.711,72.266,-73.730,0
1583423473.471,106.445,82.031,81.543,142.090,-44.434,0
1583423473.475,133.789,97.656,107.422,172.363,-41.992,0
1583423473.479,138.184,93.262,121.582,156.738,-50.293,0
1583423473.476,132.324,95.215,132.812,156.250,-49.316,0
1583423473.480,140.625,119.629,139.648,178.223,-32.715,0
1583423473.484,144.043,124.512,145.020,187.500,-37.598,0
1583423473.488,141.602,109.375,139.160,170.898,-52.246,0
1583423473.492,137.695,102.539,133.301,162.109,-36.621,0
1583423473.496,132.324,110.840,123.535,166.016,-40.039,0
1583423473.500,124.023,121.094,120.605,180.664,-27.832,0
1583423473.503,124.512,111.328,121.094,157.715,-22.949,0
1583423473.507,126.465,88.867,108.398,119.141,-60.547,0
1583423473.511,123.535,84.961,104.004,132.812,-62.500,0
1583423473.515,110.840,85.449,103.027,157.227,-58.594,0
1583423473.519,108.398,83.008,96.191,148.438,-57.129,0
1583423473.516,111.816,83.984,85.449,123.535,-58.105,0
1583423473.520,102.539,79.102,81.055,120.605,-50.293,0
1583423473.524,96.191,75.195,81.055,134.766,-25.879,0
1583423473.528,93.262,66.406,80.078,131.348,-52.734,0
1583423473.532,109.375,56.152,85.938,110.352,-66.895,0
1583423473.536,115.234,60.547,78.125,100.586,-48.828,0
1583423473.540,103.027,73.242,73.242,126.465,-13.672,0
1583423473.543,106.934,77.148,76.172,151.367,-14.160,0
1583423473.547,106.445,64.941,66.406,133.301,-50.781,0
1583423473.551,104.492,57.617,62.012,120.117,-44.434,0
1583423473.555,110.352,42.969,64.453,131.348,-6.836,0
1583423473.559,118.652,32.715,59.570,140.137,-12.695,0
1583423473.576,113.281,41.016,46.387,141.602,13.672,0
1583423473.580,116.699,41.504,41.016,124.512,21.973,0
1583423473.584,122.070,42.480,38.574,115.234,-1.953,0
1583423473.588,125.488,37.109,27.832,141.602,2.930,0
1583423473.592,133.789,25.879,22.949,162.109,-10.254,0
1583423473.596,144.043,4.883,20.020,153.809,6.348,0
1583423473.600,141.113,-12.695,1.465,144.531,10.254,0
1583423473.603,130.859,1.465,-4.395,155.762,-0.977,0
1583423473.607,136.719,17.090,5.371,162.109,33.691,0
1583423473.611,134.766,4.883,2.930,128.906,61.035,0
1583423473.615,131.836,-2.441,1.953,108.398,54.688,0
1583423473.619,143.066,20.508,18.066,146.973,56.152,0
1583423473.617,139.160,30.762,42.969,170.410,68.359,0
1583423473.621,129.883,3.906,62.988,145.996,48.340,0
1583423473.625,111.328,10.742,62.988,114.258,14.160,0
1583423473.629,77.637,42.969,52.734,102.051,2.441,0
1583423473.633,64.941,52.246,62.500,115.234,2.930,0
1583423473.637,95.703,35.645,55.664,120.117,2.441,0
1583423473.641,157.715,28.320,31.250,124.023,14.160,0
1583423473.644,220.215,48.340,48.828,201.172,15.625,0
1583423473.648,229.004,71.289,82.520,239.258,66.406,0
1583423473.652,202.637,68.848,88.867,225.098,94.238,0
1583423473.656,205.566,52.246,77.148,192.383,46.875,0
1583423473.660,199.219,47.363,67.871,154.785,64.453,0
1583423473.656,185.059,30.762,73.730,162.598,87.891,0
1583423473.660,166.504,23.926,80.566,157.227,109.375,0
1583423473.664,130.859,-3.418,88.379,130.859,109.863,0
1583423473.668,117.188,-28.320,76.172,93.750,80.078,0
1583423473.672,111.816,-23.926,50.781,79.590,59.570,0
1583423473.676,92.773,-13.184,52.734,90.332,50.781,0
1583423473.680,90.820,-13.672,66.895,91.309,53.223,0
1583423473.683,104.980,-30.273,65.430,83.984,39.551,0
1583423473.687,128.418,-20.508,66.406,119.629,50.293,0
1583423473.691,169.922,8.789,78.125,203.613,79.102,0
1583423473.695,224.609,22.461,78.125,290.527,112.793,0
1583423473.699,271.484,13.184,92.285,324.219,124.023,0
1583423473.716,308.105,3.418,96.191,349.121,142.578,0
1583423473.720,342.285,9.277,99.609,381.836,181.641,0
1583423473.724,361.816,12.695,107.910,387.207,211.914,0
1583423473.728,350.586,7.324,104.004,376.465,209.473,0
1583423473.732,353.516,9.766,105.469,366.699,212.402,0
1583423473.736,331.543,-4.883,112.793,353.027,229.004,0
1583423473.740,299.805,-8.789,105.957,326.660,228.027,0
1583423473.743,300.293,18.066,93.750,309.082,221.680,0
1583423473.747,274.414,41.016,94.238,290.039,232.422,0
1583423473.751,251.953,50.293,91.309,276.367,232.422,0
1583423473.755,222.656,52.246,89.355,279.297,225.586,0
1583423473.759,183.594,41.016,96.191,251.465,207.031,0
1583423473.756,161.133,39.062,88.867,192.871,181.641,0
1583423473.760,146.973,43.457,82.031,182.129,156.250,0
1583423473.764,118.652,39.551,78.613,199.219,148.438,0
1583423473.768,95.703,38.086,73.730,177.246,136.230,0
1583423473.772,88.379,40.527,72.266,115.723,119.629,0
1583423473.776,66.406,43.457,67.871,83.008,96.680,0
1583423473.780,22.949,41.504,67.871,101.562,84.473,0
1583423473.783,10.742,46.875,64.941,100.586,97.656,0
1583423473.787,15.137,51.758,64.941,65.430,103.027,0
1583423473.791,-12.207,47.852,62.988,36.621,76.660,0
1583423473.795,-39.551,46.387,61.523,34.668,47.852,0
1583423473.799,-54.688,47.852,64.941,37.109,51.758,0
1583423473.796,-61.523,44.922,57.617,24.414,43.945,0
1583423473.800,-69.824,40.039,52.734,4.395,20.020,0
1583423473.804,-98.145,41.504,60.059,10.254,14.160,0
1583423473.808,-95.215,47.852,59.570,35.156,-2.930,0
1583423473.812,-73.730,65.430,56.641,26.367,-18.555,0
1583423473.816,-76.172,72.266,60.059,17.090,0.488,0
1583423473.820,-103.516,70.312,53.711,17.090,16.113,0
1583423473.823,-102.539,62.012,49.805,13.184,0.488,0
1583423473.827,-84.961,46.387,54.199,30.762,-30.273,0
1583423473.831,-76.660,49.805,50.781,25.879,-21.973,0
1583423473.835,-56.152,56.152,50.293,26.855,20.020,0
1583423473.839,-43.457,62.012,52.246,65.918,16.602,0
1583423473.856,-30.762,54.688,48.340,75.684,17.578,0
1583423473.860,-12.207,64.941,60.059,51.270,5.371,0
1583423473.864,3.418,90.820,68.848,54.199,-16.602,0
1583423473.868,3.418,94.727,73.242,85.938,9.277,0
1583423473.872,6.348,90.332,76.172,107.910,3.906,0
1583423473.876,24.414,79.102,71.777,87.402,-2.441,0
1583423473.880,17.578,68.359,72.754,71.289,-4.883,0
1583423473.883,-1.465,71.777,62.988,59.570,-24.414,0
1583423473.887,6.348,81.543,57.617,67.383,0.488,0
1583423473.891,12.695,73.242,56.641,81.543,16.113,0
1583423473.895,10.254,60.547,49.805,49.316,-10.254,0
1583423473.899,20.020,55.664,54.688,40.527,-24.414,0
1583423473.896,22.949,61.523,55.176,66.406,-24.902,0
1583423473.900,26.367,57.129,46.387,59.570,-25.879,0
1583423473.904,31.250,56.152,46.387,31.738,-9.277,0
1583423473.908,13.672,55.176,47.363,24.902,-19.043,0
1583423473.912,6.348,47.852,44.922,37.109,-41.504,0
1583423473.916,10.254,51.758,50.293,49.805,-28.809,0
1583423473.920,9.277,60.059,55.664,31.250,-15.625,0
1583423473.923,-5.859,62.988,54.688,7.324,-22.949,0
1583423473.927,-22.949,61.523,55.664,26.855,-2.930,0
1583423473.931,-11.230,43.945,59.570,58.594,0.977,0
1583423473.935,0.977,37.598,63.477,34.668,-44.922,0
1583423473.939,-8.301,52.246,53.711,-15.137,-57.617,0
1583423473.936,-8.301,55.176,43.457,15.137,-24.414,0
1583423473.940,-17.578,59.082,52.734,22.461,-11.719,0
1583423473.944,-25.879,55.176,59.570,0.488,-43.457,0
1583423473.948,-33.203,48.828,53.223,8.789,-52.246,0
1583423473.952,-51.758,53.223,58.105,6.836,-43.945,0
1583423473.956,-45.898,47.852,57.129,18.066,-54.688,0
1583423473.960,-34.180,10.742,64.453,41.504,-26.855,0
1583423473.963,-16.113,-1.953,66.406,55.664,-29.785,0
1583423473.967,-12.207,53.223,45.410,30.762,-70.312,0
1583423473.971,-37.598,91.309,33.203,-18.555,-43.945,0
1583423473.975,-49.805,69.336,30.762,-17.090,11.230,0
1583423473.979,-59.570,60.547,25.391,-37.598,-7.324,0
1583423473.996,-103.027,58.105,30.273,-76.660,-55.664,0
1583423474.000,-99.609,63.965,21.973,-49.805,-60.059,0
1583423474.004,-90.820,77.148,20.020,-36.133,-40.527,0
1583423474.008,-104.492,71.289,20.996,-63.965,-14.648,0
1583423474.012,-84.473,67.871,10.254,-81.055,-34.668,0
1583423474.016,-76.660,69.336,13.184,-75.195,-58.594,0
1583423474.020,-76.172,69.824,19.531,-83.496,-64.941,0
1583423474.023,-63.965,70.312,10.254,-76.172,-56.641,0
1583423474.027,-62.988,62.500,-6.836,-74.219,-42.969,0
1583423474.031,-84.961,53.711,-9.766,-99.609,-52.734,0
1583423474.035,-82.520,54.199,-20.020,-94.727,-70.312,0
1583423474.039,-84.961,38.086,-19.531,-73.242,-73.730,0
1583423474.036,-92.773,39.062,-26.367,-96.191,-67.871,0
1583423474.040,-59.082,50.293,-44.434,-115.234,-54.199,0
1583423474.044,-49.316,54.199,-40.527,-91.797,-66.895,0
1583423474.048,-63.965,54.688,-41.992,-55.176,-63.965,0
1583423474.052,-42.480,53.711,-38.086,-67.383,-39.551,0
1583423474.056,-3.906,64.941,-18.066,-55.664,-68.359,0
1583423474.060,16.113,77.637,-1.953,-12.695,-65.430,0
1583423474.063,26.367,78.125,6.836,5.859,-61.035,0
1583423474.067,54.199,84.473,10.254,21.973,-64.453,0
1583423474.071,54.688,79.102,11.230,5.371,-59.082,0
1583423474.075,54.199,66.895,18.066,10.742,-94.238,0
1583423474.079,60.547,71.777,26.855,27.832,-41.992,0
1583423474.077,49.805,76.172,29.297,18.066,-0.977,0
1583423474.081,51.270,75.195,36.133,23.926,-37.109,0
1583423474.085,68.848,61.035,36.133,15.137,-75.684,0
1583423474.089,86.426,63.477,47.363,32.227,-59.570,0
1583423474.093,62.988,80.566,41.016,36.133,-45.410,0
1583423474.097,82.520,90.820,41.992,59.082,-58.594,0
1583423474.101,101.562,89.355,59.082,75.195,-52.246,0
1583423474.104,90.332,88.867,55.664,80.078,-50.781,0
1583423474.108,104.004,88.867,53.223,90.820,-48.828,0
1583423474.112,96.680,86.426,57.617,85.449,-12.207,0
1583423474.116,87.402,83.008,63.965,69.336,-16.602,0
1583423474.120,88.379,77.637,69.336,87.402,-33.691,0
1583423474.136,97.168,68.359,71.289,105.469,-38.574,0
1583423474.140,116.699,72.266,79.590,100.098,-42.969,0
1583423474.144,126.953,89.844,71.777,105.957,-5.371,0
1583423474.148,125.977,77.637,70.312,133.789,4.395,0
1583423474.152,115.723,59.082,77.148,133.789,13.672,0
1583423474.156,109.375,60.059,74.707,137.207,-1.953,0
1583423474.160,110.352,66.406,72.266,128.906,-55.664,0
1583423474.163,115.723,79.102,71.777,117.676,-29.297,0
1583423474.167,113.770,82.031,72.266,139.648,15.137,0
1583423474.171,105.469,68.359,82.031,143.555,9.766,0
1583423474.175,116.699,68.848,84.473,125.000,19.531,0
1583423474.179,118.164,81.543,73.242,107.422,13.184,0
1583423474.176,98.633,84.473,83.008,126.953,0.000,0
1583423474.180,110.352,84.961,73.242,141.602,20.020,0
1583423474.184,117.188,86.914,60.059,144.531,43.457,0
1583423474.188,111.816,79.102,73.242,128.418,35.645,0
1583423474.192,110.352,80.078,75.195,127.930,28.320,0
1583423474.196,121.094,78.125,65.918,153.809,34.668,0
1583423474.200,111.816,72.266,68.848,146.484,32.715,0
1583423474.203,113.281,80.566,70.312,124.512,16.113,0
1583423474.207,104.980,84.473,71.289,111.328,9.277,0
1583423474.211,84.961,86.426,72.754,119.629,20.020,0
1583423474.215,99.609,80.566,64.941,143.066,33.691,0
1583423474.219,116.699,71.777,63.477,116.211,36.621,0
1583423474.217,87.891,62.988,69.824,104.492,19.043,0
1583423474.221,82.031,61.035,70.801,131.836,26.367,0
1583423474.225,104.980,67.871,66.406,176.758,35.645,0
1583423474.229,116.699,62.988,66.895,159.668,28.320,0
1583423474.233,103.027,57.129,70.312,100.586,21.484,0
1583423474.237,83.008,71.289,73.242,108.887,23.926,0
1583423474.241,81.055,79.102,72.754,150.879,16.602,0
1583423474.244,79.590,71.777,67.871,149.414,-8.789,0
1583423474.248,86.426,71.289,62.500,114.746,3.906,0
1583423474.252,76.660,73.242,55.176,88.867,12.695,0
1583423474.256,65.918,65.430,44.922,110.840,-13.184,0
1583423474.260,89.844,68.848,54.199,140.137,19.043,0
1583423474.276,88.379,62.500,73.730,127.441,7.324,0
1583423474.280,62.500,48.340,78.613,93.750,-7.324,0
1583423474.284,63.477,50.781,76.660,98.145,39.551,0
1583423474.288,70.312,56.641,73.730,118.164,41.016,0
1583423474.292,79.590,68.359,66.895,101.562,18.555,0
1583423474.296,72.754,76.172,72.266,101.074,29.297,0
1583423474.300,81.543,79.102,83.008,126.465,21.484,0
1583423474.303,74.219,79.102,81.543,128.418,2.930,0
1583423474.307,47.852,66.406,79.102,123.535,33.691,0
1583423474.311,60.547,39.551,78.125,84.961,44.434,0
1583423474.315,90.332,36.621,75.684,104.980,31.738,0
1583423474.319,83.008,32.227,72.266,107.422,4.395,0
1583423474.317,39.551,27.832,68.359,84.473,14.160,0
1583423474.321,39.062,47.852,63.477,91.797,36.133,0
1583423474.325,56.152,64.941,62.988,62.988,-5.859,0
1583423474.329,65.918,62.012,74.707,96.680,1.953,0
1583423474.333,64.453,60.547,83.496,106.934,11.230,0
1583423474.337,60.547,57.617,76.660,64.453,-16.113,0
1583423474.341,56.152,56.152,75.684,63.477,-19.531,0
1583423474.344,44.922,62.500,73.730,55.176,-22.461,0
1583423474.348,36.133,53.223,77.148,68.848,-25.879,0
1583423474.352,39.062,30.273,88.867,77.148,-35.645,0
1583423474.356,50.781,21.484,80.566,59.570,-35.645,0
1583423474.360,52.246,39.062,78.613,72.266,-23.926,0
1583423474.357,39.551,54.199,84.961,67.871,-33.691,0
1583423474.361,32.227,50.293,85.449,45.410,-33.203,0
1583423474.365,33.691,45.410,82.520,33.203,-20.996,0
1583423474.369,34.180,57.129,83.008,39.551,-23.926,0
1583423474.373,56.641,46.387,83.008,55.664,-12.695,0
1583423474.377,62.988,28.320,81.055,63.965,-20.508,0
1583423474.381,39.551,43.945,83.984,62.988,-16.113,0
1583423474.384,29.297,37.598,97.168,47.852,-51.270,0
1583423474.388,30.273,23.438,86.426,52.246,-68.848,0
1583423474.392,33.691,37.598,73.242,69.336,-19.531,0
1583423474.396,31.738,51.270,82.520,55.176,-2.930,0
1583423474.400,33.203,57.617,77.637,47.852,-26.855,0
1583423474.416,32.227,46.387,72.754,63.965,-36.621,0
1583423474.420,25.391,43.945,73.242,70.312,-30.273,0
1583423474.424,11.719,39.062,73.242,41.504,-34.180,0
1583423474.428,9.766,35.156,71.777,10.742,-29.297,0
1583423474.432,10.254,51.758,66.406,24.902,-56.641,0
1583423474.436,-15.137,46.875,65.918,24.414,-74.707,0
1583423474.440,-39.551,48.828,63.965,17.578,-91.797,0
1583423474.443,-47.363,42.480,66.895,-1.465,-82.031,0
1583423474.447,-66.406,24.902,68.848,-33.203,-84.473,0
1583423474.451,-82.520,36.621,70.312,-38.574,-100.098,0
1583423474.455,-106.445,45.898,61.523,-54.688,-130.371,0
1583423474.459,-148.926,19.043,44.922,-100.586,-149.902,0
1583423474.456,-157.715,9.277,51.270,-131.348,-147.461,0
1583423474.460,-175.293,21.973,51.758,-144.043,-148.926,0
1583423474.464,-218.262,20.996,48.828,-166.504,-169.434,0
1583423474.468,-270.996,36.133,54.199,-207.031,-197.266,0
1583423474.472,-313.965,38.574,55.176,-245.605,-223.145,0
1583423474.476,-322.754,32.715,59.082,-257.812,-277.344,0
1583423474.480,-321.777,20.996,55.664,-247.070,-283.691,0
1583423474.483,-354.004,-0.977,44.922,-258.789,-282.227,0
1583423474.487,-369.629,-3.906,35.645,-287.598,-303.223,0
1583423474.491,-347.168,8.789,35.645,-258.789,-307.617,0
1583423474.495,-321.777,30.273,54.688,-217.773,-296.387,0
1583423474.499,-285.645,43.945,67.871,-199.707,-276.855,0
1583423474.496,-260.254,44.434,72.754,-186.523,-275.879,0
1583423474.500,-253.906,49.805,84.961,-156.738,-280.762,0
1583423474.504,-217.773,57.129,93.262,-122.070,-273.926,0
1583423474.508,-185.059,56.152,82.520,-120.117,-285.156,0
1583423474.512,-164.551,61.035,83.496,-119.629,-292.480,0
1583423474.516,-140.137,64.941,93.262,-91.797,-294.434,0
1583423474.520,-128.906,54.199,102.051,-66.895,-310.547,0
1583423474.523,-115.723,46.875,95.703,-43.945,-286.133,0
1583423474.527,-113.770,51.758,77.637,-39.551,-277.344,0
1583423474.531,-105.469,58.594,88.379,-35.645,-275.391,0
1583423474.535,-71.777,61.523,93.262,-5.859,-261.719,0
1583423474.539,-50.781,61.523,92.773,18.555,-235.840,0
1583423474.556,-31.738,46.387,90.332,29.297,-214.355,0
1583423474.560,-9.277,29.785,86.914,25.391,-229.980,0
1583423474.564,3.418,42.969,85.449,27.832,-229.004,0
1583423474.568,26.367,62.012,81.055,74.219,-206.543,0
1583423474.572,31.250,53.223,91.309,93.750,-199.707,0
1583423474.576,40.039,35.156,92.285,88.867,-194.824,0
1583423474.580,54.199,59.570,92.773,122.559,-190.918,0
1583423474.583,68.359,77.148,90.332,140.625,-156.738,0
1583423474.587,95.703,72.266,79.590,133.301,-132.324,0
1583423474.591,103.027,75.684,81.543,113.281,-122.070,0
1583423474.595,92.285,69.336,86.914,108.398,-122.559,0
1583423474.599,96.680,63.477,86.914,129.395,-116.699,0
1583423474.596,121.582,72.754,78.125,163.086,-99.609,0
1583423474.600,125.000,82.031,67.871,167.480,-95.703,0
1583423474.604,119.629,74.219,77.637,154.785,-95.703,0
1583423474.608,139.160,65.918,84.961,184.082,-60.059,0
1583423474.612,161.621,62.988,88.379,201.172,-45.898,0
1583423474.616,174.316,68.359,84.473,195.312,-68.848,0
1583423474.620,169.922,74.707,74.707,177.734,-39.551,0
1583423474.623,140.625,60.547,65.918,161.621,-22.461,0
1583423474.627,118.652,25.879,41.016,159.180,-51.270,0
1583423474.631,67.383,-25.391,-21.484,102.051,-58.105,0
1583423474.635,5.371,-74.219,-85.938,29.297,-31.250,0
1583423474.639,-14.648,-101.074,-115.234,-2.930,-10.254,0
1583423474.636,-36.621,-129.395,-134.766,-18.066,-18.066,0
1583423474.640,-61.523,-144.531,-145.508,-21.973,-32.227,0
1583423474.644,-51.270,-153.320,-156.738,-37.109,-39.062,0
1583423474.648,-31.250,-166.992,-162.109,-46.387,-10.254,0
1583423474.652,-32.715,-173.828,-158.691,-42.969,20.996,0
1583423474.656,-38.574,-175.293,-158.203,-32.227,20.996,0
1583423474.660,-44.922,-172.363,-157.715,-43.457,8.301,0
1583423474.663,-36.621,-167.480,-158.203,-71.777,-4.395,0
1583423474.667,-14.160,-156.250,-169.434,-75.195,-0.977,0
1583423474.671,-47.363,-171.875,-181.152,-54.199,13.184,0
1583423474.675,-61.035,-183.594,-179.688,-52.734,27.832,0
1583423474.679,-40.039,-179.688,-166.992,-60.547,19.043,0
1583423474.696,-31.250,-177.734,-168.457,-45.898,8.301,0
1583423474.700,6.836,-149.414,-173.828,1.953,38.086,0
1583423474.704,15.137,-129.883,-145.020,24.902,60.059,0
1583423474.708,-7.812,-127.441,-112.305,-20.020,43.457,0
1583423474.712,-10.742,-128.418,-98.633,-30.273,6.348,0
1583423474.716,2.930,-121.094,-95.215,7.324,-8.789,0
1583423474.720,2.441,-104.980,-95.215,17.090,14.160,0
1583423474.723,5.371,-105.469,-86.914,-2.930,21.484,0
1583423474.727,22.461,-102.051,-79.102,-19.531,28.809,0
1583423474.731,17.090,-84.473,-75.195,-0.977,50.293,0
1583423474.735,10.254,-87.402,-79.102,1.953,14.160,0
1583423474.739,6.836,-95.215,-73.730,-4.395,16.113,0
1583423474.736,24.902,-93.262,-67.871,2.441,51.758,0
1583423474.740,39.551,-100.098,-68.848,0.488,32.715,0
1583423474.744,27.832,-98.633,-65.918,20.020,19.043,0
1583423474.748,25.391,-80.566,-61.035,31.250,38.086,0
1583423474.752,20.020,-68.848,-52.246,10.254,40.527,0
1583423474.756,18.555,-60.547,-50.781,6.836,35.645,0
1583423474.760,28.809,-57.129,-44.922,34.180,33.691,0
1583423474.763,42.969,-56.152,-37.109,61.523,46.875,0
1583423474.767,44.922,-48.828,-33.203,39.551,56.152,0
1583423474.771,34.668,-54.688,-27.832,15.137,34.668,0
1583423474.775,37.109,-65.430,-30.273,34.668,51.270,0
1583423474.779,36.621,-47.852,-30.762,29.785,56.641,0
1583423474.777,50.781,-12.207,-27.344,24.414,61.523,0
1583423474.781,39.062,-9.277,-15.625,27.344,54.199,0
1583423474.785,28.320,-19.043,-11.719,24.902,36.621,0
1583423474.789,37.109,-13.672,-21.484,31.738,56.152,0
1583423474.793,37.109,-18.555,-10.742,27.832,42.480,0
1583423474.797,51.758,-26.855,8.301,12.207,1.953,0
1583423474.801,43.457,-21.484,13.184,21.484,-12.695,0
1583423474.804,31.738,-4.395,17.578,45.898,-27.832,0
1583423474.808,35.156,-1.953,22.461,23.438,-19.043,0
1583423474.812,33.691,-6.836,25.391,-1.465,9.277,0
1583423474.816,29.297,5.859,28.809,23.926,22.461,0
1583423474.820,28.320,19.043,40.039,59.570,26.367,0
1583423474.836,38.574,44.434,44.434,56.152,28.320,0
1583423474.840,59.082,54.688,45.410,22.461,20.996,0
1583423474.844,55.176,60.059,56.152,17.090,28.809,0
1583423474.848,42.969,79.102,67.871,47.363,30.762,0
1583423474.852,52.246,89.355,75.684,71.777,6.836,0
1583423474.856,74.219,85.449,86.426,77.637,-11.230,0
1583423474.860,73.730,87.402,93.750,60.547,-20.020,0
1583423474.863,52.734,101.562,94.727,84.961,-11.230,0
1583423474.867,66.895,99.121,98.633,109.863,6.348,0
1583423474.871,98.145,99.121,106.445,99.609,4.395,0
1583423474.875,99.121,96.680,116.699,90.820,-1.953,0
1583423474.879,97.656,86.426,124.023,94.727,-4.395,0
1583423474.877,104.980,97.656,132.324,107.910,-10.254,0
1583423474.881,105.469,110.840,135.742,124.512,-17.090,0
1583423474.885,120.605,111.816,129.395,117.188,2.441,0
1583423474.889,122.070,108.887,131.836,106.934,7.324,0
1583423474.893,119.629,105.469,137.207,126.465,12.207,0
1583423474.897,126.953,102.539,140.625,143.555,17.090,0
1583423474.901,137.207,115.723,136.230,142.578,-1.953,0
1583423474.904,139.160,133.789,135.742,137.207,-9.766,0
1583423474.908,133.789,132.324,152.832,160.156,-14.648,0
1583423474.912,142.578,136.719,158.203,165.527,-6.836,0
1583423474.916,140.137,132.812,149.902,145.020,21.484,0
1583423474.920,123.047,118.652,146.973,146.484,10.254,0
1583423474.936,133.301,130.371,146.973,155.762,-8.789,0
1583423474.940,145.996,146.973,144.043,166.504,-13.184,0
1583423474.944,146.484,148.926,155.762,155.273,-7.812,0
1583423474.948,159.180,146.973,161.621,142.090,-2.930,0
1583423474.952,156.250,131.836,151.855,162.598,14.160,0
1583423474.956,152.344,126.953,156.250,179.199,12.207,0
1583423474.960,152.344,129.395,138.672,170.898,0.000,0
1583423474.963,112.305,75.684,90.332,104.492,-22.949,0
1583423474.967,67.383,38.086,55.176,63.965,-22.461,0
1583423474.971,77.148,65.430,64.941,106.934,13.672,0
1583423474.975,118.164,113.281,101.074,152.344,37.109,0
1583423474.979,135.254,124.023,129.395,153.809,18.066,0
1583423474.976,147.949,133.301,134.277,147.949,6.348,0
1583423474.980,157.715,145.020,132.812,165.039,-0.488,0
1583423474.984,126.953,114.258,112.793,156.250,-10.254,0
1583423474.988,95.215,73.242,74.707,115.234,0.488,0
1583423474.992,84.473,52.734,62.012,85.938,6.836,0
1583423474.996,62.988,41.992,60.547,77.148,17.090,0
1583423475.000,40.039,35.645,50.781,76.172,24.414,0
1583423475.003,28.320,24.902,35.645,64.941,-5.859,0
1583423475.007,31.250,16.113,25.391,47.852,-4.883,0
1583423475.011,44.922,13.184,20.020,41.016,32.715,0
1583423475.015,29.785,8.789,16.602,51.758,-8.301,0
1583423475.019,12.695,-2.441,20.996,67.871,-9.766,0
1583423475.017,17.578,-4.883,10.254,34.668,-3.906,0
1583423475.021,12.207,10.254,-9.277,-11.230,-28.809,0
1583423475.025,12.695,7.812,-18.555,-4.395,-6.348,0
1583423475.029,0.488,0.000,-20.020,15.625,13.184,0
1583423475.033,3.906,-4.883,-14.160,12.695,-2.930,0
1583423475.037,0.488,-30.273,-13.672,1.465,-21.973,0
1583423475.041,-24.902,-25.879,-10.742,8.789,-25.879,0
1583423475.044,-24.902,1.465,-8.789,20.508,8.301,0
1583423475.048,-27.344,-3.418,-9.766,8.789,7.324,0
1583423475.052,-20.508,-13.672,-12.207,-5.371,-23.926,0
1583423475.056,-27.344,-19.531,-21.484,-5.859,-18.066,0
1583423475.060,-49.316,-24.414,-34.668,1.953,-28.809,0
1583423475.076,-45.410,-38.086,-54.688,-2.930,9.766,0
1583423475.080,-46.387,-62.500,-57.617,-36.621,7.812,0
1583423475.084,-45.898,-63.965,-50.293,-48.828,-23.438,0
1583423475.088,-50.781,-62.012,-55.664,-31.738,19.531,0
1583423475.092,-56.641,-71.777,-60.059,-32.227,30.762,0
1583423475.096,-52.734,-74.707,-58.594,-38.574,28.809,0
1583423475.100,-71.777,-77.148,-58.105,-57.129,-5.859,0
1583423475.103,-88.867,-77.148,-67.871,-47.852,-52.734,0
1583423475.107,-73.242,-73.242,-62.012,-13.184,-21.484,0
1583423475.111,-57.129,-61.523,-62.012,-20.996,1.465,0
1583423475.115,-51.270,-73.242,-78.613,-41.016,-3.418,0
1583423475.119,-48.340,-114.258,-69.824,-45.898,-16.602,0
1583423475.116,-65.918,-99.121,-63.477,-25.391,-14.160,0
1583423475.120,-67.871,-62.012,-72.266,-40.527,-11.230,0
1583423475.124,-73.730,-73.730,-73.730,-69.824,-18.066,0
1583423475.128,-81.543,-86.914,-78.613,-52.246,6.836,0
1583423475.132,-50.293,-52.246,-58.105,-9.766,-21.484,0
1583423475.136,-15.137,-5.859,-23.438,19.531,-44.922,0
1583423475.140,70.801,54.199,47.363,69.336,-26.855,0
1583423475.143,226.074,175.293,200.684,205.078,-49.805,0
1583423475.147,319.336,285.645,304.199,328.125,-21.973,0
1583423475.151,360.352,335.449,345.703,371.582,9.277,0
1583423475.155,371.094,320.801,341.797,360.352,-9.277,0
1583423475.159,382.324,333.496,347.656,371.094,-13.672,0
1583423475.157,393.555,365.723,374.023,402.832,-5.371,0
1583423475.161,386.719,376.465,393.066,420.898,12.695,0
1583423475.165,375.977,373.535,394.043,403.809,17.090,0
1583423475.169,316.895,306.641,323.242,318.848,-14.648,0
1583423475.173,222.168,215.332,232.422,245.605,-17.090,0
1583423475.177,138.672,135.254,164.551,193.359,-1.465,0
1583423475.181,93.262,86.426,109.375,133.301,-0.488,0
1583423475.184,67.383,46.875,74.219,83.496,0.000,0
1583423475.188,35.645,11.719,49.316,57.617,-25.391,0
1583423475.192,-2.441,-1.953,12.695,42.969,-43.457,0
1583423475.196,-18.555,-20.020,-20.996,14.648,-13.184,0
1583423475.200,-33.203,-42.969,-28.320,-17.090,22.461,0
1583423475.216,-37.109,-50.781,-34.180,-26.855,12.695,0
1583423475.220,-35.645,-35.645,-35.156,-5.859,-15.625,0
1583423475.224,-45.898,-42.969,-34.180,-3.418,5.371,0
1583423475.228,-43.945,-54.688,-34.180,-16.113,9.766,0
1583423475.232,-42.480,-58.594,-29.785,-22.949,-16.113,0
1583423475.236,-34.180,-62.012,-27.832,-14.160,6.348,0
1583423475.240,-32.715,-37.109,-24.414,13.184,4.883,0
1583423475.243,-37.109,-18.066,-18.555,-0.488,-40.527,0
1583423475.247,-36.621,-15.137,-23.438,-34.668,-5.371,0
1583423475.251,-41.504,-21.484,-27.344,-22.949,26.367,0
1583423475.255,-41.992,-41.504,-24.414,-7.324,2.930,0
1583423475.259,-38.086,-38.574,-21.484,-6.348,-19.043,0
1583423475.257,-38.574,-21.484,-27.344,-21.484,-1.953,0
1583423475.261,-32.715,-26.367,-31.738,-16.602,24.414,0
1583423475.265,-16.602,-19.043,-14.160,10.742,20.996,0
1583423475.269,-0.488,6.348,7.324,21.973,4.883,0
1583423475.273,38.574,30.273,39.062,51.270,-9.766,0
1583423475.277,96.680,58.594,85.449,101.562,-23.926,0
1583423475.281,112.793,94.727,106.934,148.438,-38.574,0
1583423475.284,81.543,97.656,88.379,125.488,-40.039,0
1583423475.288,56.641,42.969,62.012,68.359,-32.227,0
1583423475.292,29.785,-20.020,41.504,40.039,-18.555,0
1583423475.296,-5.859,-20.020,16.602,26.367,-40.527,0
1583423475.300,-12.207,9.766,1.953,30.762,3.906,0
1583423475.296,-6.348,-6.836,-15.137,11.230,23.438,0
1583423475.300,-17.090,-32.227,-40.527,-10.254,14.160,0
1583423475.304,-18.066,-47.363,-47.852,-2.930,20.508,0
1583423475.308,-23.438,-37.598,-32.227,3.418,-16.113,0
1583423475.312,-13.672,-6.348,-8.789,26.855,-24.414,0
1583423475.316,23.926,5.371,17.578,35.156,-4.883,0
1583423475.320,35.156,19.531,41.016,49.805,-1.465,0
1583423475.323,41.016,42.969,58.105,96.680,-7.324,0
1583423475.327,50.293,59.082,61.035,99.609,-12.207,0
1583423475.331,36.621,62.500,45.898,69.824,-45.898,0
1583423475.335,34.180,51.270,46.875,49.805,-6.348,0
1583423475.339,44.434,35.156,51.270,64.453,-9.766,0
1583423475.356,41.504,34.668,48.828,89.355,-46.387,0
1583423475.360,40.527,33.203,39.551,57.617,-20.996,0
1583423475.364,20.508,22.461,15.137,30.273,-31.738,0
1583423475.368,11.230,23.438,2.441,38.086,-20.996,0
1583423475.372,11.230,14.160,10.742,49.316,-10.254,0
1583423475.376,4.395,2.930,7.812,46.387,-18.066,0
1583423475.380,-5.371,2.930,-7.324,19.531,-18.555,0
1583423475.383,-1.953,-3.906,-1.953,21.484,2.441,0
1583423475.387,-3.418,-15.137,0.000,26.855,25.879,0
1583423475.391,-11.719,-24.414,-7.812,16.602,21.484,0
1583423475.395,-21.484,-18.555,-11.230,13.184,14.160,0
1583423475.399,-41.504,-18.066,-17.578,3.906,-13.672,0
1583423475.396,-45.898,-26.367,-31.250,7.812,-16.602,0
1583423475.400,-40.527,-34.668,-43.457,-6.836,14.648,0
1583423475.404,-37.598,-32.715,-51.758,-26.367,17.090,0
1583423475.408,-27.344,-11.230,-37.598,-15.625,16.602,0
1583423475.412,-4.883,2.930,-6.348,15.137,1.465,0
1583423475.416,13.672,6.348,13.672,56.641,-7.324,0
1583423475.420,40.039,26.855,24.414,55.664,11.230,0
1583423475.423,41.016,55.176,27.344,32.715,5.371,0
1583423475.427,37.109,70.312,33.203,58.594,0.977,0
1583423475.431,58.594,58.594,46.387,93.262,-7.812,0
1583423475.435,44.434,51.270,51.758,86.914,-14.648,0
1583423475.439,26.855,65.430,46.387,55.664,7.324,0
1583423475.436,29.297,66.406,36.621,45.410,5.859,0
1583423475.440,46.875,57.617,38.086,70.312,-1.953,0
1583423475.444,62.988,46.387,58.594,83.008,-10.254,0
1583423475.448,45.410,54.688,65.918,60.059,-14.648,0
1583423475.452,29.297,62.012,57.129,39.062,-0.488,0
1583423475.456,32.715,42.969,51.270,55.664,-3.418,0
1583423475.460,25.391,40.527,53.711,67.871,7.324,0
1583423475.463,28.809,46.387,44.434,57.129,14.160,0
1583423475.467,23.438,28.320,36.133,37.109,4.883,0
1583423475.471,6.836,14.160,30.273,21.484,12.695,0
1583423475.475,9.766,6.348,15.137,22.461,13.184,0
1583423475.479,7.812,3.418,1.953,4.883,9.277,0
1583423475.496,-14.160,-8.301,-14.160,-16.113,1.465,0
1583423475.500,-30.762,-21.973,-23.438,-16.113,-11.719,0
1583423475.504,-28.809,-19.043,-32.715,-26.367,-13.184,0
1583423475.508,-22.949,-28.320,-40.039,-24.414,17.578,0
1583423475.512,-30.273,-43.945,-39.062,-24.414,17.090,0
1583423475.516,-41.016,-48.828,-39.551,-26.367,12.695,0
1583423475.520,-40.039,-46.387,-46.875,-14.160,26.855,0
1583423475.523,-29.785,-38.086,-46.875,-11.719,25.391,0
1583423475.527,-21.484,-39.551,-51.758,-33.203,16.113,0
1583423475.531,-17.090,-41.992,-59.570,-47.363,-2.441,0
1583423475.535,-23.926,-37.109,-55.664,-16.113,-7.324,0
1583423475.539,-39.062,-48.340,-48.340,4.395,-0.488,0
1583423475.536,-34.180,-55.176,-42.969,-14.648,21.973,0
1583423475.540,-22.461,-46.875,-43.457,-24.902,26.367,0
1583423475.544,-6.836,-33.203,-34.668,2.930,18.555,0
1583423475.548,15.137,-19.043,-14.648,33.203,-0.977,0
1583423475.552,38.086,-14.648,7.812,47.852,-7.812,0
1583423475.556,47.363,0.000,20.508,35.156,-7.324,0
1583423475.560,56.152,5.371,32.715,51.758,-3.906,0
1583423475.563,70.312,6.348,40.527,89.844,2.930,0
1583423475.567,76.172,28.320,32.227,88.379,4.395,0
1583423475.571,55.664,22.461,16.113,62.988,-8.301,0
1583423475.575,47.852,15.137,11.719,40.527,-15.625,0
1583423475.579,46.875,4.395,14.160,46.387,-0.488,0
1583423475.576,30.762,-13.184,11.230,51.758,-6.348,0
1583423475.580,23.438,-17.090,4.395,29.785,8.789,0
1583423475.584,0.488,-43.945,-6.836,10.254,4.883,0
1583423475.588,-10.742,-43.457,-5.371,12.695,20.020,0
1583423475.592,5.859,-21.973,-6.836,26.367,24.414,0
1583423475.596,0.977,-38.086,-13.184,26.367,9.766,0
1583423475.600,7.324,-55.664,-11.230,18.555,17.578,0
1583423475.603,10.742,-57.617,-16.113,15.625,-5.859,0
1583423475.607,-24.414,-38.086,-27.344,-2.441,-3.906,0
1583423475.611,-27.832,-44.434,-29.785,-23.438,2.930,0
1583423475.615,-16.602,-63.965,-24.414,-39.551,-12.695,0
1583423475.619,-24.902,-45.898,-31.738,-28.320,21.973,0
1583423475.636,-27.344,-41.016,-41.992,-6.348,53.711,0
1583423475.640,-41.016,-58.594,-41.992,-31.250,19.531,0
1583423475.644,-40.039,-56.152,-49.805,-51.270,33.203,0
1583423475.648,-48.828,-41.016,-50.781,-46.875,45.410,0
1583423475.652,-62.988,-45.410,-44.922,-37.109,-8.301,0
1583423475.656,-54.688,-65.430,-37.598,-30.273,-4.883,0
1583423475.660,-50.293,-62.500,-44.922,-43.457,17.090,0
1583423475.663,-48.828,-55.664,-47.852,-51.758,0.000,0
1583423475.667,-52.734,-59.082,-41.016,-32.715,-12.695,0
1583423475.671,-36.621,-48.828,-39.551,-16.113,-6.348,0
1583423475.675,-23.926,-43.457,-32.227,-17.090,0.488,0
1583423475.679,-48.340,-39.551,-30.273,-36.621,-21.484,0
1583423475.676,-53.711,-32.715,-40.039,-41.992,-17.578,0
1583423475.680,-45.898,-35.156,-43.457,-20.508,6.836,0
1583423475.684,-47.363,-40.039,-42.969,-21.973,-3.906,0
1583423475.688,-34.668,-50.781,-36.133,-29.297,12.695,0
1583423475.692,-22.949,-61.035,-31.250,-25.879,9.766,0
1583423475.696,-24.902,-52.734,-32.227,-25.391,-10.254,0
1583423475.700,-24.902,-31.250,-33.203,-21.973,-0.977,0
1583423475.703,-41.016,-35.156,-33.203,-32.227,8.301,0
1583423475.707,-32.715,-34.668,-25.879,-36.133,-6.836,0
1583423475.711,-29.297,-36.133,-24.414,-24.902,-18.555,0
1583423475.715,-41.504,-37.598,-38.574,-18.066,-22.949,0
1583423475.719,-28.320,-19.043,-35.156,-18.555,-17.578,0
1583423475.717,-23.926,-13.184,-24.902,-30.273,4.395,0
1583423475.721,-33.203,-17.090,-29.785,-28.809,13.184,0
1583423475.725,-24.902,-36.133,-33.691,-24.902,40.527,0
1583423475.729,-15.625,-48.340,-33.691,-23.438,50.781,0
1583423475.733,-19.531,-31.738,-31.250,-35.645,50.781,0
1583423475.737,-24.902,-28.320,-35.156,-29.785,31.738,0
1583423475.741,-26.367,-41.992,-28.809,-4.395,20.020,0
1583423475.744,-25.391,-40.039,-22.461,-32.715,46.875,0
1583423475.748,-12.695,-23.438,-30.762,-45.898,43.457,0
1583423475.752,-19.043,-14.160,-26.855,-36.621,12.207,0
1583423475.756,-28.809,-20.508,-15.137,-33.203,-15.625,0
1583423475.760,-26.855,-18.555,-12.695,-7.324,7.812,0
1583423475.776,-38.574,-26.855,-13.184,-29.297,-8.789,0
1583423475.780,-38.574,-23.438,-21.973,-41.504,-13.184,0
1583423475.784,-27.832,-11.719,-25.879,-18.066,31.250,0
1583423475.788,-20.508,-6.348,-21.973,-19.043,22.949,0
1583423475.792,-26.367,-4.395,-16.602,-35.156,20.508,0
1583423475.796,-40.527,-15.625,-12.695,-42.969,8.301,0
1583423475.800,-26.367,-32.227,-20.508,-26.367,-9.277,0
1583423475.803,-9.766,-32.715,-20.020,-8.789,0.488,0
1583423475.807,-10.254,-11.230,-19.531,-15.137,21.973,0
1583423475.811,-12.207,1.465,-17.090,-29.297,18.555,0
1583423475.815,-24.414,-6.836,-5.859,-27.344,1.465,0
1583423475.819,-32.227,-16.113,-9.766,-1.953,-11.719,0
1583423475.816,-5.371,-20.996,-12.695,5.859,-12.207,0
1583423475.820,-16.113,-30.762,-15.137,-7.812,11.719,0
1583423475.824,-38.086,-29.785,-19.043,-18.066,16.113,0
1583423475.828,-37.598,-32.715,-21.973,-14.648,19.043,0
1583423475.832,-27.832,-35.156,-22.949,9.766,20.996,0
1583423475.836,-24.414,-23.438,-23.438,0.488,-4.883,0
1583423475.840,-16.602,-19.531,-29.297,-20.020,-7.324,0
1583423475.843,-17.090,-11.719,-29.297,-8.301,34.180,0
1583423475.847,-21.484,-7.324,-32.715,7.324,43.945,0
1583423475.851,-5.371,-19.531,-31.738,5.859,24.414,0
1583423475.855,-6.348,-24.414,-7.324,-12.207,28.320,0
1583423475.859,3.906,-13.184,11.719,6.348,-5.859,0
1583423475.856,2.441,-4.395,19.531,31.738,-10.254,0
1583423475.860,4.883,2.930,34.180,39.551,3.418,0
1583423475.864,20.020,0.000,32.715,46.387,27.832,0
1583423475.868,1.953,-7.812,13.672,19.043,57.617,0
1583423475.872,-0.977,-4.883,15.625,23.438,15.137,0
1583423475.876,13.672,-14.648,20.020,37.598,-1.953,0
1583423475.880,-0.977,-17.090,2.441,17.578,7.324,0
1583423475.883,-23.438,-10.254,-3.418,14.648,2.930,0
1583423475.887,-8.301,-4.395,3.906,22.461,20.508,0
1583423475.891,-9.277,3.906,1.465,28.320,1.953,0
1583423475.895,-10.254,0.000,-4.395,12.695,-11.719,0
1583423475.899,-1.465,-6.348,-3.906,-2.930,29.785,0
1583423475.916,-23.926,-18.066,-1.465,18.555,24.414,0
1583423475.920,-26.367,-26.855,0.488,28.320,-8.301,0
1583423475.924,-10.742,-35.645,3.418,18.555,-3.906,0
1583423475.928,-12.207,-34.180,0.000,0.488,5.859,0
1583423475.932,-2.441,-14.160,-1.953,-1.953,9.766,0
1583423475.936,0.000,-12.695,3.906,20.020,7.324,0
1583423475.940,-1.953,-13.184,1.953,19.043,-18.555,0
1583423475.943,19.531,-1.953,-8.789,-0.488,12.207,0
1583423475.947,13.672,-4.883,-7.324,-10.254,4.883,0
1583423475.951,-7.324,-15.137,-4.883,15.625,8.789,0
1583423475.955,-1.465,-31.250,-12.695,31.250,31.738,0
1583423475.959,-5.859,-28.809,-3.418,11.719,28.320,0
1583423475.957,-6.836,-34.180,1.465,0.000,38.086,0
1583423475.961,-4.883,-38.086,3.906,12.695,55.664,0
1583423475.965,-12.695,-15.625,11.230,28.320,62.012,0
1583423475.969,-0.488,-2.930,4.395,20.508,39.551,0
1583423475.973,8.301,-3.418,8.789,16.113,48.828,0
1583423475.977,9.277,-10.254,10.254,32.227,31.738,0
1583423475.981,-2.441,-14.160,4.395,17.578,7.812,0
1583423475.984,-17.578,-11.719,1.465,0.977,-4.395,0
1583423475.988,-22.461,-10.742,3.906,-5.371,-8.301,0
1583423475.992,-14.648,-24.902,4.395,5.859,36.621,0
1583423475.996,-0.488,-29.785,3.418,44.922,34.668,0
1583423476.000,-3.906,-17.578,3.906,40.527,27.832,0
1583423475.996,4.883,-8.301,8.789,15.137,37.109,0
1583423476.000,18.066,-6.348,13.184,26.367,4.883,0
1583423476.004,20.996,-4.883,9.277,52.246,24.902,0
1583423476.008,21.484,-4.395,11.719,53.711,22.949,0
1583423476.012,13.184,-1.953,10.254,24.414,3.418,0
1583423476.016,5.859,-0.488,1.465,11.230,-3.906,0
1583423476.020,5.859,-7.324,1.465,36.621,-73.242,0
1583423476.023,7.812,-12.695,13.672,56.641,-33.203,0
1583423476.027,15.625,-8.789,20.508,39.062,37.109,0
1583423476.031,20.508,0.977,17.578,12.207,-6.836,0
1583423476.035,16.602,-0.977,11.230,27.344,-10.254,0
1583423476.039,7.812,-1.465,13.184,47.852,62.988,0
1583423476.057,17.090,-7.324,20.996,41.504,74.219,0
1583423476.061,20.020,-10.742,18.555,22.949,17.578,0
1583423476.065,8.301,-4.395,11.719,23.926,33.203,0
1583423476.069,14.648,-4.883,11.719,42.480,26.367,0
1583423476.073,18.066,-5.371,13.184,42.480,10.742,0
1583423476.077,8.789,-3.418,20.020,26.367,-19.531,0
1583423476.081,16.113,3.906,15.137,14.160,-10.742,0
1583423476.084,19.043,4.395,6.348,11.230,22.461,0
1583423476.088,5.859,-6.836,5.371,20.508,5.859,0
1583423476.092,21.484,0.488,-4.883,25.391,39.551,0
1583423476.096,33.203,3.418,0.977,30.273,62.988,0
1583423476.100,22.949,4.395,16.113,28.809,50.293,0
1583423476.096,6.836,9.277,22.949,17.090,36.133,0
1583423476.100,5.371,0.488,30.273,22.949,27.832,0
1583423476.104,19.043,4.883,29.785,11.230,-20.020,0
1583423476.108,14.160,16.113,23.926,17.578,7.812,0
1583423476.112,21.484,1.465,28.320,49.805,72.266,0
1583423476.116,22.949,-17.090,34.180,38.574,56.641,0
1583423476.120,22.461,1.953,32.715,10.254,24.414,0
1583423476.123,24.414,20.996,26.367,11.719,31.738,0
1583423476.127,15.625,20.020,24.414,32.715,38.086,0
1583423476.131,0.977,17.090,26.367,30.273,23.438,0
1583423476.135,2.441,11.719,15.137,5.371,17.578,0
1583423476.139,18.555,3.418,20.996,6.348,27.344,0
1583423476.136,15.625,8.301,30.762,19.043,53.223,0
1583423476.140,5.371,6.348,20.020,29.297,52.734,0
1583423476.144,10.254,0.977,15.137,22.461,43.945,0
1583423476.148,17.578,5.371,16.602,12.695,37.598,0
1583423476.152,5.859,-8.789,16.602,19.531,27.832,0
1583423476.156,17.090,-19.531,21.973,40.039,6.348,0
1583423476.160,21.484,-1.953,17.578,39.062,38.086,0
1583423476.163,21.484,4.395,7.324,18.555,34.180,0
1583423476.167,30.762,10.742,12.695,29.297,6.348,0
1583423476.171,32.715,18.066,17.578,49.805,-6.348,0
1583423476.175,28.809,13.184,18.555,45.410,-17.090,0
1583423476.179,5.371,7.812,13.672,16.602,19.043,0
1583423476.196,-6.836,0.488,3.418,14.160,63.965,0
1583423476.200,-12.695,3.906,1.953,27.344,45.410,0
1583423476.204,-11.719,8.789,7.324,20.020,-3.418,0
1583423476.208,-12.207,10.742,11.230,-13.184,-41.016,0
1583423476.212,-28.320,14.160,13.672,-47.852,-17.578,0
1583423476.216,-40.039,17.578,14.648,-56.641,48.340,0
1583423476.220,-41.016,23.438,11.719,-41.016,48.340,0
1583423476.223,-62.988,30.273,1.953,-46.387,44.434,0
1583423476.227,-78.613,39.062,-4.883,-74.707,24.414,0
1583423476.231,-119.141,43.457,-4.883,-100.098,11.230,0
1583423476.235,-180.176,21.484,-3.906,-134.277,49.805,0
1583423476.239,-190.918,19.531,-7.812,-172.852,79.102,0
1583423476.236,-188.477,52.246,-12.695,-204.590,93.262,0
1583423476.240,-200.195,71.777,0.488,-195.312,46.875,0
1583423476.244,-207.031,85.938,19.043,-169.922,17.578,0
1583423476.248,-204.102,67.871,21.973,-166.992,64.941,0
1583423476.252,-201.660,25.879,26.367,-187.012,64.941,0
1583423476.256,-184.082,28.809,34.180,-163.574,64.453,0
1583423476.260,-159.180,51.758,24.902,-118.652,73.242,0
1583423476.263,-146.973,52.734,20.996,-111.328,-1.465,0
1583423476.267,-117.676,42.969,31.738,-99.121,-12.207,0
1583423476.271,-90.820,43.457,27.832,-103.516,55.664,0
1583423476.275,-75.195,44.434,26.367,-70.312,73.242,0
1583423476.279,-55.664,45.410,39.062,-16.113,18.555,0
1583423476.276,-25.391,56.641,49.316,0.488,9.766,0
1583423476.280,27.344,44.434,57.617,21.973,43.457,0
1583423476.284,61.035,35.156,61.035,64.453,79.102,0
1583423476.288,52.246,40.527,63.965,100.586,80.078,0
1583423476.292,62.988,40.527,63.477,96.680,7.812,0
1583423476.296,87.891,35.156,62.988,95.215,13.184,0
1583423476.300,97.168,22.949,55.664,103.516,91.309,0
1583423476.303,79.102,21.484,48.828,115.723,91.309,0
1583423476.307,92.773,26.367,54.688,133.301,15.625,0
1583423476.311,120.117,21.973,50.781,121.094,5.371,0
1583423476.315,109.863,15.625,42.480,127.930,6.348,0
1583423476.319,112.793,10.742,50.293,154.297,49.805,0
1583423476.336,123.535,2.441,47.852,144.531,41.992,0
1583423476.340,128.906,8.789,39.551,137.695,12.207,0
1583423476.344,128.418,12.695,43.457,140.137,37.109,0
1583423476.348,130.859,5.859,41.992,146.484,22.949,0
1583423476.352,132.324,7.812,41.992,150.879,8.301,0
1583423476.356,119.629,0.977,43.457,132.324,-16.113,0
1583423476.360,125.977,0.488,42.480,120.117,-15.625,0
1583423476.363,130.859,15.137,40.039,134.277,-3.418,0
1583423476.367,121.094,17.090,39.062,153.320,20.020,0
1583423476.371,115.723,18.555,41.016,139.160,55.176,0
1583423476.375,107.910,4.883,39.551,104.980,37.598,0
1583423476.379,94.238,-4.395,39.551,113.770,26.855,0
1583423476.376,92.285,0.000,42.480,126.953,43.945,0
1583423476.380,95.703,6.836,42.969,115.234,-4.883,0
1583423476.384,108.398,18.066,42.969,94.727,32.227,0
1583423476.388,97.168,5.859,40.527,87.891,18.066,0
1583423476.392,83.984,4.395,35.645,116.211,-26.367,0
1583423476.396,83.984,14.648,38.574,129.395,15.137,0
1583423476.400,81.055,22.461,40.039,103.516,37.598,0
1583423476.403,84.473,21.484,36.133,65.918,40.527,0
1583423476.407,74.219,1.953,40.039,82.031,33.203,0
1583423476.411,72.266,-6.836,44.922,101.562,2.930,0
1583423476.415,70.801,5.371,43.457,84.473,15.625,0
1583423476.419,70.801,2.930,40.527,69.336,13.184,0
1583423476.436,71.777,9.277,27.344,65.918,-6.836,0
1583423476.440,62.012,17.090,29.785,95.703,28.809,0
1583423476.444,77.148,14.648,41.016,98.633,23.926,0
1583423476.448,83.008,14.648,38.574,80.566,29.785,0
1583423476.452,68.359,9.766,48.340,88.379,2.441,0
1583423476.456,70.312,0.000,44.922,93.262,-3.418,0
1583423476.460,79.590,-8.301,45.898,98.145,48.340,0
1583423476.463,83.496,-14.648,50.293,90.332,46.875,0
1583423476.467,76.172,-4.395,48.340,71.777,36.133,0
1583423476.471,65.918,11.230,45.898,95.215,49.316,0
1583423476.475,78.125,20.996,26.367,102.539,65.430,0
1583423476.479,91.797,22.949,45.410,83.496,18.066,0
1583423476.476,81.543,18.555,70.801,73.242,40.527,0
1583423476.480,68.359,23.926,54.688,82.031,63.477,0
1583423476.484,67.871,22.949,59.570,109.863,34.668,0
1583423476.488,81.055,24.902,82.031,102.539,50.293,0
1583423476.492,91.309,41.504,85.449,90.820,74.219,0
1583423476.496,106.934,67.871,97.168,109.863,59.082,0
1583423476.500,103.027,87.891,103.516,134.766,49.316,0
1583423476.503,101.074,81.055,103.516,150.879,83.984,0
1583423476.507,125.977,76.172,104.980,134.277,50.781,0
1583423476.511,122.559,76.172,114.258,137.207,34.668,0
1583423476.515,115.723,74.219,119.629,154.297,55.176,0
1583423476.519,136.719,89.844,120.605,163.086,46.875,0
1583423476.516,149.902,96.680,111.816,162.109,87.891,0
1583423476.520,141.602,99.121,108.398,135.742,101.562,0
1583423476.524,142.090,108.398,127.441,137.207,41.504,0
1583423476.528,135.742,115.723,130.371,157.227,-8.789,0
1583423476.532,135.742,110.352,125.000,152.832,-4.883,0
1583423476.536,129.883,68.359,128.418,143.555,1.953,0
1583423476.540,130.371,77.637,136.719,146.484,-4.395,0
1583423476.543,146.973,128.906,124.023,158.203,-0.977,0
1583423476.547,133.789,126.465,109.375,163.086,6.836,0
1583423476.551,125.000,110.352,119.629,146.973,11.230,0
1583423476.555,138.672,114.746,119.629,141.602,20.020,0
1583423476.559,141.113,123.047,116.699,145.508,75.195,0
1583423476.576,133.301,96.680,125.000,152.344,90.332,0
1583423476.580,141.113,81.543,121.582,149.414,40.039,0
1583423476.584,142.090,109.863,120.117,133.301,-23.926,0
1583423476.588,133.789,125.977,121.582,152.344,-3.906,0
1583423476.592,134.277,121.582,120.117,155.762,43.945,0
1583423476.596,132.812,118.164,123.535,145.508,70.312,0
1583423476.600,113.281,109.375,116.699,132.812,81.055,0
1583423476.603,104.492,101.074,120.117,136.230,37.598,0
1583423476.607,115.723,75.684,125.488,161.133,47.852,0
1583423476.611,119.141,79.590,119.629,145.020,63.477,0
1583423476.615,117.676,136.719,110.840,116.699,46.387,0
1583423476.619,131.348,138.672,96.680,138.672,83.008,0
1583423476.656,159.668,118.164,101.074,181.641,77.637,0
1583423476.660,149.414,117.188,119.141,173.828,-27.832,0
1583423476.664,115.723,105.957,130.371,129.883,14.160,0
1583423476.668,104.492,94.238,129.395,124.023,79.102,0
1583423476.672,96.680,90.820,122.070,136.230,15.137,0
1583423476.676,90.820,74.707,125.000,146.484,-0.977,0
1583423476.680,96.191,68.359,127.930,138.672,-9.766,0
1583423476.683,106.445,76.172,126.465,128.906,8.789,0
1583423476.687,110.352,80.078,131.836,144.531,9.277,0
1583423476.691,106.934,76.660,125.000,146.973,6.348,0
1583423476.695,91.309,62.012,117.676,128.906,42.969,0
1583423476.699,90.820,61.523,110.352,112.305,9.766,0
1583423476.660,85.449,62.988,107.910,112.305,-17.578,0
1583423476.664,76.660,54.199,113.770,132.812,17.090,0
1583423476.668,77.148,54.199,116.211,131.348,26.367,0
1583423476.672,93.262,62.500,112.793,117.188,56.641,0
1583423476.676,92.285,64.941,106.934,110.352,86.426,0
1583423476.680,72.266,52.246,111.816,117.188,25.391,0
1583423476.684,78.613,48.828,111.328,115.723,37.109,0
1583423476.687,80.566,61.035,104.004,98.633,93.750,0
1583423476.691,83.984,72.266,102.051,91.797,76.172,0
1583423476.695,93.750,83.008,101.562,123.535,96.191,0
1583423476.699,97.168,81.055,102.539,133.789,62.012,0
1583423476.703,92.773,65.918,102.051,115.234,21.973,0
1583423476.756,91.797,65.430,96.680,101.562,32.227,0
1583423476.760,82.031,80.078,95.703,102.051,42.969,0
1583423476.764,83.984,94.727,95.703,112.305,95.215,0
1583423476.768,99.609,102.051,90.820,95.215,105.469,0
1583423476.772,83.984,84.961,90.332,70.801,57.129,0
1583423476.776,65.430,70.312,86.426,83.496,45.898,0
1583423476.780,68.359,73.242,80.078,103.516,61.035,0
1583423476.783,71.289,62.012,79.590,94.727,31.738,0
1583423476.787,75.195,51.758,67.383,57.617,-10.254,0
1583423476.791,73.730,44.922,56.152,54.199,16.602,0
1583423476.795,80.078,44.434,61.035,85.449,33.691,0
1583423476.799,72.754,50.781,62.012,88.867,14.648,0
1583423476.778,63.965,46.875,58.105,49.805,-8.301,0
1583423476.782,62.988,47.363,55.176,40.039,-7.324,0
1583423476.786,46.875,42.969,49.805,60.059,11.230,0
1583423476.790,38.574,35.645,40.039,52.734,8.301,0
1583423476.794,15.625,17.090,26.367,30.762,6.348,0
1583423476.798,0.488,5.371,19.531,13.672,30.762,0
1583423476.802,16.113,22.949,24.414,29.297,28.809,0
1583423476.805,24.902,36.621,33.203,51.270,25.879,0
1583423476.809,11.230,25.391,17.578,35.645,37.109,0
1583423476.813,10.254,14.160,0.488,9.277,19.043,0
1583423476.817,24.414,7.812,10.254,20.020,20.508,0
1583423476.821,17.578,4.395,8.301,51.270,16.602,0
1583423476.816,17.578,27.344,17.090,55.664,15.137,0
1583423476.820,29.785,43.457,25.879,35.645,32.227,0
1583423476.824,32.227,37.109,12.207,42.480,41.504,0
1583423476.828,34.668,36.133,3.418,52.734,68.848,0
1583423476.832,42.480,47.363,0.977,43.457,84.961,0
1583423476.836,40.039,44.922,7.812,39.062,101.562,0
1583423476.840,32.227,31.738,20.508,34.180,76.660,0
1583423476.843,41.016,15.137,19.531,35.645,33.203,0
1583423476.847,41.016,12.207,20.020,47.363,61.523,0
1583423476.851,41.504,27.832,23.926,47.852,39.062,0
1583423476.855,47.852,26.367,31.250,55.176,-15.137,0
1583423476.859,63.477,12.207,38.086,84.961,23.926,0
1583423476.876,58.594,38.574,22.461,82.520,92.773,0
1583423476.880,20.020,55.664,18.066,25.879,38.574,0
1583423476.884,3.418,62.012,27.832,-12.695,26.367,0
1583423476.888,6.836,67.383,29.297,-1.465,34.668,0
1583423476.892,20.020,75.684,30.762,24.902,42.969,0
1583423476.896,-0.977,74.707,30.762,15.625,59.082,0
1583423476.900,-4.883,65.918,31.738,-27.832,54.199,0
1583423476.903,5.371,95.215,20.996,-28.809,86.426,0
1583423476.907,-15.137,99.121,12.695,3.418,46.387,0
1583423476.911,-15.625,85.938,18.066,-1.465,22.949,0
1583423476.915,8.301,77.637,16.602,-21.484,38.574,0
1583423476.919,23.926,74.707,21.973,-34.668,18.066,0
1583423476.898,18.555,88.379,23.926,-14.160,22.949,0
1583423476.902,33.203,88.867,37.109,24.902,32.227,0
1583423476.906,38.574,79.590,50.293,30.273,26.855,0
1583423476.910,21.973,82.031,52.734,27.832,57.129,0
1583423476.914,33.691,64.453,57.129,43.945,99.609,0
1583423476.918,52.734,51.758,55.176,61.523,109.375,0
1583423476.922,62.012,58.594,55.664,59.570,55.664,0
1583423476.925,58.594,84.961,50.293,45.410,9.277,0
1583423476.929,51.270,92.285,38.574,58.105,46.875,0
1583423476.933,53.223,73.242,49.805,64.941,22.949,0
1583423476.937,65.430,75.195,58.105,71.289,27.832,0
1583423476.941,78.125,86.426,52.246,79.102,64.941,0
1583423476.936,76.660,85.449,61.523,66.895,39.551,0
1583423476.940,83.008,73.242,55.664,85.449,15.137,0
1583423476.944,85.938,55.664,47.363,99.121,-2.930,0
1583423476.948,84.961,65.918,43.457,97.168,11.719,0
1583423476.952,96.191,85.449,41.016,103.027,37.598,0
1583423476.956,83.984,86.914,43.457,102.539,32.715,0
1583423476.960,68.848,85.449,33.203,103.516,41.016,0
1583423476.963,86.426,77.148,25.879,85.938,7.324,0
1583423476.967,92.773,70.801,15.137,74.219,-29.297,0
1583423476.971,81.055,82.031,11.230,91.309,-31.250,0
1583423476.975,79.102,81.055,23.926,107.910,3.418,0
1583423476.979,84.473,73.242,31.738,101.074,24.902,0
1583423476.996,80.566,66.406,34.668,73.730,71.289,0
1583423477.000,76.172,62.988,35.645,79.102,94.727,0
1583423477.004,83.008,67.871,28.320,104.004,36.133,0
1583423477.008,70.801,66.406,32.715,114.258,81.543,0
1583423477.012,69.824,67.383,29.297,96.680,90.332,0
1583423477.016,76.172,63.477,26.855,76.660,73.730,0
1583423477.020,74.219,55.664,32.715,87.402,91.309,0
1583423477.023,71.289,55.664,35.645,98.145,15.137,0
1583423477.027,84.473,58.105,32.227,84.473,-31.250,0
1583423477.031,89.355,51.758,35.645,75.684,36.621,0
1583423477.035,73.242,41.016,39.551,93.262,34.668,0
1583423477.039,70.312,45.410,41.504,105.469,-6.836,0
1583423477.036,74.219,67.383,38.574,85.449,-22.461,0
1583423477.040,83.008,80.078,34.180,72.266,-7.324,0
1583423477.044,70.312,79.590,41.504,86.426,27.832,0
1583423477.048,59.082,71.289,42.969,82.031,43.945,0
1583423477.052,56.152,60.547,36.621,63.477,28.320,0
1583423477.056,61.035,56.152,38.574,60.059,24.414,0
1583423477.060,67.383,50.293,43.457,65.430,20.996,0
1583423477.063,58.594,44.922,39.062,89.355,12.207,0
1583423477.067,71.289,49.316,41.016,89.355,48.340,0
1583423477.071,55.664,41.016,54.688,67.383,29.785,0
1583423477.075,37.109,44.434,57.617,57.617,-21.484,0
1583423477.079,59.082,48.828,49.805,78.125,52.734,0
1583423477.076,65.918,36.133,59.082,94.238,51.270,0
1583423477.080,64.941,40.039,70.312,67.383,-12.695,0
1583423477.084,56.641,31.738,68.359,53.711,32.227,0
1583423477.088,51.270,26.855,64.941,74.219,52.246,0
1583423477.092,62.012,47.852,52.246,84.473,1.465,0
1583423477.096,68.359,41.504,56.152,80.078,-2.441,0
1583423477.100,60.059,43.457,62.012,63.477,43.457,0
1583423477.103,47.363,44.922,57.129,64.453,11.719,0
1583423477.107,45.898,38.574,53.223,90.820,22.461,0
1583423477.111,57.617,44.434,61.523,83.008,28.320,0
1583423477.115,63.965,43.457,69.336,68.848,28.809,0
1583423477.119,62.500,42.480,68.359,66.406,13.672,0
1583423477.137,51.270,53.711,70.312,75.684,-19.531,0
1583423477.141,42.969,51.270,70.312,76.172,9.766,0
1583423477.145,70.312,42.480,79.590,61.035,55.664,0
1583423477.149,67.383,51.270,80.078,59.570,55.664,0
1583423477.153,44.434,47.363,75.195,71.289,54.199,0
1583423477.157,59.082,49.316,79.590,85.449,86.426,0
1583423477.161,73.242,47.363,71.777,77.148,56.152,0
1583423477.164,79.590,36.621,67.871,62.500,60.547,0
1583423477.168,75.195,30.273,72.266,75.195,77.148,0
1583423477.172,69.824,22.461,71.777,85.449,-4.883,0
1583423477.176,67.383,28.809,76.660,80.078,18.555,0
1583423477.180,56.152,39.551,69.824,70.801,68.359,0
1583423477.176,59.082,42.969,65.918,72.266,41.992,0
1583423477.180,62.500,43.457,67.383,79.102,49.805,0
1583423477.184,63.965,55.176,62.012,75.684,7.812,0
1583423477.188,57.129,49.316,69.824,56.641,14.648,0
1583423477.192,48.340,38.086,74.219,46.387,-1.953,0
1583423477.196,52.734,54.199,77.637,64.453,-3.418,0
1583423477.200,45.898,59.082,71.289,75.684,9.277,0
1583423477.203,57.617,59.082,59.082,57.617,3.906,0
1583423477.207,81.543,41.992,62.012,40.039,31.250,1
1583423477.211,74.707,7.324,67.871,59.570,10.742,0
1583423477.215,67.383,13.184,76.660,83.496,36.621,0
1583423477.219,80.566,35.645,65.918,67.383,52.246,0
1583423477.216,78.125,45.410,48.340,41.016,53.711,0
1583423477.220,73.730,51.758,55.176,53.711,81.543,0
1583423477.224,58.594,62.500,69.336,77.148,57.617,0
1583423477.228,60.547,56.152,62.988,80.566,49.316,0
1583423477.232,63.477,39.062,65.430,67.871,62.500,0
1583423477.236,57.617,14.648,69.336,52.734,78.613,0
1583423477.240,65.430,-4.395,67.383,79.102,93.750,0
1583423477.243,59.082,15.137,64.453,79.590,70.312,0
1583423477.247,46.875,58.594,57.129,43.945,34.668,0
1583423477.251,54.688,68.359,56.641,39.062,26.855,0
1583423477.255,66.406,34.668,45.410,75.684,43.457,0
1583423477.259,74.219,41.016,36.133,98.145,45.898,0
1583423477.277,68.848,36.133,38.574,68.359,61.523,0
1583423477.281,58.105,27.832,35.645,41.504,54.199,0
1583423477.285,45.410,58.105,32.227,43.457,35.645,0
1583423477.289,43.457,66.406,30.762,44.922,20.020,0
1583423477.293,53.711,79.102,26.855,37.598,7.812,0
1583423477.297,37.598,86.426,24.414,38.574,1.465,0
1583423477.301,37.598,65.918,27.344,44.434,-56.152,0
1583423477.304,48.340,77.637,37.598,57.129,-40.039,0
1583423477.308,40.527,69.824,33.691,48.828,31.738,0
1583423477.312,36.133,42.480,26.855,30.762,46.387,0
1583423477.316,41.016,36.133,34.180,32.715,20.996,0
1583423477.320,45.410,48.340,33.691,48.340,34.668,0
1583423477.316,44.434,78.125,20.996,49.316,104.004,0
1583423477.320,47.363,50.293,0.000,39.062,89.355,0
1583423477.324,57.129,32.715,7.812,41.016,13.672,0
1583423477.328,46.387,59.082,37.598,44.434,-54.688,0
1583423477.332,30.273,67.871,51.758,54.199,-40.039,0
1583423477.336,14.160,54.688,45.410,48.828,57.617,0
1583423477.340,12.695,42.480,36.133,27.344,86.914,0
1583423477.343,31.250,50.293,27.344,35.156,22.461,0
1583423477.347,53.223,61.035,28.320,59.082,28.320,0
1583423477.351,44.922,72.754,35.156,43.945,43.457,0
1583423477.355,39.062,100.586,31.250,10.742,34.180,0
1583423477.359,39.062,113.281,35.156,13.672,51.758,0
1583423477.376,29.785,104.980,43.945,59.082,94.727,0
1583423477.380,36.133,83.496,39.062,62.988,30.762,0
1583423477.384,49.805,67.383,39.551,28.320,-12.695,0
1583423477.388,40.527,71.289,43.457,20.996,37.598,0
1583423477.392,21.973,80.078,41.992,33.203,54.688,0
1583423477.396,33.203,95.215,41.016,43.457,24.414,0
1583423477.400,61.523,93.750,45.410,33.203,76.172,0
1583423477.403,55.664,90.332,59.570,24.902,99.121,0
1583423477.407,27.344,91.309,64.941,43.945,107.910,0
1583423477.411,45.898,106.445,56.152,57.617,100.586,0
1583423477.415,49.805,112.305,51.270,42.480,-16.113,0
1583423477.419,29.785,94.238,52.734,37.598,28.809,0
1583423477.416,21.973,83.984,51.758,46.387,63.477,0
1583423477.420,22.949,88.867,41.504,41.504,-1.465,0
1583423477.424,42.480,75.684,32.715,38.086,27.344,0
1583423477.428,39.551,71.777,45.410,38.086,52.734,0
1583423477.432,35.156,89.355,43.457,43.457,34.180,0
1583423477.436,46.875,86.914,39.551,59.082,44.922,0
1583423477.440,49.805,81.055,50.293,59.570,95.703,0
1583423477.443,52.246,87.402,59.570,50.781,57.129,0
1583423477.447,39.551,87.891,58.594,56.152,8.789,0
1583423477.451,55.176,85.449,40.039,63.477,10.254,0
1583423477.455,78.125,74.707,39.551,92.773,11.230,0
1583423477.459,38.574,51.758,62.012,65.918,75.195,0
1583423477.476,5.859,53.223,59.082,16.602,84.961,0
1583423477.480,6.836,51.758,57.617,49.316,45.410,0
1583423477.484,8.301,45.410,66.406,70.801,61.035,0
1583423477.488,20.020,44.922,61.523,54.688,28.320,0
1583423477.492,14.648,37.598,62.500,31.250,-30.273,0
1583423477.496,3.418,37.109,61.523,32.227,14.160,0
1583423477.500,17.578,32.715,55.664,52.734,6.348,0
1583423477.503,37.598,29.297,54.688,68.359,1.465,0
1583423477.507,20.996,24.414,56.641,60.547,36.133,0
1583423477.511,18.066,16.113,58.105,49.316,68.848,0
1583423477.515,28.809,33.691,58.105,69.824,87.402,0
1583423477.519,20.508,41.992,52.734,79.590,33.203,0
1583423477.496,21.973,26.367,43.945,48.828,-14.160,0
1583423477.500,32.227,27.344,53.223,54.199,25.391,0
1583423477.504,29.785,45.410,62.988,79.590,20.996,0
1583423477.508,30.273,50.781,58.105,81.055,31.250,0
1583423477.512,35.156,30.762,50.293,69.824,86.914,0
1583423477.516,37.109,12.695,51.758,50.781,45.410,0
1583423477.520,35.645,25.391,58.594,73.242,30.273,0
1583423477.523,26.367,35.156,62.012,87.891,56.152,0
1583423477.527,41.504,36.621,59.570,63.477,31.738,0
1583423477.531,52.734,45.410,57.617,49.316,65.430,0
1583423477.535,31.738,36.621,53.223,51.270,105.469,0
1583423477.539,27.832,38.086,53.711,74.219,111.816,0
1583423477.556,32.227,33.203,62.988,71.777,50.781,0
1583423477.560,33.203,9.277,67.383,41.992,24.414,0
1583423477.564,34.668,2.441,60.059,55.176,58.594,0
1583423477.568,35.645,22.949,43.457,79.102,88.867,0
1583423477.572,37.598,31.738,41.504,68.359,76.172,0
1583423477.576,17.090,18.555,52.734,39.062,30.762,0
1583423477.580,15.137,21.973,47.852,25.391,36.133,0
1583423477.583,26.367,28.320,49.316,50.781,17.090,0
1583423477.587,33.203,23.438,58.594,70.312,-20.996,0
1583423477.591,48.340,25.879,62.988,75.684,13.184,0
1583423477.595,47.852,30.273,58.594,50.781,53.223,0
1583423477.599,29.785,15.625,43.945,45.898,41.992,0
1583423477.596,30.273,2.441,49.805,83.496,41.992,0
1583423477.600,48.340,15.137,55.664,78.125,75.195,0
1583423477.604,34.668,20.020,52.734,51.758,62.500,0
1583423477.608,31.250,20.020,49.805,46.875,28.320,0
1583423477.612,38.086,30.273,42.969,63.477,38.574,0
1583423477.616,37.109,27.832,48.340,77.637,-4.883,0
1583423477.620,33.203,16.113,54.199,62.012,-38.574,0
1583423477.623,28.809,17.090,36.133,40.527,37.109,0
1583423477.627,37.598,27.344,37.598,56.641,102.539,0
1583423477.631,39.551,20.508,56.152,71.289,73.730,0
1583423477.635,41.016,15.137,50.781,57.617,69.824,0
1583423477.639,40.039,24.902,44.434,50.781,65.430,0
1583423477.636,35.645,42.480,49.805,66.406,41.992,0
1583423477.640,43.945,41.992,53.711,73.730,90.820,0
1583423477.644,51.270,34.180,49.805,63.965,81.543,0
1583423477.648,44.434,44.434,45.898,54.688,54.688,0
1583423477.652,41.992,41.504,49.805,56.152,27.344,0
1583423477.656,47.363,30.762,52.246,71.777,19.043,0
1583423477.660,45.410,30.762,50.293,60.547,52.246,0
1583423477.663,43.945,29.297,46.875,44.434,73.730,0
1583423477.667,40.039,28.809,47.852,44.922,36.133,0
1583423477.671,30.762,23.438,52.734,56.152,-26.855,0
1583423477.675,28.809,19.531,54.688,62.012,17.578,0
1583423477.679,30.762,23.438,46.875,39.551,21.973,0
1583423477.696,31.738,35.156,55.664,30.273,52.246,0
1583423477.700,45.410,34.668,63.965,55.664,77.148,0
1583423477.704,44.434,28.809,58.105,69.824,55.664,0
1583423477.708,29.785,41.504,59.570,51.270,31.738,0
1583423477.712,31.738,51.270,48.828,49.805,52.734,0
1583423477.716,30.273,39.551,42.969,62.500,58.105,0
1583423477.720,33.203,34.180,45.898,72.266,33.203,0
1583423477.723,43.945,42.969,44.434,78.613,-18.066,0
1583423477.727,40.527,34.180,49.316,51.758,-59.082,0
1583423477.731,38.574,18.066,49.805,53.223,23.926,0
1583423477.735,36.621,29.297,53.223,77.637,84.961,0
1583423477.739,42.480,41.992,45.410,61.035,91.309,0
1583423477.736,46.387,41.504,40.527,37.598,38.086,0
1583423477.740,39.551,43.945,45.898,41.504,9.766,0
1583423477.744,42.969,50.293,43.945,53.223,54.199,0
1583423477.748,36.621,40.527,47.852,61.523,88.379,0
1583423477.752,26.855,24.902,44.922,60.059,70.312,0
1583423477.756,24.902,21.973,34.668,45.898,26.855,0
1583423477.760,23.926,21.484,37.109,48.828,66.406,0
1583423477.763,35.156,29.785,50.293,56.152,19.043,0
1583423477.767,36.133,32.227,54.199,54.688,6.348,0
1583423477.771,20.020,23.438,54.199,48.828,41.016,0
1583423477.775,22.949,37.598,52.734,51.758,13.184,0
1583423477.779,24.414,41.016,53.223,67.383,24.414,0
1583423477.777,27.344,41.504,58.105,49.805,39.551,0
1583423477.781,30.273,36.621,51.758,25.391,3.906,0
1583423477.785,24.414,30.273,47.852,36.133,2.441,0
1583423477.789,19.043,41.504,45.410,51.270,50.293,0
1583423477.793,16.602,33.203,39.062,53.223,80.566,0
1583423477.797,13.184,23.438,42.969,25.391,52.734,0
1583423477.801,5.371,40.039,49.316,10.254,17.578,0
1583423477.804,0.488,42.969,45.898,26.367,-0.488,0
1583423477.808,-4.395,32.715,41.992,28.809,7.812,0
1583423477.812,-3.906,27.832,42.480,10.742,56.152,0
1583423477.816,-16.602,32.715,41.992,5.371,53.223,0
1583423477.820,-14.648,24.902,38.086,11.719,55.664,0
1583423477.836,-0.488,13.184,42.480,17.578,80.566,0
1583423477.840,-6.348,22.949,42.480,-1.465,81.543,0
1583423477.844,-24.902,25.879,34.180,-32.227,59.570,0
1583423477.848,-39.551,17.578,32.227,-27.344,37.598,0
1583423477.852,-35.156,16.113,37.598,3.418,24.414,0
1583423477.856,-30.762,23.926,46.387,8.301,73.242,0
1583423477.860,-38.574,31.738,41.992,-25.391,87.891,0
1583423477.863,-52.734,34.180,31.250,-47.363,18.555,0
1583423477.867,-44.922,28.809,26.367,-26.367,39.551,0
1583423477.871,-33.691,27.344,29.297,-4.883,39.551,0
1583423477.875,-50.781,20.508,39.551,-26.367,-14.648,0
1583423477.879,-51.758,20.508,32.715,-32.715,10.254,0
1583423477.876,-45.410,28.809,23.926,-16.602,47.363,0
1583423477.880,-50.293,28.320,35.645,-2.930,10.742,0
1583423477.884,-46.387,18.555,41.504,-0.977,-23.926,0
1583423477.888,-45.898,0.000,41.016,-10.254,36.621,0
1583423477.892,-46.875,6.348,40.039,0.488,31.250,0
1583423477.896,-52.246,27.832,37.598,7.812,16.602,0
1583423477.900,-53.711,33.203,36.621,-6.348,62.500,0
1583423477.903,-33.203,24.902,38.574,-13.672,56.641,0
1583423477.907,-28.320,18.555,39.062,9.766,42.969,0
1583423477.911,-22.949,23.926,41.016,33.691,41.016,0
1583423477.915,-7.324,32.227,42.480,22.949,42.969,0
1583423477.919,-9.277,20.508,42.969,10.254,-7.324,0
1583423477.936,-3.418,18.066,45.410,22.461,37.109,0
1583423477.940,0.977,21.973,45.410,37.109,56.152,0
1583423477.944,5.859,14.648,44.922,38.574,33.203,0
1583423477.948,-5.859,14.648,47.363,15.625,34.180,0
1583423477.952,-14.648,12.695,49.316,21.484,13.184,0
1583423477.956,-9.766,0.977,37.109,41.016,22.461,0
1583423477.960,-25.879,-13.184,30.273,42.969,74.219,0
1583423477.963,-31.738,-23.926,32.227,23.438,58.594,0
1583423477.967,-7.812,-10.742,27.832,1.465,3.418,0
1583423477.971,4.395,-12.695,32.227,29.297,20.020,0
1583423477.975,6.348,-25.391,35.645,70.801,-3.906,0
1583423477.979,11.719,-13.672,33.203,59.570,38.086,0
1583423477.976,14.160,-12.695,35.645,49.805,43.457,0
1583423477.980,12.695,-7.324,34.180,54.688,22.949,0
1583423477.984,18.066,-5.371,30.273,61.523,51.270,0
1583423477.988,34.180,-1.953,26.367,70.801,13.184,0
1583423477.992,35.156,-10.742,20.020,51.270,26.855,0
1583423477.996,38.574,-25.391,14.160,49.316,63.477,0
1583423478.000,48.340,-54.199,10.254,64.941,28.809,0
1583423478.003,50.293,-85.938,3.906,65.430,8.789,0
1583423478.007,50.293,-54.199,-1.953,56.152,33.691,0
1583423478.011,53.223,-10.742,6.348,55.176,59.082,0
1583423478.015,57.617,3.418,20.996,85.938,45.898,0
1583423478.019,66.895,7.324,31.738,105.469,13.184,0
1583423478.016,102.051,0.977,39.551,99.609,42.480,0
1583423478.020,105.957,-0.488,41.992,109.863,62.988,0
1583423478.024,104.492,0.488,45.898,142.090,41.992,0
1583423478.028,124.023,-17.578,46.387,155.762,-6.836,0
1583423478.032,107.422,-29.785,32.227,110.840,2.441,0
1583423478.036,91.309,-18.555,24.414,80.566,71.777,0
1583423478.040,108.887,5.859,35.156,110.840,86.426,0
1583423478.043,109.863,18.555,41.992,133.301,47.363,0
1583423478.047,113.770,5.371,31.738,130.859,29.785,0
1583423478.051,123.535,-3.906,15.137,107.422,77.148,0
1583423478.055,118.164,-2.930,17.578,104.004,38.574,0
1583423478.059,108.398,-16.113,7.324,117.676,19.531,0
1583423478.096,96.680,-26.855,-2.930,111.328,82.031,0
1583423478.100,89.355,-28.809,9.766,119.141,81.055,0
1583423478.104,112.793,-5.371,23.926,119.629,17.578,0
1583423478.108,132.324,17.578,39.551,132.324,34.180,0
1583423478.112,141.602,37.109,44.922,156.738,52.246,0
1583423478.116,180.664,57.617,44.922,152.832,18.066,0
1583423478.120,143.066,27.832,33.691,141.113,51.758,0
1583423478.123,92.285,-8.789,27.344,140.137,62.012,0
1583423478.127,148.438,19.043,39.062,183.594,74.707,0
1583423478.131,177.246,22.949,46.875,206.543,52.246,0
1583423478.135,180.664,8.301,51.758,199.219,61.523,0
1583423478.139,193.848,25.879,56.641,218.262,86.426,0
1583423478.116,201.172,48.340,54.688,225.586,46.387,0
1583423478.120,215.820,54.199,52.246,220.215,59.570,0
1583423478.124,231.934,49.805,62.500,227.539,70.312,0
1583423478.128,214.355,53.711,56.152,215.332,51.270,0
1583423478.132,244.629,53.223,53.223,251.465,52.246,0
1583423478.136,299.316,57.129,65.918,292.480,36.621,0
1583423478.140,328.613,48.340,67.871,300.293,56.641,0
1583423478.143,363.770,45.410,62.988,308.594,50.781,0
1583423478.147,386.719,55.664,66.895,343.262,33.691,0
1583423478.151,389.648,55.664,70.312,381.348,95.703,0
1583423478.155,418.945,58.594,67.383,381.836,92.773,0
1583423478.159,460.449,69.336,66.406,395.508,62.988,0
1583423478.156,470.703,78.613,64.453,444.336,71.777,0
1583423478.160,488.770,78.125,68.359,488.770,92.773,0
1583423478.164,517.090,74.707,72.266,504.395,78.613,0
1583423478.168,546.875,51.270,69.824,500.977,50.293,0
1583423478.172,573.242,44.922,64.941,518.066,30.273,0
1583423478.176,574.707,54.199,63.477,553.223,30.273,0
1583423478.180,591.797,63.477,71.777,583.984,46.875,0
1583423478.183,635.742,73.242,65.918,588.379,92.285,0
1583423478.187,676.758,61.523,64.453,600.098,126.953,0
1583423478.191,707.520,39.551,74.219,656.250,103.516,0
1583423478.195,751.953,45.898,72.754,711.914,161.133,0
1583423478.199,818.359,63.477,70.312,750.000,232.910,0
1583423478.216,868.652,68.359,74.219,787.109,275.879,0
1583423478.220,887.207,73.242,81.055,825.195,324.707,0
1583423478.224,894.531,75.195,78.125,841.797,357.910,0
1583423478.228,889.648,70.801,69.824,815.430,426.758,0
1583423478.232,884.766,62.500,71.289,782.227,480.957,0
1583423478.236,865.723,63.965,72.754,772.949,500.977,1
1583423478.240,828.125,61.523,69.824,755.371,519.043,0
1583423478.243,791.992,62.500,64.453,705.566,529.297,0
1583423478.247,781.738,53.711,60.059,662.109,535.645,0
1583423478.251,758.301,39.551,63.965,647.949,545.898,0
1583423478.255,685.547,49.805,68.848,598.145,551.270,0
1583423478.259,608.398,44.434,71.289,523.438,533.203,0
1583423478.256,561.523,40.039,72.754,472.656,528.809,0
1583423478.260,517.090,44.922,68.359,438.965,546.387,0
1583423478.264,481.934,43.945,65.918,421.875,534.180,0
1583423478.268,461.426,49.805,60.059,409.180,545.410,0
1583423478.272,429.688,46.875,60.547,357.422,536.621,0
1583423478.276,395.996,47.852,69.336,322.266,514.160,0
1583423478.280,386.230,49.805,64.453,325.684,500.977,0
1583423478.283,376.465,42.969,56.152,315.430,495.117,0
1583423478.287,347.168,39.551,57.129,279.297,479.980,0
1583423478.291,329.102,35.156,59.570,235.352,470.703,0
1583423478.295,296.387,27.344,55.176,210.938,456.055,0
1583423478.299,274.902,50.293,50.781,217.285,450.195,0
1583423478.296,262.207,54.688,61.035,217.773,460.938,0
1583423478.300,246.094,43.945,71.777,192.871,438.477,0
1583423478.304,236.816,43.945,71.777,181.152,434.570,0
1583423478.308,229.980,47.852,60.547,188.477,432.617,0
1583423478.312,234.863,45.410,53.711,198.730,447.266,0
1583423478.316,225.586,31.738,52.734,184.570,454.102,0
1583423478.320,229.004,27.344,51.758,154.785,466.797,0
1583423478.323,250.488,26.855,52.246,158.203,497.559,0
1583423478.327,242.188,19.043,51.270,165.039,452.637,0
1583423478.331,236.328,39.062,60.547,151.855,425.781,0
1583423478.335,245.117,51.758,66.406,140.137,437.012,0
1583423478.339,241.211,49.316,63.477,153.320,453.613,0
1583423478.356,229.980,55.176,55.176,144.531,445.312,0
1583423478.360,212.891,54.688,43.945,120.117,430.176,0
1583423478.364,186.035,48.828,42.480,102.051,416.992,0
1583423478.368,179.199,40.039,45.410,116.699,391.113,0
1583423478.372,180.176,40.039,42.480,141.602,412.598,0
1583423478.376,143.066,27.344,49.316,136.719,430.176,0
1583423478.380,117.188,7.324,59.082,106.445,389.160,0
1583423478.383,119.141,12.695,58.594,76.172,346.191,0
1583423478.387,113.281,33.203,51.758,70.801,345.703,0
1583423478.391,100.586,41.016,54.688,65.430,388.672,0
1583423478.395,111.816,51.758,56.152,25.391,401.855,0
1583423478.399,84.473,61.035,50.781,-9.277,360.840,0
1583423478.397,47.852,52.734,58.594,2.441,371.582,0
1583423478.401,53.223,46.387,53.223,3.906,371.094,0
1583423478.405,50.293,46.875,49.316,-37.598,346.680,0
1583423478.409,28.809,49.316,49.805,-48.828,347.168,0
