timestamps,TP9,AF7,AF8,TP10,Right AUX,Marker0
1583424004.879,999.512,-967.773,57.129,6.348,28.320,0
1583424004.883,-1000.000,-968.750,39.062,6.836,5.371,0
1583424004.887,995.117,-968.750,28.809,11.230,74.707,0
1583424004.891,-997.070,-968.750,17.578,15.137,77.148,0
1583424004.895,968.262,-968.750,17.090,9.277,53.711,0
1583424004.899,820.312,-968.750,11.230,16.113,33.691,0
1583424004.903,682.617,-968.750,18.066,13.672,32.227,0
1583424004.906,594.727,-968.750,8.789,12.695,40.039,0
1583424004.910,498.535,-968.750,1.953,1.465,57.617,0
1583424004.914,423.828,-968.750,21.973,0.000,77.148,0
1583424004.918,396.484,-968.750,18.066,25.391,77.148,0
1583424004.922,375.977,-968.750,8.301,28.320,53.711,0
1583424004.937,296.387,-968.750,7.812,10.742,-21.973,0
1583424004.941,166.504,-968.750,7.324,-6.348,11.230,0
1583424004.945,166.504,-968.750,37.598,1.953,31.250,0
1583424004.949,239.746,-968.262,53.711,24.902,62.988,0
1583424004.953,237.793,-968.262,40.527,10.742,67.383,0
1583424004.957,216.309,-968.750,41.992,-0.977,40.039,0
1583424004.961,165.527,-968.750,16.602,14.648,60.059,0
1583424004.964,184.082,-968.750,30.273,17.578,95.215,0
1583424004.968,286.621,-968.750,77.148,9.277,75.684,0
1583424004.972,272.461,-968.750,74.219,4.883,47.363,0
1583424004.976,216.797,-968.750,57.129,9.277,12.695,0
1583424004.980,204.102,-968.750,52.246,23.438,8.789,0
1583424004.977,181.641,-968.262,59.570,25.879,59.082,0
1583424004.981,133.301,-968.262,53.223,2.930,-9.766,0
1583424004.985,58.105,-968.750,61.035,-0.488,36.133,0
1583424004.989,-10.254,-968.750,57.129,18.066,58.594,0
1583424004.993,-52.734,-968.750,42.969,17.578,48.828,0
1583424004.997,-90.332,-968.750,31.250,10.254,79.590,0
1583424005.001,-100.098,-968.750,28.320,10.254,49.316,0
1583424005.004,-67.383,-968.750,37.109,17.578,77.637,0
1583424005.008,-58.105,-968.262,40.039,28.809,40.527,0
1583424005.012,-145.020,-968.750,6.348,2.930,11.230,0
1583424005.016,-279.297,-968.750,-3.418,-2.930,46.387,0
1583424005.020,-316.406,-966.309,30.762,12.207,43.945,0
1583424005.018,-356.445,-974.121,16.602,11.719,46.875,0
1583424005.022,-424.805,-932.617,-2.441,9.766,48.828,0
1583424005.026,-538.086,-942.383,-20.020,4.395,64.941,0
1583424005.030,-615.234,-793.945,-15.137,9.277,83.496,0
1583424005.034,-608.398,-466.309,-6.836,18.555,89.355,0
1583424005.038,-625.977,-468.750,-32.715,11.230,67.383,0
1583424005.042,-642.090,-273.438,-18.555,0.977,91.309,0
1583424005.045,-734.375,-99.121,-26.367,-1.953,72.266,0
1583424005.049,-807.617,-86.426,-29.785,12.207,91.309,0
1583424005.053,-819.336,271.973,8.789,19.531,137.695,0
1583424005.057,-883.301,411.621,4.395,9.766,135.254,0
1583424005.061,-911.133,396.973,5.371,20.020,118.652,0
1583424005.078,-939.941,285.156,-2.930,26.855,104.492,0
1583424005.082,-969.238,51.270,-4.883,2.930,151.367,0
1583424005.086,-968.262,187.500,35.156,-12.207,188.965,0
1583424005.090,-967.773,405.762,49.805,-11.719,218.262,0
1583424005.094,-968.750,416.016,40.527,4.883,251.953,0
1583424005.098,-968.750,257.324,25.879,20.508,240.723,0
1583424005.102,-968.262,-220.703,4.395,19.043,190.430,0
1583424005.105,-968.262,-344.238,30.273,0.000,148.926,0
1583424005.109,-968.262,-5.371,64.453,3.418,123.535,0
1583424005.113,-968.262,30.762,58.594,16.113,105.957,0
1583424005.117,-968.750,-31.250,61.035,2.930,112.305,0
1583424005.121,-968.750,-231.445,46.387,-5.371,52.734,0
1583424005.119,-966.797,-281.738,51.758,-4.395,-5.371,0
1583424005.123,-971.191,-188.965,64.453,4.395,0.000,0
1583424005.127,-957.031,-158.691,62.500,-0.488,-6.348,0
1583424005.131,-910.156,-152.832,58.105,-12.207,-39.062,0
1583424005.135,-890.625,-197.266,57.617,-8.789,-43.945,0
1583424005.139,-833.984,-122.559,61.035,3.418,0.977,0
1583424005.143,-744.141,-23.926,57.129,11.719,26.855,0
1583424005.146,-679.199,122.070,67.871,-4.395,8.301,0
1583424005.150,-650.391,376.465,85.938,-13.184,25.391,0
1583424005.154,-659.180,189.453,62.012,5.371,24.902,0
1583424005.158,-606.445,134.766,72.266,18.066,35.156,0
1583424005.162,-548.828,409.668,99.121,16.113,34.180,0
1583424005.157,-596.191,405.762,92.773,-6.348,17.578,0
1583424005.161,-631.836,409.668,103.027,-10.254,24.902,0
1583424005.165,-653.320,229.492,98.633,8.301,25.879,0
1583424005.169,-665.527,106.445,104.492,7.812,20.020,0
1583424005.173,-669.434,124.023,113.770,-1.953,-4.395,0
1583424005.177,-738.281,-164.551,100.586,-3.906,1.465,0
1583424005.181,-741.211,-385.742,114.746,13.672,34.180,0
1583424005.184,-733.398,-628.906,109.863,11.719,-8.789,0
1583424005.188,-774.902,-967.773,82.520,-7.812,-25.879,0
1583424005.192,-747.559,-847.168,122.070,-14.648,7.324,0
1583424005.196,-703.613,-615.723,148.438,1.465,-22.949,0
1583424005.200,-691.895,-608.398,130.859,13.184,-65.918,0
1583424005.217,-709.961,-689.941,106.934,6.348,-45.410,0
1583424005.221,-722.656,-699.219,97.656,-4.395,-6.348,0
1583424005.225,-683.105,-634.277,95.215,-2.930,-65.430,0
1583424005.229,-634.277,-593.750,100.586,19.531,-41.504,0
1583424005.233,-616.211,-544.434,101.562,18.555,-14.648,0
1583424005.237,-688.965,-735.840,67.871,0.000,-62.012,0
1583424005.241,-752.441,-965.820,61.035,-9.766,-40.039,0
1583424005.244,-669.922,-736.328,101.074,-6.348,-40.039,0
1583424005.248,-627.930,-366.699,123.047,-14.648,5.371,0
1583424005.252,-699.219,-406.738,102.051,-23.438,50.293,0
1583424005.256,-760.742,-609.375,88.379,-6.348,34.668,0
1583424005.260,-747.559,-666.016,103.516,6.836,12.695,0
1583424005.257,-711.426,-639.160,117.188,-5.371,-16.113,0
1583424005.261,-734.863,-710.449,107.422,-6.348,-8.301,0
1583424005.265,-769.531,-895.508,104.980,-10.742,-36.133,0
1583424005.269,-771.973,-974.609,112.305,-6.836,-45.898,0
1583424005.273,-768.066,-963.867,110.352,6.836,7.812,0
1583424005.277,-804.199,-968.262,108.398,13.184,5.371,0
1583424005.281,-874.023,-968.750,111.816,4.883,25.879,0
1583424005.284,-890.625,-968.750,115.723,4.395,40.039,0
1583424005.288,-856.445,-968.750,117.676,20.020,-12.207,0
1583424005.292,-903.320,-968.750,79.590,26.367,16.113,0
1583424005.296,-937.500,-968.750,76.172,16.113,31.738,0
1583424005.300,-867.676,-968.262,107.910,20.508,-24.902,0
1583424005.297,-838.379,-968.750,89.355,39.062,-23.438,0
1583424005.301,-813.477,-968.750,89.355,41.504,15.137,0
1583424005.305,-812.012,-968.750,94.238,41.504,15.625,0
1583424005.309,-856.934,-968.262,85.938,34.668,16.602,0
1583424005.313,-857.422,-968.262,78.125,39.551,-11.230,0
1583424005.317,-858.887,-968.750,67.383,56.152,-3.906,0
1583424005.321,-859.375,-968.750,77.148,43.457,6.348,0
1583424005.324,-895.020,-968.750,57.617,32.715,-15.625,0
1583424005.328,-864.746,-968.750,59.570,37.598,52.734,0
1583424005.332,-715.820,-968.750,98.633,41.016,54.688,0
1583424005.336,-634.766,-968.750,90.820,41.016,17.578,0
1583424005.340,-611.328,-968.750,80.078,20.996,28.809,0
1583424005.377,-600.098,-968.750,66.895,14.160,-18.066,0
1583424005.381,-499.512,-968.750,78.613,32.227,-3.906,0
1583424005.385,-360.840,-968.262,86.426,28.809,77.637,0
1583424005.389,-330.566,-968.750,55.664,20.996,15.625,0
1583424005.393,-283.203,-968.750,55.664,21.973,-55.176,0
1583424005.397,-152.832,-968.262,57.617,34.668,23.926,0
1583424005.401,-65.918,-968.262,54.199,46.387,76.660,0
1583424005.404,19.531,-968.262,80.566,26.367,46.387,0
1583424005.408,29.785,-968.750,65.918,19.043,31.250,0
1583424005.412,58.105,-968.262,57.617,37.598,4.395,0
1583424005.416,92.285,-968.750,46.387,45.898,8.789,0
1583424005.420,61.523,-968.750,34.668,39.062,23.926,0
1583424005.417,21.484,-968.750,45.898,14.648,41.016,0
1583424005.421,-36.133,-968.750,33.691,23.926,29.785,0
1583424005.425,-38.574,-968.750,29.297,48.828,-6.836,0
1583424005.429,-65.918,-968.750,23.438,38.086,10.742,0
1583424005.433,-123.535,-968.262,17.090,36.621,57.129,0
1583424005.437,-147.949,-968.262,19.531,35.156,40.039,0
1583424005.441,-124.023,-968.262,21.973,37.109,10.742,0
1583424005.444,-82.520,-968.750,23.438,44.434,-0.977,0
1583424005.448,-84.961,-968.750,15.137,25.391,-23.926,0
1583424005.452,-125.000,-968.750,18.555,21.973,28.809,0
1583424005.456,-115.234,-968.750,22.461,38.086,24.902,0
1583424005.460,-100.098,-968.750,23.438,42.969,17.578,0
1583424005.437,-133.789,-968.750,15.625,22.949,50.781,0
1583424005.441,-185.059,-968.262,1.465,21.484,23.926,0
1583424005.445,-254.883,-968.262,-35.156,37.109,-4.395,0
1583424005.449,-232.910,-968.262,-16.602,32.227,26.367,0
1583424005.453,-167.480,-968.262,20.508,31.250,55.176,0
1583424005.457,-248.535,-968.750,-3.906,33.691,41.504,0
1583424005.461,-264.160,-968.750,-2.930,37.598,9.277,0
1583424005.464,-178.711,-968.750,6.836,68.359,-25.391,0
1583424005.468,-121.094,-968.262,15.625,59.570,53.223,0
1583424005.472,-126.953,-968.750,3.906,32.715,43.945,0
1583424005.476,-126.465,-968.262,10.254,48.340,36.621,0
1583424005.480,-41.016,-968.262,24.414,56.641,53.711,0
1583424005.497,-51.270,-968.750,-18.555,63.477,-11.719,0
1583424005.501,-111.816,-968.262,-26.367,48.340,-21.973,0
1583424005.505,-104.004,-968.262,18.066,43.945,35.156,0
1583424005.509,-121.582,-968.262,6.348,61.523,-41.504,0
1583424005.513,-112.793,-968.750,9.766,52.734,-67.383,0
1583424005.517,-124.512,-968.750,-5.859,43.457,85.449,0
1583424005.521,-103.027,-968.262,-7.324,27.832,91.309,0
1583424005.524,24.902,-968.262,19.043,36.621,14.160,0
1583424005.528,141.602,-968.750,9.766,50.781,-20.996,0
1583424005.532,219.238,-968.750,11.719,40.527,-5.859,0
1583424005.536,185.059,-968.262,-8.301,38.086,49.316,0
1583424005.540,187.012,-968.750,-19.043,36.621,79.102,0
1583424005.537,314.453,-968.750,2.930,62.500,84.961,0
1583424005.541,357.422,-968.750,1.953,65.918,19.043,0
1583424005.545,286.133,-968.750,3.906,19.531,-15.625,0
1583424005.549,206.055,-968.262,-13.184,28.320,45.898,0
1583424005.553,243.652,-968.262,-17.578,58.105,17.090,0
1583424005.557,293.945,-968.262,5.371,45.410,18.066,0
1583424005.561,279.785,-968.750,-0.488,47.852,20.508,0
1583424005.564,274.414,-968.750,6.836,34.180,-13.184,0
1583424005.568,281.738,-968.262,4.883,39.551,40.527,0
1583424005.572,302.734,-968.750,-7.812,58.594,65.430,0
1583424005.576,340.332,-968.262,3.906,50.293,26.367,0
1583424005.580,354.980,-968.262,2.441,38.086,40.039,0
1583424005.577,408.203,-968.262,-0.977,38.574,56.641,0
1583424005.581,507.324,-968.262,-10.254,55.176,-13.184,0
1583424005.585,479.980,-968.262,-27.344,49.805,-14.648,0
1583424005.589,490.723,-968.262,-1.953,39.062,44.434,0
1583424005.593,606.445,-968.750,11.719,49.316,10.254,0
1583424005.597,690.918,-968.750,-2.930,62.012,3.906,0
1583424005.601,809.082,-968.750,3.906,62.012,25.391,0
1583424005.604,850.098,-968.750,-15.137,46.387,-7.812,0
1583424005.608,904.297,-968.750,-1.953,36.621,-48.340,0
1583424005.612,-993.652,-968.750,30.762,62.988,-28.809,0
1583424005.616,997.559,-968.750,20.996,74.707,-23.438,0
1583424005.620,997.559,-968.750,21.484,57.129,-6.836,0
1583424005.637,999.512,-968.262,15.625,60.059,35.645,0
1583424005.641,999.512,-968.262,20.996,76.660,60.547,0
1583424005.645,999.512,-968.262,12.695,76.660,60.547,0
1583424005.649,999.512,-968.262,4.395,73.730,39.551,0
1583424005.653,999.512,-968.750,12.695,65.430,83.008,0
1583424005.657,999.512,-968.750,-24.902,64.941,94.238,0
1583424005.661,999.512,-968.750,-30.762,78.613,33.691,0
1583424005.664,999.512,-968.750,10.742,81.543,30.762,0
1583424005.668,999.512,-968.750,10.742,61.523,26.367,0
1583424005.672,999.512,-966.309,7.324,60.059,19.043,0
1583424005.676,999.512,-971.191,1.465,77.148,57.617,0
1583424005.680,999.512,-956.543,2.441,75.684,54.688,0
1583424005.677,999.512,-902.832,6.836,63.965,46.387,0
1583424005.681,999.512,-887.207,-7.324,61.523,2.441,0
1583424005.685,997.070,-830.078,-15.137,69.336,1.953,0
1583424005.689,995.117,-854.980,-24.902,76.660,37.109,0
1583424005.693,965.820,-792.969,-24.902,71.289,93.262,0
1583424005.697,842.285,-760.254,-33.203,63.477,74.707,0
1583424005.701,735.840,-834.473,-35.156,62.988,38.574,0
1583424005.704,697.266,-523.926,-11.719,63.965,114.258,0
1583424005.708,569.824,-495.605,-35.645,57.617,137.207,0
1583424005.712,367.676,-902.832,-70.801,32.227,95.703,0
1583424005.716,309.570,-804.688,-37.598,28.809,54.688,0
1583424005.720,287.109,-609.863,-27.832,45.898,34.668,0
1583424005.719,174.805,-614.258,-32.715,39.062,56.641,0
1583424005.723,9.277,-712.402,-44.434,25.391,87.891,0
1583424005.727,-158.203,-846.680,-48.828,19.531,69.336,0
1583424005.731,-248.047,-768.066,-29.297,17.578,19.531,0
1583424005.735,-328.613,-721.191,-34.180,16.113,30.762,0
1583424005.739,-459.961,-838.379,-43.457,2.441,81.543,0
1583424005.743,-578.613,-956.055,-51.270,-4.883,34.668,0
1583424005.746,-609.863,-927.734,-38.574,5.859,24.902,0
1583424005.750,-580.078,-760.254,-15.625,4.395,43.457,0
1583424005.754,-611.328,-670.410,-22.461,-5.371,-9.766,0
1583424005.758,-675.293,-628.418,-20.508,-8.301,22.461,0
1583424005.762,-704.590,-693.848,-35.156,-5.859,62.988,0
1583424005.777,-699.219,-884.766,-38.574,5.859,24.414,0
1583424005.781,-681.152,-754.395,-9.277,8.789,21.973,0
1583424005.785,-729.980,-630.371,-17.090,-8.301,26.367,0
1583424005.789,-766.602,-666.992,-25.391,-11.230,7.812,0
1583424005.793,-730.957,-701.660,-16.113,4.395,12.207,0
1583424005.797,-777.344,-853.516,-39.551,-0.977,-38.086,0
1583424005.801,-831.055,-976.562,-29.785,-7.812,-26.367,0
1583424005.804,-761.230,-763.672,28.809,-9.277,58.594,0
1583424005.808,-699.707,-614.258,26.367,-1.465,34.668,0
1583424005.812,-657.227,-622.070,15.625,3.906,13.184,0
1583424005.816,-659.668,-686.523,18.066,6.836,51.270,0
1583424005.820,-697.754,-697.266,16.113,0.488,67.383,0
1583424005.818,-699.707,-626.465,10.254,-20.020,53.223,0
1583424005.822,-693.359,-602.051,13.184,-15.137,39.551,0
1583424005.826,-733.887,-671.387,3.906,-3.906,51.270,0
1583424005.830,-815.430,-793.457,-1.953,-8.301,117.676,0
1583424005.834,-821.289,-743.164,9.277,-1.465,80.078,0
1583424005.838,-846.191,-807.129,5.859,7.812,53.223,0
1583424005.842,-929.688,-862.305,13.672,-9.277,85.449,0
1583424005.845,-964.355,-746.582,26.855,-10.742,52.734,0
1583424005.849,-968.262,-858.398,-6.348,8.301,-4.883,0
1583424005.853,-967.773,-966.309,-8.789,7.812,-22.949,0
1583424005.857,-968.750,-765.137,39.551,-4.395,28.809,0
1583424005.861,-968.750,-603.516,35.645,-9.277,90.332,0
1583424005.877,-968.262,-599.121,20.508,-12.207,48.828,0
1583424005.881,-968.262,-732.910,8.789,-1.953,-39.551,0
1583424005.885,-968.750,-717.285,17.090,1.953,-30.762,0
1583424005.889,-968.262,-441.406,39.062,5.371,39.062,0
1583424005.893,-969.238,-335.449,30.762,5.859,68.359,0
1583424005.897,-963.379,-384.766,16.602,4.395,41.504,0
1583424005.901,-972.168,-431.152,12.695,17.090,36.621,0
1583424005.904,-933.105,-633.789,2.930,-1.953,19.043,0
1583424005.908,-763.184,-422.363,34.668,-15.137,6.836,0
1583424005.912,-557.129,-56.641,57.129,-1.953,43.457,0
1583424005.916,-343.262,-43.457,53.711,13.184,23.926,0
1583424005.920,-184.082,-126.953,39.551,12.695,3.418,0
1583424005.917,-92.773,-220.215,42.969,3.906,60.059,0
1583424005.921,42.969,-165.527,60.059,9.277,77.637,0
1583424005.925,206.055,-228.027,51.270,23.438,19.531,0
1583424005.929,316.895,-332.520,45.410,25.391,-25.391,0
1583424005.933,375.977,-410.645,41.504,20.996,-20.508,0
1583424005.937,211.914,-653.320,32.227,8.789,10.254,0
1583424005.941,-381.348,-901.855,28.809,-17.578,18.555,0
1583424005.944,-894.531,-966.797,30.273,-36.133,3.906,0
1583424005.948,-990.723,-965.332,33.691,-43.457,-40.039,0
1583424005.952,-729.004,-967.773,48.340,-25.879,-16.113,0
1583424005.956,-267.090,-968.750,26.855,3.906,18.066,0
1583424005.960,165.039,-968.262,40.527,20.020,15.137,0
1583424005.958,610.352,-968.750,81.543,12.207,7.324,0
1583424005.962,891.602,-968.750,71.289,11.719,-12.695,0
1583424005.966,997.559,-968.750,56.152,32.227,-36.621,0
1583424005.970,988.770,-968.750,48.828,47.852,-33.203,0
1583424005.974,-992.676,-968.262,55.176,57.617,-22.949,0
1583424005.978,944.824,-968.262,43.945,39.551,27.832,0
1583424005.982,758.301,-968.262,44.434,37.598,56.641,0
1583424005.985,652.832,-968.262,55.176,80.078,-7.812,0
1583424005.989,531.250,-968.750,30.273,75.195,-36.133,0
1583424005.993,392.578,-968.750,33.203,28.809,-11.230,0
1583424005.997,291.016,-968.750,50.293,0.000,26.367,0
1583424006.001,205.078,-968.262,44.922,-37.598,43.945,0
1583424006.017,158.203,-968.262,45.410,-51.758,62.500,0
1583424006.021,30.762,-968.262,7.324,-44.434,35.156,0
1583424006.025,-94.238,-968.750,8.789,-35.645,34.180,0
1583424006.029,-96.191,-968.262,42.480,-14.648,80.566,0
1583424006.033,-110.840,-968.262,33.691,1.465,49.805,0
1583424006.037,-151.855,-968.262,26.367,-5.859,54.199,0
1583424006.041,-220.703,-968.750,7.812,-11.719,56.152,0
1583424006.044,-190.918,-968.750,19.043,11.719,60.547,0
1583424006.048,-49.805,-968.750,46.875,20.020,27.344,0
1583424006.052,-2.930,-968.750,41.504,20.508,38.574,0
1583424006.056,-53.223,-968.262,41.016,22.949,71.289,0
1583424006.060,-157.227,-968.750,9.766,38.574,33.203,0
1583424006.057,-192.871,-968.750,-3.906,37.598,55.176,0
1583424006.061,-144.043,-968.750,27.344,30.273,44.922,0
1583424006.065,-213.867,-968.262,30.273,35.645,51.758,0
1583424006.069,-282.715,-968.750,30.273,34.180,67.871,0
1583424006.073,-235.840,-968.750,22.461,44.922,58.105,0
1583424006.077,-193.848,-968.262,17.090,49.316,81.055,0
1583424006.081,-149.902,-968.262,21.484,34.668,57.617,0
1583424006.084,-79.102,-968.262,22.949,33.691,41.016,0
1583424006.088,61.523,-968.262,32.715,49.805,60.547,0
1583424006.092,195.801,-968.750,25.391,61.035,47.852,0
1583424006.096,201.660,-968.750,-16.113,54.199,-20.508,0
1583424006.100,253.418,-968.750,8.789,31.738,0.488,0
1583424006.098,371.094,-968.262,43.945,28.809,39.551,0
1583424006.102,500.977,-968.750,35.645,39.551,20.996,0
1583424006.106,618.164,-965.820,28.320,38.574,46.875,0
1583424006.110,658.691,-978.516,7.324,36.621,20.020,0
1583424006.114,739.258,-922.363,20.996,28.320,38.574,0
1583424006.118,828.125,-911.621,26.855,32.227,83.496,0
1583424006.122,889.648,-975.098,25.391,26.367,47.852,0
1583424006.125,929.688,-967.773,31.738,14.160,70.801,0
1583424006.129,927.734,-967.285,20.996,2.930,67.871,0
1583424006.133,976.562,-968.750,35.645,-5.371,60.059,0
1583424006.137,-995.605,-968.750,49.805,3.418,29.785,0
1583424006.141,996.582,-968.262,46.875,-5.371,36.621,0
1583424006.157,999.512,-968.750,37.109,-15.625,47.363,0
1583424006.161,-1000.000,-968.750,3.418,-2.930,-10.742,0
1583424006.165,995.117,-968.262,9.277,0.000,-11.230,0
1583424006.169,-997.070,-968.750,33.203,2.930,-6.836,0
1583424006.173,978.027,-968.262,16.113,3.906,11.230,0
1583424006.177,845.703,-968.262,3.418,-2.930,26.855,0
1583424006.181,706.055,-968.750,-16.113,20.508,39.062,0
1583424006.184,628.906,-968.750,-24.414,31.738,23.926,0
1583424006.188,549.805,-968.750,-1.465,20.996,-14.648,0
1583424006.192,392.090,-968.750,4.883,21.973,16.113,0
1583424006.196,255.371,-968.750,-0.977,37.109,26.367,0
1583424006.200,159.180,-968.262,-16.602,47.363,-8.789,0
1583424006.198,57.129,-968.750,-20.508,30.273,-6.348,0
1583424006.202,-93.262,-968.750,-19.531,23.438,-8.301,0
1583424006.206,-245.605,-968.262,-26.367,33.203,-3.418,0
1583424006.210,-367.188,-968.750,-29.297,43.457,9.766,0
1583424006.214,-568.848,-968.750,-45.898,43.945,13.184,0
1583424006.218,-824.219,-968.750,-45.410,42.480,53.711,0
1583424006.222,-958.496,-968.750,-34.180,42.969,60.059,0
1583424006.225,-966.309,-968.750,-31.250,44.922,37.109,0
1583424006.229,-965.820,-968.750,-31.738,41.504,51.758,0
1583424006.233,-969.238,-968.262,-59.082,21.484,10.254,0
1583424006.237,-968.262,-968.262,-80.566,36.133,0.488,0
1583424006.241,-968.750,-968.750,-59.570,67.383,2.441,0
1583424006.257,-968.262,-968.750,-45.898,50.781,61.035,0
1583424006.261,-968.750,-968.262,-55.176,27.344,101.562,0
1583424006.265,-968.750,-968.262,-76.660,34.668,78.125,0
1583424006.269,-968.262,-968.262,-83.984,59.082,105.469,0
1583424006.273,-968.262,-968.262,-69.824,54.688,72.754,0
1583424006.277,-968.750,-968.750,-83.008,33.691,52.246,0
1583424006.281,-968.750,-968.750,-78.613,33.203,28.809,0
1583424006.284,-968.750,-968.750,-58.594,52.246,-85.449,0
1583424006.288,-963.867,-968.750,-75.684,67.871,-11.719,0
1583424006.292,-972.656,-965.332,-59.570,43.945,65.430,0
1583424006.296,-911.621,-972.656,-27.832,33.691,-8.301,0
1583424006.300,-730.957,-950.684,-39.551,47.852,10.742,0
1583424006.298,-572.266,-832.031,-43.945,52.246,70.801,0
1583424006.302,-475.586,-882.324,-60.059,63.965,64.941,0
1583424006.306,-342.773,-923.828,-58.105,57.617,17.578,0
1583424006.310,-186.523,-721.191,-42.969,48.340,65.918,0
1583424006.314,64.453,-577.148,-52.246,65.918,93.262,0
1583424006.318,357.422,-613.770,-69.336,83.496,84.473,0
1583424006.322,590.820,-705.078,-78.613,64.453,53.711,0
1583424006.325,841.797,-524.902,-64.941,55.176,6.348,0
1583424006.329,994.629,-248.535,-48.828,80.566,57.129,0
1583424006.333,997.070,-195.312,-61.035,75.684,59.082,0
1583424006.337,996.582,-124.023,-64.941,56.152,43.945,0
1583424006.341,-999.512,-351.562,-89.844,57.129,31.738,0
1583424006.357,999.512,-472.656,-89.844,74.707,-0.977,0
1583424006.361,999.512,-99.121,-52.246,76.660,65.918,0
1583424006.365,999.512,-30.273,-51.270,71.777,111.328,0
1583424006.369,999.512,-32.715,-43.945,61.035,101.074,0
1583424006.373,999.512,-265.137,-59.082,50.293,92.773,0
1583424006.377,999.512,-568.848,-66.895,63.477,56.152,0
1583424006.381,999.512,-502.930,-38.574,66.406,41.504,0
1583424006.384,999.512,-454.102,-30.762,41.016,60.547,0
1583424006.388,999.512,-390.625,-32.715,49.316,11.719,0
1583424006.392,999.512,-518.066,-54.199,67.871,-22.461,0
1583424006.396,999.512,-895.508,-74.707,43.457,21.973,0
1583424006.400,998.535,-748.535,-42.969,27.344,70.801,0
1583424006.417,998.047,-463.867,-33.203,31.250,74.219,0
1583424006.421,993.164,-471.680,-47.852,32.715,33.691,0
1583424006.425,929.199,-562.988,-59.082,45.410,-5.371,0
1583424006.429,833.496,-583.008,-50.781,39.551,5.859,0
1583424006.433,713.867,-362.793,-32.227,8.789,52.246,0
1583424006.437,573.242,-486.816,-52.734,13.184,-16.602,0
1583424006.441,560.059,-400.391,-35.645,26.367,-17.578,0
1583424006.444,566.895,-124.512,-23.438,17.090,87.891,0
1583424006.448,541.504,-110.840,-39.062,21.973,69.824,0
1583424006.452,557.617,97.656,-25.879,21.973,35.156,0
1583424006.456,571.777,230.469,-26.855,31.250,59.570,0
1583424006.460,596.680,324.219,-23.438,24.414,38.086,0
1583424006.420,581.543,451.172,-24.414,4.883,75.195,0
1583424006.424,538.086,362.305,-37.109,20.020,62.012,0
1583424006.428,599.609,472.656,-17.090,30.273,3.906,0
1583424006.432,667.480,728.516,-6.348,34.180,25.391,0
1583424006.436,708.984,820.801,-8.789,17.578,72.266,0
1583424006.440,713.867,656.738,-16.113,20.508,67.871,0
1583424006.444,691.895,377.441,-2.930,37.109,57.129,0
1583424006.447,758.789,529.785,30.762,33.691,107.422,0
1583424006.451,796.875,696.289,27.832,38.574,92.285,0
1583424006.455,724.609,637.207,16.602,19.043,72.754,0
1583424006.459,632.812,538.086,6.836,3.906,67.871,0
1583424006.463,519.043,172.363,-6.348,21.973,21.484,0
1583424006.477,459.473,174.316,19.043,18.555,22.461,0
1583424006.481,405.762,418.945,24.902,11.719,10.254,0
1583424006.485,296.387,405.273,16.113,0.000,10.742,0
1583424006.489,297.852,526.367,24.414,5.859,73.242,0
1583424006.493,293.945,311.523,-3.906,19.043,51.758,0
1583424006.497,178.223,-342.285,-38.086,-1.465,11.719,0
1583424006.501,158.691,-299.316,-0.488,-16.602,-2.930,0
1583424006.504,235.352,98.145,33.691,-6.348,-7.812,0
1583424006.508,265.137,179.199,25.879,-13.672,29.297,0
1583424006.512,223.633,56.152,12.207,-12.207,100.586,0
1583424006.516,159.668,-38.574,1.465,-3.906,117.676,0
1583424006.520,165.527,38.086,7.812,-9.277,40.039,0
1583424006.518,169.434,-24.902,9.277,-8.789,-3.418,0
1583424006.522,148.438,-125.977,-0.488,-2.441,4.395,0
1583424006.526,83.008,-333.984,-17.090,-17.578,-18.066,0
1583424006.530,23.926,-340.820,-6.348,-21.973,32.227,0
1583424006.534,17.578,-182.617,3.906,14.648,41.504,0
1583424006.538,-53.223,-368.164,-17.090,21.973,11.719,0
1583424006.542,-140.625,-416.016,-10.742,-9.277,16.113,0
1583424006.545,-250.977,-416.016,-9.766,-15.625,20.508,0
1583424006.549,-339.844,-606.445,-15.625,6.348,28.320,0
1583424006.553,-332.520,-506.836,3.418,17.578,15.625,0
1583424006.557,-385.254,-489.258,-7.324,2.930,31.250,0
1583424006.561,-484.375,-650.391,-16.602,8.789,20.996,0
1583424006.577,-549.805,-836.426,-27.344,12.695,-0.977,0
1583424006.581,-662.109,-971.680,-40.039,16.602,-14.160,0
1583424006.585,-770.508,-965.820,-25.879,-9.766,-39.062,0
1583424006.589,-859.863,-965.820,-37.109,-28.809,-20.996,0
1583424006.593,-953.613,-970.703,-50.293,9.766,-42.969,0
1583424006.597,-970.215,-959.473,-43.457,21.484,-28.809,0
1583424006.601,-965.820,-979.980,-64.453,2.441,10.254,0
1583424006.604,-968.750,-910.645,-47.363,-4.883,-0.977,0
1583424006.608,-968.262,-681.641,-2.930,20.508,67.871,0
1583424006.612,-968.262,-580.566,-12.207,33.691,73.730,0
1583424006.616,-968.750,-595.703,-26.367,-3.906,19.531,0
1583424006.620,-966.309,-746.582,-27.832,0.000,-1.465,0
1583424006.618,-969.727,-726.074,-9.766,23.438,24.414,0
1583424006.622,-961.426,-586.426,-18.555,14.160,57.129,0
1583424006.626,-880.371,-592.773,-28.809,14.648,44.434,0
1583424006.630,-821.289,-661.621,-30.762,23.438,-2.441,0
1583424006.634,-809.570,-779.785,-35.645,26.367,26.367,0
1583424006.638,-777.344,-791.992,-35.156,31.250,94.727,0
1583424006.642,-725.586,-816.406,-54.199,51.270,47.363,0
1583424006.645,-661.621,-866.699,-64.941,19.531,-1.953,0
1583424006.649,-636.719,-695.312,-56.641,-13.184,23.926,0
1583424006.653,-656.738,-776.367,-66.406,14.160,63.965,0
1583424006.657,-624.023,-871.094,-58.594,30.273,79.102,0
1583424006.661,-539.551,-658.691,-49.805,61.523,83.496,0
1583424006.658,-544.434,-761.719,-77.148,25.391,9.766,0
1583424006.662,-553.223,-851.074,-75.195,-4.883,-21.484,0
1583424006.666,-566.895,-903.320,-98.145,26.367,13.672,0
1583424006.670,-563.965,-974.121,-108.398,29.785,-35.645,0
1583424006.674,-498.047,-966.797,-78.613,46.875,-62.012,0
1583424006.678,-537.598,-967.773,-97.168,40.527,-14.160,0
1583424006.682,-558.105,-968.750,-93.262,30.273,56.152,0
1583424006.685,-535.156,-968.750,-102.539,39.062,65.918,0
1583424006.689,-507.324,-968.750,-118.164,35.156,-37.109,0
1583424006.693,-488.770,-968.262,-111.816,32.715,-44.434,0
1583424006.697,-511.230,-969.727,-125.488,35.645,15.137,0
1583424006.701,-491.211,-962.402,-118.652,42.969,23.438,0
1583424006.718,-571.289,-973.145,-144.531,31.738,43.457,0
1583424006.722,-665.039,-940.430,-158.691,-3.906,109.375,0
1583424006.726,-643.066,-768.555,-142.090,16.602,63.477,0
1583424006.730,-581.055,-587.402,-139.648,43.945,-20.508,0
1583424006.734,-481.445,-397.949,-133.301,21.484,0.488,0
1583424006.738,-450.684,-490.234,-150.879,6.836,3.906,0
1583424006.742,-393.066,-593.262,-147.949,21.484,15.625,0
1583424006.745,-161.133,-284.668,-120.117,27.344,15.625,0
1583424006.749,43.457,-105.957,-117.188,23.438,1.953,0
1583424006.753,148.926,-80.078,-114.258,21.484,34.668,0
1583424006.757,282.715,-136.230,-121.094,18.555,61.035,0
1583424006.761,451.172,-631.348,-130.859,41.504,7.812,0
1583424006.757,672.363,-912.109,-109.375,56.641,-17.578,0
1583424006.761,875.000,-804.688,-84.473,42.480,37.598,0
1583424006.765,981.445,-837.402,-77.637,33.691,42.480,0
1583424006.769,-1000.000,-935.547,-92.773,39.062,-6.836,0
1583424006.773,996.582,-972.656,-97.168,50.293,-6.348,0
1583424006.777,-1000.000,-965.820,-85.449,42.480,12.207,0
1583424006.781,999.512,-967.773,-73.730,31.250,-0.977,0
1583424006.784,999.512,-972.168,-58.105,24.414,1.953,0
1583424006.788,999.512,-948.730,-53.223,37.109,7.324,0
1583424006.792,999.512,-965.332,-96.191,39.062,-19.531,0
1583424006.796,999.512,-915.527,-88.867,16.113,-26.855,0
1583424006.800,-1000.000,-693.359,-42.480,46.387,13.184,0
1583424006.798,997.559,-518.066,-40.039,69.824,26.367,0
1583424006.802,997.559,-419.922,-44.922,43.457,15.137,0
1583424006.806,997.070,-411.621,-50.781,29.297,12.695,0
1583424006.810,897.461,-399.414,-51.270,30.273,52.734,0
1583424006.814,762.207,-325.195,-50.781,41.016,18.066,0
1583424006.818,664.551,-283.691,-42.480,44.922,17.578,0
1583424006.822,556.152,-220.215,-23.926,27.832,62.500,0
1583424006.825,442.383,-300.781,-36.621,22.461,77.148,0
1583424006.829,356.934,-408.691,-42.969,32.227,78.125,0
1583424006.833,337.402,-93.750,-1.953,40.039,46.875,0
1583424006.837,300.293,43.457,-1.465,44.922,74.707,0
1583424006.841,212.402,83.984,-4.883,40.039,112.305,0
1583424006.857,97.168,-89.355,-14.648,35.156,41.992,0
1583424006.861,92.773,-196.289,-6.348,64.941,17.578,0
1583424006.865,85.449,-53.711,-1.465,41.504,57.617,0
1583424006.869,1.465,-112.305,-16.602,18.066,33.203,0
1583424006.873,-50.293,-105.469,-15.137,38.086,42.480,0
1583424006.877,-125.488,-295.898,-38.086,38.086,61.523,0
1583424006.881,-173.340,-672.363,-44.434,25.879,41.504,0
1583424006.884,-125.000,-452.148,-7.812,33.203,6.836,0
1583424006.888,-139.648,-178.711,3.418,37.109,-15.137,0
1583424006.892,-147.461,-127.441,3.906,31.738,15.137,0
1583424006.896,-121.582,-166.016,-8.789,40.039,52.246,0
1583424006.900,-125.488,-264.160,-18.555,39.551,69.336,0
1583424006.918,-146.484,-219.727,-2.930,72.266,34.180,0
1583424006.922,-171.387,-200.195,5.371,65.430,54.199,0
1583424006.926,-157.227,-191.895,3.418,9.766,74.707,0
1583424006.930,-170.410,-299.805,0.488,15.625,58.594,0
1583424006.934,-202.637,-511.719,0.977,0.488,57.129,0
1583424006.938,-193.359,-722.656,11.230,-13.184,1.953,0
1583424006.942,-149.902,-852.051,28.809,0.977,26.855,0
1583424006.945,-82.031,-770.020,46.875,15.137,83.984,0
1583424006.949,-60.547,-635.742,49.805,-3.906,76.172,0
1583424006.953,-105.469,-824.219,29.297,-47.363,40.039,0
1583424006.957,-17.578,-766.113,46.875,-58.594,32.715,0
1583424006.961,69.824,-529.785,52.734,-83.008,24.902,0
1583424006.937,97.656,-536.621,46.875,-87.891,18.555,0
1583424006.941,53.223,-553.711,47.363,-115.723,10.742,0
1583424006.945,-9.766,-616.211,40.039,-123.535,51.758,0
1583424006.949,68.848,-484.863,49.316,-88.379,86.426,0
1583424006.953,95.703,-402.344,39.062,-109.863,-15.137,0
1583424006.957,8.301,-534.180,32.227,-106.934,5.371,0
1583424006.961,-2.930,-609.375,34.180,-95.215,67.383,0
1583424006.964,29.785,-841.797,20.020,-93.750,-16.602,0
1583424006.968,64.453,-810.059,45.898,-97.168,10.742,0
1583424006.972,77.148,-610.840,52.734,-111.328,25.391,0
1583424006.976,29.785,-690.430,32.227,-102.539,-27.344,0
1583424006.980,23.926,-638.184,39.551,-105.469,15.137,0
1583424006.997,-35.156,-783.691,9.277,-105.469,63.965,0
1583424007.001,-88.379,-965.332,-3.906,-86.426,84.961,0
1583424007.005,-62.500,-847.656,26.367,-83.984,55.176,0
1583424007.009,-66.406,-863.281,17.578,-64.941,-27.832,0
1583424007.013,-58.105,-908.203,20.508,-56.641,4.883,0
1583424007.017,-125.488,-940.430,-1.953,-68.848,113.770,0
1583424007.021,-226.074,-974.121,-16.602,-46.387,88.867,0
1583424007.024,-176.758,-965.820,3.418,-37.598,31.738,0
1583424007.028,-108.887,-968.750,-16.602,-17.090,0.000,0
1583424007.032,-115.723,-968.262,-28.809,-15.137,31.738,0
1583424007.036,-187.012,-968.750,-48.340,-38.086,56.641,0
1583424007.040,-262.695,-968.750,-55.664,-21.973,71.777,0
1583424007.037,-269.043,-968.262,-49.805,-7.812,47.852,0
1583424007.041,-461.426,-968.750,-53.223,-4.395,20.020,0
1583424007.045,-685.059,-968.750,-60.059,-9.766,12.207,0
1583424007.049,-667.480,-968.750,-80.078,5.859,14.160,0
1583424007.053,-549.316,-968.750,-79.102,30.273,10.742,0
1583424007.057,-456.543,-968.262,-68.848,45.410,5.371,0
1583424007.061,-435.547,-968.750,-70.801,41.016,43.945,0
1583424007.064,-384.277,-968.262,-60.547,38.574,64.453,0
1583424007.068,-328.613,-968.750,-65.918,69.336,34.668,0
1583424007.072,-299.805,-968.750,-81.055,64.941,40.527,0
1583424007.076,-246.094,-968.262,-71.777,34.180,24.414,0
1583424007.080,-241.211,-968.262,-81.543,38.086,-31.250,0
1583424007.097,-232.910,-968.262,-67.871,57.129,-26.367,0
1583424007.101,-209.961,-968.262,-49.805,101.562,23.438,0
1583424007.105,-241.699,-968.750,-54.199,118.652,62.012,0
1583424007.109,-213.379,-968.262,-36.621,103.516,27.344,0
1583424007.113,-204.102,-968.262,-34.668,98.633,-32.227,0
1583424007.117,-254.395,-968.262,-40.527,88.379,37.109,0
1583424007.121,-263.672,-968.262,-38.086,94.727,60.059,0
1583424007.124,-308.105,-968.262,-59.082,103.516,36.621,0
1583424007.128,-355.469,-968.262,-51.758,125.000,16.113,0
1583424007.132,-301.758,-968.262,-19.043,149.414,40.527,0
1583424007.136,-297.363,-968.262,-31.250,139.160,68.848,0
1583424007.140,-297.852,-968.262,-44.434,119.141,39.551,0
1583424007.138,-295.898,-968.262,-38.574,112.793,78.125,0
1583424007.142,-301.270,-968.262,-37.598,115.234,49.316,0
1583424007.146,-323.242,-968.750,-41.504,118.164,-8.789,0
1583424007.150,-375.000,-968.750,-45.410,123.047,42.480,0
1583424007.154,-462.891,-968.262,-53.711,117.188,50.293,0
1583424007.158,-586.914,-968.262,-63.965,110.840,41.016,0
1583424007.162,-621.094,-968.750,-62.012,113.281,49.316,0
1583424007.165,-612.305,-968.750,-53.711,108.398,38.086,0
1583424007.169,-625.000,-968.262,-54.688,107.422,68.359,0
1583424007.173,-591.797,-968.262,-52.734,108.887,3.906,0
1583424007.177,-511.230,-968.750,-62.988,116.211,-34.180,0
1583424007.181,-388.184,-968.750,-61.035,103.516,14.648,0
1583424007.197,-287.598,-968.262,-32.715,81.055,29.297,0
1583424007.201,-244.141,-968.750,-35.156,104.492,55.176,0
1583424007.205,-153.809,-968.750,-39.062,104.492,-11.230,0
1583424007.209,-119.141,-968.262,-46.875,84.961,-9.277,0
1583424007.213,-96.191,-968.262,-42.969,92.773,35.645,0
1583424007.217,-14.160,-968.750,-39.551,86.426,21.973,0
1583424007.221,2.930,-968.750,-52.246,85.938,-20.508,0
1583424007.224,59.082,-968.750,-24.902,81.055,-0.977,0
1583424007.228,88.867,-968.262,-41.016,71.289,62.012,0
1583424007.232,-52.734,-968.750,-87.402,60.547,17.090,0
1583424007.236,-25.391,-968.750,-53.223,67.383,9.766,0
1583424007.240,95.703,-968.262,-46.875,83.984,24.414,0
1583424007.217,124.023,-968.262,-58.594,96.191,30.273,0
1583424007.221,135.254,-968.750,-62.500,98.145,22.461,0
1583424007.225,111.816,-968.750,-69.336,92.285,22.949,0
1583424007.229,180.664,-968.750,-48.828,94.238,66.895,0
1583424007.233,228.027,-968.750,-58.105,89.355,11.230,0
1583424007.237,220.215,-968.750,-68.848,91.797,-55.664,0
1583424007.241,203.125,-968.750,-75.195,83.008,-24.414,0
1583424007.244,215.332,-968.262,-70.312,65.430,18.066,0
1583424007.248,257.324,-968.262,-51.270,56.641,21.484,0
1583424007.252,227.051,-968.750,-56.152,50.781,24.414,0
1583424007.256,155.273,-968.750,-57.129,65.918,41.016,0
1583424007.260,157.715,-968.262,-38.574,86.914,60.547,0
1583424007.277,106.445,-968.750,-71.289,78.125,24.902,0
1583424007.281,142.090,-968.262,-57.617,52.246,19.043,0
1583424007.285,244.629,-968.262,-25.879,44.434,50.293,0
1583424007.289,240.723,-968.262,-43.457,62.988,103.516,0
1583424007.293,305.664,-968.262,-47.363,55.176,95.703,0
1583424007.297,343.262,-968.262,-64.941,45.410,13.184,0
1583424007.301,346.680,-968.262,-61.523,39.062,-18.555,0
1583424007.304,344.238,-968.750,-47.363,25.879,-8.789,0
1583424007.308,366.699,-968.262,-56.641,62.500,2.930,0
1583424007.312,393.555,-968.262,-58.594,59.082,9.277,0
1583424007.316,308.594,-968.262,-83.496,41.504,-29.785,0
1583424007.320,246.582,-968.262,-85.449,31.250,-41.504,0
1583424007.317,328.613,-968.750,-49.316,30.273,32.715,0
1583424007.321,387.695,-968.262,-53.711,47.363,77.148,0
1583424007.325,364.258,-968.262,-74.707,30.762,11.230,0
1583424007.329,312.012,-968.750,-81.543,36.133,-31.738,0
1583424007.333,269.531,-968.262,-71.777,41.504,-9.277,0
1583424007.337,274.414,-968.262,-79.102,27.344,-24.902,0
1583424007.341,266.113,-968.750,-78.125,36.621,-18.066,0
1583424007.344,249.512,-968.750,-57.129,36.621,45.898,0
1583424007.348,219.727,-968.262,-67.871,38.086,81.055,0
1583424007.352,171.387,-968.750,-65.918,38.086,50.781,0
1583424007.356,250.000,-964.355,-41.992,10.254,38.574,0
1583424007.360,258.789,-979.004,-52.734,20.508,-9.766,0
1583424007.377,192.871,-925.781,-53.223,40.039,9.277,0
1583424007.381,182.129,-900.391,-62.012,31.250,64.941,0
1583424007.385,161.621,-939.941,-55.176,11.719,54.688,0
1583424007.389,203.613,-853.516,-43.457,-0.488,16.602,0
1583424007.393,174.805,-825.684,-50.781,33.203,23.438,0
1583424007.397,135.254,-910.156,-59.082,43.457,57.129,0
1583424007.401,156.738,-974.121,-72.266,18.555,13.184,0
1583424007.404,136.230,-957.520,-66.406,19.531,11.230,0
1583424007.408,155.273,-888.672,-41.016,24.414,58.594,0
1583424007.412,180.664,-760.742,-30.273,26.855,48.828,0
1583424007.416,245.117,-559.082,-25.879,33.691,28.320,0
1583424007.420,277.344,-474.609,-34.180,32.227,49.316,0
1583424007.417,244.141,-556.641,-38.574,21.973,63.477,0
1583424007.421,263.184,-442.871,-23.926,24.902,40.527,0
1583424007.425,282.227,-285.156,-29.297,28.809,35.156,0
1583424007.429,314.453,-229.492,-33.691,29.785,12.695,0
1583424007.433,298.340,-150.879,-27.344,26.367,25.879,0
1583424007.437,213.379,-241.211,-37.598,39.062,39.551,0
1583424007.441,184.082,-290.527,-38.086,33.691,4.395,0
1583424007.444,226.562,-33.203,-27.344,23.926,0.977,0
1583424007.448,248.535,196.289,-26.855,11.230,45.898,0
1583424007.452,189.453,306.152,-28.809,-6.836,44.922,0
1583424007.456,109.375,2.930,-47.852,10.742,41.016,0
1583424007.460,113.281,-270.508,-43.457,36.133,53.711,0
1583424007.457,158.203,1.465,-13.672,23.926,31.250,0
1583424007.461,104.004,169.922,-8.789,-6.348,52.246,0
1583424007.465,33.691,163.574,-10.254,7.812,26.855,0
1583424007.469,-20.020,36.133,-8.789,34.668,9.277,0
1583424007.473,-73.730,3.906,-9.766,20.996,47.852,0
1583424007.477,-141.602,-22.949,-17.090,21.973,-3.906,0
1583424007.481,-219.727,-104.980,-20.508,16.113,-5.371,0
1583424007.484,-186.035,108.398,-5.371,-6.836,34.180,0
1583424007.488,-189.941,64.453,-18.555,8.301,26.367,0
1583424007.492,-238.770,-136.230,-26.855,6.348,38.574,0
1583424007.496,-194.824,241.699,6.348,-16.602,70.312,0
1583424007.500,-203.125,430.664,0.488,1.465,43.945,0
1583424007.517,-206.055,481.445,-1.953,10.742,23.926,0
1583424007.521,-198.242,462.402,-10.254,2.441,52.734,0
1583424007.525,-213.867,285.645,-24.902,-15.625,-17.090,0
1583424007.529,-148.438,436.523,-10.742,0.977,-20.020,0
1583424007.533,-57.617,571.289,-13.184,24.902,7.324,0
1583424007.537,14.160,498.047,-13.672,2.930,42.969,0
1583424007.541,20.996,341.797,-23.926,-11.719,105.469,0
1583424007.544,81.543,267.578,-24.902,2.441,65.918,0
1583424007.548,232.910,515.137,9.277,22.949,30.273,0
1583424007.552,287.598,567.383,4.395,10.742,-0.977,0
1583424007.556,334.961,560.547,0.977,-4.883,1.953,0
1583424007.560,326.172,456.543,-1.953,-18.066,52.246,0
1583424007.578,337.891,111.328,-10.742,-3.906,27.832,0
1583424007.582,410.645,139.648,13.672,-4.883,-24.902,0
1583424007.586,383.301,243.652,20.508,-12.695,3.418,0
1583424007.590,342.285,228.516,-1.953,-10.742,41.504,0
1583424007.594,327.148,196.289,-21.484,-12.207,37.598,0
1583424007.598,316.406,117.676,-24.902,0.000,64.453,0
1583424007.602,316.895,134.277,-25.879,-3.418,82.031,0
1583424007.605,281.250,198.242,-26.367,-22.949,55.176,0
1583424007.609,285.645,354.492,-11.230,-8.789,21.484,0
1583424007.613,309.082,437.500,-7.324,11.719,12.695,0
1583424007.617,291.504,236.816,-14.648,-14.160,40.527,0
1583424007.621,266.113,263.184,-8.789,-41.992,59.570,0
1583424007.601,270.508,402.832,-5.371,-3.906,43.457,0
1583424007.605,313.965,371.094,-5.371,33.691,34.180,0
1583424007.609,315.918,377.930,-9.766,-5.859,54.199,0
1583424007.613,252.441,195.801,-21.973,-33.203,65.430,0
1583424007.617,175.293,113.281,-22.461,-13.672,25.879,0
1583424007.621,151.855,67.383,-29.785,6.348,-4.395,0
1583424007.625,149.902,-42.969,-30.273,-4.395,25.879,0
1583424007.628,150.391,-18.555,-25.879,-17.578,40.527,0
1583424007.632,47.852,-185.059,-29.785,-8.789,31.738,0
1583424007.636,23.926,-133.789,-0.977,-20.020,84.961,0
1583424007.640,96.191,170.410,14.160,-2.930,36.133,0
1583424007.644,42.480,260.254,-8.789,5.859,-1.465,0
1583424007.657,-22.949,374.512,-16.113,-45.410,41.504,0
1583424007.661,-88.379,210.449,-25.879,-30.762,52.246,0
1583424007.665,-82.520,211.914,-14.160,10.254,91.309,0
1583424007.669,-60.059,516.602,2.930,-7.324,61.035,0
1583424007.673,-123.535,521.973,-2.441,-16.113,30.273,0
1583424007.677,-156.250,434.570,3.418,-5.371,25.879,0
1583424007.681,-165.039,350.586,3.906,1.953,75.195,0
1583424007.684,-203.125,-14.648,-18.555,-9.277,102.051,0
1583424007.688,-163.574,43.945,11.230,-27.344,58.105,0
1583424007.692,-115.234,485.840,44.922,-14.160,71.777,0
1583424007.696,-117.188,496.094,33.691,-11.719,59.570,0
1583424007.700,-111.328,310.059,23.926,-2.930,28.809,0
1583424007.697,-74.219,278.320,29.297,-8.789,15.137,0
1583424007.701,-51.758,441.895,35.645,-11.230,-4.395,0
1583424007.705,-53.223,397.949,28.809,-9.277,-9.766,0
1583424007.709,-9.277,363.281,38.574,-18.066,16.602,0
1583424007.713,-21.484,253.906,30.762,31.250,13.184,0
1583424007.717,-52.734,0.488,19.531,35.156,-32.715,0
1583424007.721,-56.152,-54.688,29.785,-5.859,-29.785,0
1583424007.724,-3.418,82.520,37.598,35.156,22.461,0
1583424007.728,63.477,177.246,34.668,24.902,53.711,0
1583424007.732,0.488,104.004,18.555,-16.602,41.992,0
1583424007.736,-82.520,-349.609,-7.812,-0.488,33.203,0
1583424007.740,-8.301,-337.402,19.531,38.574,48.340,0
1583424007.737,99.121,59.570,39.062,42.480,91.797,0
1583424007.741,112.305,-22.949,14.160,37.598,25.391,0
1583424007.745,67.383,-208.984,6.836,59.082,33.203,0
1583424007.749,125.977,-238.770,11.719,69.336,88.867,0
1583424007.753,216.309,-83.496,19.043,76.660,70.801,0
1583424007.757,220.703,-226.074,4.883,76.660,49.805,0
1583424007.761,251.465,-312.500,18.555,87.402,71.777,0
1583424007.764,329.102,-64.941,41.992,108.887,93.262,0
1583424007.768,358.887,-432.617,5.859,113.770,27.832,0
1583424007.772,403.809,-635.742,20.508,108.398,5.859,0
1583424007.776,492.676,-212.891,60.547,104.004,70.801,0
1583424007.780,493.652,-182.617,41.504,107.910,74.707,0
1583424007.797,527.344,-213.867,33.691,112.305,60.059,0
1583424007.801,570.801,-378.418,28.809,127.441,4.883,0
1583424007.805,589.844,-420.898,29.785,128.418,38.574,0
1583424007.809,559.570,-388.672,25.391,103.027,62.500,0
1583424007.813,509.277,-489.746,16.113,107.422,5.859,0
1583424007.817,495.117,-655.762,3.906,126.953,-9.766,0
1583424007.821,446.289,-914.062,-13.184,137.695,-24.902,0
1583424007.824,391.113,-882.324,9.766,129.883,41.504,0
1583424007.828,427.734,-662.598,32.227,117.188,53.711,0
1583424007.832,421.875,-671.387,15.137,93.750,-22.461,0
1583424007.836,398.438,-665.527,20.020,86.426,8.789,0
1583424007.840,316.406,-795.410,12.207,89.355,14.160,0
1583424007.839,255.371,-923.340,9.766,95.703,-56.641,0
1583424007.843,301.758,-815.430,20.020,104.004,-47.363,0
1583424007.847,296.387,-777.344,17.578,92.773,15.137,0
1583424007.851,245.605,-770.020,23.438,73.242,33.203,0
1583424007.855,164.551,-855.469,22.949,70.312,58.594,0
1583424007.859,113.770,-973.145,14.648,60.059,41.992,0
1583424007.863,121.582,-957.031,21.484,56.641,-29.785,0
1583424007.866,62.012,-988.281,23.438,57.617,-42.480,0
1583424007.870,23.926,-883.301,32.715,30.762,-33.203,0
1583424007.874,22.949,-729.980,29.297,17.578,22.949,0
1583424007.878,24.414,-746.094,28.809,18.555,71.289,0
1583424007.882,59.082,-521.484,46.387,3.418,49.316,0
1583424007.877,4.883,-366.211,41.504,-12.207,43.945,0
1583424007.881,-0.977,-227.539,48.340,2.441,67.871,0
1583424007.885,17.578,-119.141,40.527,4.395,116.211,0
1583424007.889,-30.762,-210.938,29.785,-17.578,82.520,0
1583424007.893,-48.340,-174.805,47.852,-21.484,16.113,0
1583424007.897,-37.109,-128.418,44.434,-15.137,60.059,0
1583424007.901,11.230,-210.449,30.762,3.906,30.273,0
1583424007.904,42.480,-221.680,33.691,8.301,-48.828,0
1583424007.908,-25.391,-502.930,19.531,-7.812,-35.156,0
1583424007.912,-10.254,-580.078,38.086,1.465,-17.090,0
1583424007.916,122.070,-152.832,62.500,26.367,-9.277,0
1583424007.920,175.293,45.410,57.129,36.133,1.465,0
1583424007.937,174.805,208.008,61.035,22.949,6.348,0
1583424007.941,125.000,189.453,44.922,31.250,-22.949,0
1583424007.945,116.699,363.281,52.246,33.203,55.176,0
1583424007.949,152.344,570.801,49.316,40.527,86.426,0
1583424007.953,170.898,550.293,36.621,62.012,-8.301,0
1583424007.957,135.742,507.812,31.738,46.387,-21.484,0
1583424007.961,49.316,278.809,21.973,52.246,17.578,0
1583424007.964,105.957,311.523,34.668,66.406,28.809,0
1583424007.968,223.633,751.465,57.129,75.684,49.316,0
1583424007.972,192.383,818.848,44.922,75.684,43.945,0
1583424007.976,160.156,763.184,40.527,69.336,35.156,0
1583424007.980,112.305,641.113,35.645,84.961,60.547,0
1583424007.977,93.262,538.574,30.273,89.844,41.504,0
1583424007.981,59.570,458.496,23.438,65.918,80.078,0
1583424007.985,14.160,277.832,21.484,78.613,39.062,0
1583424007.989,70.312,281.250,35.156,114.258,20.508,0
1583424007.993,90.820,113.770,26.367,116.211,53.223,0
1583424007.997,69.824,-173.828,17.578,96.191,30.273,0
1583424008.001,25.879,-347.168,17.578,98.633,6.348,0
1583424008.004,55.176,-424.805,20.508,112.305,1.465,0
1583424008.008,121.582,-281.250,35.156,106.445,39.062,0
1583424008.012,50.293,-475.098,17.090,95.703,81.055,0
1583424008.016,-24.414,-756.836,6.836,91.309,56.641,0
1583424008.020,-10.742,-617.676,24.902,92.773,-9.277,0
1583424008.037,7.324,-514.648,29.785,100.098,64.941,0
1583424008.041,-13.672,-519.043,30.762,114.258,90.820,0
1583424008.045,-114.258,-766.113,2.441,116.211,17.090,0
1583424008.049,-144.531,-962.891,-7.812,88.379,40.527,0
1583424008.053,-92.285,-952.148,8.301,77.637,19.043,0
1583424008.057,-80.078,-964.844,7.324,66.895,18.555,0
1583424008.061,-63.477,-970.215,14.648,60.059,67.383,0
1583424008.064,-93.262,-967.773,8.789,87.891,60.547,0
1583424008.068,-80.078,-968.750,-6.348,102.051,47.852,0
1583424008.072,28.320,-968.750,12.695,70.801,42.969,0
1583424008.076,88.867,-968.262,20.508,66.895,56.641,0
1583424008.080,109.375,-968.262,10.254,82.520,67.383,0
1583424008.077,104.004,-968.750,3.906,107.422,43.457,0
1583424008.081,121.094,-968.750,4.883,83.496,54.199,0
1583424008.085,158.203,-968.262,9.766,63.965,20.996,0
1583424008.089,156.738,-968.262,6.836,87.891,-2.930,0
1583424008.093,145.020,-968.262,2.930,83.008,35.156,0
1583424008.097,85.449,-968.750,-12.695,92.773,3.418,0
1583424008.101,40.039,-968.750,-9.766,91.309,-4.395,0
1583424008.104,23.438,-968.262,-1.465,84.961,0.488,0
1583424008.108,11.230,-968.262,-0.977,88.379,-14.648,0
1583424008.112,-2.441,-968.262,-7.324,122.070,20.020,0
1583424008.116,-19.531,-968.750,-16.113,114.258,-6.836,0
1583424008.120,-78.125,-968.262,-18.066,61.035,-3.418,0
1583424008.117,-104.492,-968.262,-7.812,76.660,55.664,0
1583424008.121,-38.086,-968.750,2.441,112.793,47.363,0
1583424008.125,34.180,-968.750,-5.859,100.098,74.707,0
1583424008.129,82.031,-968.750,-16.602,83.984,101.562,0
1583424008.133,-0.488,-968.262,-40.039,103.516,39.551,0
1583424008.137,-19.043,-968.262,-41.992,112.793,-1.465,0
1583424008.141,53.711,-968.750,-26.367,113.281,11.230,0
1583424008.144,89.355,-968.262,-23.926,104.980,4.395,0
1583424008.148,93.262,-968.262,-22.949,75.195,-6.348,0
1583424008.152,62.500,-968.750,-52.246,77.637,4.395,0
1583424008.156,73.242,-968.262,-53.711,101.562,-25.391,0
1583424008.160,182.129,-968.262,-9.277,113.281,20.020,0
1583424008.177,223.145,-968.750,-19.043,96.680,21.484,0
1583424008.181,208.496,-968.262,-33.203,80.078,-24.902,0
1583424008.185,223.145,-968.750,-41.992,131.348,18.066,0
1583424008.189,279.297,-968.262,-41.992,134.766,60.547,0
1583424008.193,293.457,-968.262,-46.875,85.938,12.207,0
1583424008.197,217.773,-968.262,-61.035,90.332,-6.836,0
1583424008.201,239.258,-968.262,-46.387,124.023,78.613,0
1583424008.204,257.324,-968.750,-67.871,115.723,62.012,0
1583424008.208,188.965,-968.262,-83.984,90.332,1.953,0
1583424008.212,218.750,-968.750,-56.641,91.797,-23.438,0
1583424008.216,219.238,-968.750,-58.105,90.820,-13.672,0
1583424008.220,200.684,-968.262,-66.406,109.863,11.230,0
1583424008.217,167.969,-968.750,-80.078,95.215,23.926,0
1583424008.221,111.328,-968.750,-83.984,70.312,56.152,0
1583424008.225,95.215,-968.262,-77.148,75.195,26.855,0
1583424008.229,94.727,-968.262,-78.125,69.824,15.625,0
1583424008.233,89.355,-968.750,-83.008,71.289,-15.137,0
1583424008.237,6.836,-968.750,-96.680,75.684,3.418,0
1583424008.241,-43.457,-968.750,-85.938,82.031,26.367,0
1583424008.244,36.133,-968.750,-70.312,81.543,16.602,0
1583424008.248,96.680,-968.750,-83.496,78.613,49.805,0
1583424008.252,111.328,-968.262,-90.820,82.031,46.387,0
1583424008.256,100.098,-968.262,-104.004,75.684,27.344,0
1583424008.260,9.277,-968.750,-127.441,64.453,20.996,0
1583424008.277,43.945,-968.262,-105.469,65.430,38.574,0
1583424008.281,138.672,-968.750,-82.031,61.523,16.602,0
1583424008.285,88.379,-968.750,-81.543,47.852,22.949,0
1583424008.289,38.086,-968.262,-91.309,44.922,-12.207,0
1583424008.293,29.297,-968.262,-94.238,41.016,-27.832,0
1583424008.297,64.941,-968.262,-89.355,67.871,12.207,0
1583424008.301,90.820,-968.262,-102.051,62.988,15.137,0
1583424008.304,85.938,-968.262,-112.793,17.090,60.059,0
1583424008.308,143.555,-968.262,-110.840,49.316,57.617,0
1583424008.312,109.863,-968.262,-132.812,71.777,43.457,0
1583424008.316,84.473,-968.750,-122.070,44.434,53.223,0
1583424008.320,113.281,-968.750,-92.773,22.461,21.484,0
1583424008.317,88.867,-968.750,-96.680,55.176,-5.859,0
1583424008.321,97.168,-968.262,-92.773,60.547,9.277,0
1583424008.325,75.684,-968.262,-95.215,35.645,51.758,0
1583424008.329,43.945,-968.262,-88.379,31.250,66.895,0
1583424008.333,59.570,-968.750,-85.938,37.598,85.449,0
1583424008.337,120.117,-968.750,-88.867,54.688,53.223,0
1583424008.341,171.387,-968.262,-81.055,48.340,70.801,0
1583424008.344,182.617,-968.262,-84.473,42.480,87.402,0
1583424008.348,241.699,-968.262,-72.754,61.035,17.090,0
1583424008.352,348.633,-968.750,-58.594,56.641,50.293,0
1583424008.356,366.211,-968.750,-71.289,33.691,113.281,0
1583424008.360,371.094,-968.750,-74.219,29.785,91.309,0
1583424008.358,304.688,-968.750,-89.355,50.781,11.230,0
1583424008.362,259.766,-968.750,-82.031,60.547,34.668,0
1583424008.366,348.145,-968.750,-61.035,46.875,27.832,0
1583424008.370,359.863,-968.262,-62.500,34.180,41.504,0
1583424008.374,344.238,-968.750,-60.547,26.367,50.293,0
1583424008.378,321.777,-968.750,-66.895,43.457,25.879,0
1583424008.382,335.449,-968.750,-62.988,41.504,75.684,0
1583424008.385,364.258,-968.750,-46.387,38.574,76.660,0
1583424008.389,327.637,-968.750,-47.363,46.387,44.922,0
1583424008.393,284.180,-968.262,-53.223,50.293,34.668,0
1583424008.397,268.066,-968.262,-54.199,57.129,44.434,0
1583424008.401,225.586,-968.750,-69.824,58.594,38.086,0
1583424008.397,219.238,-968.262,-49.805,35.156,36.133,0
1583424008.401,193.848,-968.262,-19.043,31.250,13.184,0
1583424008.405,126.953,-968.750,-23.438,41.016,-16.602,0
1583424008.409,116.211,-968.750,-35.156,58.105,59.082,0
1583424008.413,62.988,-968.750,-53.711,51.270,48.828,0
1583424008.417,52.734,-968.750,-48.828,42.969,-12.207,0
1583424008.421,122.559,-968.262,-35.156,63.477,39.551,0
1583424008.424,190.918,-968.262,-24.414,70.312,52.246,0
1583424008.428,224.121,-968.750,-30.762,62.012,4.395,0
1583424008.432,178.711,-968.750,-37.109,51.270,-7.324,0
1583424008.436,195.312,-968.262,-27.344,61.035,-12.695,0
1583424008.440,264.160,-968.750,-21.973,64.453,13.184,0
1583424008.437,244.629,-968.262,-30.762,70.312,6.348,0
1583424008.441,179.199,-968.262,-31.738,60.059,4.883,0
1583424008.445,102.539,-968.750,-37.109,55.664,60.547,0
1583424008.449,135.254,-968.750,-37.109,69.824,44.922,0
1583424008.453,204.102,-968.262,-20.996,61.035,60.059,0
1583424008.457,130.371,-968.262,-40.527,41.992,57.129,0
1583424008.461,83.496,-968.750,-48.828,43.945,-33.203,0
1583424008.464,121.582,-968.262,-48.828,63.477,-64.453,0
1583424008.468,189.453,-968.262,-31.250,68.359,3.906,0
1583424008.472,229.492,-968.750,-22.949,62.012,71.777,0
1583424008.476,184.082,-968.262,-32.715,74.219,81.055,0
1583424008.480,165.039,-968.262,-33.203,68.848,10.254,0
1583424008.497,130.859,-968.750,-55.664,44.922,11.719,0
1583424008.501,78.613,-968.750,-57.617,51.758,41.016,0
1583424008.505,63.965,-968.262,-47.363,41.992,0.977,0
1583424008.509,34.668,-968.262,-62.012,45.898,-30.273,0
1583424008.513,76.172,-968.750,-51.270,55.664,-9.277,0
1583424008.517,62.012,-968.750,-57.129,62.500,18.555,0
1583424008.521,-31.738,-968.750,-52.246,73.730,41.992,0
1583424008.524,-2.441,-968.262,-17.578,51.758,46.387,0
1583424008.528,54.688,-968.750,-19.043,25.391,43.457,0
1583424008.532,63.965,-968.750,-30.762,44.434,20.508,0
1583424008.536,21.484,-968.750,-51.270,37.109,-20.020,0
1583424008.540,64.941,-968.262,-36.621,39.062,42.480,0
1583424008.537,167.969,-968.262,-21.973,63.477,98.145,0
1583424008.541,199.707,-968.262,-38.086,62.988,44.922,0
1583424008.545,216.797,-968.262,-29.785,47.852,25.879,0
1583424008.549,171.875,-968.750,-27.832,62.012,29.785,0
1583424008.553,114.746,-968.750,-29.785,71.289,54.688,0
1583424008.557,56.152,-968.750,-29.297,70.312,25.879,0
1583424008.561,-29.297,-968.750,-36.621,62.500,-14.160,0
1583424008.564,-105.957,-968.750,-34.668,61.035,-35.645,0
1583424008.568,-131.348,-968.262,-31.738,76.172,2.930,0
1583424008.572,-195.801,-968.750,-49.805,70.312,44.922,0
1583424008.576,-200.684,-968.262,-26.855,50.293,70.801,0
1583424008.580,-172.852,-968.262,-7.812,39.062,107.910,0
1583424008.578,-222.656,-969.238,-12.695,55.176,82.520,0
1583424008.582,-228.027,-964.355,-12.695,63.477,56.641,0
1583424008.586,-249.512,-974.609,-24.414,62.988,17.090,0
1583424008.590,-292.969,-954.590,-14.160,37.598,-0.488,0
1583424008.594,-298.828,-865.234,-11.230,46.387,54.199,0
1583424008.598,-316.895,-934.570,-30.273,73.242,20.508,0
1583424008.602,-276.367,-927.734,-27.344,66.406,38.086,0
1583424008.605,-275.391,-912.109,-26.855,50.781,83.008,0
1583424008.609,-289.062,-875.977,-9.766,37.109,61.035,0
1583424008.613,-229.004,-777.832,4.395,56.641,38.574,0
1583424008.617,-171.875,-788.086,0.977,61.035,31.738,0
1583424008.621,-110.352,-612.305,11.230,44.922,70.312,0
1583424008.637,-123.047,-707.031,4.883,46.875,99.609,0
1583424008.641,-73.242,-768.555,8.301,63.965,79.590,0
1583424008.645,-5.371,-639.648,18.555,57.617,26.855,0
1583424008.649,23.926,-629.395,21.484,60.547,1.465,0
1583424008.653,29.297,-622.070,17.578,40.039,-30.273,0
1583424008.657,-41.992,-836.914,-10.254,50.781,-50.781,0
1583424008.661,-47.363,-984.863,-10.254,70.801,10.742,0
1583424008.664,66.406,-673.828,32.227,62.012,29.785,0
1583424008.668,100.098,-376.465,27.832,51.758,28.320,0
1583424008.672,62.500,-284.668,11.719,36.621,32.715,0
1583424008.676,68.848,-301.270,15.137,53.223,32.715,0
1583424008.680,113.770,-247.070,19.531,76.660,32.227,0
1583424008.677,121.094,-132.812,14.160,86.426,30.273,0
1583424008.681,109.375,-21.484,7.812,54.688,35.645,0
1583424008.685,118.652,208.984,13.672,15.137,39.062,0
1583424008.689,121.582,209.473,-4.883,20.020,13.184,0
1583424008.693,165.039,227.051,-15.137,35.645,-15.625,0
1583424008.697,167.969,307.129,-2.930,46.387,11.719,0
1583424008.701,146.973,255.371,0.488,53.711,52.734,0
1583424008.704,220.215,412.109,14.648,49.316,31.738,0
1583424008.708,237.305,403.320,0.000,49.316,41.504,0
1583424008.712,157.715,170.898,-14.160,27.832,95.215,0
1583424008.716,166.504,262.207,1.953,39.551,84.961,0
1583424008.720,174.316,325.195,3.418,53.223,68.359,0
1583424008.717,176.758,266.602,1.465,36.133,61.523,0
1583424008.721,151.855,89.355,-22.949,50.781,13.672,0
1583424008.725,84.473,-333.008,-38.574,51.270,-26.855,0
1583424008.729,140.625,-448.242,-11.719,58.594,-0.488,0
1583424008.733,202.148,-314.941,2.441,58.594,54.688,0
1583424008.737,171.875,-337.402,0.488,44.922,58.105,0
1583424008.741,142.578,-385.254,-7.324,54.199,43.457,0
1583424008.744,115.723,-639.648,-26.367,51.758,9.277,0
1583424008.748,176.270,-486.816,1.465,67.871,51.270,0
1583424008.752,256.836,-66.406,15.625,75.684,82.520,0
1583424008.756,188.477,-104.492,-3.906,28.320,17.578,0
1583424008.760,150.391,-118.652,3.418,31.738,34.668,0
1583424008.777,165.527,-279.785,2.930,69.336,38.574,0
1583424008.781,162.109,-389.160,5.859,65.430,-26.855,0
1583424008.785,133.301,-313.477,14.160,60.547,9.766,0
1583424008.789,90.332,-291.016,9.766,64.941,59.570,0
1583424008.793,68.359,-219.727,6.348,69.824,77.148,0
1583424008.797,36.133,-356.934,-8.789,58.594,67.871,0
1583424008.801,35.156,-412.598,-5.371,47.363,56.641,0
1583424008.804,33.203,-137.695,9.766,47.363,63.965,0
1583424008.808,45.410,-20.020,-2.441,59.570,11.719,0
1583424008.812,97.168,61.523,-3.906,50.293,-10.742,0
1583424008.816,74.219,-133.301,-12.695,36.133,11.719,0
1583424008.820,66.895,-273.438,-8.789,45.410,-23.926,0
1583424008.818,129.395,-28.809,16.113,69.336,-59.570,0
1583424008.822,176.758,72.266,34.668,82.520,-6.348,0
1583424008.826,185.059,184.570,39.551,50.293,55.176,0
1583424008.830,106.934,-61.035,13.184,21.484,29.297,0
1583424008.834,103.027,-240.234,22.949,42.969,0.000,0
1583424008.838,185.547,-153.809,39.551,63.965,40.039,0
1583424008.842,214.355,-250.977,32.715,50.781,58.594,0
1583424008.845,253.418,-139.160,38.086,51.758,49.316,0
1583424008.849,197.754,-301.270,5.371,70.312,36.621,0
1583424008.853,159.180,-736.816,-15.625,42.480,0.488,0
1583424008.857,279.297,-539.551,22.461,29.297,0.488,0
1583424008.861,313.477,-314.453,27.832,43.457,25.879,0
1583424008.857,277.832,-354.004,29.785,40.039,31.738,0
1583424008.861,238.770,-516.602,23.926,47.363,3.418,0
1583424008.865,232.910,-682.617,12.695,46.875,-41.992,0
1583424008.869,256.836,-593.262,22.461,29.297,-20.020,0
1583424008.873,222.656,-614.746,31.738,24.902,8.301,0
1583424008.877,211.914,-833.008,35.645,37.109,23.438,0
1583424008.881,244.629,-963.867,38.086,46.875,25.879,0
1583424008.884,205.566,-958.008,38.086,37.598,26.855,0
1583424008.888,189.453,-977.539,55.664,19.043,19.531,0
1583424008.892,206.055,-923.828,64.941,27.832,27.832,0
1583424008.896,241.211,-852.539,63.477,43.457,65.430,0
1583424008.900,234.863,-914.551,49.316,51.270,36.621,0
1583424008.917,192.383,-979.004,44.434,41.504,-4.883,0
1583424008.921,211.426,-913.574,65.918,26.855,61.035,0
1583424008.925,206.055,-856.934,56.641,34.668,87.891,0
1583424008.929,186.035,-915.039,42.480,28.809,5.371,0
1583424008.933,169.434,-938.477,32.715,22.949,-13.184,0
1583424008.937,110.352,-948.242,22.461,22.461,41.016,0
1583424008.941,111.328,-985.840,26.367,40.039,77.148,0
1583424008.944,171.387,-889.160,34.180,64.453,55.176,0
1583424008.948,210.449,-759.277,36.133,31.738,43.945,0
1583424008.952,207.520,-822.754,31.738,14.648,2.930,0
1583424008.956,133.789,-947.266,14.160,34.180,2.930,0
1583424008.960,180.664,-976.074,26.855,55.176,22.461,0
1583424008.957,298.828,-934.082,58.594,52.734,65.918,0
1583424008.961,282.227,-947.266,49.805,41.016,88.867,0
1583424008.965,222.656,-973.145,29.297,55.664,38.086,0
1583424008.969,223.633,-967.285,21.484,60.059,32.715,0
1583424008.973,269.531,-968.750,22.461,43.457,42.480,0
1583424008.977,214.844,-968.750,1.953,48.340,16.602,0
1583424008.981,170.410,-968.262,5.859,42.969,4.883,0
1583424008.984,223.145,-968.262,30.273,33.203,22.949,0
1583424008.988,174.316,-968.750,6.836,47.363,31.738,0
1583424008.992,118.652,-968.750,-1.465,40.039,54.688,0
1583424008.996,133.301,-968.750,20.996,35.645,58.105,0
1583424009.000,102.051,-968.262,15.137,55.176,65.918,0
1583424009.017,92.773,-968.750,10.254,59.082,94.238,0
1583424009.021,74.707,-968.750,-9.766,50.293,73.730,0
1583424009.025,35.645,-968.262,-0.488,34.668,41.016,0
1583424009.029,24.902,-968.262,20.508,27.832,46.387,0
1583424009.033,21.973,-968.262,7.812,45.898,20.996,0
1583424009.037,13.672,-968.262,0.000,45.898,27.344,0
1583424009.041,-43.457,-968.750,-11.230,37.598,56.152,0
1583424009.044,-131.348,-968.750,-19.531,44.922,-20.020,0
1583424009.048,-80.566,-968.262,13.184,54.688,-27.832,0
1583424009.052,-44.922,-968.262,10.254,60.059,-15.625,0
1583424009.056,-92.285,-968.750,3.906,36.133,4.395,0
1583424009.060,-173.828,-968.262,3.906,34.668,57.129,0
1583424009.057,-197.266,-968.750,10.742,61.035,80.566,0
1583424009.061,-140.137,-968.750,19.531,58.594,39.062,0
1583424009.065,-121.582,-968.750,9.277,54.199,-33.691,0
1583424009.069,-143.555,-968.262,4.883,62.012,4.883,0
1583424009.073,-154.297,-968.262,-13.672,75.195,32.715,0
1583424009.077,-170.410,-968.750,-28.809,67.383,0.488,0
1583424009.081,-204.590,-968.750,-24.902,64.941,-17.578,0
1583424009.084,-203.613,-968.262,-20.996,61.035,25.879,0
1583424009.088,-187.988,-968.262,-14.648,64.453,61.035,0
1583424009.092,-157.227,-968.750,-6.348,85.449,37.598,0
1583424009.096,-184.570,-968.750,-34.668,80.566,21.484,0
1583424009.100,-196.777,-968.262,-28.320,43.945,-0.977,0
1583424009.097,-151.855,-968.750,5.371,39.062,39.062,0
1583424009.101,-168.457,-968.750,-1.465,62.012,27.344,0
1583424009.105,-156.738,-968.750,-7.324,53.711,28.809,0
1583424009.109,-154.785,-968.750,-16.602,45.898,55.664,0
1583424009.113,-169.434,-968.750,-15.625,43.945,20.996,0
1583424009.117,-170.410,-968.262,-9.277,49.805,44.922,0
1583424009.121,-118.652,-968.750,-2.930,80.078,18.066,0
1583424009.124,-63.477,-968.262,3.906,65.918,59.570,0
1583424009.128,-139.648,-968.750,-31.250,34.668,36.133,0
1583424009.132,-107.422,-968.750,-37.109,36.133,-2.441,0
1583424009.136,28.320,-968.750,-10.254,47.852,31.738,0
1583424009.140,47.852,-968.750,-20.996,61.523,-3.418,0
1583424009.157,66.895,-968.262,-17.578,51.270,-11.230,0
1583424009.161,71.289,-966.797,-21.484,39.062,26.367,0
1583424009.165,119.629,-975.586,-22.949,41.016,25.879,0
1583424009.169,182.617,-929.688,-12.207,42.480,61.523,0
1583424009.173,190.918,-910.156,-19.531,44.434,101.074,0
1583424009.177,170.898,-945.801,-26.855,49.805,69.336,0
1583424009.181,176.270,-980.957,-37.109,55.664,68.848,0
1583424009.184,251.465,-899.902,-36.621,46.387,93.262,0
1583424009.188,284.180,-827.637,-30.273,44.434,99.121,0
1583424009.192,235.840,-946.289,-38.574,51.270,27.832,0
1583424009.196,234.375,-976.074,-21.484,43.945,31.250,0
1583424009.200,170.410,-963.379,-22.949,43.945,56.152,0
1583424009.217,75.195,-969.238,-21.973,34.668,49.316,0
1583424009.221,57.129,-968.750,3.418,29.297,41.992,0
1583424009.225,-31.250,-968.750,-7.812,42.480,-9.277,0
1583424009.229,-73.730,-968.750,-6.348,48.828,-17.090,0
1583424009.233,-88.867,-968.262,-17.578,41.504,-11.719,0
1583424009.237,-219.727,-968.750,-28.809,21.484,17.090,0
1583424009.241,-236.816,-968.750,-22.949,47.363,30.273,0
1583424009.244,-198.242,-968.262,-9.277,82.031,0.977,0
1583424009.248,-169.922,-968.750,0.488,74.707,4.883,0
1583424009.252,-208.984,-968.750,-16.113,62.012,15.137,0
1583424009.256,-403.809,-969.727,-44.434,54.688,19.531,0
1583424009.260,-454.102,-960.938,-23.438,49.805,44.922,0
1583424009.258,-425.781,-978.027,-13.184,36.621,21.484,0
1583424009.262,-479.492,-915.039,-15.137,34.180,35.645,0
1583424009.266,-539.551,-713.379,-16.602,47.852,97.168,0
1583424009.270,-564.941,-510.254,-29.785,78.125,83.496,0
1583424009.274,-486.816,-172.852,-15.137,83.008,77.148,0
1583424009.278,-429.199,-41.016,-18.066,50.293,56.641,0
1583424009.282,-383.789,-17.090,-18.066,29.297,73.242,0
1583424009.285,-291.504,44.922,-16.113,39.551,61.035,0
1583424009.289,-169.922,96.191,-1.953,65.918,62.988,0
1583424009.293,-37.109,316.406,10.742,57.129,78.613,0
1583424009.297,-6.836,478.027,1.953,36.621,66.406,0
1583424009.301,-32.227,497.070,-4.883,67.383,40.527,0
1583424009.297,20.508,528.809,-5.371,80.566,-6.348,0
1583424009.301,57.617,310.059,-11.230,51.758,31.250,0
1583424009.305,107.910,130.371,4.395,40.527,34.180,0
1583424009.309,191.895,251.465,26.855,40.527,34.180,0
1583424009.313,215.820,204.102,14.648,61.035,69.336,0
1583424009.317,226.562,-13.672,7.812,59.082,27.832,0
1583424009.321,204.590,-332.520,8.789,37.109,44.922,0
1583424009.324,214.355,-373.047,18.066,37.109,71.777,0
1583424009.328,291.992,-292.969,34.180,46.875,-13.672,0
1583424009.332,347.656,-260.742,48.828,58.105,35.156,0
1583424009.336,385.742,-165.039,56.152,47.363,88.867,0
1583424009.340,303.223,-428.711,28.809,41.504,76.172,0
1583424009.337,186.523,-879.395,11.230,46.387,60.059,0
1583424009.341,217.773,-637.695,44.434,43.945,38.574,0
1583424009.345,209.961,-287.598,50.293,64.941,69.824,0
1583424009.349,167.969,-244.141,41.504,54.199,67.383,0
1583424009.353,85.449,-416.016,24.414,43.457,6.836,0
1583424009.357,31.738,-628.418,22.461,68.359,-10.742,0
1583424009.361,76.660,-514.648,41.504,90.820,20.020,0
1583424009.364,87.891,-342.773,42.480,72.266,37.598,0
1583424009.368,56.152,-169.922,46.875,39.062,62.500,0
1583424009.372,12.207,-170.898,37.598,62.988,51.758,0
1583424009.376,-58.594,-551.270,20.996,62.988,74.707,0
1583424009.380,-18.555,-449.219,47.363,40.527,76.660,0
1583424009.417,32.227,-57.617,62.012,62.012,20.508,0
1583424009.421,-3.906,22.949,60.547,87.402,52.246,0
1583424009.425,-9.766,-15.625,45.410,88.379,102.051,0
1583424009.429,-35.645,-190.918,31.250,72.266,76.172,0
1583424009.433,-61.035,-210.449,39.062,64.941,41.016,0
1583424009.437,-98.633,-441.895,27.832,74.219,0.488,0
1583424009.441,-48.828,-528.320,43.457,83.496,10.254,0
1583424009.444,20.996,-358.398,50.781,70.801,78.125,0
1583424009.448,-20.508,-624.512,31.738,59.570,53.223,0
1583424009.452,-17.090,-689.453,44.434,65.430,25.391,0
1583424009.456,41.016,-561.035,48.340,72.754,22.461,0
1583424009.460,74.219,-626.465,47.363,70.312,-7.324,0
1583424009.420,97.656,-623.047,51.270,71.777,22.949,0
1583424009.424,43.945,-820.801,26.855,63.477,30.762,0
1583424009.428,69.824,-949.707,28.320,79.590,-11.719,0
1583424009.432,208.008,-723.145,54.199,93.262,60.059,0
1583424009.436,258.789,-636.719,42.480,68.359,96.191,0
1583424009.440,216.309,-855.469,20.508,65.430,53.711,0
1583424009.444,211.426,-999.023,20.508,71.777,15.137,0
1583424009.447,288.086,-896.484,36.621,66.406,-2.930,0
1583424009.451,331.543,-786.133,41.016,98.633,47.363,0
1583424009.455,295.410,-856.934,34.180,101.074,37.598,0
1583424009.459,251.953,-960.449,28.809,62.012,-12.695,0
1583424009.463,242.188,-968.750,23.438,72.754,0.488,0
1583424009.477,264.160,-965.820,30.273,84.473,7.812,0
1583424009.481,269.043,-969.238,36.621,67.383,-13.672,0
1583424009.485,230.957,-968.750,31.250,77.148,22.949,0
1583424009.489,244.141,-968.262,32.227,85.938,24.414,0
1583424009.493,229.492,-968.750,11.230,96.191,-27.344,0
1583424009.497,174.805,-967.285,-9.766,86.914,-11.230,0
1583424009.501,253.418,-964.355,25.391,53.711,9.277,0
1583424009.504,335.938,-976.074,52.246,67.383,9.766,0
1583424009.508,354.980,-841.309,49.805,88.379,40.527,0
1583424009.512,351.562,-818.848,27.832,68.359,64.453,0
1583424009.516,332.520,-847.168,21.484,53.711,67.383,0
1583424009.520,402.832,-597.656,40.039,62.012,22.949,0
1583424009.537,481.445,-482.910,44.434,73.242,35.645,0
1583424009.541,508.301,-422.363,56.641,63.477,81.543,0
1583424009.545,464.844,-554.199,36.133,38.574,84.961,0
1583424009.549,441.895,-658.203,25.391,49.805,72.754,0
1583424009.553,481.445,-502.441,40.527,70.312,94.238,0
1583424009.557,466.309,-678.711,25.391,70.801,76.660,0
1583424009.561,461.426,-793.945,28.320,43.945,54.199,0
1583424009.564,402.832,-823.730,26.855,44.922,22.949,0
1583424009.568,373.047,-960.938,33.203,69.824,-0.488,0
1583424009.572,469.238,-901.367,51.270,55.664,-16.113,0
1583424009.576,519.531,-842.773,45.410,37.109,12.695,0
1583424009.580,479.980,-857.422,48.340,37.109,73.242,0
1583424009.577,439.941,-929.199,39.062,56.152,34.180,0
1583424009.581,429.199,-975.586,27.344,71.289,-49.316,0
1583424009.585,423.828,-947.266,49.316,62.500,16.602,0
1583424009.589,375.977,-925.293,48.340,52.734,81.543,0
1583424009.593,315.918,-961.426,35.645,54.688,24.902,0
1583424009.597,333.984,-970.703,37.109,40.039,30.273,0
1583424009.601,308.594,-964.355,19.043,32.715,52.734,0
1583424009.604,301.270,-974.609,31.250,24.414,-24.414,0
1583424009.608,326.660,-924.316,60.059,37.598,1.465,0
1583424009.612,309.082,-847.656,52.246,48.828,65.918,0
1583424009.616,312.500,-910.645,44.922,40.039,96.680,0
1583424009.620,211.914,-975.586,20.508,30.762,36.621,0
1583424009.618,161.133,-965.332,28.320,28.320,-16.113,0
1583424009.622,243.652,-964.355,53.711,60.059,11.719,0
1583424009.626,251.953,-888.672,44.922,50.781,46.387,0
1583424009.630,228.516,-805.664,39.062,30.273,82.520,0
1583424009.634,150.879,-890.625,31.738,31.250,74.219,0
1583424009.638,115.234,-972.168,26.367,29.785,34.180,0
1583424009.642,158.203,-971.680,27.344,57.129,-5.371,0
1583424009.645,181.641,-950.195,37.109,43.945,15.625,0
1583424009.649,191.406,-789.062,55.664,30.273,30.273,0
1583424009.653,109.863,-845.703,38.086,47.852,8.301,0
1583424009.657,90.332,-936.523,31.250,24.414,-10.742,0
1583424009.661,138.184,-763.672,48.340,33.691,16.113,0
1583424009.657,81.055,-712.402,38.086,35.645,44.434,0
1583424009.661,21.484,-816.406,35.156,30.273,34.668,0
1583424009.665,1.953,-915.527,26.367,40.039,-7.812,0
1583424009.669,11.230,-941.895,28.320,30.273,-14.648,0
1583424009.673,42.480,-860.352,46.387,33.691,8.789,0
1583424009.677,-26.855,-924.316,32.227,34.180,9.277,0
1583424009.681,-48.828,-972.656,43.945,55.664,22.461,0
1583424009.684,-24.414,-923.340,34.668,63.477,73.730,0
1583424009.688,-82.520,-968.262,11.719,52.246,48.828,0
1583424009.692,-87.402,-950.684,49.805,60.059,15.625,0
1583424009.696,-50.781,-876.953,51.758,49.805,74.219,0
1583424009.700,-24.902,-846.680,32.227,29.297,73.730,0
1583424009.717,-81.543,-882.324,23.438,28.320,61.523,0
1583424009.721,-140.625,-935.547,17.090,19.531,63.477,0
1583424009.725,-106.445,-808.594,32.227,23.926,89.355,0
1583424009.729,-123.535,-749.512,23.438,34.668,50.293,0
1583424009.733,-154.785,-878.906,10.254,9.766,0.000,0
1583424009.737,-158.203,-954.102,9.766,13.184,12.207,0
1583424009.741,-181.641,-975.098,4.395,45.898,1.953,0
1583424009.744,-68.848,-919.434,37.109,46.875,-6.836,0
1583424009.748,28.809,-753.418,53.223,35.156,14.648,0
1583424009.752,-8.789,-658.203,37.109,24.902,46.387,0
1583424009.756,-63.477,-657.715,23.438,13.184,53.711,0
1583424009.760,-121.582,-745.605,12.207,42.480,40.039,0
1583424009.757,-130.371,-682.617,19.531,37.598,42.480,0
1583424009.761,-138.672,-591.797,16.113,0.977,97.168,0
1583424009.765,-168.457,-647.461,19.531,19.531,94.727,0
1583424009.769,-198.730,-700.684,22.949,26.367,44.434,0
1583424009.773,-229.980,-773.926,12.207,17.578,36.621,0
1583424009.777,-268.066,-866.211,5.859,11.719,24.414,0
1583424009.781,-355.469,-850.098,7.324,3.906,57.617,0
1583424009.784,-436.523,-841.797,2.930,25.391,20.020,0
1583424009.788,-422.363,-772.949,14.648,34.668,-39.551,0
1583424009.792,-484.375,-826.172,4.395,37.598,18.555,0
1583424009.796,-579.102,-976.074,2.441,37.109,11.719,0
1583424009.800,-587.402,-888.672,34.180,36.621,20.020,0
1583424009.797,-568.359,-806.152,25.391,53.223,78.613,0
1583424009.801,-549.316,-868.164,20.508,54.199,65.918,0
1583424009.805,-585.938,-950.195,20.996,53.711,62.500,0
1583424009.809,-598.145,-968.262,18.555,51.270,9.277,0
1583424009.813,-568.848,-966.797,27.344,57.129,7.324,0
1583424009.817,-553.223,-968.262,23.438,53.223,49.805,0
1583424009.821,-498.535,-968.262,27.344,39.062,34.668,0
1583424009.824,-454.102,-968.750,11.719,18.066,2.441,0
1583424009.828,-403.320,-968.750,7.324,19.043,-50.293,0
1583424009.832,-244.141,-958.984,41.992,37.598,-13.184,0
1583424009.836,-164.062,-987.305,29.297,44.434,-35.645,0
1583424009.840,-130.859,-855.469,33.203,20.996,-35.645,0
1583424009.857,-90.820,-669.434,40.039,22.949,74.219,0
1583424009.861,-35.156,-568.848,34.668,40.039,75.684,0
1583424009.865,35.645,-373.535,31.250,20.508,5.371,0
1583424009.869,96.191,-269.043,28.809,25.391,1.465,0
1583424009.873,165.527,-157.715,35.645,33.203,29.785,0
1583424009.877,188.477,-237.793,20.996,38.086,59.082,0
1583424009.881,205.078,-573.730,9.277,37.109,39.062,0
1583424009.884,301.270,-391.113,36.133,30.762,28.320,0
1583424009.888,300.293,-128.418,43.945,30.273,19.043,0
1583424009.892,287.598,-157.227,40.527,23.438,27.832,0
1583424009.896,313.477,-282.715,29.297,40.039,39.062,0
1583424009.900,279.785,-502.441,21.484,43.457,9.766,0
1583424009.898,227.051,-570.801,25.391,33.203,39.062,0
1583424009.902,183.105,-690.918,18.555,35.645,35.645,0
1583424009.906,202.637,-620.605,27.832,52.246,11.230,0
1583424009.910,189.941,-519.043,20.996,40.039,40.527,0
1583424009.914,163.574,-594.238,10.742,36.621,66.406,0
1583424009.918,140.137,-684.082,11.230,56.152,45.410,0
1583424009.922,134.766,-743.164,15.137,64.453,16.113,0
1583424009.925,166.016,-650.391,24.414,69.336,35.156,0
1583424009.929,182.617,-388.184,32.715,49.805,75.684,0
1583424009.933,45.898,-665.039,8.301,41.992,77.637,0
1583424009.937,21.973,-821.777,14.648,55.664,80.566,0
1583424009.941,153.320,-427.246,43.945,64.453,76.660,0
1583424009.937,168.457,-424.805,32.715,49.805,23.438,0
1583424009.941,105.957,-513.184,28.809,28.320,19.531,0
1583424009.945,55.176,-640.625,28.809,43.945,27.832,0
1583424009.949,39.062,-707.031,33.691,71.289,62.500,0
1583424009.953,-2.441,-726.562,26.367,67.871,47.852,0
1583424009.957,-73.242,-864.746,13.184,41.504,-23.926,0
1583424009.961,-141.602,-884.277,21.973,44.922,23.926,0
1583424009.964,-182.617,-859.375,8.789,56.152,114.746,0
1583424009.968,-183.105,-956.055,3.418,60.547,16.113,0
1583424009.972,-147.461,-863.770,31.738,49.316,-67.383,0
1583424009.976,-221.191,-756.348,27.832,36.133,-38.086,0
1583424009.980,-234.863,-663.086,31.738,58.105,15.625,0
1583424009.997,-222.168,-704.102,26.367,64.453,39.551,0
1583424010.001,-237.305,-682.617,30.273,60.059,74.219,0
1583424010.005,-274.414,-592.285,32.227,64.941,30.762,0
1583424010.009,-326.660,-601.562,25.879,56.152,31.738,0
1583424010.013,-341.309,-626.953,29.297,54.688,49.805,0
1583424010.017,-399.414,-820.801,20.020,49.316,-6.348,0
1583424010.021,-442.871,-946.777,21.973,27.344,38.574,0
1583424010.024,-389.160,-735.352,41.016,34.180,84.961,0
1583424010.028,-308.594,-520.508,40.527,58.105,52.734,0
1583424010.032,-251.465,-425.781,36.133,49.805,17.578,0
1583424010.036,-264.648,-503.906,17.090,42.969,52.246,0
1583424010.040,-230.957,-708.984,7.324,41.992,57.617,0
1583424010.037,-61.035,-551.758,33.691,56.641,15.137,0
1583424010.041,38.086,-395.020,37.109,69.336,56.641,0
1583424010.045,66.406,-383.789,31.250,49.805,72.754,0
1583424010.049,63.965,-463.379,22.949,46.875,64.453,0
1583424010.053,84.961,-567.383,21.973,65.430,66.406,0
1583424010.057,166.016,-510.742,27.344,70.801,66.895,0
1583424010.061,193.848,-553.711,26.855,52.734,32.715,0
1583424010.064,206.055,-459.473,46.387,44.922,39.551,0
1583424010.068,264.160,-168.457,56.641,66.406,98.633,0
1583424010.072,224.121,-483.398,29.785,63.477,65.918,0
1583424010.076,250.977,-516.602,39.062,50.293,27.344,0
1583424010.080,311.523,-62.988,56.641,39.551,19.043,0
1583424010.077,260.254,3.418,49.316,46.875,-2.930,0
1583424010.081,298.340,119.141,53.711,65.918,79.590,0
1583424010.085,290.527,10.254,41.504,52.246,96.191,0
1583424010.089,202.637,-62.500,43.457,25.391,19.043,0
1583424010.093,173.828,38.086,49.805,39.062,27.344,0
1583424010.097,173.828,-155.273,34.668,57.129,15.137,0
1583424010.101,205.078,-187.012,42.969,49.316,30.762,0
1583424010.104,170.898,-272.461,40.527,41.992,66.406,0
1583424010.108,155.762,-328.613,43.945,42.969,57.129,0
1583424010.112,211.914,-123.535,51.270,51.758,57.129,0
1583424010.116,214.355,-126.465,46.875,53.711,58.594,0
1583424010.120,188.477,-109.863,44.434,22.461,47.363,0
1583424010.137,101.074,-427.734,27.344,25.879,16.602,0
1583424010.141,118.652,-496.582,41.992,53.711,62.500,0
1583424010.145,192.383,-223.633,55.176,60.547,52.734,0
1583424010.149,182.129,-287.598,39.551,50.293,-27.832,0
1583424010.153,165.039,-232.422,43.945,31.250,20.508,0
1583424010.157,91.309,-489.258,23.438,30.762,70.801,0
1583424010.161,97.168,-903.809,16.602,48.340,-2.441,0
1583424010.164,236.816,-590.332,56.152,49.316,-21.973,0
1583424010.168,240.234,-325.195,50.293,37.109,-23.438,0
1583424010.172,212.402,-262.207,36.621,26.367,26.855,0
1583424010.176,228.027,-344.727,26.855,25.879,18.555,0
1583424010.180,243.652,-384.766,30.273,39.062,0.488,0
1583424010.178,226.074,-233.398,35.645,32.227,43.457,0
1583424010.182,152.344,-296.387,32.715,15.137,-6.836,0
1583424010.186,174.316,-231.445,48.340,35.156,51.758,0
1583424010.190,173.340,-354.980,30.762,46.387,73.242,0
1583424010.194,148.926,-475.098,24.414,30.762,-18.555,0
1583424010.198,106.445,-402.832,31.738,17.578,37.598,0
1583424010.202,71.289,-455.566,27.832,30.762,42.969,0
1583424010.205,142.090,-251.465,49.316,54.688,42.480,0
1583424010.209,144.043,-137.695,40.039,57.129,56.152,0
1583424010.213,35.645,-634.766,0.488,43.457,-18.066,0
1583424010.217,72.754,-604.980,28.809,46.387,-2.930,0
1583424010.221,179.688,-93.750,57.129,56.641,31.738,0
1583424010.217,207.520,-36.133,45.898,48.340,0.488,0
1583424010.221,199.707,-64.941,40.039,36.621,16.113,0
1583424010.225,169.922,-117.188,36.621,40.527,55.664,0
1583424010.229,236.328,-71.777,36.133,49.316,2.930,0
1583424010.233,293.457,-72.266,27.832,58.105,-52.246,0
1583424010.237,269.531,-208.984,23.926,46.875,-37.109,0
1583424010.241,257.812,-265.137,29.785,38.574,-21.973,0
1583424010.244,251.953,-422.363,24.902,54.688,83.008,0
1583424010.248,326.660,-381.836,35.645,51.758,88.867,0
1583424010.252,432.129,-17.090,46.387,47.363,39.551,0
1583424010.256,413.086,49.805,40.039,42.480,82.031,0
1583424010.260,396.973,-13.184,34.180,41.992,46.387,0
1583424010.277,434.570,-114.746,25.879,64.453,32.715,0
1583424010.281,459.961,-128.418,38.574,59.082,32.227,0
1583424010.285,410.645,-114.746,40.527,45.898,23.438,0
1583424010.289,339.844,-248.535,25.391,43.457,-15.625,0
1583424010.293,345.215,-250.000,28.320,56.152,-6.836,0
1583424010.297,289.551,-513.672,19.043,66.406,63.965,0
1583424010.301,244.141,-614.746,31.250,49.805,123.535,0
1583424010.304,264.160,-362.793,43.457,52.734,55.664,0
1583424010.308,245.605,-396.973,29.785,61.523,5.859,0
1583424010.312,224.121,-416.016,22.461,22.461,83.008,0
1583424010.316,170.410,-661.133,10.742,-5.371,44.922,0
1583424010.320,119.141,-724.609,17.578,17.090,25.879,0
1583424010.317,121.582,-491.211,31.738,44.434,36.621,0
1583424010.321,119.141,-458.984,29.297,41.504,44.922,0
1583424010.325,74.707,-455.566,21.973,13.672,57.617,0
1583424010.329,18.555,-634.277,0.488,9.277,18.066,0
1583424010.333,-21.484,-761.719,-4.395,12.207,-13.184,0
1583424010.337,-30.273,-841.309,7.324,21.973,-13.672,0
1583424010.341,13.672,-976.074,9.277,38.086,-46.875,0
1583424010.344,77.148,-825.195,22.949,26.367,-11.230,0
1583424010.348,45.410,-827.148,6.348,27.344,39.551,0
1583424010.352,35.156,-948.242,4.883,46.875,41.504,0
1583424010.356,124.023,-825.684,32.227,29.785,49.316,0
1583424010.360,113.770,-812.012,21.973,10.742,50.293,0
1583424010.357,24.414,-936.523,13.184,31.250,3.906,0
1583424010.361,-10.254,-972.168,15.625,57.129,-43.457,0
1583424010.365,-19.531,-972.168,17.090,69.336,9.277,0
1583424010.369,20.996,-875.000,35.156,49.316,65.918,0
1583424010.373,3.418,-821.777,22.949,30.762,57.617,0
1583424010.377,-30.273,-944.336,12.695,50.781,35.645,0
1583424010.381,-11.230,-976.562,16.113,52.246,22.949,0
1583424010.384,0.000,-961.914,18.555,39.062,39.062,0
1583424010.388,12.695,-890.137,36.133,34.180,87.402,0
1583424010.392,20.020,-849.121,28.809,27.832,44.922,0
1583424010.396,71.777,-818.359,27.832,44.922,38.086,0
1583424010.400,118.164,-782.715,30.762,62.012,68.848,0
1583424010.417,44.434,-924.805,9.766,56.152,25.879,0
1583424010.421,78.613,-958.008,29.785,50.293,-25.391,0
1583424010.425,224.609,-881.348,49.316,56.641,23.438,0
1583424010.429,286.133,-936.523,32.227,53.711,14.648,0
1583424010.433,335.449,-949.219,28.320,43.457,-19.531,0
1583424010.437,323.242,-943.359,29.297,47.852,18.066,0
1583424010.441,339.844,-978.027,30.762,57.129,-18.066,0
1583424010.444,437.500,-929.688,35.645,54.199,-20.996,0
1583424010.448,468.262,-837.891,31.738,55.664,20.020,0
1583424010.452,469.238,-771.973,36.133,41.016,62.500,0
1583424010.456,382.812,-887.695,19.043,39.551,25.879,0
1583424010.460,356.934,-892.090,22.461,34.180,47.852,0
1583424010.457,422.852,-740.234,38.574,31.738,92.773,0
1583424010.461,380.371,-789.551,24.902,44.922,9.277,0
1583424010.465,338.379,-775.879,23.926,63.477,19.531,0
1583424010.469,320.312,-847.656,20.508,76.172,25.879,0
1583424010.473,320.312,-836.426,26.855,51.270,57.129,0
1583424010.477,283.691,-870.117,16.113,27.344,41.504,0
1583424010.481,230.469,-984.375,11.230,37.598,-6.836,0
1583424010.484,285.156,-959.961,35.156,57.129,5.371,0
1583424010.488,290.039,-965.332,21.484,44.922,-1.465,0
1583424010.492,271.484,-953.613,19.531,30.273,48.828,0
1583424010.496,257.324,-889.160,41.992,25.879,48.340,0
1583424010.500,207.031,-849.609,35.645,32.715,-3.906,0
1583424010.517,210.938,-778.320,40.527,69.824,36.133,0
1583424010.521,150.879,-863.281,22.949,53.223,28.320,0
1583424010.525,88.867,-915.039,20.020,14.648,58.594,0
1583424010.529,79.590,-729.980,33.691,25.391,140.137,0
1583424010.533,54.199,-750.488,20.996,50.781,77.148,0
1583424010.537,37.598,-935.547,16.113,37.109,16.113,0
1583424010.541,21.973,-977.539,16.113,23.926,66.895,0
1583424010.544,-16.113,-956.055,13.184,34.180,46.387,0
1583424010.548,33.203,-972.656,28.809,40.527,-15.625,0
1583424010.552,100.586,-946.777,34.668,45.410,-31.738,0
1583424010.556,141.113,-745.605,36.621,31.738,15.625,0
1583424010.560,106.445,-683.594,25.879,28.809,64.453,0
1583424010.557,92.285,-791.504,28.809,39.551,46.875,0
1583424010.561,159.180,-654.785,43.457,50.293,29.297,0
1583424010.565,185.547,-549.805,34.668,38.574,41.016,0
1583424010.569,166.016,-513.184,30.273,5.371,64.453,0
1583424010.573,135.254,-517.090,27.832,16.602,47.852,0
1583424010.577,58.594,-687.988,22.461,22.949,18.555,0
1583424010.581,5.859,-767.578,35.156,24.414,51.758,0
1583424010.584,-8.301,-722.656,51.758,5.371,42.969,0
1583424010.588,-14.648,-582.031,52.734,-20.508,53.223,0
1583424010.592,-54.688,-496.582,35.156,-2.930,65.430,0
1583424010.596,-150.879,-737.793,27.832,-22.949,-4.395,0
1583424010.600,-250.488,-809.570,45.410,-53.711,-11.719,0
1583424010.597,-361.816,-551.758,65.918,-66.406,41.992,0
1583424010.601,-427.734,-324.219,75.195,-85.938,16.113,0
1583424010.605,-498.535,-103.027,80.078,-106.934,4.883,0
1583424010.609,-623.535,-227.539,70.312,-148.438,54.688,0
1583424010.613,-682.617,-203.125,73.730,-178.223,38.086,0
1583424010.617,-728.027,129.883,92.285,-192.871,4.395,0
1583424010.621,-808.105,289.062,104.492,-223.633,31.738,0
1583424010.624,-786.621,664.551,117.188,-255.859,9.766,0
1583424010.628,-842.773,630.859,97.168,-292.480,-5.371,0
1583424010.632,-880.371,520.508,103.516,-307.617,84.473,0
1583424010.636,-757.324,895.996,125.488,-304.199,66.895,0
1583424010.640,-660.156,-980.957,116.211,-300.293,23.438,0
1583424010.677,-604.980,985.840,111.816,-295.410,-10.254,0
1583424010.681,-610.840,-999.512,104.004,-295.410,7.324,0
1583424010.685,-553.711,997.070,109.375,-258.301,20.996,0
1583424010.689,-468.262,995.605,123.047,-243.164,7.324,0
1583424010.693,-467.773,993.164,120.117,-251.953,32.227,0
1583424010.697,-449.219,883.789,111.816,-226.562,81.543,0
1583424010.701,-358.887,513.184,94.238,-180.176,49.805,0
1583424010.704,-272.949,179.199,94.727,-158.203,40.039,0
1583424010.708,-137.695,300.781,116.211,-146.973,58.105,0
1583424010.712,-75.684,264.160,89.844,-139.648,-17.578,0
1583424010.716,-95.215,137.695,79.102,-91.309,37.109,0
1583424010.720,-101.074,-87.891,68.359,-46.875,78.125,0
1583424010.698,-102.539,-383.301,57.129,-39.062,17.578,0
1583424010.702,-72.266,-380.859,64.453,-20.020,36.133,0
1583424010.706,-31.738,-458.496,49.805,-2.930,47.852,0
1583424010.710,52.246,-541.992,42.969,31.738,18.555,0
1583424010.714,119.141,-650.391,37.109,59.570,38.086,0
1583424010.718,118.164,-917.969,24.902,74.219,38.086,0
1583424010.722,125.000,-976.074,23.438,90.332,2.930,0
1583424010.725,227.051,-969.238,24.414,101.074,-35.156,0
1583424010.729,332.520,-913.574,33.203,117.188,-18.066,0
1583424010.733,317.871,-830.566,19.531,102.051,53.223,0
1583424010.737,248.535,-937.012,4.883,98.145,41.992,0
1583424010.741,271.484,-977.539,21.484,139.160,6.836,0
1583424010.737,297.852,-958.496,20.508,155.273,49.805,0
1583424010.741,267.578,-969.727,3.906,143.066,7.812,0
1583424010.745,191.895,-968.262,0.977,130.371,-14.648,0
1583424010.749,108.887,-968.262,-16.113,139.160,-10.254,0
1583424010.753,133.301,-968.750,-5.371,145.508,-2.441,0
1583424010.757,137.207,-968.262,16.602,142.090,36.621,0
1583424010.761,37.598,-968.750,11.230,141.602,42.969,0
1583424010.764,0.000,-968.262,25.391,160.156,62.012,0
1583424010.768,-110.352,-968.262,1.465,166.016,40.527,0
1583424010.772,-166.504,-968.750,-0.977,151.855,-19.043,0
1583424010.776,-108.887,-968.262,33.691,143.066,11.230,0
1583424010.780,-149.902,-968.262,22.949,151.855,37.109,0
1583424010.797,-157.715,-968.262,11.719,157.227,4.395,0
1583424010.801,-135.742,-968.262,12.695,147.949,38.574,0
1583424010.805,-148.926,-968.262,15.625,135.254,66.895,0
1583424010.809,-160.645,-968.262,13.672,119.629,10.254,0
1583424010.813,-119.629,-968.750,15.137,137.695,5.371,0
1583424010.817,-104.492,-968.750,17.578,162.109,27.344,0
1583424010.821,-166.016,-968.262,4.883,151.367,15.625,0
1583424010.824,-202.637,-968.750,10.254,137.695,34.180,0
1583424010.828,-121.094,-968.750,29.785,134.766,50.293,0
1583424010.832,-26.367,-968.262,25.879,144.531,23.926,0
1583424010.836,32.227,-968.262,26.367,137.207,19.043,0
1583424010.840,-40.039,-968.750,13.672,111.328,14.160,0
1583424010.837,-62.012,-968.262,19.043,125.977,35.645,0
1583424010.841,3.418,-968.262,32.227,127.441,48.340,0
1583424010.845,52.734,-968.262,30.273,115.234,25.391,0
1583424010.849,51.270,-968.750,30.273,107.910,54.199,0
1583424010.853,-57.617,-968.750,12.207,99.121,50.781,0
1583424010.857,-70.312,-963.867,13.184,115.723,37.598,0
1583424010.861,22.461,-975.586,22.949,118.652,42.480,0
1583424010.864,65.918,-915.039,19.531,107.422,56.641,0
1583424010.868,88.379,-768.066,20.508,92.285,89.844,0
1583424010.872,70.312,-781.250,4.395,99.121,99.609,0
1583424010.876,-11.230,-961.914,-19.043,99.609,52.734,0
1583424010.880,23.438,-876.953,10.742,78.125,45.410,0
1583424010.897,56.641,-693.359,24.414,78.125,55.176,0
1583424010.901,34.180,-616.699,11.719,91.309,81.055,0
1583424010.905,-20.020,-742.188,3.418,104.004,95.703,0
1583424010.909,-54.688,-834.473,5.859,83.496,70.312,0
1583424010.913,-42.969,-722.656,13.672,65.918,33.203,0
1583424010.917,-71.289,-891.602,0.000,69.336,9.277,0
1583424010.921,-38.086,-965.820,9.766,82.520,12.207,0
1583424010.924,27.344,-827.148,29.785,95.215,-17.090,0
1583424010.928,-55.176,-914.551,18.066,73.730,13.184,0
1583424010.932,-80.078,-912.109,30.762,58.594,70.801,0
1583424010.936,10.254,-713.379,39.062,67.383,106.934,0
1583424010.940,-6.348,-758.301,23.926,63.965,30.273,0
1583424010.937,-35.156,-773.926,26.367,59.082,4.395,0
1583424010.941,-57.617,-873.535,19.531,60.547,-17.090,0
1583424010.945,-78.613,-838.867,31.738,51.270,-9.277,0
1583424010.949,-44.922,-629.395,37.598,77.148,43.945,0
1583424010.953,-16.113,-676.758,25.391,70.312,25.391,0
1583424010.957,1.953,-818.359,20.020,60.059,27.832,0
1583424010.961,31.738,-928.223,29.785,75.684,-6.348,0
1583424010.964,118.652,-738.281,43.457,68.359,37.598,0
1583424010.968,183.594,-520.020,35.156,65.430,66.406,0
1583424010.972,186.523,-519.043,23.926,46.875,64.453,0
1583424010.976,272.949,-466.797,25.879,52.734,29.785,0
1583424010.980,320.801,-697.266,1.953,74.219,-23.926,0
1583424010.977,357.422,-879.883,7.324,55.176,11.230,0
1583424010.981,475.098,-474.609,50.781,43.945,82.031,0
1583424010.985,491.699,-264.160,36.621,43.945,77.148,0
1583424010.989,511.230,-206.055,24.902,55.176,8.301,0
1583424010.993,523.926,-279.785,20.996,57.617,-27.344,0
1583424010.997,543.945,-381.348,15.625,41.016,-10.254,0
1583424011.001,558.105,-179.199,29.297,32.715,14.160,0
1583424011.004,511.230,-18.555,27.344,45.410,7.324,0
1583424011.008,564.453,261.719,30.273,48.340,15.625,0
1583424011.012,628.906,467.285,17.578,32.227,2.930,0
1583424011.016,657.715,367.188,6.836,19.531,-8.789,0
1583424011.020,848.633,763.672,48.340,25.879,31.250,0
1583424011.038,988.281,-960.449,59.570,60.547,71.289,0
1583424011.042,999.512,981.934,54.199,52.734,70.312,0
1583424011.046,928.223,993.652,33.691,24.902,62.500,0
1583424011.050,848.633,983.398,34.180,24.902,40.527,0
1583424011.054,836.914,-993.652,51.270,29.297,19.043,0
1583424011.058,781.250,936.523,40.039,20.996,79.590,0
1583424011.062,697.266,733.398,40.527,17.090,63.965,0
1583424011.065,592.285,494.141,32.227,25.391,-16.602,0
1583424011.069,563.477,312.988,33.691,15.625,-25.879,0
1583424011.073,604.980,322.754,59.082,25.391,1.953,0
1583424011.077,541.992,111.328,50.293,30.762,32.715,0
1583424011.081,516.113,-81.055,45.410,19.531,36.621,0
1583424011.097,527.832,-68.359,40.039,21.484,11.230,0
1583424011.101,501.465,-285.156,33.203,10.742,59.570,0
1583424011.105,499.512,-347.656,46.387,7.324,64.453,0
1583424011.109,433.105,-277.832,46.875,17.090,56.152,0
1583424011.113,345.703,-326.172,42.480,22.949,79.102,0
1583424011.117,261.230,-543.457,35.645,20.020,48.340,0
1583424011.121,158.691,-740.234,36.621,21.484,11.719,0
1583424011.124,95.215,-605.957,52.734,3.418,44.922,0
1583424011.128,61.035,-574.219,50.781,-11.719,31.738,0
1583424011.132,36.621,-619.629,52.734,7.812,27.344,0
1583424011.136,114.258,-587.402,60.547,24.414,34.180,0
1583424011.140,24.902,-799.316,32.715,7.812,10.254,0
1583424011.137,-169.434,-962.402,28.320,1.465,44.922,0
1583424011.141,-239.746,-898.438,50.781,13.672,40.527,0
1583424011.145,-362.305,-889.648,44.922,18.066,-7.324,0
1583424011.149,-416.992,-721.680,48.340,2.930,41.016,0
1583424011.153,-497.070,-790.039,32.715,-10.742,58.594,0
1583424011.157,-575.195,-972.168,32.227,12.207,33.691,0
1583424011.161,-543.945,-973.633,41.992,14.160,21.484,0
1583424011.164,-437.988,-941.895,45.410,4.395,17.090,0
1583424011.168,-399.414,-815.430,46.875,-5.371,16.602,0
1583424011.172,-461.914,-870.117,28.809,4.395,20.996,0
1583424011.176,-449.219,-917.480,28.320,11.230,42.480,0
1583424011.180,-416.992,-762.695,37.598,10.742,59.570,0
1583424011.157,-457.520,-729.492,27.344,11.230,72.754,0
1583424011.161,-485.352,-731.445,28.809,0.977,35.645,0
1583424011.165,-505.859,-837.402,12.207,14.160,20.996,0
1583424011.169,-447.266,-942.871,9.766,34.180,43.945,0
1583424011.173,-324.219,-877.930,31.250,22.949,32.715,0
1583424011.177,-273.926,-941.895,22.949,23.438,31.250,0
1583424011.181,-168.457,-973.145,23.438,35.156,1.465,0
1583424011.184,-103.027,-969.727,19.531,37.598,-32.227,0
1583424011.188,-80.078,-946.289,36.621,22.461,19.043,0
1583424011.192,0.000,-848.633,53.223,20.996,25.391,0
1583424011.196,11.719,-790.527,48.828,21.484,42.969,0
1583424011.200,16.113,-833.496,46.875,29.785,7.812,0
1583424011.237,103.516,-912.109,36.133,31.738,11.719,0
1583424011.241,74.707,-961.914,12.207,16.602,72.754,0
1583424011.245,73.730,-970.215,29.785,19.531,7.324,0
1583424011.249,160.156,-966.309,55.176,28.320,-22.949,0
1583424011.253,177.246,-969.238,46.387,36.133,17.578,0
1583424011.257,137.695,-968.750,30.762,23.438,21.484,0
1583424011.261,27.832,-966.309,18.066,14.648,20.508,0
1583424011.264,12.207,-969.238,37.109,34.180,18.066,0
1583424011.268,60.059,-956.543,59.082,33.691,26.367,0
1583424011.272,37.598,-876.953,54.688,17.090,25.391,0
1583424011.276,-24.414,-781.250,43.945,15.137,66.895,0
1583424011.280,-50.293,-791.016,36.133,28.809,121.094,0
1583424011.259,10.254,-730.469,47.852,33.691,112.305,0
1583424011.263,61.523,-697.266,48.340,44.434,58.594,0
1583424011.267,62.012,-757.324,42.480,32.227,31.250,0
1583424011.271,78.125,-806.641,41.992,35.156,34.180,0
1583424011.275,154.785,-934.082,37.109,47.852,36.133,0
1583424011.279,220.215,-973.633,36.133,42.480,39.062,0
1583424011.283,242.676,-961.426,41.992,36.621,41.504,0
1583424011.286,275.391,-976.074,52.246,29.785,34.180,0
1583424011.290,330.078,-929.199,46.387,34.668,6.836,0
1583424011.294,332.031,-923.828,33.203,43.457,15.625,0
1583424011.298,328.613,-969.727,41.992,50.781,3.418,0
1583424011.302,217.773,-978.027,52.734,34.180,-35.156,0
1583424011.297,6.836,-928.223,48.828,31.738,7.812,0
1583424011.301,-46.875,-868.164,45.898,42.480,69.336,0
1583424011.305,-138.672,-944.336,16.113,22.461,2.930,0
1583424011.309,-288.574,-975.586,19.043,21.973,-1.465,0
1583424011.313,-293.457,-964.355,41.504,41.992,22.949,0
1583424011.317,-285.645,-969.238,31.250,51.270,62.012,0
1583424011.321,-307.129,-968.750,31.738,37.598,51.270,0
1583424011.324,-366.211,-968.750,24.902,11.230,13.672,0
1583424011.328,-444.824,-968.750,5.371,12.207,-5.859,0
1583424011.332,-394.043,-968.750,36.133,30.762,12.695,0
1583424011.336,-332.520,-968.750,56.152,31.738,58.594,0
1583424011.340,-355.957,-968.750,33.691,24.902,-24.414,0
1583424011.357,-396.973,-968.262,21.484,14.648,-24.902,0
1583424011.361,-373.535,-968.262,24.414,27.344,16.602,0
1583424011.365,-308.105,-968.262,41.504,57.129,22.949,0
1583424011.369,-332.031,-968.262,41.016,50.293,53.223,0
1583424011.373,-406.738,-968.262,35.156,33.691,47.852,0
1583424011.377,-438.477,-968.750,20.508,42.969,84.473,0
1583424011.381,-423.340,-968.750,11.230,43.457,96.680,0
1583424011.384,-355.469,-968.262,37.598,29.785,99.121,0
1583424011.388,-370.117,-968.262,42.969,21.484,74.219,0
1583424011.392,-411.133,-968.750,32.715,43.457,38.574,0
1583424011.396,-405.762,-968.750,27.832,57.129,50.781,0
1583424011.400,-380.859,-968.750,21.484,35.156,49.316,0
1583424011.397,-311.035,-968.750,29.785,25.391,33.203,0
1583424011.401,-273.438,-968.750,38.574,37.109,6.836,0
1583424011.405,-229.492,-968.262,46.387,65.918,28.809,0
1583424011.409,-172.852,-969.238,36.133,53.711,28.809,0
1583424011.413,-183.105,-966.309,26.855,32.227,41.016,0
1583424011.417,-199.219,-961.914,28.809,23.438,51.270,0
1583424011.421,-116.211,-978.027,27.344,27.344,-14.160,0
1583424011.424,-23.438,-904.785,37.598,56.641,6.348,0
1583424011.428,-23.926,-753.418,47.363,33.691,29.785,0
1583424011.432,-166.016,-872.070,24.902,32.715,-17.578,0
1583424011.436,-194.824,-931.152,28.320,41.992,1.953,0
1583424011.440,-48.828,-761.719,54.688,44.434,46.387,0
1583424011.437,44.922,-724.609,49.316,54.688,68.848,0
1583424011.441,82.031,-815.430,40.039,37.109,71.289,0
1583424011.445,95.215,-938.477,38.086,56.152,21.484,0
1583424011.449,155.762,-970.703,49.805,73.242,23.926,0
1583424011.453,181.152,-965.332,44.434,60.547,35.156,0
1583424011.457,72.754,-968.750,27.344,41.992,36.133,0
1583424011.461,-24.902,-968.262,29.785,38.086,46.875,0
1583424011.464,-123.047,-968.262,17.090,50.293,9.766,0
1583424011.468,-208.496,-968.750,20.020,45.410,-51.758,0
1583424011.472,-213.379,-968.750,46.387,18.555,-21.973,0
1583424011.476,-313.477,-968.750,37.109,28.320,36.621,0
1583424011.480,-331.543,-968.262,34.668,48.340,12.695,0
1583424011.497,-356.445,-968.750,31.250,51.758,29.785,0
1583424011.501,-408.203,-968.750,37.598,39.551,87.402,0
1583424011.505,-408.203,-968.262,39.062,19.043,73.242,0
1583424011.509,-449.219,-968.750,25.879,28.809,41.016,0
1583424011.513,-419.434,-968.750,28.809,40.039,9.766,0
1583424011.517,-447.754,-965.332,15.137,44.434,27.344,0
1583424011.521,-540.527,-975.586,9.766,31.738,23.926,0
1583424011.524,-515.625,-938.965,41.992,33.691,61.523,0
1583424011.528,-500.488,-883.301,39.062,53.711,66.406,0
1583424011.532,-597.168,-934.082,25.391,43.457,55.664,0
1583424011.536,-685.547,-972.168,16.602,27.344,96.191,0
1583424011.540,-700.684,-969.727,17.578,13.184,46.875,0
1583424011.537,-742.188,-956.055,30.762,16.113,37.109,0
1583424011.541,-829.102,-950.684,29.785,22.949,54.688,0
1583424011.545,-872.559,-969.727,25.879,19.043,13.184,0
1583424011.549,-926.758,-968.750,20.996,15.137,7.324,0
1583424011.553,-956.543,-967.773,20.020,23.926,38.574,0
1583424011.557,-916.504,-968.750,22.949,36.621,8.301,0
1583424011.561,-902.832,-968.750,26.855,27.344,-9.766,0
1583424011.564,-948.242,-968.262,41.992,13.184,40.039,0
1583424011.568,-950.684,-968.262,46.875,18.066,37.109,0
1583424011.572,-951.172,-968.262,24.902,23.926,23.438,0
1583424011.576,-895.996,-968.262,34.180,18.555,20.508,0
1583424011.580,-777.344,-968.750,52.734,14.648,25.879,0
1583424011.578,-739.258,-968.262,38.574,25.879,49.316,0
1583424011.582,-672.852,-966.309,30.273,32.715,-4.395,0
1583424011.586,-589.355,-971.680,37.598,33.203,4.883,0
1583424011.590,-529.785,-937.012,46.875,19.531,21.484,0
1583424011.594,-486.816,-881.348,46.387,19.531,13.184,0
1583424011.598,-464.355,-939.453,29.297,40.039,-14.160,0
1583424011.602,-389.648,-967.773,26.367,40.527,-60.059,0
1583424011.605,-377.930,-977.051,16.113,39.551,-41.992,0
1583424011.609,-368.164,-897.949,24.414,34.180,15.625,0
1583424011.613,-226.562,-655.762,54.199,24.414,70.312,0
1583424011.617,-137.695,-578.613,43.945,39.062,49.805,0
1583424011.621,-117.676,-562.988,40.039,39.062,33.203,0
1583424011.638,-171.387,-633.301,39.551,31.738,59.082,0
1583424011.642,-123.047,-660.156,36.133,35.645,35.156,0
1583424011.646,19.531,-476.562,39.551,36.621,55.176,0
1583424011.650,62.988,-518.066,29.785,38.086,96.191,0
1583424011.654,64.941,-638.672,24.902,31.250,29.785,0
1583424011.658,43.945,-827.637,15.625,29.785,-13.672,0
1583424011.662,106.445,-807.129,30.273,49.316,53.223,0
1583424011.665,205.566,-451.172,47.852,35.645,59.570,0
1583424011.669,183.594,-390.625,31.250,17.578,44.922,0
1583424011.673,184.082,-309.082,33.691,20.996,71.289,0
1583424011.677,222.168,-442.871,22.949,40.039,58.105,0
1583424011.681,289.551,-636.230,21.973,48.828,22.949,0
1583424011.677,385.254,-430.176,43.945,17.090,3.906,0
1583424011.681,386.719,-381.836,40.039,16.602,-4.883,0
1583424011.685,393.066,-343.262,48.340,57.129,20.996,0
1583424011.689,429.688,-428.223,41.016,57.129,48.828,0
1583424011.693,441.406,-557.129,33.203,19.531,83.008,0
1583424011.697,402.344,-587.402,40.039,8.789,78.125,0
1583424011.701,393.066,-773.438,37.598,27.344,-3.906,0
1583424011.704,473.633,-726.562,48.340,42.480,17.090,0
1583424011.708,485.352,-595.215,45.898,31.250,30.273,0
1583424011.712,367.188,-872.070,18.555,18.066,-1.953,0
1583424011.716,370.117,-879.395,39.551,35.156,32.715,0
1583424011.720,455.566,-562.988,57.129,36.621,41.016,0
1583424011.717,479.980,-505.371,37.598,48.340,29.785,0
1583424011.721,443.359,-548.828,33.203,39.062,41.016,0
1583424011.725,332.031,-643.066,40.039,44.922,70.312,0
1583424011.729,341.797,-538.086,50.293,54.199,104.980,0
1583424011.733,372.559,-416.016,42.480,27.832,116.211,0
1583424011.737,337.402,-570.312,32.715,35.156,83.984,0
1583424011.741,330.078,-529.297,42.969,33.691,66.895,0
1583424011.744,321.289,-691.895,24.414,40.039,36.621,0
1583424011.748,387.207,-745.605,28.320,58.105,-0.488,0
1583424011.752,483.398,-356.445,49.316,41.504,13.184,0
1583424011.756,479.004,-312.988,38.086,20.508,20.996,0
1583424011.760,494.629,-183.594,47.363,33.203,32.715,0
1583424011.777,512.207,-193.359,46.875,49.316,49.805,0
1583424011.781,537.598,-226.562,44.434,47.363,41.504,0
1583424011.785,523.926,-228.516,41.992,29.785,12.207,0
1583424011.789,500.488,-280.762,38.086,23.926,15.625,0
1583424011.793,500.000,-260.742,38.086,49.805,48.340,0
1583424011.797,451.172,-477.539,26.367,31.738,72.266,0
1583424011.801,411.621,-666.992,20.996,17.090,44.922,0
1583424011.804,400.879,-526.367,37.109,28.320,-4.883,0
1583424011.808,387.695,-463.867,41.016,28.320,-34.180,0
1583424011.812,420.898,-397.949,42.480,33.691,-34.180,0
1583424011.816,365.234,-586.914,23.926,28.320,20.996,0
1583424011.820,258.301,-859.375,17.578,21.484,53.711,0
1583424011.837,272.461,-740.234,39.551,16.602,-3.906,0
1583424011.841,296.387,-596.680,45.410,23.926,17.090,0
1583424011.845,262.695,-455.078,51.270,34.180,88.379,0
1583424011.849,143.066,-694.824,19.531,18.555,30.762,0
1583424011.853,83.984,-820.312,20.020,21.484,19.043,0
1583424011.857,104.492,-748.535,37.109,45.410,55.176,0
1583424011.861,66.406,-861.816,34.180,34.180,15.137,0
1583424011.864,59.082,-712.402,48.340,22.949,29.297,0
1583424011.868,-20.508,-722.168,31.250,31.250,61.523,0
1583424011.872,-105.957,-979.004,18.066,44.434,-16.602,0
1583424011.876,-51.270,-877.441,48.828,36.621,-13.184,0
1583424011.880,-58.594,-716.309,47.852,35.156,20.508,0
1583424011.879,-139.160,-717.773,38.574,46.387,-1.953,0
1583424011.883,-152.344,-729.004,38.086,50.781,55.176,0
1583424011.887,-140.625,-791.016,31.250,51.758,84.961,0
1583424011.891,-155.273,-845.215,28.809,41.504,17.578,0
1583424011.895,-189.453,-750.488,39.551,26.855,89.355,0
1583424011.899,-215.820,-820.801,30.273,39.062,65.918,0
1583424011.903,-170.898,-978.516,28.320,62.988,-45.898,0
1583424011.906,-156.738,-949.219,37.109,41.016,-0.488,0
1583424011.910,-129.883,-813.477,50.781,20.996,29.785,0
1583424011.914,-78.613,-704.102,43.457,32.715,57.129,0
1583424011.918,-18.555,-782.227,30.273,44.434,42.969,0
1583424011.922,58.594,-719.238,45.410,54.199,62.988,0
1583424011.917,42.480,-836.914,34.668,41.016,88.867,0
1583424011.921,47.852,-922.363,29.297,41.016,17.578,0
1583424011.925,112.793,-777.832,28.320,48.340,-3.418,0
1583424011.929,158.691,-695.801,32.227,56.152,65.430,0
1583424011.933,167.969,-712.891,26.855,42.480,83.496,0
1583424011.937,103.516,-908.691,13.672,19.531,25.391,0
1583424011.941,113.281,-979.492,27.344,44.434,15.137,0
1583424011.944,177.246,-960.938,36.133,54.199,29.785,0
1583424011.948,159.668,-969.238,26.367,32.227,-55.664,0
1583424011.952,147.461,-967.773,35.645,22.461,-89.355,0
1583424011.956,126.953,-960.938,21.484,47.363,20.996,0
1583424011.960,128.418,-985.840,14.160,60.547,9.766,0
1583424011.957,239.258,-849.609,54.688,54.688,45.898,0
1583424011.961,292.969,-675.781,49.805,50.293,69.824,0
1583424011.965,264.160,-666.992,31.738,30.273,43.457,0
1583424011.969,257.812,-765.137,22.949,41.016,41.504,0
1583424011.973,298.340,-787.598,24.902,54.688,24.902,0
1583424011.977,302.734,-856.934,23.438,28.809,12.207,0
1583424011.981,271.484,-915.527,28.320,38.086,37.109,0
1583424011.984,297.363,-709.473,37.109,56.641,43.945,0
1583424011.988,260.254,-794.922,10.742,43.945,21.484,0
1583424011.992,224.121,-973.145,0.977,38.086,21.484,0
1583424011.996,270.996,-782.715,28.809,35.645,25.391,0
1583424012.000,280.273,-596.680,38.086,53.223,72.266,0
1583424012.017,289.551,-543.457,34.180,58.594,92.285,0
1583424012.021,259.277,-654.297,13.672,35.156,98.145,0
1583424012.025,187.988,-782.227,12.207,16.113,61.523,0
1583424012.029,176.758,-645.996,32.227,18.066,69.824,0
1583424012.033,173.340,-602.539,25.879,37.109,76.172,0
1583424012.037,148.926,-767.090,17.090,49.805,41.992,0
1583424012.041,89.355,-931.152,11.719,29.785,0.000,0
1583424012.044,57.617,-924.805,20.020,17.578,2.930,0
1583424012.048,144.043,-699.707,41.016,39.551,61.523,0
1583424012.052,158.691,-562.500,31.738,31.250,61.035,0
1583424012.056,141.113,-569.824,21.973,9.277,20.020,0
1583424012.060,124.512,-694.336,5.371,20.996,-4.395,0
1583424012.077,107.422,-824.219,7.324,36.133,55.664,0
1583424012.081,148.438,-678.711,25.391,27.344,31.738,0
1583424012.085,154.785,-608.398,20.508,33.691,-29.297,0
1583424012.089,109.375,-635.254,17.578,24.414,-14.648,0
1583424012.093,93.750,-612.305,21.484,17.090,32.715,0
1583424012.097,103.516,-757.812,17.090,36.621,43.945,0
1583424012.101,114.258,-821.289,29.297,38.086,77.637,0
1583424012.104,103.027,-693.848,37.109,17.578,75.684,0
1583424012.108,46.387,-653.809,32.715,32.227,19.531,0
1583424012.112,60.547,-639.648,32.715,41.016,-17.578,0
1583424012.116,4.883,-833.496,3.418,36.621,-48.828,0
1583424012.120,-44.434,-893.066,9.277,29.785,-27.832,0
1583424012.097,-2.930,-666.016,40.527,26.855,-12.695,0
1583424012.101,4.395,-607.422,32.715,34.668,-49.805,0
1583424012.105,-3.418,-644.043,29.297,35.156,-8.789,0
1583424012.109,-58.105,-755.371,30.273,16.113,44.434,0
1583424012.113,-74.219,-708.008,32.715,8.789,56.152,0
1583424012.117,-68.848,-719.238,26.367,11.719,32.715,0
1583424012.121,-61.523,-810.547,26.855,24.902,30.762,0
1583424012.124,-72.266,-707.031,36.133,27.832,63.477,0
1583424012.128,-116.699,-789.062,29.785,11.230,17.578,0
1583424012.132,-119.629,-801.758,31.250,11.719,19.531,0
1583424012.136,-114.258,-612.793,41.504,15.625,43.945,0
1583424012.140,-153.809,-663.086,29.785,18.066,2.441,0
1583424012.177,-178.223,-646.484,33.203,14.648,26.855,0
1583424012.181,-275.391,-781.250,19.531,20.508,54.688,0
1583424012.185,-299.805,-948.730,16.113,35.645,58.105,0
1583424012.189,-202.637,-752.441,42.480,38.574,70.312,0
1583424012.193,-247.070,-651.855,31.250,23.926,80.566,0
1583424012.197,-319.824,-837.891,19.043,19.531,73.242,0
1583424012.201,-319.336,-979.004,14.160,41.992,12.695,0
1583424012.204,-328.125,-965.332,24.414,37.109,28.320,0
1583424012.208,-294.434,-894.043,49.316,20.020,35.156,0
1583424012.212,-321.777,-882.324,44.922,16.113,-24.414,0
1583424012.216,-319.336,-861.328,43.457,33.203,-15.625,0
1583424012.220,-283.203,-860.840,36.133,31.250,49.316,0
1583424012.199,-309.570,-908.691,28.320,15.137,74.707,0
1583424012.203,-327.148,-823.730,38.086,24.902,51.758,0
1583424012.207,-332.031,-827.148,35.156,19.531,8.789,0
1583424012.211,-305.664,-741.211,38.086,19.531,41.992,0
1583424012.215,-295.410,-704.102,36.621,27.832,62.012,0
1583424012.219,-334.961,-862.305,33.203,23.438,32.715,0
1583424012.223,-346.191,-846.191,39.551,15.137,89.844,0
1583424012.226,-293.945,-732.422,44.434,22.949,68.848,0
1583424012.230,-268.066,-717.285,41.504,20.996,-25.391,0
1583424012.234,-297.852,-730.469,35.156,8.789,-2.930,0
1583424012.238,-328.613,-676.270,37.598,13.672,72.754,0
1583424012.242,-297.363,-580.566,46.387,35.156,32.227,0
1583424012.237,-253.418,-494.141,49.805,42.969,-0.488,0
1583424012.241,-240.234,-465.820,37.598,25.879,14.648,3
1583424012.245,-274.414,-408.203,30.762,9.277,41.016,0
1583424012.249,-324.707,-579.590,27.344,25.879,70.312,0
1583424012.253,-261.719,-559.570,37.109,49.805,62.500,0
1583424012.257,-230.957,-436.035,36.133,40.039,83.496,0
1583424012.261,-264.648,-567.871,29.785,16.113,51.758,0
1583424012.264,-231.445,-473.633,38.574,24.902,44.922,0
1583424012.268,-205.078,-597.168,19.531,33.203,53.711,0
1583424012.272,-208.984,-829.590,10.742,33.691,84.961,0
1583424012.276,-152.832,-478.027,41.016,31.250,63.965,0
1583424012.280,-159.668,-253.906,41.992,21.973,26.367,0
1583424012.298,-136.719,-210.449,36.621,24.902,26.855,0
1583424012.302,-119.629,-195.312,36.133,37.598,40.039,0
1583424012.306,-163.086,-234.863,35.156,33.691,39.551,0
1583424012.310,-195.801,-188.965,37.109,10.742,21.484,0
1583424012.314,-188.965,-204.102,28.809,14.648,43.457,0
1583424012.318,-188.477,-277.344,23.926,34.180,44.922,0
1583424012.322,-255.859,-564.453,12.207,44.922,0.000,0
1583424012.325,-305.664,-769.043,14.160,20.020,-22.461,0
1583424012.329,-253.418,-384.277,47.852,12.207,32.227,0
1583424012.333,-243.164,-202.637,41.016,32.715,9.766,0
1583424012.337,-271.973,-240.723,34.668,36.133,-17.090,0
1583424012.341,-322.266,-274.414,28.809,24.902,55.664,0
1583424012.338,-325.195,-358.887,24.902,14.648,27.344,0
1583424012.342,-268.066,-212.891,34.668,11.719,-0.488,0
1583424012.346,-243.652,-254.395,24.414,26.367,39.062,0
1583424012.350,-216.309,-256.348,30.273,22.461,23.926,0
1583424012.354,-218.750,-280.273,28.320,9.277,10.254,0
1583424012.358,-185.059,-438.477,18.555,28.809,16.113,0
1583424012.362,-94.727,-405.273,27.832,23.438,3.906,0
1583424012.365,-29.297,-211.914,39.062,5.859,35.156,0
1583424012.369,-8.789,-100.098,37.598,12.207,-1.953,0
1583424012.373,47.363,-154.785,35.156,28.320,0.488,0
1583424012.377,125.000,-342.773,33.203,31.250,18.066,0
1583424012.381,196.289,-248.047,48.340,14.648,17.090,0
1583424012.377,215.332,-105.957,45.410,7.324,50.781,0
1583424012.381,240.723,-172.363,35.156,23.438,-28.809,0
1583424012.385,313.965,-165.039,31.738,24.414,-28.320,0
1583424012.389,358.887,-313.477,21.484,22.949,30.762,0
1583424012.393,396.484,-313.477,29.297,8.301,-25.879,0
1583424012.397,420.410,-266.113,33.203,11.719,-20.996,0
1583424012.401,479.492,-331.055,36.133,36.621,31.250,0
1583424012.404,533.691,-251.465,46.875,28.320,27.832,0
1583424012.408,477.539,-522.949,31.250,18.066,-0.977,0
1583424012.412,485.840,-595.215,38.086,-0.488,31.738,0
1583424012.416,599.609,-138.184,62.012,20.508,72.754,0
1583424012.420,644.043,-54.688,57.129,34.180,18.066,0
1583424012.437,626.953,-62.012,59.082,13.184,26.855,0
1583424012.441,560.547,-209.473,57.129,29.297,38.574,0
1583424012.445,571.289,-241.699,63.965,19.043,46.875,0
1583424012.449,609.863,-130.371,62.500,15.625,29.785,0
1583424012.453,595.215,-193.848,51.270,33.203,-13.184,0
1583424012.457,529.297,-336.426,41.504,28.809,-5.371,0
1583424012.461,458.496,-586.426,31.738,0.000,60.059,0
1583424012.464,475.586,-669.434,42.969,-5.859,107.422,0
1583424012.468,547.852,-421.875,61.523,8.301,79.590,0
1583424012.472,538.574,-193.359,62.988,11.719,94.238,0
1583424012.476,452.637,-88.379,62.500,19.531,104.492,0
1583424012.480,395.996,-295.898,44.922,28.809,27.832,0
1583424012.477,413.574,-332.520,44.434,21.973,40.039,0
1583424012.481,432.129,-180.176,51.270,11.719,28.320,0
1583424012.485,388.184,-196.777,47.363,29.785,20.020,0
1583424012.489,377.930,-166.504,50.781,51.270,26.855,0
1583424012.493,376.465,-246.094,49.316,35.645,50.781,0
1583424012.497,317.383,-400.391,38.574,0.977,79.590,0
1583424012.501,264.160,-456.543,38.086,26.855,27.832,0
1583424012.504,246.582,-398.926,51.758,49.316,25.879,0
1583424012.508,270.020,-196.777,63.477,31.250,34.180,0
1583424012.512,245.605,-260.254,41.992,32.227,12.207,0
1583424012.516,147.461,-675.293,27.344,28.809,19.531,0
1583424012.520,159.668,-555.176,61.035,37.598,52.734,0
1583424012.517,230.469,-210.938,70.312,48.340,58.594,0
1583424012.521,235.840,-152.832,61.523,28.320,53.711,0
1583424012.525,168.945,-232.910,51.758,12.695,79.102,0
1583424012.529,95.215,-378.906,48.828,31.738,93.750,0
1583424012.533,92.773,-384.277,52.734,41.016,78.613,0
1583424012.537,93.750,-485.840,42.480,38.574,56.641,0
1583424012.541,62.988,-614.258,39.551,20.996,41.504,0
1583424012.544,17.090,-537.598,45.410,15.625,75.684,0
1583424012.548,-17.090,-774.414,23.926,40.527,83.496,0
1583424012.552,36.621,-838.867,37.598,33.691,43.457,0
1583424012.556,115.723,-454.102,65.430,27.832,83.984,0
1583424012.560,80.078,-453.125,43.945,27.832,57.617,0
1583424012.577,78.613,-505.859,38.574,40.039,22.949,0
1583424012.581,79.590,-727.051,32.715,48.828,10.254,0
1583424012.585,71.777,-854.980,41.992,51.758,-38.086,0
1583424012.589,66.406,-711.914,57.617,52.246,-49.805,0
1583424012.593,60.547,-697.266,52.246,46.387,-36.621,0
1583424012.597,83.008,-796.387,40.527,47.852,46.875,0
1583424012.601,73.242,-977.539,32.227,45.898,20.508,0
1583424012.604,99.121,-891.113,46.875,26.855,3.418,0
1583424012.608,121.094,-752.930,47.852,21.973,27.832,0
1583424012.612,124.512,-790.527,41.504,35.156,-14.160,0
1583424012.616,161.133,-757.324,47.852,38.574,0.488,0
1583424012.620,141.113,-862.305,35.645,33.691,49.805,0
1583424012.617,97.656,-918.945,34.668,29.785,77.637,0
1583424012.621,122.070,-845.703,40.039,38.086,0.488,0
1583424012.625,152.832,-808.105,46.387,48.340,20.508,0
1583424012.629,163.574,-787.598,49.316,46.387,56.152,0
1583424012.633,107.910,-904.785,28.809,39.062,41.992,0
1583424012.637,77.637,-973.145,21.484,45.410,24.902,0
1583424012.641,124.512,-962.891,29.297,48.340,21.973,0
1583424012.644,147.949,-976.562,33.203,24.902,33.203,0
1583424012.648,172.852,-925.293,42.480,31.738,4.395,0
1583424012.652,129.395,-907.227,28.320,56.152,41.992,0
1583424012.656,125.000,-973.633,11.719,63.965,-0.977,0
1583424012.660,221.680,-966.797,41.504,69.336,-58.594,0
1583424012.657,219.238,-940.430,45.898,45.898,-5.859,0
1583424012.661,184.082,-926.270,34.180,25.879,29.297,0
1583424012.665,165.527,-942.871,20.020,39.551,15.625,0
1583424012.669,182.617,-967.285,20.020,49.316,17.090,0
1583424012.673,201.172,-953.125,38.086,41.016,50.781,0
1583424012.677,132.324,-968.750,20.996,41.016,8.301,0
1583424012.681,148.438,-960.938,28.809,40.527,39.551,0
1583424012.684,190.430,-936.035,33.203,55.664,104.980,0
1583424012.688,144.043,-968.262,19.531,49.316,63.477,0
1583424012.692,135.254,-952.637,36.621,26.855,40.527,0
1583424012.696,141.602,-911.133,33.203,42.969,11.230,0
1583424012.700,171.387,-822.266,37.109,59.570,55.664,0
1583424012.717,164.062,-835.449,31.250,41.992,69.824,0
1583424012.721,88.867,-924.805,22.949,28.809,38.574,0
1583424012.725,50.293,-844.238,35.156,35.645,81.543,0
1583424012.729,95.215,-755.859,33.203,28.809,103.027,0
1583424012.733,145.020,-786.621,24.902,25.879,65.430,0
1583424012.737,104.980,-931.152,14.160,23.926,-1.465,0
1583424012.741,12.695,-979.980,10.254,26.855,45.410,0
1583424012.744,59.082,-939.941,34.180,45.898,43.457,0
1583424012.748,178.223,-776.367,51.758,51.758,46.875,0
1583424012.752,167.969,-755.371,30.273,20.996,17.578,0
1583424012.756,111.816,-926.270,22.949,1.465,32.227,0
1583424012.760,116.211,-914.551,31.738,23.438,127.441,0
1583424012.757,167.969,-813.965,31.738,32.227,32.715,0
1583424012.761,171.875,-792.969,30.273,42.969,-33.691,0
1583424012.765,134.277,-771.973,28.809,32.227,11.230,0
1583424012.769,109.375,-733.398,29.785,17.090,35.156,0
1583424012.773,91.797,-864.746,19.043,28.320,-11.230,0
1583424012.777,88.867,-976.074,17.090,39.062,-24.414,0
1583424012.781,80.078,-974.609,27.832,27.832,0.000,0
1583424012.784,67.383,-904.297,36.133,25.879,32.715,0
1583424012.788,114.746,-747.070,39.062,32.715,47.852,0
1583424012.792,81.055,-850.098,9.766,37.598,51.270,0
1583424012.796,32.715,-961.914,8.301,17.578,67.383,0
1583424012.800,50.293,-844.727,41.504,7.812,63.965,0
1583424012.818,59.082,-790.039,41.504,24.414,63.477,0
1583424012.822,68.359,-878.418,36.621,33.691,34.668,0
1583424012.826,54.688,-970.215,32.715,23.438,41.992,0
1583424012.830,58.105,-889.648,31.250,-4.883,106.934,0
1583424012.834,67.871,-838.379,26.855,7.324,29.297,0
1583424012.838,98.145,-942.871,25.391,19.043,31.250,0
1583424012.842,136.230,-935.547,38.574,16.602,41.504,0
1583424012.845,81.055,-927.246,29.297,13.184,-26.855,0
1583424012.849,49.805,-920.410,30.762,19.531,23.926,0
1583424012.853,128.906,-747.559,55.176,24.414,62.500,0
1583424012.857,152.344,-709.961,43.457,10.254,41.992,0
1583424012.861,134.277,-726.562,38.574,8.301,12.695,0
1583424012.858,68.359,-788.086,30.762,20.020,49.805,0
1583424012.862,36.133,-934.082,27.344,30.762,41.504,0
1583424012.866,102.539,-820.801,42.480,28.320,5.371,0
1583424012.870,89.355,-698.242,35.645,21.484,50.293,0
1583424012.874,25.391,-802.734,27.832,24.902,53.711,0
1583424012.878,-4.883,-934.570,23.926,31.738,19.531,0
1583424012.882,12.207,-954.590,27.832,50.781,25.391,0
1583424012.885,74.707,-770.996,39.551,47.852,58.105,0
1583424012.889,24.414,-628.418,30.273,18.066,73.730,0
1583424012.893,-9.766,-666.992,27.832,12.695,27.344,0
1583424012.897,33.691,-649.414,28.809,23.926,24.414,0
1583424012.901,-40.039,-864.258,7.324,26.855,37.598,0
1583424012.897,-63.477,-902.344,25.879,16.113,53.223,0
1583424012.901,-12.695,-705.078,45.898,21.973,27.832,0
1583424012.905,19.043,-640.625,35.156,30.273,21.484,0
1583424012.909,38.574,-619.141,33.203,31.250,25.391,0
1583424012.913,-13.184,-752.441,23.926,14.648,-5.371,0
1583424012.917,-73.242,-867.676,21.484,11.719,4.883,0
1583424012.921,-83.496,-887.695,29.297,33.691,12.207,0
1583424012.924,-61.523,-837.402,38.574,34.668,44.922,0
1583424012.928,-45.898,-665.039,47.852,16.113,55.664,0
1583424012.932,-155.762,-774.902,19.043,2.441,47.363,0
1583424012.936,-189.453,-893.555,14.648,18.555,22.949,0
1583424012.940,-82.520,-659.180,44.922,30.762,8.301,0
1583424012.937,-82.031,-560.547,39.551,24.414,20.996,0
1583424012.941,-133.789,-492.676,36.133,12.695,63.477,0
1583424012.945,-173.340,-564.453,26.855,6.348,50.781,0
1583424012.949,-129.395,-562.988,25.879,20.020,42.969,0
1583424012.953,-111.328,-456.543,30.762,19.531,70.801,0
1583424012.957,-147.949,-539.551,27.344,20.020,69.824,0
1583424012.961,-151.855,-597.168,33.691,21.484,15.625,0
1583424012.964,-136.719,-698.242,27.344,40.527,-13.184,0
1583424012.968,-111.328,-813.965,28.320,41.992,18.555,0
1583424012.972,-71.289,-568.848,46.387,0.488,16.602,0
1583424012.976,-126.465,-467.285,35.156,5.859,24.414,0
1583424012.980,-134.766,-305.176,41.992,25.879,60.059,0
1583424012.997,-133.789,-283.691,35.156,21.484,38.086,0
1583424013.001,-146.973,-296.387,34.180,16.113,35.645,0
1583424013.005,-145.996,-172.363,38.574,9.766,32.227,0
1583424013.009,-150.879,-187.988,31.738,16.113,5.371,0
1583424013.013,-141.113,-147.461,31.738,27.832,10.742,0
1583424013.017,-182.129,-350.098,15.137,27.832,5.371,0
1583424013.021,-260.254,-705.566,4.395,25.391,11.230,0
1583424013.024,-228.027,-452.148,30.762,28.809,32.715,0
1583424013.028,-181.641,-137.207,38.086,26.367,26.367,0
1583424013.032,-163.574,-66.895,35.645,26.855,48.340,0
1583424013.036,-201.660,-149.902,23.438,21.484,41.504,0
1583424013.040,-231.934,-246.582,14.160,6.836,28.809,0
1583424013.038,-178.711,-228.027,21.973,21.484,2.441,0
1583424013.042,-135.254,-197.754,32.715,39.551,51.758,0
1583424013.046,-95.703,-35.156,43.457,26.855,86.914,0
1583424013.050,-119.629,-78.125,29.785,28.320,26.367,0
1583424013.054,-108.398,-173.828,24.414,38.574,19.043,0
1583424013.058,-55.176,-185.059,27.832,30.762,10.254,0
1583424013.062,-37.109,-208.496,28.809,20.996,18.555,0
1583424013.065,-19.043,-137.695,41.016,10.742,8.301,0
1583424013.069,27.832,53.711,44.922,12.695,22.949,0
1583424013.073,53.711,-74.219,33.203,26.367,46.875,0
1583424013.077,107.910,-77.148,43.457,33.203,26.367,0
1583424013.081,137.207,128.906,51.758,29.297,36.621,0
1583424013.077,133.789,78.125,48.828,20.508,-11.719,0
1583424013.081,183.594,129.395,50.781,28.320,-2.441,0
1583424013.085,178.223,-13.184,39.551,24.902,73.730,0
1583424013.089,177.246,-51.758,44.434,10.742,90.820,0
1583424013.093,171.875,48.828,47.852,18.555,75.195,0
1583424013.097,176.270,-133.789,41.504,33.203,-16.602,0
1583424013.101,271.484,9.277,55.176,38.574,-9.766,0
1583424013.104,289.551,9.277,46.875,25.879,41.016,0
1583424013.108,263.672,-70.801,45.898,19.043,-2.441,0
1583424013.112,342.773,192.871,60.547,34.180,8.789,0
1583424013.116,405.273,229.980,52.734,22.949,41.992,0
1583424013.120,417.480,261.719,52.246,-0.977,40.527,0
1583424013.157,323.730,21.484,32.715,5.371,93.750,0
1583424013.161,308.594,-254.395,32.715,18.066,92.773,0
1583424013.165,432.617,69.824,63.477,32.715,86.914,0
1583424013.169,470.215,141.602,48.828,28.809,38.574,0
1583424013.173,449.707,129.883,49.805,30.762,24.902,0
1583424013.177,348.633,-62.988,38.086,37.109,103.027,0
1583424013.181,323.242,-458.008,23.926,22.949,57.129,0
1583424013.184,417.969,-161.133,57.617,19.043,68.359,0
1583424013.188,414.062,115.234,67.871,21.973,95.215,0
1583424013.192,357.422,24.902,55.664,18.555,38.574,0
1583424013.196,318.848,-178.711,44.922,24.414,37.109,0
1583424013.200,330.566,-188.477,52.246,30.762,72.266,0
1583424013.177,301.270,-112.793,54.688,16.602,-10.742,0
1583424013.181,201.660,-186.035,57.617,0.000,-51.270,0
1583424013.185,202.148,-133.301,61.523,15.625,12.207,0
1583424013.189,198.242,-259.766,45.410,29.297,-23.438,0
1583424013.193,168.457,-372.559,49.316,18.066,-22.949,0
