timestamps,TP9,AF7,AF8,TP10,Right AUX,Marker0
1579270909.894,42.480,37.109,44.922,40.527,-3.906,0
1579270909.898,41.504,36.133,46.875,44.434,-27.832,0
1579270909.902,38.086,33.203,43.457,45.898,-19.531,0
1579270909.906,42.480,31.738,40.039,47.852,16.113,0
1579270909.910,43.945,34.668,43.457,48.828,9.766,0
1579270909.914,42.969,35.156,44.922,52.734,-10.254,0
1579270909.918,45.410,35.156,41.504,60.547,-18.066,0
1579270909.921,44.922,33.691,39.062,55.176,-7.812,0
1579270909.925,42.480,29.785,36.133,46.875,-10.254,0
1579270909.929,45.410,33.203,39.062,49.316,-16.113,0
1579270909.933,46.875,34.180,41.992,49.316,-7.324,0
1579270909.937,41.992,32.227,41.992,49.316,19.043,0
1579270909.954,43.457,36.621,48.340,50.293,-12.695,0
1579270909.958,42.480,38.086,46.387,50.781,-39.062,0
1579270909.962,42.480,38.086,41.992,53.223,-12.207,0
1579270909.966,39.062,35.156,41.504,51.758,1.953,0
1579270909.970,39.551,35.156,41.504,48.828,2.441,0
1579270909.974,42.969,40.039,43.945,51.270,-25.879,0
1579270909.978,42.969,39.551,43.457,52.246,-61.523,0
1579270909.981,43.945,38.086,43.945,52.734,-19.043,0
1579270909.985,43.457,36.133,45.410,55.664,20.020,0
1579270909.989,45.898,34.668,43.945,49.316,6.836,0
1579270909.993,45.410,37.598,44.922,45.410,-22.461,0
1579270909.997,45.410,36.133,44.922,47.363,-5.859,0
1579270909.994,47.852,36.621,44.922,49.805,23.926,0
1579270909.998,44.922,39.062,43.945,49.316,-10.254,0
1579270910.002,45.898,40.039,42.969,49.805,-34.180,0
1579270910.006,45.410,39.062,47.852,49.805,-40.527,0
1579270910.010,43.945,38.086,43.945,46.387,-15.137,0
1579270910.014,47.852,40.527,42.480,43.945,10.254,0
1579270910.018,49.316,40.527,42.969,38.086,-20.996,0
1579270910.021,49.316,38.086,39.062,42.969,-11.230,0
1579270910.025,52.246,40.527,41.992,49.805,4.883,0
1579270910.029,50.781,41.504,44.922,43.945,-12.207,0
1579270910.033,48.828,38.574,43.457,43.457,-20.508,0
1579270910.037,48.828,38.574,43.457,48.828,-9.766,0
1579270910.034,46.387,36.133,42.480,47.852,-1.953,0
1579270910.038,49.316,37.598,41.992,51.270,4.883,0
1579270910.042,49.316,38.086,41.992,48.340,8.301,0
1579270910.046,45.898,33.691,38.574,46.875,16.113,0
1579270910.050,45.410,35.645,38.574,53.223,14.160,0
1579270910.054,44.434,37.598,38.086,50.293,5.371,0
1579270910.058,44.922,37.598,38.574,47.852,15.625,0
1579270910.061,44.922,37.109,42.480,44.434,7.812,0
1579270910.065,46.875,35.645,42.480,39.551,41.016,0
1579270910.069,46.387,36.133,41.504,43.457,54.199,0
1579270910.073,42.480,35.645,42.969,44.434,38.086,0
1579270910.077,45.898,36.621,45.410,45.898,22.949,0
1579270910.094,43.457,37.598,45.898,48.828,-0.977,0
1579270910.098,41.992,35.645,44.434,50.293,36.621,0
1579270910.102,46.875,35.645,45.410,48.828,34.180,0
1579270910.106,41.504,34.180,45.898,41.992,0.488,0
1579270910.110,40.527,31.250,44.434,40.527,30.273,0
1579270910.114,45.898,32.227,43.457,44.922,85.449,0
1579270910.118,47.363,31.738,41.504,44.434,101.562,0
1579270910.121,47.363,30.762,39.062,45.898,97.168,0
1579270910.125,48.828,30.273,40.039,44.922,92.285,0
1579270910.129,51.758,33.691,43.457,48.340,111.328,0
1579270910.133,56.152,38.086,43.945,50.293,91.797,0
1579270910.137,54.199,36.621,41.504,40.527,54.688,0
1579270910.134,48.828,32.715,41.992,41.992,67.383,0
1579270910.138,49.316,31.250,44.434,47.363,83.008,0
1579270910.142,43.945,30.273,41.504,44.922,93.750,0
1579270910.146,39.062,28.809,40.527,39.551,85.938,0
1579270910.150,34.668,27.832,41.504,36.621,73.730,0
1579270910.154,34.180,27.832,43.457,40.527,64.453,0
1579270910.158,35.645,26.855,41.992,40.527,83.496,0
1579270910.161,35.645,25.879,37.598,36.621,114.258,0
1579270910.165,36.621,27.832,42.969,39.551,96.680,0
1579270910.169,32.715,26.855,44.922,46.387,70.801,0
1579270910.173,30.762,24.414,40.039,52.734,87.402,0
1579270910.177,29.785,26.367,41.016,53.711,104.492,0
1579270910.194,27.344,27.832,43.457,52.734,125.977,0
1579270910.198,28.320,29.297,42.969,57.617,130.371,0
1579270910.202,28.320,33.203,41.504,62.012,95.215,0
1579270910.206,27.832,33.691,41.992,59.082,83.496,0
1579270910.210,32.227,32.227,43.945,59.082,61.035,0
1579270910.214,30.273,30.762,41.016,59.082,1.465,0
1579270910.218,28.320,31.738,42.480,60.059,-19.531,0
1579270910.221,31.250,33.691,45.410,58.105,-23.926,0
1579270910.225,29.785,31.250,41.992,51.270,-42.480,0
1579270910.229,35.156,30.762,43.945,51.270,-52.246,0
1579270910.233,40.039,28.809,43.945,55.176,-45.898,0
1579270910.237,41.504,29.785,43.457,60.547,-55.176,0
1579270910.234,42.480,32.227,46.387,65.918,-58.105,0
1579270910.238,42.480,30.273,45.410,63.477,-49.316,0
1579270910.242,44.922,28.809,43.457,61.523,-42.969,0
1579270910.246,49.316,30.273,41.992,62.988,-27.832,0
1579270910.250,49.805,33.691,42.480,57.617,-51.758,0
1579270910.254,48.828,31.738,43.945,55.176,-79.102,0
1579270910.258,45.410,27.344,45.410,54.688,-104.980,0
1579270910.261,36.133,26.367,41.992,53.223,-121.582,0
1579270910.265,29.297,25.391,39.062,54.688,-104.004,0
1579270910.269,31.738,26.367,41.016,56.641,-92.773,0
1579270910.273,31.738,26.855,42.480,49.316,-111.328,0
1579270910.277,32.715,26.855,38.086,42.969,-101.074,0
1579270910.274,36.133,27.344,35.156,45.898,-83.984,0
1579270910.278,34.668,25.391,36.621,45.410,-68.359,0
1579270910.282,34.180,26.367,38.574,48.340,-65.430,0
1579270910.286,35.156,29.297,40.039,52.246,-67.383,0
1579270910.290,33.691,28.809,39.551,55.664,-38.086,0
1579270910.294,30.762,26.855,40.527,59.570,-39.551,0
1579270910.298,28.320,25.879,40.039,55.664,-69.824,0
1579270910.301,31.250,28.809,40.039,58.594,-62.012,0
1579270910.305,35.645,31.250,46.875,62.012,-72.754,0
1579270910.309,36.621,27.344,46.387,56.641,-120.117,0
1579270910.313,32.715,21.484,38.086,51.758,-109.863,0
1579270910.317,32.715,22.461,35.645,50.781,-90.332,0
1579270910.334,32.715,23.438,38.086,53.223,-80.078,0
1579270910.338,32.715,23.438,42.480,51.758,-102.539,0
1579270910.342,35.156,24.414,41.992,52.246,-132.812,0
1579270910.346,36.133,27.832,40.527,58.105,-134.277,0
1579270910.350,36.621,29.785,43.945,55.664,-136.230,0
1579270910.354,42.480,29.785,42.969,49.316,-133.789,0
1579270910.358,45.410,33.203,43.457,52.246,-136.719,0
1579270910.361,44.922,33.203,44.434,46.875,-143.555,0
1579270910.365,48.340,31.738,41.016,44.434,-144.531,0
1579270910.369,52.246,33.691,41.504,52.734,-118.652,0
1579270910.373,48.340,34.180,41.504,51.270,-91.797,0
1579270910.377,49.805,38.086,43.457,50.293,-114.258,0
1579270910.374,53.223,39.062,41.016,53.223,-131.348,0
1579270910.378,48.340,36.133,40.039,50.781,-88.867,0
1579270910.382,48.340,37.598,42.480,51.270,-64.453,0
1579270910.386,47.852,38.574,41.016,52.246,-61.035,0
1579270910.390,43.457,42.969,44.922,50.781,-52.246,0
1579270910.394,41.992,43.457,42.969,53.711,-40.039,0
1579270910.398,41.992,38.086,42.969,56.641,-11.719,0
1579270910.401,42.480,39.062,43.945,54.688,2.441,0
1579270910.405,38.574,39.062,39.551,48.828,23.926,0
1579270910.409,38.574,39.551,43.945,55.664,2.930,0
1579270910.413,39.062,40.527,46.387,57.617,-35.156,0
1579270910.417,37.109,38.086,43.457,46.875,-13.672,0
1579270910.414,36.621,37.109,44.434,47.363,-18.066,0
1579270910.418,32.715,37.598,44.922,48.828,-46.875,0
1579270910.422,35.645,38.086,44.922,46.875,-34.668,0
1579270910.426,36.133,37.109,45.898,42.480,-48.340,0
1579270910.430,35.645,33.203,43.945,38.574,-54.688,0
1579270910.434,40.527,34.180,42.480,38.574,-70.801,0
1579270910.438,37.598,33.203,41.016,34.180,-92.773,0
1579270910.441,35.645,32.227,42.480,37.109,-69.336,0
1579270910.445,40.039,35.645,43.945,35.645,-96.191,0
1579270910.449,41.992,33.691,39.551,29.785,-113.770,0
1579270910.453,35.156,31.250,39.062,38.574,-81.543,0
1579270910.457,32.227,34.180,41.016,40.039,-94.238,0
1579270910.474,39.062,38.574,41.016,42.969,-97.656,0
1579270910.478,48.340,40.527,42.480,52.734,-117.188,0
1579270910.482,44.434,36.621,42.969,53.223,-94.238,0
1579270910.486,41.016,34.668,39.551,55.176,-74.707,0
1579270910.490,42.969,34.180,35.645,54.199,-93.750,0
1579270910.494,44.922,33.203,37.598,57.617,-95.703,0
1579270910.498,48.340,35.156,44.922,57.617,-117.188,0
1579270910.501,42.480,34.180,44.922,48.340,-113.770,0
1579270910.505,36.133,31.250,41.016,49.316,-53.711,0
1579270910.509,36.621,30.762,41.992,48.828,-20.996,0
1579270910.513,34.668,31.738,39.551,41.504,-34.180,0
1579270910.517,32.227,34.180,40.527,41.504,-9.766,0
1579270910.514,34.668,34.668,41.992,42.969,16.113,0
1579270910.518,36.621,35.156,42.969,39.551,18.555,0
1579270910.522,39.062,34.180,43.945,33.203,9.766,0
1579270910.526,34.668,32.715,42.969,30.273,-7.324,0
1579270910.530,33.203,34.180,41.016,38.574,13.184,0
1579270910.534,39.062,33.203,37.109,37.598,39.062,0
1579270910.538,40.039,32.715,35.645,31.738,36.621,0
1579270910.541,36.133,33.691,34.668,32.715,23.926,0
1579270910.545,31.738,31.738,32.715,31.738,46.875,0
1579270910.549,35.156,35.645,37.109,38.086,41.992,0
1579270910.553,39.551,40.039,41.992,35.645,14.160,0
1579270910.557,42.969,36.133,37.598,35.156,23.926,0
1579270910.554,44.434,36.133,32.715,47.363,43.945,0
1579270910.558,41.992,37.109,32.227,48.828,54.199,0
1579270910.562,36.133,38.086,35.645,46.875,-3.418,0
1579270910.566,31.738,37.598,36.621,45.410,3.906,0
1579270910.570,34.180,37.598,33.203,51.758,57.617,0
1579270910.574,29.785,40.527,34.668,51.270,17.578,0
1579270910.578,30.273,40.039,37.598,47.852,-11.230,0
1579270910.581,35.156,40.039,40.039,47.852,-20.508,0
1579270910.585,30.273,40.527,41.016,34.180,-45.410,0
1579270910.589,25.391,36.133,36.621,33.203,-31.250,0
1579270910.593,24.902,35.645,36.133,39.062,-10.742,0
1579270910.597,23.926,38.086,36.621,35.156,-76.172,0
1579270910.614,22.949,39.062,37.598,37.109,-113.281,0
1579270910.618,20.996,41.016,39.062,34.668,-97.656,0
1579270910.622,19.043,37.109,41.016,24.902,-104.980,0
1579270910.626,16.113,33.203,42.480,21.484,-155.762,0
1579270910.630,10.254,34.180,37.109,24.414,-172.852,0
1579270910.634,12.695,34.668,36.621,30.273,-148.926,0
1579270910.638,13.184,35.156,39.062,29.785,-171.387,0
1579270910.641,16.113,34.180,35.156,24.902,-178.223,0
1579270910.645,15.137,32.227,35.156,18.555,-184.570,0
1579270910.649,13.184,32.227,35.156,22.461,-210.938,0
1579270910.653,14.648,32.715,30.273,25.879,-203.613,0
1579270910.657,6.348,30.762,26.855,22.461,-208.984,0
1579270910.654,5.371,26.367,25.391,22.949,-230.469,0
1579270910.658,11.230,23.438,28.320,23.438,-246.094,0
1579270910.662,10.254,22.461,28.320,24.902,-227.051,0
1579270910.666,4.883,23.438,23.438,25.391,-229.004,0
1579270910.670,9.766,27.832,25.391,21.484,-301.270,0
1579270910.674,7.812,29.297,25.879,21.973,-327.637,0
1579270910.678,-4.395,26.855,22.949,22.949,-309.082,0
1579270910.681,0.977,27.832,20.020,23.926,-335.938,0
1579270910.685,0.488,23.926,13.672,10.254,-372.559,0
1579270910.689,-2.930,23.438,15.137,5.371,-391.113,0
1579270910.693,2.441,24.902,14.648,12.695,-416.504,0
1579270910.697,-4.883,19.531,12.695,5.859,-430.664,0
1579270910.694,-10.254,18.555,14.648,7.324,-438.477,0
1579270910.698,-8.789,17.578,16.602,2.930,-412.109,0
1579270910.702,-4.395,18.066,19.043,5.371,-444.824,0
1579270910.706,-4.883,20.020,15.625,13.672,-455.078,0
1579270910.710,-7.324,20.020,17.090,14.160,-425.293,0
1579270910.714,-7.324,21.973,20.996,11.719,-446.777,0
1579270910.718,-11.230,18.555,17.578,10.254,-466.797,0
1579270910.721,-10.742,15.137,19.531,10.742,-480.469,0
1579270910.725,-9.766,18.066,21.973,10.254,-497.070,0
1579270910.729,-14.160,17.090,16.602,9.766,-494.141,0
1579270910.733,-12.695,16.602,17.578,6.836,-476.562,0
1579270910.737,-7.324,17.090,19.043,11.719,-462.891,0
1579270910.754,-6.836,20.508,22.461,15.137,-477.051,0
1579270910.758,-3.418,21.973,22.949,16.113,-489.746,0
1579270910.762,1.953,20.996,21.973,25.879,-489.258,0
1579270910.766,-1.953,18.066,20.996,26.855,-462.891,0
1579270910.770,-0.977,19.531,20.020,24.414,-455.566,0
1579270910.774,3.418,23.926,20.508,33.691,-482.910,0
1579270910.778,-2.441,24.414,21.973,22.461,-481.445,0
1579270910.781,-0.488,21.484,18.555,16.113,-444.824,0
1579270910.785,6.348,20.020,17.578,26.367,-420.898,0
1579270910.789,3.418,20.508,18.555,23.438,-406.738,0
1579270910.793,2.930,20.020,17.578,19.531,-400.391,0
1579270910.797,5.859,20.508,15.137,18.555,-399.902,0
1579270910.794,5.371,20.996,18.555,16.113,-402.344,0
1579270910.798,4.395,21.973,20.996,15.625,-406.738,0
1579270910.802,4.395,25.391,13.184,20.508,-403.809,0
1579270910.806,6.348,21.973,18.066,16.602,-425.781,0
1579270910.810,1.465,19.043,20.508,12.695,-402.832,0
1579270910.814,-1.465,18.555,14.648,16.602,-397.461,0
1579270910.818,0.000,18.555,19.531,13.672,-414.551,0
1579270910.821,0.000,21.484,20.020,2.930,-414.062,0
1579270910.825,4.395,17.578,14.160,11.230,-405.762,0
1579270910.829,1.953,25.391,19.043,16.113,-402.832,0
1579270910.833,2.441,24.902,20.020,11.230,-426.270,0
1579270910.837,7.812,8.789,20.996,7.324,-424.805,0
1579270910.834,3.418,13.184,27.344,8.789,-399.902,0
1579270910.838,12.207,18.066,22.461,27.344,-409.180,0
1579270910.842,20.020,23.438,20.508,27.832,-434.082,0
1579270910.846,21.973,25.391,22.949,20.996,-491.699,0
1579270910.850,25.879,22.461,24.414,28.320,-541.504,0
1579270910.854,31.250,25.879,27.344,33.203,-571.289,0
1579270910.858,37.598,25.879,23.926,26.367,-594.238,0
1579270910.861,36.621,25.391,33.691,15.625,-611.816,0
1579270910.865,38.086,27.344,34.668,22.461,-648.926,0
1579270910.869,43.945,24.902,23.438,29.297,-598.633,0
1579270910.873,46.875,23.926,31.250,23.438,-565.430,0
1579270910.877,50.293,21.973,32.715,24.902,-570.801,0
1579270910.894,44.434,31.250,34.180,19.043,-538.574,0
1579270910.898,46.875,31.738,35.645,22.949,-518.555,0
1579270910.902,56.641,21.484,35.645,28.320,-510.742,0
1579270910.906,55.664,24.902,34.668,18.066,-527.832,0
1579270910.910,51.758,24.902,32.715,6.836,-537.598,0
1579270910.914,48.340,25.391,35.156,9.766,-530.273,0
1579270910.918,45.410,32.227,33.691,5.859,-540.039,0
1579270910.921,55.176,30.273,32.715,2.930,-530.273,0
1579270910.925,58.594,31.250,36.621,8.301,-536.621,0
1579270910.929,61.035,37.109,36.133,17.578,-581.543,0
1579270910.933,63.965,37.598,33.691,22.949,-565.918,0
1579270910.937,59.082,37.109,37.598,19.043,-544.922,0
1579270910.934,59.082,34.180,39.062,18.555,-567.871,0
1579270910.938,57.129,33.203,32.715,15.625,-578.613,0
1579270910.942,52.246,32.227,32.715,17.090,-570.312,0
1579270910.946,56.641,33.691,37.109,18.066,-531.738,0
1579270910.950,58.105,35.645,36.133,14.648,-521.973,0
1579270910.954,55.664,34.180,39.062,19.531,-524.414,0
1579270910.958,54.688,33.691,40.039,18.555,-467.773,0
1579270910.961,47.852,35.156,34.668,19.531,-419.434,0
1579270910.965,47.363,31.250,37.109,20.020,-377.441,0
1579270910.969,48.828,35.645,41.992,14.160,-357.422,0
1579270910.973,50.781,36.133,35.156,15.625,-363.770,0
1579270910.977,51.270,27.832,36.621,22.949,-291.504,0
1579270910.974,47.363,31.250,37.598,32.227,-251.465,0
1579270910.978,47.363,34.180,36.133,33.203,-256.348,0
1579270910.982,46.875,33.203,39.551,29.785,-235.352,0
1579270910.986,41.992,31.738,37.109,33.691,-187.988,0
1579270910.990,40.527,33.203,33.691,37.109,-138.184,0
1579270910.994,42.969,34.668,36.133,36.133,-142.090,0
1579270910.998,43.457,33.203,34.180,30.762,-159.180,0
1579270911.001,44.922,34.180,35.645,28.809,-145.508,0
1579270911.005,43.457,32.227,35.156,29.785,-119.141,0
1579270911.009,43.457,30.273,32.715,35.156,-90.820,0
1579270911.013,49.805,32.227,35.156,44.922,-75.195,0
1579270911.017,47.363,32.715,34.180,48.340,-41.016,0
1579270911.034,41.504,33.203,40.527,40.039,-42.480,0
1579270911.038,40.039,34.180,37.109,37.598,-49.805,0
1579270911.042,43.457,33.203,31.250,45.410,-9.766,0
1579270911.046,48.340,32.227,34.180,50.293,9.277,0
1579270911.050,50.293,30.273,38.086,43.457,66.895,0
1579270911.054,53.711,31.250,38.086,45.898,91.309,0
1579270911.058,55.664,31.250,34.668,41.992,87.891,0
1579270911.061,53.711,23.926,33.203,31.250,114.746,0
1579270911.065,58.594,22.461,37.109,43.945,129.883,0
1579270911.069,61.523,24.902,40.039,47.852,171.387,0
1579270911.073,61.035,28.320,42.480,42.480,206.543,0
1579270911.077,56.152,29.297,42.480,44.434,199.219,0
1579270911.074,52.734,28.809,40.527,50.293,226.074,0
1579270911.078,49.805,29.297,42.480,50.293,265.625,0
1579270911.082,40.527,26.367,40.039,43.945,299.805,0
1579270911.086,32.715,25.391,41.016,46.387,294.922,0
1579270911.090,29.785,27.344,44.434,41.504,290.527,0
1579270911.094,24.902,30.273,45.898,34.668,315.918,0
1579270911.098,28.320,32.227,44.434,38.574,317.871,0
1579270911.101,32.715,31.738,46.387,40.527,322.266,0
1579270911.105,31.738,35.156,50.781,43.945,318.359,0
1579270911.109,38.086,37.109,48.340,51.270,320.801,0
1579270911.113,41.016,35.156,44.434,50.293,352.539,0
1579270911.117,43.457,36.133,44.434,50.293,362.305,0
1579270911.114,42.969,35.156,45.898,55.176,345.215,0
1579270911.118,41.992,33.691,44.922,58.105,361.328,0
1579270911.122,47.852,37.598,46.387,54.688,387.695,0
1579270911.126,52.734,36.133,45.898,53.223,397.949,0
1579270911.130,54.688,35.645,46.387,57.129,395.020,0
1579270911.134,53.223,39.551,47.852,61.523,400.879,0
1579270911.138,53.223,37.598,44.434,67.383,433.594,0
1579270911.141,56.152,39.551,47.363,62.988,433.105,0
1579270911.145,53.711,42.969,47.363,52.246,391.113,0
1579270911.149,48.828,40.039,41.504,49.805,418.945,0
1579270911.153,49.316,39.551,44.434,57.617,453.125,0
1579270911.157,49.316,40.527,47.852,59.082,452.637,0
1579270911.174,48.340,41.016,50.293,55.176,435.547,0
1579270911.178,47.852,40.039,52.246,51.270,439.453,0
1579270911.182,52.734,41.016,51.758,52.246,472.168,0
1579270911.186,55.176,45.898,50.781,56.641,478.027,0
1579270911.190,53.223,46.387,53.711,53.223,476.074,0
1579270911.194,56.641,51.270,61.035,53.711,429.199,0
1579270911.198,54.199,52.246,58.594,54.688,397.461,0
1579270911.201,54.199,43.945,54.688,52.734,433.105,0
1579270911.205,55.176,43.457,57.617,52.734,456.543,0
1579270911.209,49.805,47.852,59.082,51.270,422.363,0
1579270911.213,53.223,52.734,61.035,53.711,379.883,0
1579270911.217,55.664,51.270,60.547,53.711,394.531,0
1579270911.214,56.152,48.828,61.035,54.688,410.156,0
1579270911.218,56.152,52.246,65.918,61.035,358.398,0
1579270911.222,54.199,50.781,64.453,65.430,329.102,0
1579270911.226,55.176,51.270,62.988,69.336,341.309,0
1579270911.230,57.129,53.223,62.500,69.824,326.172,0
1579270911.234,57.129,50.293,62.988,66.406,297.852,0
1579270911.238,57.129,49.316,65.918,67.383,282.715,0
1579270911.241,53.223,48.828,64.453,68.848,277.344,0
1579270911.245,59.570,50.781,62.500,73.242,286.133,0
1579270911.249,61.035,52.734,63.477,68.848,273.438,0
1579270911.253,54.199,51.270,62.012,65.430,247.559,0
1579270911.257,56.641,48.340,62.500,71.777,249.023,0
1579270911.254,58.594,48.340,63.965,70.801,226.562,0
1579270911.258,56.641,50.781,63.965,67.871,208.984,0
1579270911.262,55.664,49.805,63.965,63.965,190.918,0
1579270911.266,52.246,49.805,60.547,60.059,191.406,0
1579270911.270,55.664,53.223,59.570,68.848,183.105,0
1579270911.274,61.035,54.688,63.965,72.266,166.016,0
1579270911.278,57.129,55.176,62.500,64.941,165.039,0
1579270911.281,60.547,57.617,61.523,63.477,133.789,0
1579270911.285,61.523,54.688,58.594,60.547,137.207,0
1579270911.289,60.059,52.734,56.641,62.988,154.297,0
1579270911.293,62.012,55.664,58.594,66.895,138.184,0
1579270911.297,62.012,57.617,60.059,67.383,125.977,0
1579270911.314,62.988,56.641,62.500,69.824,118.652,0
1579270911.318,61.035,54.688,62.500,67.383,100.098,0
1579270911.322,61.035,55.664,59.570,63.477,89.355,0
1579270911.326,65.918,56.152,59.082,66.406,58.594,0
1579270911.330,67.871,55.176,60.547,74.707,41.504,0
1579270911.334,64.453,53.223,62.012,75.684,28.320,0
1579270911.338,62.988,52.246,60.059,72.754,28.320,0
1579270911.341,65.430,53.711,59.570,75.684,32.227,0
1579270911.345,69.336,52.246,61.523,76.172,4.883,0
1579270911.349,67.383,50.781,58.594,78.125,28.809,0
1579270911.353,66.406,55.664,60.059,77.637,22.949,0
1579270911.357,65.430,55.664,60.059,69.824,10.254,0
1579270911.354,63.477,55.176,56.152,68.848,41.992,0
1579270911.358,68.848,58.105,55.176,70.801,67.871,0
1579270911.362,68.359,56.641,56.641,68.848,69.336,0
1579270911.366,62.012,54.688,56.152,65.918,85.938,0
1579270911.370,59.082,55.664,52.734,62.500,86.914,0
1579270911.374,58.105,55.664,53.711,64.941,81.055,0
1579270911.378,60.059,56.152,55.664,70.312,90.820,0
1579270911.381,58.594,52.734,52.734,68.359,112.305,0
1579270911.385,57.617,51.758,54.199,65.430,121.582,0
1579270911.389,59.082,54.688,55.176,63.965,109.863,0
1579270911.393,57.129,51.758,53.711,65.430,118.652,0
1579270911.397,56.152,49.316,52.246,67.871,130.859,0
1579270911.394,55.176,50.293,50.293,64.453,127.930,0
1579270911.398,55.664,49.805,52.246,67.383,166.016,0
1579270911.402,58.105,50.293,54.199,67.871,205.566,0
1579270911.406,55.664,49.805,52.246,62.988,227.539,0
1579270911.410,55.664,51.758,52.246,65.918,198.242,0
1579270911.414,53.223,52.246,53.711,66.895,151.855,0
1579270911.418,52.246,49.805,52.246,68.359,180.176,0
1579270911.421,55.176,50.781,55.176,61.523,194.336,0
1579270911.425,52.246,48.340,54.199,50.781,155.273,0
1579270911.429,52.734,46.387,51.270,57.129,172.363,0
1579270911.433,51.270,44.922,51.270,61.035,196.777,0
1579270911.437,48.828,42.969,50.781,61.035,213.867,0
1579270911.454,50.293,44.922,52.734,62.012,218.750,0
1579270911.458,49.316,43.945,52.734,56.152,174.316,0
1579270911.462,51.270,42.969,50.293,57.129,195.312,0
1579270911.466,55.664,43.945,51.270,63.965,221.680,0
1579270911.470,57.617,47.363,51.270,62.012,187.012,0
1579270911.474,58.594,49.316,51.758,61.035,148.438,0
1579270911.478,60.059,48.340,52.246,60.059,144.043,0
1579270911.481,61.035,47.363,49.805,60.547,131.348,0
1579270911.485,62.500,45.898,52.734,62.988,108.887,0
1579270911.489,58.105,45.410,51.758,59.570,112.793,0
1579270911.493,55.664,49.316,50.781,54.688,95.703,0
1579270911.497,54.688,47.363,49.805,52.734,98.145,0
1579270911.494,52.734,45.898,47.363,57.129,142.090,0
1579270911.498,54.688,50.781,46.387,60.547,124.023,0
1579270911.502,55.664,50.781,45.898,60.547,71.289,0
1579270911.506,54.199,51.270,49.316,62.988,88.867,0
1579270911.510,55.664,50.781,50.293,65.918,80.078,0
1579270911.514,49.805,42.480,47.363,58.105,60.547,0
1579270911.518,44.922,40.039,48.340,55.664,56.641,0
1579270911.521,43.457,40.527,46.875,63.965,69.824,0
1579270911.525,43.945,41.504,47.363,61.035,90.332,0
1579270911.529,47.363,41.504,51.758,49.805,61.523,0
1579270911.533,44.922,39.062,51.270,47.363,41.504,0
1579270911.537,44.434,40.527,50.293,56.152,49.805,0
1579270911.554,47.852,40.039,51.270,59.570,70.801,0
1579270911.558,50.293,40.039,53.223,58.105,90.820,0
1579270911.562,51.758,41.992,51.758,55.176,85.938,0
1579270911.566,51.270,43.457,50.781,55.176,82.520,0
1579270911.570,51.758,42.969,54.199,58.105,96.680,0
1579270911.574,50.781,42.969,56.641,54.199,123.047,0
1579270911.578,55.176,47.852,56.641,53.223,133.789,0
1579270911.581,53.223,48.340,54.688,45.898,116.699,0
1579270911.585,47.363,41.992,52.734,42.969,123.047,0
1579270911.589,50.293,41.016,50.781,45.410,130.371,0
1579270911.593,46.875,43.945,48.340,40.039,125.977,0
1579270911.597,42.480,42.969,52.246,44.922,96.191,0
1579270911.594,41.016,40.527,53.711,53.223,83.496,0
1579270911.598,41.504,39.062,47.852,52.734,97.168,0
1579270911.602,43.945,39.551,46.875,48.828,104.492,0
1579270911.606,44.922,38.574,47.363,50.293,87.402,0
1579270911.610,48.340,38.086,49.805,52.246,73.242,0
1579270911.614,47.852,37.109,52.734,49.805,78.613,0
1579270911.618,46.875,35.156,51.270,44.434,76.660,0
1579270911.621,48.340,37.598,51.270,44.434,56.641,0
1579270911.625,43.457,40.039,52.246,45.410,22.949,0
1579270911.629,44.434,39.062,51.758,46.387,29.785,0
1579270911.633,49.805,40.527,54.688,45.898,36.621,0
1579270911.637,45.898,38.574,53.223,39.062,16.113,0
1579270911.634,41.992,34.180,49.805,43.457,31.250,0
1579270911.638,45.898,35.645,51.270,48.828,36.621,0
1579270911.642,49.805,37.598,50.293,51.758,43.945,0
1579270911.646,52.734,38.574,48.340,54.688,19.531,0
1579270911.650,52.734,38.574,50.293,55.176,-4.883,0
1579270911.654,47.852,37.598,52.246,55.176,-16.602,0
1579270911.658,46.875,37.598,46.387,53.711,-18.555,0
1579270911.661,46.875,37.598,42.969,49.316,3.418,0
1579270911.665,45.410,39.062,49.805,46.875,-1.465,0
1579270911.669,39.551,37.598,51.270,38.574,-31.738,0
1579270911.673,39.062,34.180,47.852,37.109,-34.180,0
1579270911.677,42.969,37.598,49.316,45.410,-13.672,0
1579270911.694,44.922,40.527,50.781,48.340,-22.949,0
1579270911.698,43.945,41.016,53.223,50.293,-42.480,0
1579270911.702,40.039,40.527,51.758,49.805,-35.156,0
1579270911.706,45.410,41.016,52.734,50.293,-36.133,0
1579270911.710,45.410,41.992,54.199,51.758,-25.391,0
1579270911.714,42.480,38.574,50.781,47.852,-15.137,0
1579270911.718,42.969,40.039,51.270,48.828,-29.785,0
1579270911.721,43.945,41.992,51.270,47.852,-32.227,0
1579270911.725,44.434,38.086,43.945,47.363,-15.625,0
1579270911.729,41.016,36.621,44.922,50.781,-32.227,0
1579270911.733,39.062,37.598,48.340,51.758,-36.621,0
1579270911.737,39.551,38.086,50.781,58.594,-26.367,0
1579270911.734,40.527,39.062,52.246,59.082,-24.414,0
1579270911.738,40.527,39.551,52.246,51.270,-31.250,0
1579270911.742,40.527,41.504,56.641,48.340,-33.203,0
1579270911.746,43.457,41.504,55.176,53.711,0.977,0
1579270911.750,50.293,41.016,54.199,58.594,-20.996,0
1579270911.754,53.711,40.527,52.734,57.617,-61.035,0
1579270911.758,51.270,40.039,49.805,53.711,-52.246,0
1579270911.761,49.316,39.551,49.316,45.410,-44.434,0
1579270911.765,45.410,35.645,46.387,40.527,-30.762,0
1579270911.769,40.527,36.133,45.410,40.527,-3.906,0
1579270911.773,42.480,44.922,49.316,38.086,-41.992,0
1579270911.777,45.410,43.457,48.340,39.062,-51.758,0
1579270911.774,47.363,38.574,47.852,46.387,12.207,0
1579270911.778,49.805,42.969,51.758,48.828,29.297,0
1579270911.782,53.223,46.387,52.246,46.875,5.859,0
1579270911.786,47.363,44.922,47.852,42.969,-26.367,0
1579270911.790,39.062,43.457,45.898,41.504,-9.277,0
1579270911.794,45.410,45.410,50.293,47.363,6.348,0
1579270911.798,42.969,43.945,52.734,42.969,-2.441,0
1579270911.801,36.621,38.574,48.340,38.086,-20.020,0
1579270911.805,36.133,41.016,48.828,45.410,-42.969,0
1579270911.809,39.551,42.969,51.758,50.781,-33.203,0
1579270911.813,41.992,41.016,50.781,48.828,-19.043,0
1579270911.817,37.109,39.062,51.270,38.574,-33.203,0
1579270911.834,32.227,39.062,52.246,40.039,-39.551,0
1579270911.838,31.250,41.992,52.246,40.039,-26.855,0
1579270911.842,34.180,41.016,50.293,34.668,-24.414,0
1579270911.846,35.156,41.992,51.270,34.180,-43.945,0
1579270911.850,37.598,42.480,54.688,38.574,-50.293,0
1579270911.854,38.086,40.527,53.711,42.480,-41.504,0
1579270911.858,36.133,43.945,53.711,32.715,-45.898,0
1579270911.861,33.691,45.898,53.711,21.973,-44.434,0
1579270911.865,33.691,45.898,50.781,25.879,-25.879,0
1579270911.869,35.645,49.805,55.664,34.180,-23.926,0
1579270911.873,38.086,50.781,56.152,36.133,-45.898,0
1579270911.877,41.992,48.828,50.293,38.574,-36.621,0
1579270911.874,39.551,48.340,50.293,37.109,-25.391,0
1579270911.878,38.086,47.852,48.828,36.133,-41.992,0
1579270911.882,41.016,46.875,49.316,39.062,-32.715,0
1579270911.886,46.875,46.875,48.340,41.016,-19.531,0
1579270911.890,52.734,49.316,51.270,40.527,-45.410,0
1579270911.894,55.176,49.316,52.246,41.504,-63.477,0
1579270911.898,59.570,47.363,47.363,41.992,-37.109,0
1579270911.901,63.477,47.363,47.363,43.945,-31.738,0
1579270911.905,59.082,43.945,48.828,47.852,-32.715,0
1579270911.909,49.805,44.434,50.781,48.340,-38.086,0
1579270911.913,48.340,45.898,49.805,43.945,-56.152,0
1579270911.917,46.875,42.480,46.387,36.621,-27.832,0
1579270911.914,41.992,44.434,46.387,38.574,-23.438,0
1579270911.918,38.086,43.457,42.969,40.527,-41.992,0
1579270911.922,40.039,43.945,42.480,40.527,-19.043,0
1579270911.926,41.992,47.363,43.457,42.969,13.672,0
1579270911.930,41.992,46.387,42.969,43.945,-8.789,0
1579270911.934,42.969,46.875,47.852,46.387,-73.242,0
1579270911.938,41.016,45.898,47.363,48.828,-64.941,0
1579270911.941,39.551,43.945,45.410,51.758,-12.695,0
1579270911.945,39.062,44.922,52.734,49.805,-24.902,0
1579270911.949,36.133,42.969,53.223,42.480,-36.621,0
1579270911.953,35.645,38.574,48.340,45.410,-13.672,0
1579270911.957,37.109,42.480,49.805,52.246,-35.645,0
1579270911.974,43.457,41.992,52.734,54.688,-41.992,0
1579270911.978,48.340,37.598,51.758,52.734,-43.945,0
1579270911.982,43.457,36.621,45.898,50.293,-42.969,0
1579270911.986,44.922,36.621,45.410,53.711,-19.531,0
1579270911.990,44.922,36.621,48.828,52.246,-28.320,0
1579270911.994,39.551,38.086,49.805,49.805,-41.992,0
1579270911.998,41.504,40.039,50.293,51.758,-93.262,0
1579270912.001,42.480,40.039,48.828,47.363,-92.773,0
1579270912.005,41.016,40.039,45.898,45.410,-36.621,0
1579270912.009,42.969,42.969,46.387,48.828,-40.527,0
1579270912.013,41.504,42.969,49.316,44.922,-43.945,0
1579270912.017,42.480,43.457,47.363,43.945,-47.363,0
1579270912.015,41.992,42.480,45.898,45.410,-8.789,0
1579270912.019,40.527,41.992,48.828,45.410,20.020,0
1579270912.023,42.969,42.480,50.781,47.363,-5.859,0
1579270912.027,48.340,40.527,49.805,50.293,0.977,0
1579270912.031,47.852,40.039,50.293,54.199,10.742,0
1579270912.035,43.457,40.527,50.781,51.758,24.414,0
1579270912.039,47.852,41.504,50.293,48.828,6.836,0
1579270912.042,50.293,41.992,50.293,50.293,-15.137,0
1579270912.046,46.387,39.062,48.828,49.805,0.000,0
1579270912.050,44.922,40.527,52.246,49.805,15.137,0
1579270912.054,43.457,42.480,52.246,42.969,13.672,0
1579270912.058,40.527,40.039,47.852,38.574,8.301,0
1579270912.054,38.574,39.062,48.340,42.969,4.883,0
1579270912.058,36.621,38.086,49.316,44.922,13.184,0
1579270912.062,35.156,38.574,50.293,46.387,0.977,0
1579270912.066,35.156,37.598,53.223,41.016,0.000,0
1579270912.070,36.133,35.156,50.293,39.551,25.391,0
1579270912.074,36.133,37.598,49.805,50.293,12.207,0
1579270912.078,47.852,35.645,49.316,58.594,5.371,0
1579270912.081,53.711,41.016,47.363,53.223,-2.441,0
1579270912.085,40.527,48.828,44.922,37.598,-17.090,0
1579270912.089,34.180,44.434,37.598,39.551,3.906,0
1579270912.093,35.156,44.434,37.109,47.852,-2.441,0
1579270912.097,35.156,48.340,38.086,40.527,-24.902,0
1579270912.114,31.738,50.781,36.621,32.715,-15.137,0
1579270912.118,30.762,55.664,37.109,25.391,-27.344,0
1579270912.122,30.273,54.199,31.250,20.996,-7.324,0
1579270912.126,31.738,52.246,31.250,27.344,20.508,0
1579270912.130,34.668,51.270,34.668,31.738,1.465,0
1579270912.134,36.133,51.758,32.227,35.645,-5.859,0
1579270912.138,37.598,52.734,37.598,34.668,-7.812,0
1579270912.141,36.621,47.852,38.574,24.414,-13.672,0
1579270912.145,38.086,44.922,33.691,31.250,-9.766,0
1579270912.149,41.504,46.387,36.133,45.898,-0.977,0
1579270912.153,44.434,43.457,35.645,51.758,-4.395,0
1579270912.157,49.805,42.480,36.133,55.664,2.441,0
1579270912.154,51.270,42.969,37.109,57.129,-5.859,0
1579270912.158,49.805,42.480,36.621,58.105,1.465,0
1579270912.162,49.805,44.922,40.039,61.523,3.418,0
1579270912.166,49.316,45.410,40.527,60.059,-22.461,0
1579270912.170,48.828,44.434,39.551,54.199,-32.715,0
1579270912.174,51.758,45.410,40.039,53.711,-39.062,0
1579270912.178,54.688,44.434,41.016,57.617,-36.621,0
1579270912.181,53.711,44.922,40.039,56.641,-41.992,0
1579270912.185,49.316,45.410,39.062,51.270,-44.434,0
1579270912.189,48.828,43.457,42.480,52.734,-39.551,0
1579270912.193,48.828,41.016,42.969,56.152,-48.828,0
1579270912.197,47.852,39.551,36.621,53.711,-25.879,0
1579270912.194,47.852,41.504,38.086,51.270,-5.371,0
1579270912.198,44.434,41.992,40.527,52.734,-6.348,0
1579270912.202,45.410,43.945,41.992,54.688,-6.348,0
1579270912.206,47.363,42.480,42.480,51.758,5.371,0
1579270912.210,46.387,39.062,40.039,47.363,28.809,0
1579270912.214,47.852,41.992,45.410,47.852,35.645,0
1579270912.218,43.945,37.598,42.480,46.387,37.109,0
1579270912.221,39.551,35.645,40.039,47.363,23.438,0
1579270912.225,36.621,38.574,45.410,43.945,3.906,0
1579270912.229,37.109,37.109,43.457,36.133,1.953,0
1579270912.233,39.062,39.062,44.434,40.039,10.742,0
1579270912.237,42.969,41.504,45.898,44.922,17.090,0
1579270912.254,40.527,41.504,42.480,44.922,41.504,0
1579270912.258,36.133,41.504,41.992,41.504,34.668,0
1579270912.262,39.062,38.574,42.480,43.945,13.184,0
1579270912.266,47.363,36.621,42.480,50.781,33.203,0
1579270912.270,46.875,41.016,43.945,42.969,57.129,0
1579270912.274,37.109,47.852,44.434,31.738,41.504,0
1579270912.278,35.156,48.340,45.410,30.762,10.254,0
1579270912.281,33.691,43.945,41.992,25.879,0.000,0
1579270912.285,29.785,42.480,40.039,25.879,0.488,0
1579270912.289,29.785,43.945,42.480,25.879,-1.953,0
1579270912.293,33.691,44.922,41.016,26.855,-31.738,0
1579270912.297,34.668,43.945,41.992,28.809,-43.945,0
1579270912.294,33.691,43.457,43.457,31.250,-22.461,0
1579270912.298,37.109,45.410,42.969,38.086,7.812,0
1579270912.302,39.062,46.387,45.410,42.480,-30.273,0
1579270912.306,40.527,44.434,47.852,41.016,-55.176,0
1579270912.310,43.945,45.898,48.828,44.434,-36.133,0
1579270912.314,44.434,46.387,46.387,44.922,-43.457,0
1579270912.318,46.875,46.387,47.363,41.992,-60.547,0
1579270912.321,46.875,48.828,48.828,42.969,-63.965,0
1579270912.325,45.410,46.875,49.805,47.852,-59.082,0
1579270912.329,46.387,48.340,53.711,47.852,-48.340,0
1579270912.333,41.016,47.852,50.781,35.156,-59.570,0
1579270912.337,38.574,41.504,45.898,35.156,-38.574,0
1579270912.334,41.016,45.898,46.387,43.457,-21.484,0
1579270912.338,41.992,50.781,49.805,46.387,-44.922,0
1579270912.342,44.922,47.852,53.223,50.781,-32.715,0
1579270912.346,42.969,44.922,50.781,48.828,-22.461,0
1579270912.350,42.969,42.969,48.828,46.875,-27.344,0
1579270912.354,40.527,40.527,51.270,47.363,-28.320,0
1579270912.358,35.645,37.598,50.293,43.457,-6.348,0
1579270912.361,39.062,39.551,54.199,43.945,-9.766,0
1579270912.365,40.039,41.016,58.594,38.574,-41.992,0
1579270912.369,41.016,37.598,54.199,41.504,-14.160,0
1579270912.373,42.480,35.156,53.711,46.387,7.324,0
1579270912.377,48.828,36.133,53.711,44.434,-26.855,0
1579270912.394,48.340,38.086,52.246,45.410,-50.781,0
1579270912.398,43.945,36.133,53.711,44.922,-36.133,0
1579270912.402,42.969,32.227,51.270,47.852,-6.836,0
1579270912.406,43.457,33.691,50.293,50.293,31.250,0
1579270912.410,47.363,36.133,54.199,48.340,1.953,0
1579270912.414,44.434,36.621,50.293,48.340,-57.129,0
1579270912.418,43.457,36.621,46.875,47.852,-33.691,0
1579270912.421,45.410,36.133,48.828,46.387,-23.926,0
1579270912.425,46.875,38.086,50.781,44.922,-36.621,0
1579270912.429,44.922,38.086,50.293,42.480,-21.484,0
1579270912.433,40.527,37.598,50.293,42.480,-21.973,0
1579270912.437,39.551,38.086,49.805,39.062,-48.340,0
1579270912.435,40.039,38.574,45.410,34.180,-5.371,0
1579270912.439,41.504,41.016,47.852,40.527,9.766,0
1579270912.443,44.434,42.969,51.758,46.387,-11.230,0
1579270912.447,48.828,43.457,51.270,50.293,-17.578,0
1579270912.451,49.805,43.945,49.316,48.340,-45.410,0
1579270912.455,49.316,44.434,49.316,45.898,-50.781,0
1579270912.459,52.246,43.945,50.781,51.270,-35.156,0
1579270912.462,50.781,39.551,51.758,49.805,2.441,0
1579270912.466,45.898,39.062,50.293,42.480,1.465,0
1579270912.470,45.898,42.969,51.758,38.086,-54.199,0
1579270912.474,44.922,36.621,54.688,36.133,-46.875,0
1579270912.478,45.410,31.250,52.734,37.109,14.648,0
1579270912.475,43.457,29.785,52.246,35.156,11.230,0
1579270912.479,38.086,28.809,54.199,39.062,9.277,0
1579270912.483,39.551,34.180,58.594,46.387,-2.441,0
1579270912.487,40.039,34.668,59.082,45.410,-41.992,0
1579270912.491,36.621,32.715,58.105,43.457,-10.254,0
1579270912.495,38.574,34.668,61.035,44.434,40.039,0
1579270912.499,41.992,35.645,61.035,47.852,-6.348,0
1579270912.502,44.434,35.645,61.035,51.270,-43.457,0
1579270912.506,40.527,36.133,60.547,48.828,-4.883,0
1579270912.510,35.645,35.156,58.105,44.434,19.531,0
1579270912.514,37.109,35.156,56.641,42.480,-21.973,0
1579270912.518,45.410,39.062,55.664,48.828,-23.438,0
1579270912.534,62.012,44.434,58.594,63.965,-10.254,0
1579270912.538,62.012,40.039,61.035,60.547,-39.062,0
1579270912.542,37.598,29.297,65.918,39.551,-31.738,0
1579270912.546,18.066,23.438,73.242,31.738,-13.184,0
1579270912.550,24.902,20.996,74.707,43.945,-2.930,0
1579270912.554,29.785,20.508,81.055,51.270,-7.812,0
1579270912.558,17.578,16.602,89.844,39.062,-40.527,0
1579270912.561,16.113,12.207,91.309,36.621,-38.574,0
1579270912.565,19.531,10.742,91.309,50.293,-17.578,0
1579270912.569,14.160,10.742,88.867,52.734,-12.207,0
1579270912.573,18.555,13.672,86.426,51.758,2.930,0
1579270912.577,26.367,17.578,84.961,53.223,-0.977,0
1579270912.575,26.855,17.578,82.031,52.734,-25.391,0
1579270912.579,28.320,16.113,80.078,53.711,-1.953,0
1579270912.583,32.715,18.066,82.031,55.176,3.906,0
1579270912.587,36.621,20.996,82.031,51.758,-38.086,0
1579270912.591,38.086,22.461,79.590,55.664,-29.297,0
1579270912.595,34.668,23.926,81.543,62.012,-7.812,0
1579270912.599,32.227,22.949,81.055,54.199,-4.395,0
1579270912.602,31.738,23.438,75.195,46.875,-16.602,0
1579270912.606,33.691,28.320,72.754,49.805,-45.898,0
1579270912.610,34.180,31.738,77.637,54.688,-57.617,0
1579270912.614,33.203,32.715,72.266,49.316,-19.043,0
1579270912.618,32.715,33.691,65.430,48.340,4.883,0
1579270912.614,32.227,31.250,64.453,50.293,-26.855,0
1579270912.618,34.180,29.297,62.012,49.316,-36.621,0
1579270912.622,36.133,31.250,60.547,50.781,-41.504,0
1579270912.626,38.574,31.250,56.641,46.387,-28.809,0
1579270912.630,41.504,35.156,57.129,44.922,-14.160,0
1579270912.634,42.969,38.574,58.594,49.805,-62.012,0
1579270912.638,42.480,34.668,53.223,50.293,-35.645,0
1579270912.641,41.016,38.086,54.199,48.340,-25.391,0
1579270912.645,42.969,40.527,56.152,43.945,-83.496,0
1579270912.649,41.504,36.133,52.246,48.340,-57.617,0
1579270912.653,41.504,36.621,51.758,59.082,-19.531,0
1579270912.657,42.480,37.109,52.734,57.129,-30.273,0
1579270912.674,40.527,39.062,53.711,50.293,-47.363,0
1579270912.678,36.621,39.551,51.270,48.340,-40.039,0
1579270912.682,34.180,39.062,50.293,53.711,-33.203,0
1579270912.686,37.598,38.086,50.293,52.734,-7.324,0
1579270912.690,40.527,40.039,47.363,45.898,-17.578,0
1579270912.694,42.480,43.457,49.805,50.781,-42.480,0
1579270912.698,40.527,43.457,50.781,47.363,-50.781,0
1579270912.701,36.133,40.527,45.410,43.457,-20.020,0
1579270912.705,40.039,41.992,44.434,48.828,10.254,0
1579270912.709,42.480,43.457,46.875,48.828,-14.160,0
1579270912.713,40.527,42.480,48.828,52.246,-43.457,0
1579270912.717,37.598,39.551,46.875,50.293,-38.574,0
1579270912.714,37.598,34.668,48.340,49.805,-13.184,0
1579270912.718,46.875,35.156,47.852,57.129,-20.996,0
1579270912.722,45.898,41.992,40.527,44.434,-27.344,0
1579270912.726,35.156,45.898,39.062,32.715,-24.414,0
1579270912.730,36.133,43.457,39.551,38.086,-8.789,0
1579270912.734,42.480,43.945,36.133,38.086,5.859,0
1579270912.738,35.645,48.828,37.598,34.668,-2.441,0
1579270912.741,33.691,48.828,39.062,36.133,-16.602,0
1579270912.745,45.898,49.805,38.574,37.598,-31.738,0
1579270912.749,43.945,48.828,35.156,30.762,-31.250,0
1579270912.753,40.039,45.898,32.715,31.250,-40.527,0
1579270912.757,42.969,43.945,32.715,39.062,-42.969,0
1579270912.754,41.992,44.434,30.273,37.109,-10.254,0
1579270912.758,43.945,45.410,31.738,37.598,3.906,0
1579270912.762,45.898,45.898,35.156,36.133,-40.527,0
1579270912.766,44.434,42.969,32.227,35.156,-42.480,0
1579270912.770,45.898,40.527,30.273,40.527,-0.488,0
1579270912.774,49.805,41.992,32.715,41.504,-10.254,0
1579270912.778,47.852,41.504,30.762,39.062,-6.348,0
1579270912.781,48.828,42.969,34.180,41.016,-30.762,0
1579270912.785,50.781,40.527,34.668,40.527,-52.734,0
1579270912.789,47.852,34.668,28.809,37.598,-0.977,0
1579270912.793,47.852,34.668,29.785,38.574,21.484,0
1579270912.797,49.316,35.156,33.203,38.574,12.207,0
1579270912.814,49.316,35.645,32.227,41.504,4.395,0
1579270912.818,51.270,35.645,30.762,42.480,-3.906,0
1579270912.822,49.805,36.133,34.180,40.527,-16.113,0
1579270912.826,42.480,34.668,32.715,43.457,-31.250,0
1579270912.830,43.457,33.203,28.809,45.898,-5.859,0
1579270912.834,46.875,39.062,31.250,46.875,9.277,0
1579270912.838,42.969,41.504,28.320,43.945,0.488,0
1579270912.841,39.551,37.598,24.414,46.875,3.906,0
1579270912.845,37.598,37.109,23.926,54.199,-22.461,0
1579270912.849,39.551,38.086,22.949,55.176,-16.602,0
1579270912.853,45.410,41.504,29.297,56.641,17.578,0
1579270912.857,41.504,42.969,33.691,53.711,10.254,0
1579270912.854,33.691,40.527,32.715,51.758,-28.320,0
1579270912.858,36.621,37.109,31.250,57.617,-25.391,0
1579270912.862,37.598,36.133,32.715,56.152,1.953,0
1579270912.866,31.250,35.645,34.668,44.434,-9.277,0
1579270912.870,33.691,34.180,29.785,41.504,-20.020,0
1579270912.874,39.062,36.621,30.273,47.852,-29.785,0
1579270912.878,36.621,36.133,33.203,49.316,-31.250,0
1579270912.881,34.180,34.180,30.762,44.434,20.996,0
1579270912.885,40.527,35.645,32.227,47.363,10.742,0
1579270912.889,42.969,39.062,37.109,44.434,-41.504,0
1579270912.893,40.527,36.621,35.156,42.969,-29.297,0
1579270912.897,39.551,35.645,34.180,51.758,-7.812,0
1579270912.914,39.551,35.645,35.645,50.781,-3.906,0
1579270912.918,42.480,34.668,36.621,52.734,-1.953,0
1579270912.922,43.457,33.691,34.180,50.293,-18.555,0
1579270912.926,40.039,30.762,33.691,44.922,-14.648,0
1579270912.930,40.039,32.227,36.621,48.828,-4.395,0
1579270912.934,37.109,34.180,38.086,46.875,-33.691,0
1579270912.938,39.551,30.762,34.180,48.340,-18.555,0
1579270912.941,51.270,34.180,34.180,54.199,-6.836,0
1579270912.945,45.898,32.715,36.621,46.387,-49.805,0
1579270912.949,27.832,25.391,37.109,34.180,-42.969,0
1579270912.953,25.879,24.902,39.062,34.668,-37.598,0
1579270912.957,28.809,22.949,41.504,38.574,-34.180,0
1579270912.955,27.832,24.902,41.992,37.598,-28.320,0
1579270912.959,31.250,25.879,42.969,40.039,-40.527,0
1579270912.963,29.297,25.391,45.410,43.457,-20.996,0
1579270912.967,29.785,27.832,45.898,45.410,5.371,0
1579270912.971,37.598,29.297,43.945,49.805,-10.742,0
1579270912.975,38.574,32.715,45.898,52.734,-32.227,0
1579270912.979,37.598,33.203,48.340,49.805,-23.438,0
1579270912.982,39.062,31.250,45.898,51.758,-5.859,0
1579270912.986,37.109,30.273,43.945,51.270,20.508,0
1579270912.990,37.109,30.762,42.480,46.387,7.812,0
1579270912.994,41.016,33.203,44.922,49.805,0.977,0
1579270912.998,43.457,31.250,41.992,49.805,11.230,0
1579270912.994,44.922,31.250,39.062,51.758,5.371,0
1579270912.998,48.340,32.715,38.086,51.270,5.371,0
1579270913.002,45.410,30.273,37.109,47.363,7.324,0
1579270913.006,41.016,34.668,40.039,51.270,-19.043,0
1579270913.010,39.062,36.621,37.109,52.246,3.418,0
1579270913.014,37.109,31.250,34.668,46.387,12.207,0
1579270913.018,36.133,31.738,35.645,44.922,-9.766,0
1579270913.021,35.645,32.227,34.180,46.875,29.785,0
1579270913.025,37.109,33.691,37.598,53.223,8.789,0
1579270913.029,38.574,38.086,38.086,42.969,-3.418,0
1579270913.033,37.109,32.227,32.715,35.645,26.855,0
1579270913.037,31.738,28.320,33.691,43.457,39.062,0
1579270913.035,32.715,31.250,33.203,49.316,54.688,0
1579270913.039,40.039,33.203,36.621,50.781,58.594,0
1579270913.043,40.527,33.203,38.086,45.410,21.484,0
1579270913.047,38.574,33.203,32.715,43.457,5.859,0
1579270913.051,41.992,37.109,36.133,50.781,32.227,0
1579270913.055,43.945,39.062,41.016,51.758,31.738,0
1579270913.059,41.016,37.109,41.016,49.316,37.109,0
1579270913.062,38.574,37.598,40.527,44.922,-5.859,0
1579270913.066,31.738,32.715,33.691,39.551,-9.277,0
1579270913.070,32.715,28.809,30.273,41.992,41.992,0
1579270913.074,39.062,33.203,33.203,43.457,27.832,0
1579270913.078,38.574,36.133,33.691,43.457,19.043,0
1579270913.094,41.992,37.598,36.133,41.016,27.832,0
1579270913.098,43.457,36.621,37.109,41.016,30.762,0
1579270913.102,45.898,38.574,35.156,45.410,23.438,0
1579270913.106,51.270,41.504,37.598,51.270,13.184,0
1579270913.110,41.016,39.062,49.316,48.340,14.160,0
1579270913.114,28.809,37.598,52.734,41.016,9.766,0
1579270913.118,28.809,34.180,50.781,43.457,11.230,0
1579270913.121,31.738,29.785,52.246,41.992,18.066,0
1579270913.125,32.227,27.832,49.316,39.551,20.508,0
1579270913.129,35.156,26.855,48.340,40.527,20.508,0
1579270913.133,38.574,30.273,51.270,42.480,1.465,0
1579270913.137,34.180,26.855,48.828,39.551,-25.879,0
1579270913.135,29.297,25.879,47.363,39.551,-20.996,0
1579270913.139,33.691,30.273,49.316,46.387,13.672,0
1579270913.143,33.691,31.250,47.852,48.828,23.438,0
1579270913.147,28.809,32.227,47.852,44.922,-14.648,0
1579270913.151,29.785,31.738,46.387,45.898,-38.574,0
1579270913.155,33.203,31.250,47.363,51.270,-17.090,0
1579270913.159,32.715,29.297,47.363,51.270,19.043,0
1579270913.162,31.250,31.738,44.922,50.781,39.551,0
1579270913.166,38.086,37.598,50.781,50.293,25.391,0
1579270913.170,40.527,36.621,50.293,48.828,-22.949,0
1579270913.174,36.621,32.715,42.480,46.387,-8.789,0
1579270913.178,40.039,34.180,42.480,47.852,37.109,0
1579270913.194,43.457,36.133,44.922,51.758,21.484,0
1579270913.198,45.898,38.086,46.875,57.129,-11.719,0
1579270913.202,44.922,37.598,45.410,60.059,-20.508,0
1579270913.206,41.992,37.109,41.992,59.082,17.578,0
1579270913.210,41.504,37.598,42.969,56.641,15.137,0
1579270913.214,44.922,37.598,40.527,54.688,-28.809,0
1579270913.218,51.270,41.504,40.039,60.059,-41.992,0
1579270913.221,50.293,42.969,43.457,61.523,-36.621,0
1579270913.225,45.898,38.086,39.551,60.059,-26.855,0
1579270913.229,47.852,39.551,38.574,61.523,-11.719,0
1579270913.233,49.805,39.551,43.457,58.594,-27.832,0
1579270913.237,50.293,36.621,44.434,58.594,-57.129,0
1579270913.235,47.363,36.621,42.480,56.641,-48.340,0
1579270913.239,43.945,33.691,41.016,50.781,-6.348,0
1579270913.243,42.969,34.180,42.969,51.270,-5.371,0
1579270913.247,41.504,34.668,41.992,48.340,-27.832,0
1579270913.251,41.016,34.668,41.016,45.898,-6.348,0
1579270913.255,42.969,38.574,46.875,49.316,-1.953,0
1579270913.259,46.875,40.527,46.875,48.828,-28.320,0
1579270913.262,42.969,36.621,42.969,47.852,0.000,0
1579270913.266,39.551,35.156,43.457,47.852,16.602,0
1579270913.270,42.480,34.180,41.992,50.293,-11.230,0
1579270913.274,40.527,33.203,44.922,47.852,-44.434,0
1579270913.278,35.156,30.762,46.387,41.504,-40.527,0
1579270913.275,38.086,28.809,39.062,47.363,2.441,0
1579270913.279,41.016,29.785,39.062,49.316,28.320,0
1579270913.283,43.945,31.738,41.016,52.246,-4.883,0
1579270913.287,45.410,32.715,36.621,57.129,-22.949,0
1579270913.291,42.480,32.227,35.645,50.781,7.812,0
1579270913.295,45.410,31.250,41.016,55.176,0.977,0
1579270913.299,44.922,29.785,41.016,56.641,1.953,0
1579270913.302,43.457,30.273,39.551,54.688,-0.977,0
1579270913.306,44.434,32.227,41.504,60.547,-20.508,0
1579270913.310,46.875,34.668,39.551,62.500,-28.809,0
1579270913.314,43.457,36.621,33.691,53.223,2.441,0
1579270913.318,34.180,38.574,35.156,41.992,12.207,0
1579270913.334,36.133,39.062,37.109,41.504,-10.254,0
1579270913.338,35.645,40.527,35.645,39.062,-6.836,0
1579270913.342,30.762,36.621,34.180,37.598,-20.996,0
1579270913.346,32.715,37.109,34.668,40.039,-31.738,0
1579270913.350,37.109,39.062,35.645,40.039,-9.766,0
1579270913.354,37.598,38.086,36.133,47.852,-19.043,0
1579270913.358,34.668,40.527,39.062,51.270,-24.902,0
1579270913.361,39.062,41.504,38.086,44.922,-16.113,0
1579270913.365,40.039,39.551,36.621,46.387,-20.996,0
1579270913.369,37.598,39.062,39.062,47.363,2.441,0
1579270913.373,35.645,40.039,41.504,46.875,5.371,0
1579270913.377,35.645,41.504,44.922,50.781,-34.180,0
1579270913.375,36.133,42.480,44.434,48.828,-44.434,0
1579270913.379,36.621,40.039,43.945,47.852,-18.555,0
1579270913.383,36.133,40.039,44.434,48.828,20.996,0
1579270913.387,39.551,41.992,45.410,50.293,40.527,0
1579270913.391,44.922,45.898,48.340,50.293,17.578,0
1579270913.395,45.898,47.363,47.852,50.293,9.766,0
1579270913.399,47.363,45.410,44.922,53.223,41.504,0
1579270913.402,43.457,42.969,45.898,52.734,38.574,0
1579270913.406,38.086,39.062,46.387,47.852,16.113,0
1579270913.410,39.062,39.551,46.875,49.805,20.996,0
1579270913.414,40.527,41.504,49.316,47.852,-3.906,0
1579270913.418,40.039,38.574,46.875,42.480,-13.672,0
1579270913.415,43.945,38.086,46.387,47.363,10.254,0
1579270913.419,46.875,39.062,48.828,51.758,12.207,0
1579270913.423,48.340,40.039,48.340,56.641,-11.719,0
1579270913.427,46.875,40.527,46.875,53.711,-2.930,0
1579270913.431,41.992,37.598,43.945,50.293,8.301,0
1579270913.435,41.992,37.598,41.504,51.758,14.648,0
1579270913.439,48.340,39.062,41.016,61.523,31.738,0
1579270913.442,57.129,39.062,44.434,71.777,37.109,0
1579270913.446,48.340,36.133,52.734,61.523,17.090,0
1579270913.450,22.461,29.785,56.641,40.527,-1.953,0
1579270913.454,10.742,22.949,61.035,36.621,15.625,0
1579270913.458,16.602,19.043,66.895,52.246,21.484,0
1579270913.474,22.461,17.090,66.406,51.270,24.414,0
1579270913.478,17.578,20.020,68.359,38.086,2.441,0
1579270913.482,14.648,22.949,65.918,35.645,-24.902,0
1579270913.486,9.277,22.461,60.547,32.227,-5.859,0
1579270913.490,4.395,19.043,57.129,33.691,0.977,0
1579270913.494,13.672,20.020,54.688,40.039,-2.441,0
1579270913.498,21.973,25.391,57.129,41.016,-22.461,0
1579270913.501,20.996,22.461,57.617,39.551,-42.969,0
1579270913.505,24.902,20.020,54.199,44.434,-16.113,0
1579270913.509,31.250,25.879,54.688,50.781,-4.395,0
1579270913.513,30.273,28.320,54.199,49.805,-14.160,0
1579270913.517,33.203,31.250,53.711,52.246,-26.855,0
1579270913.514,32.227,32.227,50.293,53.223,-32.715,0
1579270913.518,31.250,31.738,45.410,50.781,-9.277,0
1579270913.522,37.598,33.203,48.340,52.246,-18.555,0
1579270913.526,41.016,33.203,47.363,51.270,0.977,0
1579270913.530,45.410,33.691,48.340,56.152,7.812,0
1579270913.534,48.828,32.227,50.781,56.641,-27.832,0
1579270913.538,42.480,28.320,48.340,51.758,-12.695,0
1579270913.541,41.016,28.809,49.805,58.105,-10.254,0
1579270913.545,43.945,30.273,49.316,59.082,-6.836,0
1579270913.549,46.387,34.180,51.270,59.082,-11.230,0
1579270913.553,47.363,35.156,51.270,56.641,-38.574,0
1579270913.557,45.898,32.227,46.875,49.316,-41.992,0
1579270913.556,46.875,29.297,44.922,50.293,-37.109,0
1579270913.560,43.457,25.879,41.504,50.781,-1.465,0
1579270913.564,41.504,28.320,44.922,53.711,3.906,0
1579270913.568,41.992,30.273,47.852,54.688,-57.617,0
1579270913.572,38.574,26.855,44.922,53.223,-47.363,0
1579270913.576,43.457,30.273,46.875,63.965,-5.859,0
1579270913.580,44.434,31.250,47.852,60.547,-8.301,0
1579270913.583,41.016,29.785,49.316,54.199,-20.508,0
1579270913.587,42.969,33.691,51.270,59.570,-38.086,0
1579270913.591,43.945,34.180,49.316,62.500,-28.809,0
1579270913.595,43.457,33.203,47.852,61.035,1.465,0
1579270913.599,48.340,34.180,48.828,57.617,-10.254,0
1579270913.614,50.293,34.668,50.293,58.594,-34.180,0
1579270913.618,47.852,35.645,50.293,58.105,-40.039,0
1579270913.622,46.875,35.156,43.457,52.734,-22.949,0
1579270913.626,45.410,35.645,42.480,54.688,-13.672,0
1579270913.630,45.410,36.621,44.922,52.246,-24.902,0
1579270913.634,48.340,38.574,47.852,55.176,-17.090,0
1579270913.638,44.434,39.551,48.340,57.129,-24.902,0
1579270913.641,36.621,36.621,43.945,45.410,-44.922,0
1579270913.645,36.133,31.738,41.992,42.480,-29.785,0
1579270913.649,39.062,31.738,42.480,47.363,-2.930,0
1579270913.653,39.551,32.227,41.504,50.293,3.906,0
1579270913.657,35.156,33.691,41.992,47.363,21.973,0
1579270913.655,34.668,32.715,42.969,46.875,13.672,0
1579270913.659,37.598,33.691,38.574,52.246,-8.301,0
1579270913.663,35.156,32.227,35.156,48.828,-0.977,0
1579270913.667,38.086,30.762,38.086,46.875,-5.371,0
1579270913.671,38.086,32.227,42.480,49.805,-9.766,0
1579270913.675,38.086,31.738,41.992,50.781,-26.855,0
1579270913.679,39.062,30.762,39.062,54.199,-25.391,0
1579270913.682,34.180,31.250,40.527,54.199,16.602,0
1579270913.686,33.691,33.203,41.016,52.734,32.227,0
1579270913.690,35.156,35.645,42.480,51.270,-30.762,0
1579270913.694,37.109,35.645,41.992,50.293,-44.434,0
1579270913.698,37.598,34.180,41.992,47.852,24.902,0
1579270913.694,33.691,30.273,42.480,42.480,34.180,0
1579270913.698,31.738,31.738,42.480,41.992,8.301,0
1579270913.702,32.227,38.086,46.875,44.922,-11.719,0
1579270913.706,29.785,39.062,46.875,39.551,-25.391,0
1579270913.710,31.738,40.039,46.387,37.598,-1.953,0
1579270913.714,35.645,44.434,50.293,41.992,-27.344,0
1579270913.718,30.762,44.922,49.805,41.504,-58.105,0
1579270913.721,26.367,42.480,47.852,38.574,-23.926,0
1579270913.725,22.949,46.875,52.246,25.879,-33.203,0
1579270913.729,18.555,48.828,53.711,18.066,-48.828,0
1579270913.733,13.184,49.316,56.641,21.973,-40.039,0
1579270913.737,5.371,56.152,58.594,17.090,-13.672,0
1579270913.754,-5.859,61.523,56.641,2.930,39.062,0
1579270913.758,-21.484,67.871,60.059,-11.719,30.762,0
1579270913.762,-35.645,74.707,61.523,-23.438,21.484,0
1579270913.766,-46.875,78.125,55.664,-40.039,32.715,0
1579270913.770,-61.523,84.473,52.734,-60.547,9.277,0
1579270913.774,-87.891,88.867,60.547,-83.496,14.648,0
1579270913.778,-116.699,90.820,69.824,-115.234,13.672,0
1579270913.781,-134.277,86.426,69.824,-138.672,17.090,0
1579270913.785,-143.066,85.938,63.965,-142.578,77.637,0
1579270913.789,-150.879,94.727,63.477,-153.320,101.562,0
1579270913.793,-160.156,97.656,65.430,-170.410,67.383,0
1579270913.797,-163.574,98.145,61.035,-178.223,17.090,0
1579270913.794,-164.551,98.145,55.176,-182.617,47.852,0
1579270913.798,-166.992,100.586,57.129,-183.105,57.129,0
1579270913.802,-168.457,101.074,52.246,-185.547,42.480,0
1579270913.806,-171.875,104.004,48.340,-187.988,46.875,0
1579270913.810,-175.293,106.934,48.340,-187.988,26.367,0
1579270913.814,-167.480,105.469,48.828,-181.152,15.137,0
1579270913.818,-156.250,106.934,45.410,-169.922,-11.230,0
1579270913.821,-149.414,100.586,41.992,-162.598,15.137,0
1579270913.825,-141.602,91.797,42.969,-156.738,42.480,0
1579270913.829,-132.324,94.238,41.992,-152.832,39.551,0
1579270913.833,-124.023,96.191,34.668,-149.414,23.926,0
1579270913.837,-106.445,93.262,28.320,-134.277,5.371,0
1579270913.834,-90.820,90.820,29.297,-119.141,26.855,0
1579270913.838,-89.355,86.914,26.855,-108.398,70.312,0
1579270913.842,-78.613,84.961,30.762,-94.238,80.078,0
1579270913.846,-61.523,78.125,35.156,-83.984,26.855,0
1579270913.850,-41.504,75.195,30.762,-62.988,-4.883,0
1579270913.854,-21.973,69.824,27.832,-35.645,11.719,0
1579270913.858,-9.277,58.105,25.879,-18.555,28.320,0
1579270913.861,1.953,50.293,26.855,-5.371,15.137,0
1579270913.865,23.438,41.016,29.785,12.695,-5.859,0
1579270913.869,42.969,28.809,30.762,39.062,-6.836,0
1579270913.873,56.152,20.020,31.250,64.453,13.184,0
1579270913.877,78.125,17.578,30.762,81.055,18.555,0
1579270913.894,88.867,11.719,33.691,89.844,8.789,0
1579270913.898,97.656,6.348,35.645,106.934,-1.465,0
1579270913.902,113.770,6.348,35.156,122.559,12.207,0
1579270913.906,118.652,2.441,34.668,127.441,21.484,0
1579270913.910,125.977,1.953,32.227,135.254,21.973,0
1579270913.914,142.578,4.395,36.133,155.273,-3.418,0
1579270913.918,149.902,2.441,40.039,164.551,-44.922,0
1579270913.921,149.902,-3.418,35.156,164.062,-42.480,0
1579270913.925,156.738,-5.371,33.203,171.387,-17.578,0
1579270913.929,163.086,-3.418,32.715,176.758,-27.832,0
1579270913.933,163.574,-3.906,32.227,183.594,-8.789,0
1579270913.937,165.039,-0.977,32.715,185.059,7.324,0
1579270913.934,168.457,0.000,29.297,179.688,-0.977,0
1579270913.938,167.969,0.488,32.227,178.223,-17.578,0
1579270913.942,164.551,3.906,38.574,179.688,-34.668,0
1579270913.946,163.574,1.465,35.645,179.199,-10.254,0
1579270913.950,159.668,2.441,34.180,174.805,6.348,0
1579270913.954,158.203,5.371,36.621,174.805,-35.645,0
1579270913.958,155.762,4.883,36.621,175.293,-23.926,0
1579270913.961,152.832,7.812,37.598,174.316,-6.348,0
1579270913.965,151.367,6.348,33.691,169.434,15.137,0
1579270913.969,149.414,8.789,36.133,160.645,0.000,0
1579270913.973,144.531,11.230,37.598,155.762,-47.852,0
1579270913.977,141.113,9.766,33.691,158.691,-15.137,0
1579270913.974,137.695,12.695,37.109,159.668,-11.719,0
1579270913.978,135.254,13.184,38.086,157.227,-30.273,0
1579270913.982,131.348,12.695,36.133,153.809,-12.207,0
1579270913.986,128.906,13.184,36.621,148.926,1.465,0
1579270913.990,126.465,12.207,37.109,146.484,-6.348,0
1579270913.994,120.605,15.137,37.109,140.137,-7.324,0
1579270913.998,116.699,15.137,34.180,131.836,-0.977,0
1579270914.001,114.746,13.672,36.133,132.324,-27.832,0
1579270914.005,111.328,18.555,40.039,129.395,-58.105,0
1579270914.009,107.422,18.555,37.109,125.000,-31.738,0
1579270914.013,108.887,20.020,38.086,127.441,-13.184,0
1579270914.017,109.863,19.043,40.039,132.812,13.184,0
1579270914.034,108.398,21.484,42.480,137.207,0.000,0
1579270914.038,105.469,24.414,41.504,131.348,-6.348,0
1579270914.042,101.562,23.438,40.039,125.977,-13.184,0
1579270914.046,99.121,23.926,39.551,123.047,-31.250,0
1579270914.050,103.516,25.879,39.062,125.977,-2.441,0
1579270914.054,105.957,27.832,42.480,125.977,-3.906,0
1579270914.058,101.074,26.855,41.992,114.258,-30.762,0
1579270914.061,95.215,23.926,39.062,107.910,-51.758,0
1579270914.065,97.168,26.367,38.574,106.445,-47.852,0
1579270914.069,100.098,29.785,39.551,103.027,-44.434,0
1579270914.073,97.168,30.273,41.016,101.562,-44.434,0
1579270914.077,88.379,26.367,41.016,95.215,-43.945,0
1579270914.074,79.102,22.949,41.016,95.703,-37.109,0
1579270914.078,76.172,22.949,39.062,95.703,-47.852,0
1579270914.082,74.219,22.461,38.086,85.449,-47.363,0
1579270914.086,67.383,24.414,41.504,79.590,-30.762,0
1579270914.090,63.477,27.344,43.457,77.637,-41.504,0
1579270914.094,68.848,28.809,41.992,82.031,-20.508,0
1579270914.098,71.289,29.785,43.457,87.402,-25.391,0
1579270914.101,62.988,27.832,48.340,81.543,-76.660,0
1579270914.105,45.410,24.902,53.711,68.848,-51.270,0
1579270914.109,38.086,25.391,58.594,65.430,-44.434,0
1579270914.113,45.898,21.973,55.664,71.289,-69.336,0
1579270914.117,44.922,20.020,55.176,68.359,-37.598,0
1579270914.114,34.180,22.461,58.594,56.641,-26.855,0
1579270914.118,26.367,23.438,57.129,48.340,-38.574,0
1579270914.122,27.832,24.414,53.223,54.199,-33.691,0
1579270914.126,35.645,25.391,52.734,62.988,-15.625,0
1579270914.130,40.039,27.344,56.152,61.035,-49.316,0
1579270914.134,41.504,27.344,57.617,64.453,-62.988,0
1579270914.138,42.480,28.320,50.781,67.871,-29.785,0
1579270914.141,37.109,31.738,48.340,57.129,-20.996,0
1579270914.145,35.645,33.203,51.758,51.270,-60.547,0
1579270914.149,37.598,28.809,48.828,52.734,-42.480,0
1579270914.153,40.039,29.297,47.363,55.664,-18.555,0
1579270914.157,42.480,30.273,46.387,61.035,-26.367,0
1579270914.174,41.992,29.785,47.363,60.547,-34.180,0
1579270914.178,39.551,29.785,46.387,58.594,-46.875,0
1579270914.182,42.480,30.273,46.875,62.988,-50.781,0
1579270914.186,47.363,31.250,49.316,62.988,-37.109,0
1579270914.190,42.480,29.297,48.340,57.617,-11.719,0
1579270914.194,47.852,32.227,50.781,62.500,-40.039,0
1579270914.198,48.340,31.250,50.781,62.988,-53.711,0
1579270914.201,46.875,27.832,47.852,59.570,-37.109,0
1579270914.205,50.781,28.809,49.316,61.035,-51.270,0
1579270914.209,46.387,27.832,45.898,56.152,-45.410,0
1579270914.213,44.922,33.691,44.434,56.641,-57.129,0
1579270914.217,44.434,33.691,46.387,56.641,-73.242,0
1579270914.214,41.992,28.809,42.969,51.758,-29.785,0
1579270914.218,40.039,32.227,43.945,50.293,-13.184,0
1579270914.222,38.574,34.180,43.945,47.852,-42.969,0
1579270914.226,38.574,36.133,41.992,52.246,-47.363,0
1579270914.230,41.504,34.668,42.480,57.129,-44.434,0
1579270914.234,41.992,34.668,42.480,52.734,-45.410,0
1579270914.238,41.016,34.180,42.480,51.270,-56.152,0
1579270914.241,40.039,32.227,41.992,56.152,-66.895,0
1579270914.245,42.969,32.715,41.504,58.594,-29.785,0
1579270914.249,47.852,36.133,41.504,54.199,-38.574,0
1579270914.253,43.457,33.691,36.621,46.387,-59.570,0
1579270914.257,43.945,31.250,33.691,51.270,-29.297,0
1579270914.254,43.457,31.738,32.715,54.199,-12.695,0
1579270914.258,40.039,30.762,34.180,45.410,-19.043,0
1579270914.262,41.016,33.203,36.621,46.875,-41.992,0
1579270914.266,39.551,33.203,35.156,48.340,-35.156,0
1579270914.270,38.086,33.203,38.086,50.781,-0.977,0
1579270914.274,36.133,35.645,39.551,56.152,17.090,0
1579270914.278,36.133,33.203,38.086,56.152,4.883,0
1579270914.281,38.574,32.715,41.016,52.734,-5.859,0
1579270914.285,41.504,36.133,41.504,50.293,15.625,0
1579270914.289,44.434,37.598,43.457,54.199,63.477,0
1579270914.293,49.316,37.598,43.457,54.688,51.758,0
1579270914.297,50.293,38.086,39.062,55.176,3.418,0
1579270914.314,53.223,36.133,39.062,51.270,15.137,0
1579270914.318,55.664,38.086,40.039,50.781,15.625,0
1579270914.322,51.270,37.598,38.574,53.223,-9.766,0
1579270914.326,47.363,33.691,40.039,55.176,-25.391,0
1579270914.330,44.922,33.203,40.527,58.105,-33.203,0
1579270914.334,45.410,36.133,42.969,57.129,-26.367,0
1579270914.338,43.457,34.668,44.922,50.293,-24.414,0
1579270914.341,37.598,31.250,39.551,42.969,2.441,0
1579270914.345,38.086,32.227,38.086,50.293,4.395,0
1579270914.349,39.551,34.180,38.086,55.664,-10.742,0
1579270914.353,38.086,35.645,39.062,55.664,0.977,0
1579270914.357,40.527,34.180,40.527,46.875,-7.324,0
1579270914.354,43.945,35.645,39.062,44.922,-22.949,0
1579270914.358,44.434,37.109,40.039,55.664,-24.902,0
1579270914.362,42.480,35.645,38.574,53.711,-16.113,0
1579270914.366,39.551,35.156,39.062,44.922,7.812,0
1579270914.370,40.527,33.691,39.551,46.387,7.324,0
1579270914.374,44.922,34.180,39.062,52.246,-3.418,0
1579270914.378,43.457,36.133,42.480,51.758,-12.695,0
1579270914.381,44.434,31.738,39.551,48.340,-6.348,0
1579270914.385,45.898,29.785,39.062,48.828,1.953,0
1579270914.389,45.898,33.691,42.969,48.828,-34.668,0
1579270914.393,41.992,31.738,40.039,47.363,-5.859,0
1579270914.397,38.086,31.250,38.086,45.898,22.949,0
1579270914.394,34.668,30.762,38.086,42.480,-9.277,0
1579270914.398,39.551,28.320,36.621,53.711,-19.043,0
1579270914.402,49.805,35.156,32.715,62.988,-22.461,0
1579270914.406,35.156,44.434,26.855,40.039,2.441,0
1579270914.410,19.043,51.270,25.391,16.602,11.230,0
1579270914.414,20.508,51.758,21.973,12.695,-19.531,0
1579270914.418,11.719,49.805,14.160,6.348,25.879,0
1579270914.421,10.254,57.129,13.672,1.953,41.016,0
1579270914.425,11.230,62.012,10.254,-6.348,12.695,0
1579270914.429,10.254,62.012,2.930,-11.230,22.461,0
1579270914.433,13.184,62.500,3.418,-5.371,15.625,0
1579270914.437,6.836,61.523,5.371,-5.371,42.969,0
1579270914.454,11.230,61.035,7.324,-2.930,27.832,0
1579270914.458,20.508,59.082,9.766,4.395,-8.789,0
1579270914.462,21.484,55.176,11.230,8.789,-13.184,0
1579270914.466,22.949,50.781,12.207,14.648,15.625,0
1579270914.470,31.738,51.270,14.160,23.926,36.133,0
1579270914.474,32.227,51.758,21.973,22.461,-12.695,0
1579270914.478,25.879,46.387,22.949,16.602,-54.688,0
1579270914.481,28.809,43.457,18.066,21.973,-57.617,0
1579270914.485,27.344,40.039,16.113,21.484,-25.391,0
1579270914.489,26.855,37.598,18.066,21.484,-7.324,0
1579270914.493,33.203,43.457,24.902,30.273,-44.434,0
1579270914.497,36.133,44.922,26.367,34.180,-58.594,0
1579270914.494,35.645,43.945,26.367,40.039,-26.367,0
1579270914.498,34.180,46.875,27.344,39.551,-1.953,0
1579270914.502,32.715,42.480,23.926,34.180,-1.953,0
1579270914.506,38.086,41.016,26.855,35.156,-31.250,0
1579270914.510,38.086,43.457,27.832,34.180,-22.461,0
1579270914.514,39.062,45.898,26.855,35.645,3.906,0
1579270914.518,41.992,46.387,29.785,33.203,-7.812,0
1579270914.521,40.527,45.898,29.785,30.762,-1.953,0
1579270914.525,41.992,48.828,33.691,35.645,-18.066,0
1579270914.529,38.574,45.898,35.645,32.715,-28.320,0
1579270914.533,33.691,39.551,33.203,28.320,-8.301,0
1579270914.537,40.039,39.062,31.250,34.668,-13.184,0
1579270914.535,42.969,38.086,31.250,35.156,4.395,0
1579270914.539,43.945,41.504,34.668,38.574,14.160,0
1579270914.543,46.875,45.410,36.621,40.527,-8.789,0
1579270914.547,46.387,42.480,35.645,40.039,7.812,0
1579270914.551,50.293,42.480,40.039,47.363,16.602,0
1579270914.555,49.316,40.527,40.039,49.805,39.062,0
1579270914.559,47.363,37.109,38.086,43.945,46.875,0
1579270914.562,49.805,37.598,40.527,40.039,7.324,0
1579270914.566,48.828,38.574,38.574,41.016,5.859,0
1579270914.570,46.875,39.062,34.668,44.434,56.152,0
1579270914.574,43.457,37.598,35.645,40.039,75.684,0
1579270914.578,46.387,37.598,35.645,38.086,34.668,0
1579270914.594,46.387,37.109,37.109,39.551,36.621,0
1579270914.598,44.434,37.598,37.109,37.598,44.434,0
1579270914.602,45.898,38.086,34.668,38.086,30.273,0
1579270914.606,45.410,38.574,35.156,40.039,36.621,0
1579270914.610,43.945,43.457,37.109,43.457,11.230,0
1579270914.614,45.898,43.945,39.551,50.293,2.441,0
1579270914.618,45.410,41.992,36.133,48.340,9.766,0
1579270914.621,43.457,41.992,36.621,42.480,13.672,0
1579270914.625,43.457,42.480,39.551,42.480,22.949,0
1579270914.629,47.363,41.992,39.062,45.410,13.672,0
1579270914.633,48.340,40.039,41.992,46.387,10.254,0
1579270914.637,44.922,38.574,43.457,45.410,4.883,0
1579270914.635,44.922,39.062,42.480,46.875,-7.324,0
1579270914.639,44.922,38.086,41.016,49.316,4.883,0
1579270914.643,41.992,36.621,41.504,46.875,19.531,0
1579270914.647,42.480,39.062,42.480,45.898,15.625,0
1579270914.651,45.410,39.551,40.527,45.898,-7.324,0
1579270914.655,42.969,39.551,39.062,49.316,-2.441,0
1579270914.659,41.016,41.016,42.480,55.176,11.719,0
1579270914.662,43.945,39.062,40.039,53.223,21.973,0
1579270914.666,57.129,41.504,43.457,57.617,7.812,0
1579270914.670,53.223,41.504,49.316,56.641,-26.367,0
1579270914.674,37.109,35.645,47.852,48.828,9.766,0
1579270914.678,36.133,33.203,47.852,46.875,30.762,0
1579270914.694,37.109,32.715,48.828,47.852,24.902,0
1579270914.698,38.086,36.621,49.805,45.410,15.625,0
1579270914.702,37.598,35.156,49.316,43.945,15.137,0
1579270914.706,37.109,32.227,47.852,41.992,25.879,0
1579270914.710,39.062,36.133,46.875,39.062,6.836,0
1579270914.714,43.945,37.109,47.363,44.922,-2.441,0
1579270914.718,45.410,35.645,47.363,48.828,17.090,0
1579270914.721,46.387,37.598,45.898,46.875,6.348,0
1579270914.725,49.805,37.598,44.434,43.945,-17.578,0
1579270914.729,51.270,39.062,43.457,45.410,-8.789,0
1579270914.733,53.711,39.551,45.410,46.387,-6.348,0
1579270914.737,51.270,42.969,48.828,50.293,10.254,0
1579270914.734,51.758,42.969,48.340,54.199,-2.441,0
1579270914.738,53.223,40.527,46.387,53.223,3.418,0
1579270914.742,52.246,41.992,49.316,49.316,-0.488,0
1579270914.746,50.293,39.551,47.852,46.387,-9.766,0
1579270914.750,48.340,40.039,45.898,50.293,-7.812,0
1579270914.754,47.852,38.574,48.340,56.152,-22.949,0
1579270914.758,48.340,36.133,48.828,53.223,-23.926,0
1579270914.761,48.828,37.598,48.340,51.758,-1.465,0
1579270914.765,48.340,35.645,47.363,52.734,14.160,0
1579270914.769,47.363,35.645,45.898,50.781,33.691,0
1579270914.773,43.945,38.086,43.945,50.293,0.977,0
1579270914.777,44.434,35.645,42.969,47.852,-18.555,0
1579270914.774,48.340,35.156,44.922,52.246,12.207,0
1579270914.778,46.875,35.645,41.016,54.199,37.109,0
1579270914.782,46.387,37.109,41.504,53.711,25.879,0
1579270914.786,47.363,41.504,46.387,52.734,-12.695,0
1579270914.790,46.387,39.551,44.922,50.781,-15.625,0
1579270914.794,47.363,34.180,42.969,57.617,-6.348,0
1579270914.798,45.898,33.691,42.480,54.199,8.301,0
1579270914.801,41.016,32.715,42.480,50.293,28.320,0
1579270914.805,43.945,35.645,45.410,52.246,16.602,0
1579270914.809,43.457,36.133,45.898,49.316,12.207,0
1579270914.813,42.969,31.738,45.898,52.246,36.133,0
1579270914.817,44.922,35.645,47.363,53.711,10.254,0
1579270914.834,40.527,37.109,46.387,48.340,-30.273,0
1579270914.838,38.574,37.598,48.340,50.781,-13.672,0
1579270914.842,40.527,37.598,47.852,54.199,18.066,0
1579270914.846,40.039,34.668,44.434,48.340,2.930,0
1579270914.850,40.527,33.691,44.922,46.875,4.883,0
1579270914.854,42.480,33.691,46.875,52.246,10.742,0
1579270914.858,41.016,36.133,46.387,54.688,-8.789,0
1579270914.861,40.527,35.156,43.457,47.852,-16.113,0
1579270914.865,41.016,31.250,40.039,44.922,-22.949,0
1579270914.869,43.457,35.156,40.527,51.270,1.465,0
1579270914.873,45.898,37.598,42.480,49.805,25.391,0
1579270914.877,45.410,37.598,44.922,48.340,8.789,0
1579270914.874,43.457,36.133,42.480,46.875,-5.859,0
1579270914.878,45.410,35.156,40.527,46.875,0.488,0
1579270914.882,46.387,35.645,41.992,50.293,-9.766,0
1579270914.886,42.969,31.738,41.992,45.898,-16.602,0
1579270914.890,38.574,32.227,44.434,41.504,-25.391,0
1579270914.894,35.645,32.227,45.410,41.992,-25.879,0
1579270914.898,34.668,30.762,46.387,43.945,-29.785,0
1579270914.901,32.715,30.762,45.898,43.457,-8.301,0
1579270914.905,33.203,30.273,46.387,42.480,-22.461,0
1579270914.909,34.180,32.715,47.363,49.805,-36.621,0
1579270914.913,35.156,36.621,47.852,53.223,-22.949,0
1579270914.917,36.621,36.133,48.340,49.316,-27.832,0
1579270914.915,36.621,35.645,47.363,44.434,-38.086,0
1579270914.919,35.645,34.668,43.945,44.922,-30.273,0
1579270914.923,34.668,32.715,43.457,47.852,-18.066,0
1579270914.927,33.203,31.738,46.875,43.945,-8.301,0
1579270914.931,33.691,32.227,45.898,44.922,-1.953,0
1579270914.935,36.133,33.691,47.363,46.875,-30.762,0
1579270914.939,38.086,31.738,49.316,49.316,-38.574,0
1579270914.942,34.668,29.297,45.410,48.828,-28.320,0
1579270914.946,35.156,36.621,47.363,42.969,-22.949,0
1579270914.950,34.668,36.621,48.340,38.574,-38.086,0
1579270914.954,31.250,32.715,42.969,37.109,-12.207,0
1579270914.958,31.738,36.133,43.945,39.551,6.348,0
1579270914.974,35.156,38.086,45.410,39.551,4.883,0
1579270914.978,33.691,39.551,46.387,35.156,-12.207,0
1579270914.982,34.668,38.574,48.828,38.574,-4.883,0
1579270914.986,39.062,37.109,46.387,44.922,4.395,0
1579270914.990,38.086,37.109,41.016,44.434,19.043,0
1579270914.994,42.969,37.598,42.480,50.293,19.043,0
1579270914.998,47.852,38.574,44.434,47.852,-0.488,0
1579270915.001,40.039,37.109,42.480,40.527,-0.488,0
1579270915.005,38.086,34.668,38.574,41.504,24.414,0
1579270915.009,45.898,36.133,41.992,41.992,21.484,0
1579270915.013,45.898,35.156,43.945,39.551,-7.812,0
1579270915.017,45.410,35.645,42.969,40.527,-26.367,0
1579270915.014,41.992,36.133,41.016,40.527,-23.926,0
1579270915.018,37.109,33.691,38.086,39.551,19.531,0
1579270915.022,37.109,33.691,40.527,38.086,25.391,0
1579270915.026,36.621,33.691,43.457,37.598,10.254,0
1579270915.030,37.109,34.180,46.387,41.504,2.441,0
1579270915.034,34.180,37.598,45.410,39.551,13.184,0
1579270915.038,36.621,36.621,39.062,41.016,12.207,0
1579270915.041,39.551,35.156,37.598,37.598,-9.277,0
1579270915.045,41.992,34.180,38.574,37.598,21.484,0
1579270915.049,45.898,36.621,41.504,43.457,34.180,0
1579270915.053,42.480,40.527,47.363,36.621,-22.949,0
1579270915.057,42.969,36.621,43.945,32.715,-31.250,0
1579270915.054,43.457,35.645,41.016,39.551,-3.418,0
1579270915.058,39.551,38.574,41.504,37.109,3.906,0
1579270915.062,41.504,39.551,41.016,32.715,15.137,0
1579270915.066,41.504,36.621,40.039,32.715,20.996,0
1579270915.070,39.062,35.645,38.574,34.180,-1.953,0
1579270915.074,35.645,36.621,40.527,36.133,5.371,0
1579270915.078,37.598,37.598,41.504,31.738,20.996,0
1579270915.081,39.062,40.527,39.551,33.203,27.832,0
1579270915.085,39.551,41.016,43.945,30.762,-15.625,0
1579270915.089,38.086,37.598,41.016,27.344,-27.832,0
1579270915.093,32.715,35.645,38.574,33.691,22.949,0
1579270915.097,33.203,37.598,42.480,36.621,16.113,0
1579270915.114,35.156,38.574,42.480,38.574,21.484,0
1579270915.118,41.504,38.574,41.016,40.527,21.484,0
1579270915.122,41.992,37.109,38.086,38.574,42.969,0
1579270915.126,36.621,36.621,37.109,33.203,49.805,0
1579270915.130,34.668,36.621,37.109,33.203,0.488,0
1579270915.134,38.086,38.086,39.551,41.016,-2.441,0
1579270915.138,42.480,38.086,42.969,42.969,16.113,0
1579270915.141,39.062,38.574,40.039,34.668,12.695,0
1579270915.145,39.551,37.109,38.574,35.156,7.812,0
1579270915.149,41.504,37.598,42.480,41.504,23.926,0
1579270915.153,39.062,37.598,42.480,39.551,39.551,0
1579270915.157,41.992,39.062,42.480,41.504,16.113,0
1579270915.154,43.945,39.062,41.992,40.039,31.738,0
1579270915.158,40.527,36.133,41.016,42.969,37.598,0
1579270915.162,45.410,35.156,44.434,49.316,2.930,0
1579270915.166,48.340,37.109,40.527,43.945,39.551,0
1579270915.170,46.387,41.992,35.156,40.039,19.531,0
1579270915.174,44.434,41.992,36.133,35.645,-23.926,0
1579270915.178,43.457,41.016,37.109,35.156,2.441,0
1579270915.181,41.504,40.039,38.086,39.062,31.250,0
1579270915.185,35.156,37.598,38.574,38.574,8.789,0
1579270915.189,33.691,39.062,38.574,40.039,-26.855,0
1579270915.193,33.203,40.527,39.551,36.621,-47.852,0
1579270915.197,24.902,38.574,36.621,34.180,-21.973,0
1579270915.194,26.367,39.062,37.598,36.621,14.648,0
1579270915.198,38.086,44.922,41.016,38.086,-7.812,0
1579270915.202,44.434,48.340,43.945,43.945,-39.062,0
1579270915.206,41.504,45.898,44.434,43.457,-23.438,0
1579270915.210,46.387,46.875,45.410,44.922,-2.930,0
1579270915.214,51.758,48.340,47.363,48.828,-26.367,0
1579270915.218,43.945,44.434,43.945,45.898,-41.016,0
1579270915.221,43.457,41.992,42.480,44.922,-20.508,0
1579270915.225,45.898,44.434,46.387,40.527,-2.930,0
1579270915.229,43.457,42.969,47.852,37.598,-1.465,0
1579270915.233,41.016,43.945,45.898,40.039,-9.766,0
1579270915.237,41.016,46.387,43.457,39.062,3.418,0
1579270915.254,43.457,46.387,44.434,42.969,28.320,0
1579270915.258,41.504,46.875,44.922,36.621,14.648,0
1579270915.262,36.133,42.480,41.016,27.832,-15.625,0
1579270915.266,37.598,41.016,38.574,35.156,0.488,0
1579270915.270,37.598,42.480,39.062,33.691,33.203,0
1579270915.274,35.645,42.969,39.062,30.762,41.504,0
1579270915.278,38.086,43.457,37.598,28.320,11.719,0
1579270915.281,40.039,41.504,34.668,28.809,-16.602,0
1579270915.285,40.039,38.574,36.621,34.668,7.812,0
1579270915.289,35.645,36.133,36.133,33.203,28.320,0
1579270915.293,35.645,34.180,35.645,33.691,13.672,0
1579270915.297,41.992,36.133,41.016,34.180,-19.531,0
1579270915.295,41.016,37.109,43.945,35.156,-28.809,0
1579270915.299,36.621,36.133,42.480,35.156,-17.090,0
1579270915.303,37.598,37.598,40.039,33.691,-14.648,0
1579270915.307,40.527,41.992,42.480,33.203,-2.441,0
1579270915.311,39.551,44.434,44.922,36.621,-13.184,0
1579270915.315,37.109,40.527,42.969,38.574,-37.598,0
1579270915.319,35.645,38.574,42.480,37.598,-43.945,0
1579270915.322,33.203,36.621,43.945,36.133,-46.387,0
1579270915.326,31.250,36.133,41.992,34.180,-41.504,0
1579270915.330,34.180,41.016,39.551,34.668,-42.480,0
1579270915.334,36.133,41.992,39.551,33.691,-52.734,0
1579270915.338,36.133,39.062,41.016,35.645,-31.738,0
1579270915.335,38.086,42.480,40.039,42.480,-20.996,0
1579270915.339,40.527,45.898,38.574,47.363,-4.395,0
1579270915.343,46.387,47.363,42.480,50.781,0.977,0
1579270915.347,45.898,44.434,44.922,48.340,-11.719,0
1579270915.351,41.504,40.527,42.480,47.852,8.789,0
1579270915.355,45.898,44.922,44.434,50.781,2.441,0
1579270915.359,47.852,44.922,43.945,48.340,-1.465,0
1579270915.362,43.945,43.945,44.922,47.852,-0.977,0
1579270915.366,43.945,42.969,45.898,43.457,-42.480,0
1579270915.370,43.945,40.039,41.016,41.992,-40.039,0
1579270915.374,43.945,41.992,42.969,45.410,-20.996,0
1579270915.378,44.922,43.945,42.969,44.434,-21.973,0
1579270915.394,48.340,44.922,42.969,41.992,-31.250,0
1579270915.398,46.875,42.969,44.922,40.039,-51.270,0
1579270915.402,44.434,41.504,44.922,41.992,-31.738,0
1579270915.406,43.945,40.527,41.992,47.852,-1.465,0
1579270915.410,45.898,40.527,43.457,52.246,2.930,0
1579270915.414,46.875,43.945,48.340,51.758,-5.859,0
1579270915.418,43.945,43.457,48.340,44.922,-20.996,0
1579270915.421,41.992,37.598,47.852,42.969,17.578,0
1579270915.425,38.086,35.645,46.875,45.898,20.020,0
1579270915.429,37.109,37.109,45.898,48.340,-22.461,0
1579270915.433,41.016,38.574,49.316,50.781,-6.348,0
1579270915.437,41.992,36.621,48.828,51.270,20.020,0
1579270915.435,41.992,36.133,46.387,50.781,18.066,0
1579270915.439,43.457,38.574,45.898,52.246,-5.859,0
1579270915.443,41.504,38.086,45.410,52.246,3.418,0
1579270915.447,43.945,39.551,45.898,52.734,17.578,0
1579270915.451,42.480,41.504,45.410,55.664,-19.043,0
1579270915.455,37.598,39.551,43.945,57.129,-42.969,0
1579270915.459,41.016,38.574,41.504,58.594,-32.715,0
1579270915.462,44.434,40.039,45.410,57.617,-16.602,0
1579270915.466,44.922,40.039,51.758,56.152,-0.977,0
1579270915.470,41.016,38.574,49.805,55.664,-7.324,0
1579270915.474,35.645,35.645,43.457,53.711,7.324,0
1579270915.478,36.133,36.133,43.457,58.594,17.578,0
1579270915.475,37.598,39.062,45.898,61.035,8.789,0
1579270915.479,40.039,39.551,44.434,59.082,3.418,0
1579270915.483,44.434,40.039,44.922,56.152,-29.297,0
1579270915.487,42.480,39.062,42.969,52.246,-21.973,0
1579270915.491,41.992,34.180,42.480,56.641,3.906,0
1579270915.495,42.969,35.156,45.410,58.594,-8.789,0
1579270915.499,38.574,35.156,41.016,54.199,-2.930,0
1579270915.502,36.621,33.203,41.992,54.199,-7.324,0
1579270915.506,40.039,35.156,44.434,53.223,-20.508,0
1579270915.510,41.504,37.598,42.969,51.758,-0.977,0
1579270915.514,37.598,38.086,43.945,53.223,-0.977,0
1579270915.518,37.109,39.062,46.387,58.105,3.906,0
1579270915.534,38.574,40.039,48.340,62.500,1.465,0
1579270915.538,36.621,38.574,44.434,58.594,9.277,0
1579270915.542,37.109,36.133,41.992,53.711,5.859,0
1579270915.546,37.109,35.156,43.457,51.758,5.859,0
1579270915.550,40.039,36.133,45.410,54.688,16.602,0
1579270915.554,45.898,37.598,45.898,60.547,19.043,0
1579270915.558,42.480,38.574,42.480,47.852,8.301,0
1579270915.561,38.574,37.598,39.062,37.598,-13.184,0
1579270915.565,37.109,39.551,39.062,46.387,-1.953,0
1579270915.569,38.574,41.992,37.109,49.316,-2.930,0
1579270915.573,41.016,42.480,37.109,49.316,-15.625,0
1579270915.577,38.086,40.527,38.086,47.363,-56.152,0
1579270915.574,35.645,38.574,37.109,42.969,-49.805,0
1579270915.578,37.109,39.551,40.039,44.434,-20.508,0
1579270915.582,37.109,39.062,41.992,48.340,-29.297,0
1579270915.586,32.715,37.109,41.504,44.922,-56.152,0
1579270915.590,32.227,37.598,41.016,41.992,-65.430,0
1579270915.594,34.668,39.062,42.969,45.898,-48.340,0
1579270915.598,35.645,37.598,44.922,44.434,-29.297,0
1579270915.601,34.668,37.109,41.992,40.527,-19.531,0
1579270915.605,36.133,37.109,40.527,40.527,-19.531,0
1579270915.609,39.062,40.039,44.922,48.828,-42.969,0
1579270915.613,37.598,41.016,47.363,47.852,-33.691,0
1579270915.617,38.574,38.574,44.922,42.480,-10.742,0
1579270915.614,40.527,39.062,44.434,43.457,-8.789,0
1579270915.618,39.062,39.551,44.434,49.316,4.395,0
1579270915.622,40.039,41.992,44.434,53.711,-23.438,0
1579270915.626,37.598,42.969,42.480,46.387,-8.301,0
1579270915.630,38.086,41.504,40.039,42.480,-12.695,0
1579270915.634,40.527,40.039,41.016,45.410,-29.785,0
1579270915.638,37.598,39.062,41.016,50.293,-2.441,0
1579270915.641,35.156,41.504,41.504,48.828,-9.277,0
1579270915.645,32.227,38.574,42.480,41.504,-18.555,0
1579270915.649,33.203,33.691,41.016,44.434,-11.719,0
1579270915.653,34.180,34.668,40.039,48.828,28.809,0
1579270915.657,33.691,33.203,40.039,48.828,47.363,0
1579270915.674,35.156,33.691,40.527,48.828,35.645,0
1579270915.678,33.203,34.180,40.039,47.852,30.762,0
1579270915.682,36.133,34.668,39.062,49.316,47.363,0
1579270915.686,40.039,37.598,37.598,48.340,49.805,0
1579270915.690,41.504,39.062,37.598,46.387,35.156,0
1579270915.694,41.016,41.992,40.527,50.781,7.812,0
1579270915.698,39.551,40.039,40.039,46.875,-27.832,0
1579270915.701,41.504,37.109,36.133,45.410,0.000,0
1579270915.705,40.527,38.574,36.133,53.223,19.531,0
1579270915.709,35.156,37.598,34.180,47.363,3.906,0
1579270915.713,39.551,39.062,36.621,47.852,-21.973,0
1579270915.717,39.062,40.039,40.527,53.223,-33.203,0
1579270915.714,36.133,41.016,41.992,47.363,-11.230,0
1579270915.718,35.645,41.016,41.504,41.992,-33.203,0
1579270915.722,33.203,37.109,38.574,39.062,-49.805,0
1579270915.726,34.668,36.133,41.504,41.992,-29.297,0
1579270915.730,38.574,36.133,44.434,47.852,-14.648,0
1579270915.734,38.086,38.086,44.434,44.434,-8.301,0
1579270915.738,34.668,39.551,41.992,40.527,-12.207,0
1579270915.741,36.621,37.109,39.551,42.969,-30.762,0
1579270915.745,41.016,36.133,42.480,47.363,-21.973,0
1579270915.749,42.969,38.574,43.945,43.945,-34.180,0
1579270915.753,40.039,37.598,41.504,36.621,-46.387,0
1579270915.757,36.133,36.133,41.992,40.039,-33.691,0
1579270915.754,38.086,37.598,40.039,45.410,-2.441,0
1579270915.758,44.434,37.598,39.062,46.387,26.855,0
1579270915.762,44.922,40.039,41.504,43.945,14.160,0
1579270915.766,43.945,38.574,39.551,41.016,32.715,0
1579270915.770,46.387,37.598,40.039,46.875,36.133,0
1579270915.774,51.270,37.109,43.457,56.152,7.812,0
1579270915.778,54.688,38.574,39.551,59.082,33.691,0
1579270915.781,51.758,46.387,36.133,49.805,49.805,0
1579270915.785,42.969,50.781,34.668,32.715,42.480,0
1579270915.789,30.762,53.223,27.832,22.461,52.734,0
1579270915.793,26.367,52.246,26.855,22.461,51.270,0
1579270915.797,27.832,50.781,26.367,25.879,19.043,0
1579270915.814,22.461,54.199,21.484,20.996,-10.742,0
1579270915.818,18.555,55.664,19.043,13.184,10.742,0
1579270915.822,19.531,56.152,20.020,9.277,26.855,0
1579270915.826,22.461,56.152,20.996,10.254,5.859,0
1579270915.830,25.391,56.152,21.484,17.578,6.348,0
1579270915.834,30.273,57.129,25.879,24.414,10.742,0
1579270915.838,31.250,53.711,24.902,24.414,12.695,0
1579270915.841,28.320,47.363,22.461,25.391,28.320,0
1579270915.845,29.785,46.387,25.391,29.785,6.836,0
1579270915.849,32.227,47.852,26.367,33.203,1.465,0
1579270915.853,33.691,48.340,30.762,33.691,7.812,0
1579270915.857,35.156,47.852,33.203,32.715,-20.020,0
1579270915.854,36.133,47.363,31.738,32.227,-14.160,0
1579270915.858,39.062,48.828,31.250,37.109,-3.418,0
1579270915.862,38.086,45.898,29.785,40.039,9.766,0
1579270915.866,38.086,46.875,29.785,39.551,11.230,0
1579270915.870,37.109,49.805,33.691,40.527,-10.742,0
1579270915.874,34.180,46.875,36.133,42.480,-24.902,0
1579270915.878,31.250,43.945,36.621,42.480,0.000,0
1579270915.881,31.250,41.504,36.133,41.016,16.113,0
1579270915.885,38.574,43.457,36.133,43.457,-10.254,0
1579270915.889,41.016,44.434,37.598,46.387,-41.992,0
1579270915.893,38.574,42.480,35.645,45.410,-36.621,0
1579270915.897,41.016,44.434,37.598,47.363,19.531,0
1579270915.895,40.527,46.387,39.551,50.293,21.484,0
1579270915.899,42.969,45.410,42.480,53.223,-26.855,0
1579270915.903,45.410,44.434,43.457,54.688,-12.695,0
1579270915.907,41.504,42.969,41.504,55.176,10.742,0
1579270915.911,39.062,41.504,40.527,53.711,3.906,0
1579270915.915,41.992,43.457,41.504,53.711,-19.043,0
1579270915.919,43.457,41.992,41.992,56.641,-1.953,0
1579270915.922,37.598,41.016,42.480,50.293,-2.441,0
1579270915.926,37.109,42.480,40.039,48.340,-32.227,0
1579270915.930,41.016,42.480,38.086,53.711,11.719,0
1579270915.934,38.574,42.969,41.016,52.734,29.785,0
1579270915.938,44.434,42.480,41.992,59.570,36.133,0
1579270915.954,45.410,43.945,42.480,60.547,27.344,0
1579270915.958,41.504,42.969,45.898,61.523,0.000,0
1579270915.962,45.898,45.410,44.922,60.059,-13.672,0
1579270915.966,42.969,49.805,38.086,49.805,0.488,0
1579270915.970,38.574,49.316,38.086,46.875,30.762,0
1579270915.974,39.551,52.246,40.527,46.387,-12.695,0
1579270915.978,34.180,49.316,38.086,40.039,-33.203,0
1579270915.981,23.926,44.434,36.621,35.645,5.859,0
1579270915.985,22.949,47.363,39.551,36.133,22.461,0
1579270915.989,23.926,48.828,39.551,36.133,25.879,0
1579270915.993,25.391,48.828,40.527,34.180,19.043,0
1579270915.997,28.809,47.363,41.992,34.180,-9.277,0
1579270915.994,27.832,44.922,38.086,34.180,-4.395,0
1579270915.998,33.203,45.410,37.598,36.133,-9.766,0
1579270916.002,36.133,46.387,37.598,38.086,-18.555,0
1579270916.006,33.203,46.387,37.598,39.551,-8.789,0
1579270916.010,33.203,44.434,37.598,44.434,0.000,0
1579270916.014,37.109,46.387,39.062,45.898,10.742,0
1579270916.018,41.016,47.852,40.527,41.992,-10.254,0
1579270916.021,41.016,42.480,41.992,41.992,-20.996,0
1579270916.025,41.016,43.457,44.922,46.875,-20.508,0
1579270916.029,43.457,47.363,49.316,44.434,-41.016,0
1579270916.033,39.551,44.434,48.340,41.016,-46.875,0
1579270916.037,39.062,45.410,43.457,45.410,-37.109,0
1579270916.035,46.875,44.434,42.480,48.340,-19.043,0
1579270916.039,46.387,43.457,43.945,45.410,-10.742,0
1579270916.043,45.898,43.457,42.969,41.992,-18.555,0
1579270916.047,48.340,40.039,44.434,43.457,-25.391,0
1579270916.051,48.828,38.574,45.898,48.340,-32.715,0
1579270916.055,48.828,38.574,43.457,51.758,-20.996,0
1579270916.059,49.805,41.016,40.527,51.758,-22.949,0
1579270916.062,51.758,41.016,43.457,48.828,-63.965,0
1579270916.066,46.387,37.598,43.457,45.898,-41.504,0
1579270916.070,42.480,40.039,42.480,49.805,-34.668,0
1579270916.074,43.457,41.504,41.992,48.340,-22.949,0
1579270916.078,42.969,40.039,41.016,45.410,-12.207,0
1579270916.095,37.109,40.527,43.457,41.016,-41.992,0
1579270916.099,35.156,40.039,40.527,37.598,-30.762,0
1579270916.103,33.203,38.574,40.039,39.551,-7.324,0
1579270916.107,32.715,38.574,42.969,36.621,6.836,0
1579270916.111,36.133,40.039,43.457,41.504,-8.789,0
1579270916.115,39.551,43.457,45.410,44.922,-46.875,0
1579270916.119,35.645,40.527,41.504,39.062,-45.410,0
1579270916.122,33.203,36.133,37.109,36.621,8.789,0
1579270916.126,40.039,39.062,40.527,37.109,16.602,0
1579270916.130,41.504,38.574,43.457,36.133,-22.949,0
1579270916.134,42.969,38.574,43.945,34.668,-14.160,0
1579270916.138,48.828,38.574,41.016,31.738,-2.441,0
1579270916.135,62.988,39.062,37.109,41.504,-14.160,0
1579270916.139,69.824,39.551,41.992,54.199,-39.551,0
1579270916.143,53.223,34.668,48.828,48.828,-31.250,0
1579270916.147,34.668,30.273,56.152,34.180,-8.301,0
1579270916.151,23.926,23.926,62.500,27.832,-2.930,0
1579270916.155,25.391,20.020,64.941,40.527,-14.160,0
1579270916.159,24.414,16.602,68.359,45.410,-12.207,0
1579270916.162,13.672,8.301,69.336,37.598,41.504,0
1579270916.166,12.207,5.859,70.312,40.527,25.391,0
1579270916.170,6.836,6.836,68.848,33.203,-4.395,0
1579270916.174,6.836,7.324,64.941,29.297,17.090,0
1579270916.178,17.578,10.742,64.453,40.039,9.277,0
1579270916.194,19.043,14.160,62.500,41.016,-6.348,0
1579270916.198,18.066,18.555,62.012,40.527,1.953,0
1579270916.202,20.508,21.484,60.547,41.992,-14.160,0
1579270916.206,22.461,21.484,54.688,44.434,-18.555,0
1579270916.210,23.438,23.438,54.199,42.480,6.836,0
1579270916.214,29.785,25.391,55.176,41.992,-15.625,0
1579270916.218,32.227,24.902,54.199,48.828,-34.668,0
1579270916.221,29.785,24.414,56.641,46.875,-42.969,0
1579270916.225,29.297,20.020,50.781,46.875,-38.574,0
1579270916.229,31.738,19.531,47.363,52.246,-13.184,0
1579270916.233,35.156,21.484,52.734,54.688,2.930,0
1579270916.237,35.645,22.949,54.688,59.082,8.301,0
1579270916.234,37.109,26.855,53.711,59.082,-17.090,0
1579270916.238,40.039,25.391,53.223,53.223,-6.348,0
1579270916.242,43.457,26.367,52.246,51.270,10.742,0
1579270916.246,42.480,29.297,49.316,55.176,28.320,0
1579270916.250,40.527,30.762,48.340,57.129,24.414,0
1579270916.254,41.992,32.227,48.340,54.199,-10.254,0
1579270916.258,42.969,32.227,46.387,51.758,-29.297,0
1579270916.261,41.504,32.227,45.898,50.781,-11.719,0
1579270916.265,41.504,31.250,44.434,52.734,0.000,0
1579270916.269,41.504,30.762,43.945,56.152,16.113,0
1579270916.273,41.992,38.086,50.781,58.105,0.488,0
1579270916.277,39.551,38.574,49.316,55.176,-28.320,0
1579270916.274,42.480,34.668,44.922,55.176,-0.977,0
1579270916.278,45.898,35.645,45.898,57.129,7.324,0
1579270916.282,43.945,35.645,45.410,52.734,-17.578,0
1579270916.286,40.527,35.645,47.363,48.828,-17.090,0
1579270916.290,37.109,34.668,46.387,49.316,5.859,0
1579270916.294,39.551,35.645,44.922,51.270,3.418,0
1579270916.298,44.434,38.086,46.387,48.340,-8.301,0
1579270916.301,41.504,36.133,44.922,46.875,-30.273,0
1579270916.305,41.504,38.086,44.434,49.805,-33.203,0
1579270916.309,42.480,38.574,41.016,45.410,-22.949,0
1579270916.313,40.039,33.203,38.574,41.992,-10.254,0
1579270916.317,40.039,34.668,41.016,46.875,-19.043,0
1579270916.334,37.109,39.551,39.062,51.758,-15.137,0
1579270916.338,35.156,40.527,39.551,53.711,-1.953,0
1579270916.342,40.039,34.668,38.086,54.688,14.160,0
1579270916.346,43.457,35.645,41.016,55.176,-0.977,0
1579270916.350,41.504,38.086,45.410,54.199,-26.367,0
1579270916.354,40.527,35.156,41.016,53.223,-0.488,0
1579270916.358,38.086,35.645,41.504,49.316,6.348,0
1579270916.361,39.062,36.621,44.434,46.387,-35.645,0
1579270916.365,34.180,32.715,41.016,43.945,-44.922,0
1579270916.369,39.062,30.762,39.551,53.711,-7.324,0
1579270916.373,50.293,34.668,40.039,60.059,0.488,0
1579270916.377,40.039,41.992,36.621,45.898,-13.184,0
1579270916.374,30.762,45.898,30.762,32.715,-6.836,0
1579270916.378,25.391,48.340,25.879,22.461,13.184,0
1579270916.382,23.438,47.363,27.344,22.461,27.344,0
1579270916.386,29.297,47.363,28.809,26.367,-3.906,0
1579270916.390,29.297,48.340,30.273,20.020,-34.668,0
1579270916.394,25.391,47.852,30.762,19.531,-0.488,0
1579270916.398,25.391,49.316,29.297,24.414,39.551,0
1579270916.401,27.832,48.340,31.738,28.809,22.461,0
1579270916.405,28.320,44.434,28.809,31.250,6.348,0
1579270916.409,32.715,43.945,28.809,33.203,23.438,0
1579270916.413,37.598,41.504,32.227,32.227,8.789,0
1579270916.417,39.551,38.574,30.273,35.645,3.418,0
1579270916.414,42.969,41.992,31.738,44.434,2.441,0
1579270916.418,48.340,42.969,34.668,45.898,-7.324,0
1579270916.422,52.246,41.504,36.133,48.828,-7.324,0
1579270916.426,52.246,42.480,36.621,51.270,-14.160,0
1579270916.430,51.270,41.992,34.668,47.852,4.395,0
1579270916.434,54.199,41.016,37.109,49.805,2.441,0
1579270916.438,53.223,41.016,37.109,51.758,-16.602,0
1579270916.441,47.852,40.527,34.668,52.246,3.418,0
1579270916.445,41.504,42.480,37.109,48.340,-14.648,0
1579270916.449,39.551,42.969,37.109,41.992,-35.645,0
1579270916.453,41.016,39.551,34.668,40.039,-26.855,0
1579270916.457,39.551,39.551,32.715,42.969,-35.156,0
1579270916.474,38.086,42.480,31.250,45.898,-6.348,0
1579270916.478,38.086,41.504,38.086,46.387,-17.090,0
1579270916.482,40.527,38.574,40.527,48.340,-26.367,0
1579270916.486,41.992,39.062,37.109,49.316,12.695,0
1579270916.490,46.875,40.527,37.109,48.828,12.695,0
1579270916.494,47.363,41.504,37.598,49.805,7.324,0
1579270916.498,45.410,41.504,41.504,51.270,-16.113,0
1579270916.501,42.969,41.016,40.527,47.363,-44.434,0
1579270916.505,41.504,36.621,37.109,47.852,-9.277,0
1579270916.509,41.504,35.645,41.504,49.805,11.719,0
1579270916.513,36.621,36.621,41.016,46.875,14.160,0
1579270916.517,38.086,37.109,42.480,44.434,-0.488,0
1579270916.514,38.086,38.086,41.992,42.969,-5.859,0
1579270916.518,35.156,37.109,39.551,44.922,8.301,0
1579270916.522,36.133,36.621,40.527,44.434,17.578,0
1579270916.526,35.156,37.109,41.504,40.527,22.461,0
1579270916.530,35.645,35.156,41.504,43.945,33.691,0
1579270916.534,38.574,34.180,42.969,50.781,25.391,0
1579270916.538,39.551,35.156,43.457,50.781,27.344,0
1579270916.541,36.621,34.180,41.992,47.363,18.555,0
1579270916.545,37.109,32.227,41.504,48.340,12.207,0
1579270916.549,39.551,33.203,45.410,54.199,2.930,0
1579270916.553,41.504,34.180,48.828,47.852,-28.320,0
1579270916.557,38.574,31.250,42.480,40.527,-17.090,0
1579270916.554,39.062,30.762,40.039,48.340,-3.418,0
1579270916.558,40.527,30.762,42.480,49.805,-4.883,0
1579270916.562,45.898,31.250,41.504,55.664,-9.766,0
1579270916.566,50.781,34.668,40.527,61.523,-47.363,0
1579270916.570,43.457,40.527,36.133,48.340,-32.715,0
1579270916.574,33.691,43.945,34.668,36.133,14.648,0
1579270916.578,34.668,43.945,33.203,36.621,-6.836,0
1579270916.581,41.016,42.480,33.203,42.480,-40.527,0
1579270916.585,33.203,41.504,37.598,30.273,-74.707,0
1579270916.589,20.996,36.133,36.133,19.043,-68.359,0
1579270916.593,24.414,31.738,30.762,26.855,-20.020,0
1579270916.597,28.320,33.203,29.297,23.926,-0.977,0
1579270916.614,30.762,34.668,31.738,23.438,-16.113,0
1579270916.618,32.715,35.645,35.156,32.715,-23.438,0
1579270916.622,31.738,34.180,34.668,33.203,4.395,0
1579270916.626,33.691,33.203,34.668,30.762,18.066,0
1579270916.630,36.621,34.668,35.156,37.109,-20.996,0
1579270916.634,36.621,36.133,35.156,44.922,-13.184,0
1579270916.638,39.551,35.645,38.086,49.316,-5.371,0
1579270916.641,37.598,35.645,38.574,41.504,-46.875,0
1579270916.645,36.133,33.691,32.715,37.109,-37.598,0
1579270916.649,35.645,33.203,31.738,41.504,-12.207,0
1579270916.653,36.133,33.691,34.668,47.363,21.973,0
1579270916.657,39.062,34.180,35.645,50.293,19.531,0
1579270916.654,37.109,36.133,34.180,45.410,13.672,0
1579270916.658,32.715,35.156,34.180,42.969,32.227,0
1579270916.662,35.645,33.691,35.645,48.340,4.395,0
1579270916.666,34.668,33.691,34.180,47.852,14.648,0
1579270916.670,35.156,36.133,37.109,46.875,14.160,0
1579270916.674,38.086,35.645,39.062,47.852,-0.488,0
1579270916.678,39.062,34.180,38.574,47.363,33.691,0
1579270916.681,41.504,35.156,40.527,52.734,6.836,0
1579270916.685,41.016,34.180,39.551,52.246,-5.371,0
1579270916.689,39.551,38.574,41.016,49.805,-14.648,4
1579270916.693,35.645,40.039,41.992,44.434,-30.762,0
1579270916.697,34.668,37.598,39.551,41.992,3.906,0
1579270916.694,37.109,38.574,39.551,45.898,29.785,0
1579270916.698,38.086,35.645,40.527,41.992,10.254,0
1579270916.702,40.039,36.621,43.945,44.922,-30.273,0
1579270916.706,39.551,39.062,45.898,50.293,-20.996,0
1579270916.710,41.504,38.574,44.922,52.246,4.883,0
1579270916.714,45.410,40.039,47.363,52.734,-3.418,0
1579270916.718,44.434,37.598,46.387,50.293,9.277,0
1579270916.721,43.457,36.621,41.992,50.293,20.020,0
1579270916.725,45.898,40.527,42.969,44.922,-18.066,0
1579270916.729,43.945,37.598,41.504,40.039,-23.438,0
1579270916.733,41.016,37.109,41.016,46.387,-3.418,0
1579270916.737,41.992,39.062,43.457,49.805,24.902,0
1579270916.754,44.922,39.062,44.922,52.734,43.457,0
1579270916.758,48.828,41.504,45.898,51.270,21.484,0
1579270916.762,46.875,41.016,43.457,43.457,-5.371,0
1579270916.766,45.410,38.086,40.039,45.898,12.695,0
1579270916.770,46.387,36.621,41.504,49.805,40.527,0
1579270916.774,45.898,40.039,47.852,51.270,23.438,0
1579270916.778,45.410,42.480,46.387,49.316,-16.113,0
1579270916.781,41.992,37.598,41.992,45.410,-9.766,0
1579270916.785,39.551,36.621,41.504,46.387,34.668,0
1579270916.789,38.574,40.039,40.039,41.504,58.105,0
1579270916.793,38.086,38.574,41.504,35.645,27.344,0
1579270916.797,39.062,38.574,44.922,38.086,-7.324,0
1579270916.794,35.645,35.156,41.016,37.109,11.230,0
1579270916.798,34.668,35.645,38.086,38.086,45.410,0
1579270916.802,37.109,39.062,40.039,40.039,57.617,0
1579270916.806,32.715,37.598,42.480,39.062,50.781,0
1579270916.810,32.715,37.109,43.945,41.992,16.602,0
1579270916.814,37.109,38.574,46.387,48.340,21.973,0
1579270916.818,41.016,40.527,45.410,50.293,52.734,0
1579270916.821,49.805,41.992,43.945,56.641,41.504,0
1579270916.825,51.758,38.086,47.852,62.012,21.484,0
1579270916.829,35.156,34.180,56.641,51.758,6.836,0
1579270916.833,17.090,30.273,61.035,39.062,-20.996,0
1579270916.837,11.719,21.484,58.105,34.180,16.602,0
1579270916.834,15.137,18.066,62.012,37.109,29.297,0
1579270916.838,17.090,17.090,68.848,45.410,0.488,0
1579270916.842,14.160,16.602,72.266,47.852,1.465,0
1579270916.846,6.836,15.625,70.801,36.621,12.207,0
1579270916.850,8.789,18.066,67.871,37.598,11.719,0
1579270916.854,15.625,20.996,67.383,47.852,0.000,0
1579270916.858,19.531,21.484,62.500,48.828,-4.883,0
1579270916.861,20.996,24.902,61.035,47.363,-7.812,0
1579270916.865,22.949,28.320,62.012,44.922,-38.574,0
1579270916.869,24.902,26.855,55.664,41.504,-35.156,0
1579270916.873,28.320,28.320,56.152,52.734,5.859,0
1579270916.877,31.250,29.785,57.129,57.129,-14.160,0
1579270916.894,34.668,32.227,56.152,56.152,-22.949,0
1579270916.898,35.156,32.227,58.594,59.082,-14.160,0
1579270916.902,36.133,33.203,57.129,61.523,-4.883,0
1579270916.906,41.016,34.668,54.199,59.082,-9.766,0
1579270916.910,42.480,35.156,56.641,57.617,-12.695,0
1579270916.914,41.992,36.133,55.176,61.523,-6.348,0
1579270916.918,42.480,35.156,53.711,58.594,-17.578,0
1579270916.921,41.016,31.738,49.805,52.734,-6.836,0
1579270916.925,41.016,31.250,46.875,53.711,16.113,0
1579270916.929,41.992,33.691,48.828,56.641,0.000,0
1579270916.933,44.434,33.691,45.898,57.617,-21.484,0
1579270916.937,45.898,33.691,43.945,59.082,-12.207,0
1579270916.934,40.527,32.227,42.969,53.223,1.953,0
1579270916.938,37.598,35.645,41.992,49.316,0.977,0
1579270916.942,40.527,36.621,44.434,54.688,12.695,0
1579270916.946,45.410,37.109,48.340,59.082,21.484,0
1579270916.950,46.875,40.039,48.340,59.570,-10.254,0
1579270916.954,43.945,39.551,49.316,55.664,-20.996,0
1579270916.958,42.969,39.551,50.781,53.223,-16.113,0
1579270916.961,40.039,39.062,49.316,51.758,-9.277,0
1579270916.965,41.504,38.574,47.852,51.270,3.906,0
1579270916.969,45.898,44.922,52.246,52.246,-34.668,0
1579270916.973,40.527,43.945,52.246,47.852,-32.227,0
1579270916.977,38.574,39.062,47.852,50.781,19.043,0
1579270916.975,45.898,39.551,47.363,56.152,26.855,0
1579270916.979,48.340,37.598,48.828,56.641,30.762,0
1579270916.983,44.434,40.527,50.293,56.641,8.789,0
1579270916.987,45.410,41.016,47.363,58.105,-6.836,0
1579270916.991,46.875,37.598,45.898,60.059,-8.301,0
1579270916.995,44.922,35.645,44.434,55.176,-7.812,0
1579270916.999,44.434,33.691,42.969,50.781,-4.395,0
1579270917.002,47.852,37.109,46.387,55.176,-7.812,0
1579270917.006,46.875,37.109,46.387,58.105,-24.902,0
1579270917.010,44.922,30.762,42.969,59.570,-17.578,0
1579270917.014,45.898,31.738,40.039,60.059,0.000,0
1579270917.018,43.457,32.227,38.574,55.176,5.859,0
1579270917.034,44.922,32.227,41.992,58.594,-3.418,0
1579270917.038,42.969,30.273,41.992,53.711,-36.133,0
1579270917.042,42.969,29.297,39.062,48.828,-39.062,0
1579270917.046,48.828,32.715,41.504,56.152,-12.695,0
1579270917.050,45.898,33.691,42.480,57.617,-18.066,0
1579270917.054,40.527,33.691,41.992,59.082,-7.324,0
1579270917.058,39.062,34.668,43.945,54.199,-27.832,0
1579270917.061,36.621,32.715,39.551,48.340,-58.105,0
1579270917.065,40.527,33.203,38.086,56.641,-31.250,0
1579270917.069,42.480,34.180,41.016,61.035,-8.789,0
1579270917.073,41.992,36.133,41.504,55.664,11.719,0
1579270917.077,43.457,38.574,44.434,55.176,-1.465,0
1579270917.074,46.875,38.574,45.410,58.594,-8.301,0
1579270917.078,49.316,39.062,41.992,58.105,8.789,0
1579270917.082,48.828,39.062,42.969,56.152,14.648,0
1579270917.086,48.340,37.598,44.434,56.641,-1.953,0
1579270917.090,44.434,37.109,43.945,55.664,-20.020,0
1579270917.094,45.410,33.691,42.480,57.617,12.207,0
1579270917.098,49.316,34.180,42.480,61.035,11.719,0
1579270917.101,45.410,36.133,40.527,54.688,-17.578,0
1579270917.105,46.387,33.691,38.086,53.223,1.953,0
1579270917.109,45.898,35.156,40.527,49.316,-4.395,0
1579270917.113,36.133,33.691,41.992,41.016,-2.930,0
1579270917.117,33.691,29.785,41.992,48.828,8.789,0
1579270917.114,35.645,33.691,42.480,52.246,17.090,0
1579270917.118,34.668,36.133,42.969,48.828,22.949,0
1579270917.122,32.715,35.645,45.410,51.758,24.414,0
1579270917.126,32.715,37.109,47.852,50.781,22.949,0
1579270917.130,35.156,39.062,48.340,48.828,9.277,0
1579270917.134,38.086,40.039,46.875,53.711,12.695,0
1579270917.138,41.016,37.109,44.434,57.617,25.391,0
1579270917.141,42.480,37.109,45.898,58.594,10.742,0
1579270917.145,41.016,36.621,46.875,51.758,-20.996,0
1579270917.149,37.598,34.668,42.480,51.270,-4.883,0
1579270917.153,43.457,34.668,44.922,57.129,16.602,0
1579270917.157,40.527,32.715,47.363,56.152,35.156,0
1579270917.175,36.133,33.691,45.410,52.734,39.062,0
1579270917.179,41.016,36.133,46.387,53.711,4.395,0
1579270917.183,42.969,37.109,46.875,56.641,2.930,0
1579270917.187,46.387,37.598,42.969,55.664,30.762,0
1579270917.191,51.758,37.598,43.457,59.082,24.414,0
1579270917.195,54.199,41.016,49.316,60.059,25.391,0
1579270917.199,54.688,42.969,49.316,53.711,20.508,0
1579270917.202,55.176,41.016,44.434,52.246,29.297,0
1579270917.206,52.734,41.504,41.992,53.223,27.344,0
1579270917.210,44.922,41.504,41.016,53.223,-6.348,0
1579270917.214,42.969,43.457,42.480,54.199,-0.977,0
1579270917.218,45.410,41.016,45.410,52.734,4.883,0
1579270917.215,39.551,37.109,43.945,54.199,3.418,0
1579270917.219,34.180,38.574,41.992,53.223,11.230,0
1579270917.223,33.691,40.039,42.969,52.734,-4.883,0
1579270917.227,33.203,41.016,45.410,51.270,10.254,0
1579270917.231,32.715,38.086,45.410,50.293,28.809,0
1579270917.235,29.297,35.645,46.387,55.176,5.859,0
1579270917.239,29.785,37.109,48.828,55.664,3.418,0
1579270917.242,35.645,39.551,45.898,54.688,17.578,0
1579270917.246,34.668,38.086,44.434,53.711,22.949,0
1579270917.250,31.250,34.668,48.340,49.805,-13.672,0
1579270917.254,30.273,33.203,46.387,48.340,-18.555,0
1579270917.258,29.297,34.180,46.387,52.734,-16.602,0
1579270917.255,28.320,33.203,45.898,56.641,7.812,0
1579270917.259,31.250,33.691,45.898,56.641,22.461,0
1579270917.263,35.645,35.645,47.852,53.223,-17.090,0
1579270917.267,37.109,36.621,42.480,50.293,-23.438,0
1579270917.271,38.086,39.062,42.480,54.688,-11.719,0
1579270917.275,38.086,37.598,45.898,55.176,1.953,0
1579270917.279,41.992,35.156,42.969,50.293,20.020,0
1579270917.282,49.316,41.016,45.410,49.316,-0.977,0
1579270917.286,46.875,40.527,45.898,49.316,-33.203,0
1579270917.290,41.992,31.738,42.480,52.734,-13.672,0
1579270917.294,41.504,32.227,41.016,55.664,-14.648,0
1579270917.298,37.598,32.715,40.039,52.734,-21.973,0
1579270917.314,36.621,33.203,43.457,56.641,-42.969,0
1579270917.318,37.598,32.715,41.016,54.688,-21.973,0
1579270917.322,36.133,31.250,39.551,45.898,0.977,0
1579270917.326,32.227,30.762,39.551,45.898,-26.367,0
1579270917.330,29.297,31.250,39.062,47.852,-21.484,0
1579270917.334,33.203,33.691,43.945,52.246,-42.480,0
1579270917.338,36.621,33.203,41.504,48.828,-41.504,0
1579270917.341,38.086,28.809,34.668,43.945,-38.574,0
1579270917.345,34.180,26.855,36.133,44.922,-52.734,0
1579270917.349,30.762,30.762,38.086,43.945,-15.625,0
1579270917.353,31.738,35.645,40.039,47.363,3.906,0
1579270917.357,29.297,35.156,39.551,49.316,11.719,0
1579270917.354,25.879,38.086,41.504,44.922,6.348,0
1579270917.358,29.297,42.969,44.922,46.387,-12.207,0
1579270917.362,31.250,44.434,47.363,48.828,4.883,0
1579270917.366,25.391,42.969,45.410,40.527,6.836,0
1579270917.370,19.043,46.875,43.945,31.738,-9.277,0
1579270917.374,16.113,55.664,47.363,27.832,-7.324,0
1579270917.378,5.859,58.594,52.246,17.090,8.301,0
1579270917.381,-11.230,64.453,54.199,-0.488,-0.977,0
1579270917.385,-22.461,72.266,59.082,-13.672,-28.809,0
1579270917.389,-39.551,77.148,65.430,-38.574,-41.992,0
1579270917.393,-62.012,81.543,62.988,-69.336,6.348,0
1579270917.397,-85.449,84.473,65.918,-91.309,46.387,0
1579270917.394,-108.398,89.844,72.266,-113.770,42.969,0
1579270917.398,-130.371,90.820,75.195,-136.719,14.648,0
1579270917.402,-141.602,88.379,72.754,-149.414,5.371,0
1579270917.406,-147.949,89.844,70.312,-156.738,47.852,0
1579270917.410,-150.391,94.238,69.824,-162.109,28.809,0
1579270917.414,-155.762,101.562,63.965,-166.504,2.441,0
1579270917.418,-165.527,99.121,57.617,-168.457,16.602,0
1579270917.421,-159.180,99.121,55.664,-168.945,20.020,0
1579270917.425,-152.344,100.586,53.223,-166.992,29.297,0
1579270917.429,-153.320,96.191,48.828,-163.574,15.625,0
1579270917.433,-149.414,92.285,48.340,-156.738,14.160,0
1579270917.437,-135.742,91.309,45.898,-139.160,31.250,0
1579270917.454,-124.023,88.867,45.898,-126.953,22.949,0
1579270917.458,-111.328,86.426,45.410,-118.652,13.184,0
1579270917.462,-96.680,86.914,42.969,-106.445,29.297,0
1579270917.466,-87.891,83.496,41.016,-97.168,24.902,0
1579270917.470,-78.125,76.660,39.551,-88.867,22.461,0
1579270917.474,-58.105,72.754,44.922,-72.754,-14.648,0
1579270917.478,-42.969,67.871,44.434,-56.152,-59.082,0
1579270917.481,-28.809,60.547,38.574,-41.016,-23.438,0
1579270917.485,-10.742,52.734,36.133,-16.602,-19.043,0
1579270917.489,-0.488,42.480,34.180,3.418,-8.301,0
1579270917.493,16.113,39.062,36.133,17.578,-28.809,0
1579270917.497,33.691,34.668,36.133,37.109,-33.203,0
1579270917.494,48.340,24.414,30.762,56.641,8.789,0
1579270917.498,64.453,20.020,27.344,71.777,0.977,0
1579270917.502,76.172,16.113,26.367,83.496,-20.996,0
1579270917.506,86.426,10.742,28.320,91.309,-23.438,0
1579270917.510,93.262,6.836,30.762,98.633,-3.906,0
1579270917.514,100.586,5.371,27.832,103.027,-15.137,0
1579270917.518,106.445,4.395,27.344,104.492,-9.277,0
1579270917.521,108.887,1.953,28.809,108.398,-26.855,0
1579270917.525,113.281,4.883,30.762,118.652,-41.016,0
1579270917.529,117.676,7.324,31.738,128.906,-41.504,0
1579270917.533,118.652,3.418,28.809,127.930,-31.250,0
1579270917.537,123.047,3.906,28.809,128.906,-2.930,0
1579270917.535,125.000,3.906,29.297,135.742,11.719,0
1579270917.539,124.512,5.859,29.297,142.578,33.203,0
1579270917.543,125.000,10.254,31.250,146.973,23.926,0
1579270917.547,124.023,9.277,31.250,142.090,10.254,0
1579270917.551,119.629,9.766,30.273,139.648,15.625,0
1579270917.555,121.582,11.230,32.715,145.508,1.953,0
1579270917.559,123.047,11.230,36.621,149.414,10.254,0
1579270917.562,118.652,11.230,39.551,142.090,4.395,0
1579270917.566,114.746,9.766,37.109,132.324,-17.578,0
1579270917.570,115.723,7.812,36.133,135.254,26.855,0
1579270917.574,116.211,8.789,40.039,142.578,29.785,0
1579270917.578,116.699,10.254,38.574,142.090,-11.719,0
1579270917.594,115.723,12.695,37.598,139.648,-18.066,0
1579270917.598,112.793,13.184,34.180,135.742,-8.789,0
1579270917.602,111.328,12.207,31.738,127.441,-19.531,0
1579270917.606,109.375,15.137,32.227,122.070,-47.363,0
1579270917.610,112.305,21.484,33.203,125.000,-70.312,0
1579270917.614,108.887,21.484,33.203,125.488,-73.242,0
1579270917.618,105.469,19.531,32.715,120.117,-41.992,0
1579270917.621,106.445,21.973,30.762,121.582,-39.062,0
1579270917.625,105.957,21.484,28.809,124.512,-76.660,0
1579270917.629,108.398,20.996,30.273,125.488,-75.684,0
1579270917.633,104.980,20.508,37.598,127.930,-53.223,0
1579270917.637,100.586,18.555,39.062,124.023,-48.340,0
1579270917.635,96.680,16.113,35.645,115.723,-46.387,0
1579270917.639,91.309,16.113,36.621,112.793,-40.039,0
1579270917.643,83.496,16.113,36.133,110.840,-17.578,0
1579270917.647,80.566,18.555,34.668,102.051,-9.766,0
1579270917.651,78.125,20.020,36.621,94.238,-20.996,0
1579270917.655,70.312,19.043,41.016,90.820,-32.715,0
1579270917.659,69.824,18.555,38.574,87.402,-30.273,0
1579270917.662,66.895,15.625,34.180,81.543,12.695,0
1579270917.666,59.082,14.648,36.133,79.590,18.066,0
1579270917.670,60.059,15.625,39.551,72.266,-27.344,0
1579270917.674,60.547,14.648,40.039,71.777,-26.855,0
1579270917.678,60.059,14.648,38.574,78.125,0.488,0
1579270917.695,64.453,15.137,39.062,75.195,24.902,0
1579270917.699,69.824,17.090,41.504,73.730,9.277,0
1579270917.703,69.336,17.090,38.574,72.266,-20.508,0
1579270917.707,67.383,15.625,34.668,74.707,-5.371,0
1579270917.711,67.383,19.531,35.645,79.102,17.578,0
1579270917.715,71.289,22.461,36.621,81.543,12.207,0
1579270917.719,69.336,25.391,37.109,85.449,6.348,0
1579270917.722,67.383,28.320,39.062,80.078,14.160,0
1579270917.726,65.918,26.855,39.551,76.660,24.902,0
1579270917.730,64.453,28.320,41.016,79.102,13.184,0
1579270917.734,62.988,29.297,41.504,75.684,11.719,0
1579270917.738,59.082,26.367,38.574,72.266,40.039,0
1579270917.734,56.152,28.320,38.086,64.453,22.949,0
1579270917.738,49.316,25.879,36.133,58.105,-5.371,0
1579270917.742,48.340,25.391,35.645,64.453,-22.461,0
1579270917.746,49.316,26.367,38.086,67.871,-12.695,0
1579270917.750,48.340,24.902,40.039,62.012,20.020,0
1579270917.754,47.363,26.855,39.551,57.617,2.441,0
1579270917.758,45.410,28.320,37.598,61.035,-18.555,0
1579270917.761,47.363,28.320,37.109,63.477,-8.789,0
1579270917.765,48.828,28.809,37.109,63.477,9.277,0
1579270917.769,47.363,31.738,38.574,65.918,20.020,0
1579270917.773,49.805,36.133,42.480,57.129,-29.785,0
1579270917.777,48.828,34.180,40.039,47.852,-48.828,0
1579270917.774,41.504,29.297,36.133,54.688,25.391,0
1579270917.778,45.410,31.250,37.598,61.035,24.902,0
1579270917.782,48.340,32.715,35.645,57.617,24.902,0
1579270917.786,46.875,30.273,35.645,52.246,21.484,0
1579270917.790,50.293,31.250,37.109,55.664,-8.301,0
1579270917.794,50.781,33.691,35.156,57.129,11.230,0
1579270917.798,53.711,32.227,35.645,51.270,-12.207,0
1579270917.801,54.688,29.785,35.156,45.898,-2.441,0
1579270917.805,55.176,32.715,35.156,46.875,15.137,0
1579270917.809,52.246,33.203,38.086,46.875,2.441,0
1579270917.813,46.387,30.762,36.133,47.852,42.480,0
1579270917.817,46.875,33.203,37.109,50.781,38.086,0
1579270917.834,44.434,34.180,40.039,48.828,11.719,0
1579270917.838,45.410,34.668,41.504,48.340,35.156,0
1579270917.842,44.434,33.691,37.598,49.805,80.566,0
1579270917.846,40.039,33.203,37.598,47.852,71.289,0
1579270917.850,40.527,34.180,41.016,46.387,27.344,0
1579270917.854,38.574,33.691,39.551,48.340,35.645,0
1579270917.858,41.016,34.668,39.551,49.805,33.691,0
1579270917.861,38.574,34.668,41.992,41.016,-26.855,0
1579270917.865,37.598,32.715,38.574,41.016,-30.273,0
1579270917.869,42.969,35.645,39.062,50.781,17.090,0
1579270917.873,42.969,35.645,40.527,54.199,40.039,0
1579270917.877,45.410,35.645,40.527,56.641,40.527,0
1579270917.874,45.410,36.621,41.016,52.734,6.836,0
1579270917.878,43.945,37.109,40.527,50.781,-0.488,0
1579270917.882,46.387,38.574,43.945,57.617,-11.230,0
1579270917.886,47.363,38.574,44.922,57.129,-3.418,0
1579270917.890,47.363,39.062,43.457,51.758,0.977,0
1579270917.894,45.410,38.086,42.969,49.805,-20.508,0
1579270917.898,42.480,37.109,39.062,51.758,-22.461,2
1579270917.901,45.410,39.062,39.551,56.641,-28.809,0
1579270917.905,45.410,38.574,40.039,53.711,-31.250,0
1579270917.909,45.410,36.621,37.598,50.781,-11.719,0
1579270917.913,50.293,38.086,40.527,56.152,-32.227,0
1579270917.917,44.434,35.645,39.551,51.270,-25.879,0
1579270917.914,37.109,34.180,37.109,45.898,-4.395,0
1579270917.918,38.086,34.668,39.062,46.875,-27.832,0
1579270917.922,39.062,31.738,36.621,47.363,-21.484,0
1579270917.926,37.598,28.320,34.668,45.898,3.906,0
1579270917.930,36.621,29.785,37.598,44.434,-8.301,0
1579270917.934,38.574,33.691,40.527,45.410,-0.488,0
1579270917.938,35.156,35.645,39.551,43.945,2.930,0
1579270917.941,36.621,37.598,39.551,47.852,-6.348,0
1579270917.945,41.504,41.016,41.992,47.852,-19.043,0
1579270917.949,37.598,36.621,44.434,44.434,-21.484,0
1579270917.953,36.133,33.203,44.434,44.922,-7.324,0
1579270917.957,37.109,30.762,42.969,50.781,5.371,0
1579270917.974,38.574,27.832,43.457,56.152,29.785,0
1579270917.978,42.969,33.203,46.387,56.641,-11.230,0
1579270917.982,43.945,31.738,43.457,50.781,-27.344,0
1579270917.986,44.922,28.809,41.504,48.828,13.672,0
1579270917.990,44.434,32.227,41.504,48.828,16.602,0
1579270917.994,42.969,34.668,41.504,46.387,20.020,0
1579270917.998,40.527,38.574,41.992,46.875,-6.348,0
1579270918.001,37.109,34.668,35.645,43.457,-31.738,0
1579270918.005,35.156,30.273,32.715,41.504,-6.348,0
1579270918.009,35.645,34.180,37.598,43.945,8.789,0
1579270918.013,39.551,37.598,38.574,47.852,10.254,0
1579270918.017,38.574,37.109,41.504,51.270,1.953,0
1579270918.014,39.551,37.109,41.992,49.316,-2.930,0
1579270918.018,42.480,37.598,40.039,48.340,-9.766,0
1579270918.022,40.527,38.086,40.039,48.340,-6.348,0
1579270918.026,39.551,34.668,38.574,44.434,-22.949,0
1579270918.030,42.480,35.156,37.598,46.387,-34.668,0
1579270918.034,41.992,36.133,38.086,48.340,10.742,0
1579270918.038,43.457,35.156,37.598,44.922,2.441,0
1579270918.041,45.410,36.133,39.551,42.969,-23.438,0
1579270918.045,41.992,35.645,37.598,44.922,6.836,0
1579270918.049,44.922,35.156,37.598,49.316,27.832,0
1579270918.053,46.875,37.109,44.434,49.316,-22.949,0
1579270918.057,38.574,34.180,43.945,43.945,-40.527,0
1579270918.054,35.645,33.691,41.016,44.922,-3.906,0
1579270918.058,38.086,32.715,41.992,47.852,-4.395,0
1579270918.062,39.551,33.203,42.969,46.387,-9.766,0
1579270918.066,42.480,38.574,39.062,42.969,-24.902,0
1579270918.070,43.457,36.133,38.086,45.410,-0.488,0
1579270918.074,46.387,39.062,42.969,53.223,12.695,0
1579270918.078,42.969,41.504,44.922,56.641,0.000,0
1579270918.081,39.551,35.645,48.340,61.035,4.883,0
1579270918.085,40.527,35.645,48.340,59.570,-22.461,0
1579270918.089,40.527,36.133,41.504,52.246,-19.531,0
1579270918.093,40.527,33.691,41.016,56.152,10.742,0
1579270918.097,44.922,36.133,44.434,58.594,0.977,0
1579270918.115,43.457,37.109,43.945,56.152,7.324,0
1579270918.119,42.480,37.598,42.969,57.617,32.227,0
1579270918.123,44.922,36.621,41.992,58.594,19.531,0
1579270918.127,41.016,34.180,41.504,54.688,22.461,0
1579270918.131,39.551,35.645,42.480,50.293,10.742,0
1579270918.135,39.062,34.668,40.527,46.875,-8.789,0
1579270918.139,42.969,35.156,41.016,47.852,-16.113,0
1579270918.142,41.504,36.621,41.504,46.387,-22.949,0
1579270918.146,33.203,32.227,39.551,41.504,-0.488,0
1579270918.150,35.645,33.691,42.480,46.387,8.789,0
1579270918.154,39.062,35.156,42.969,52.246,19.531,0
1579270918.158,37.598,34.180,41.504,49.316,18.066,0
1579270918.155,35.156,34.668,39.062,46.387,11.719,0
1579270918.159,35.645,33.203,41.504,45.410,12.695,0
1579270918.163,35.645,34.180,43.945,45.410,12.207,0
1579270918.167,39.062,35.156,41.016,47.363,22.949,0
1579270918.171,42.480,35.645,40.039,50.293,10.254,0
1579270918.175,37.109,34.180,42.969,48.828,11.230,0
1579270918.179,37.598,33.203,44.922,47.363,46.387,0
1579270918.182,41.992,32.715,43.457,48.340,43.457,0
1579270918.186,41.016,33.203,41.504,47.852,41.504,0
1579270918.190,42.480,37.598,46.387,49.805,29.785,0
1579270918.194,42.969,35.645,47.363,48.340,-6.348,0
1579270918.198,39.551,34.668,41.504,44.434,11.719,0
1579270918.195,40.039,35.156,41.016,46.875,32.227,0
1579270918.199,41.016,33.691,40.527,47.363,6.836,0
1579270918.203,41.504,36.133,40.527,48.828,-15.137,0
1579270918.207,39.062,34.668,40.039,48.340,-8.789,0
1579270918.211,37.109,33.203,38.086,47.363,13.184,0
1579270918.215,38.086,35.156,42.480,49.805,10.742,0
1579270918.219,36.133,32.227,41.504,46.875,-1.465,0
1579270918.222,33.203,30.273,37.598,49.316,-6.348,0
1579270918.226,34.180,30.762,42.969,49.805,-0.488,0
1579270918.230,32.227,30.762,43.945,41.504,-11.230,0
1579270918.234,30.762,30.762,40.527,41.016,-1.953,0
1579270918.238,34.180,28.809,41.016,46.387,25.391,0
1579270918.254,39.062,30.273,42.969,52.734,39.551,0
1579270918.258,40.527,33.203,44.434,55.664,34.668,0
1579270918.262,40.527,33.203,47.363,51.758,22.949,0
1579270918.266,43.457,33.691,48.340,51.758,3.418,0
1579270918.270,42.480,37.598,47.363,54.199,26.367,0
1579270918.274,43.457,38.086,46.387,51.758,38.574,0
1579270918.278,47.363,41.016,47.363,47.363,12.207,0
1579270918.281,50.293,44.434,46.875,45.410,-15.625,0
1579270918.285,47.363,37.109,44.434,46.387,22.949,0
1579270918.289,49.805,35.645,43.945,47.852,32.715,0
1579270918.293,50.781,37.598,43.457,44.434,18.066,0
1579270918.297,49.805,37.598,43.945,42.480,-2.441,0
1579270918.294,47.363,37.598,41.992,43.457,-21.484,0
1579270918.298,40.039,34.668,40.527,44.922,24.414,0
1579270918.302,40.039,34.180,41.016,47.852,33.203,0
1579270918.306,42.969,38.086,39.062,44.922,44.434,0
1579270918.310,42.969,40.527,40.039,43.457,11.230,0
1579270918.314,36.621,36.621,42.969,43.457,-9.277,0
1579270918.318,35.156,35.645,38.574,38.574,23.926,0
1579270918.321,41.992,38.574,36.133,36.621,-0.488,0
1579270918.325,41.992,37.109,35.156,38.086,-31.250,0
1579270918.329,39.062,37.598,34.180,40.039,-42.480,0
1579270918.333,34.180,38.086,35.156,35.156,-25.391,0
1579270918.337,35.645,37.598,33.203,35.645,-8.789,0
1579270918.335,37.109,35.156,33.691,44.922,-24.414,0
1579270918.339,32.715,31.250,34.180,47.363,-19.531,0
1579270918.343,33.691,30.762,35.156,46.387,-21.484,0
1579270918.347,35.645,30.762,37.109,41.992,-2.441,0
1579270918.351,37.598,31.250,41.016,44.434,17.578,0
1579270918.355,39.551,32.715,44.922,52.734,-12.207,0
1579270918.359,31.738,29.785,41.504,47.852,12.695,0
1579270918.362,28.809,31.250,42.480,42.969,41.992,0
1579270918.366,32.715,32.715,46.875,38.574,18.066,0
1579270918.370,29.785,28.320,41.992,35.645,-15.625,0
1579270918.374,29.785,28.809,38.086,42.969,12.207,0
1579270918.378,32.715,31.738,41.992,44.922,48.828,0
1579270918.394,32.227,31.738,44.922,44.434,15.137,0
1579270918.398,33.203,33.691,43.945,43.457,5.371,0
1579270918.402,37.598,34.668,40.527,42.480,3.418,0
1579270918.406,42.969,34.668,41.992,41.016,-9.277,0
1579270918.410,41.016,35.156,42.969,37.598,-21.484,0
1579270918.414,41.992,35.645,41.016,47.852,-19.043,0
1579270918.418,44.434,37.598,41.504,27.344,-28.320,0
1579270918.421,39.062,36.133,38.574,8.301,-27.832,0
1579270918.425,36.621,33.203,38.086,38.086,-5.859,0
1579270918.429,38.086,34.180,41.016,38.574,-25.391,0
1579270918.433,37.109,34.668,40.527,34.180,-30.762,0
1579270918.437,36.133,35.645,40.527,37.109,-33.691,0
1579270918.434,31.738,34.180,38.086,34.668,-6.836,0
1579270918.438,32.227,33.691,35.645,30.273,-0.977,0
1579270918.442,33.203,34.180,35.645,32.227,-26.367,0
1579270918.446,30.762,33.691,36.133,38.574,-17.090,0
1579270918.450,32.227,35.156,36.621,43.457,-23.926,0
1579270918.454,33.203,33.691,34.180,40.039,-55.664,0
1579270918.458,36.621,32.715,33.203,44.922,-67.383,0
1579270918.461,39.551,35.156,35.645,48.828,-41.992,0
1579270918.465,39.551,34.668,35.645,49.805,-7.812,0
1579270918.469,41.992,37.109,38.574,49.316,-3.906,0
1579270918.473,41.992,37.109,38.086,41.992,-19.531,0
1579270918.477,39.551,35.645,37.109,41.992,-14.160,0
1579270918.474,39.551,36.621,40.039,45.898,-13.184,0
1579270918.478,41.504,36.133,39.551,45.898,-12.207,0
1579270918.482,43.457,37.598,40.039,44.922,-43.945,0
1579270918.486,41.016,37.109,38.086,44.434,-49.805,0
1579270918.490,41.016,35.156,36.621,46.387,-23.438,0
1579270918.494,44.434,37.598,39.062,49.316,-9.766,0
1579270918.498,41.016,35.156,35.645,44.922,-6.348,0
1579270918.501,39.062,35.645,36.133,42.480,-15.625,0
1579270918.505,41.016,38.086,38.574,42.480,-29.785,0
1579270918.509,41.016,35.645,35.156,41.016,2.441,0
1579270918.513,43.457,35.156,37.109,45.410,5.859,0
1579270918.517,42.480,34.180,37.598,44.922,-11.719,0
1579270918.535,45.410,34.668,38.574,50.293,-0.488,0
1579270918.539,46.875,38.086,42.480,56.641,2.441,0
1579270918.543,42.969,38.086,41.504,50.293,2.930,0
1579270918.547,41.016,36.133,38.086,47.363,-5.859,0
1579270918.551,38.086,33.691,35.645,44.434,-13.184,0
1579270918.555,37.598,33.203,35.645,48.340,3.418,0
1579270918.559,38.574,36.133,35.156,46.387,15.137,0
1579270918.562,42.480,40.039,33.691,39.062,-17.578,0
1579270918.566,47.852,40.039,35.645,48.340,-12.207,0
1579270918.570,51.758,40.039,36.621,55.176,8.301,0
1579270918.574,53.711,41.992,39.062,55.176,12.207,0
1579270918.578,52.734,41.016,43.457,55.176,3.906,0
1579270918.575,51.758,38.086,41.016,54.688,-12.207,0
1579270918.579,50.781,40.039,41.504,60.059,-5.859,0
1579270918.583,50.781,41.016,41.504,58.105,13.184,0
1579270918.587,49.805,41.016,41.016,55.664,6.348,0
1579270918.591,44.922,39.551,41.992,52.734,-49.805,0
1579270918.595,41.992,38.574,38.086,50.293,-53.711,0
1579270918.599,42.480,40.039,35.156,51.270,0.977,0
1579270918.602,40.039,39.062,35.645,49.316,23.438,0
1579270918.606,39.062,39.551,38.086,48.340,7.812,0
1579270918.610,39.062,41.992,41.992,46.387,-21.973,0
1579270918.614,41.992,39.551,40.039,41.504,-31.738,0
1579270918.618,39.551,36.133,36.621,42.480,0.488,0
1579270918.615,31.738,36.133,38.574,40.039,31.250,0
1579270918.619,32.227,33.203,39.062,38.574,20.996,0
1579270918.623,35.156,35.156,41.016,44.434,3.906,0
1579270918.627,36.621,34.668,41.992,44.434,13.672,0
1579270918.631,36.133,32.227,41.504,41.992,4.883,0
1579270918.635,33.691,32.715,42.480,42.969,-3.906,0
1579270918.639,29.785,29.785,40.527,45.898,3.906,0
1579270918.642,29.297,30.273,43.457,48.340,15.137,0
