timestamps,TP9,AF7,AF8,TP10,Right AUX,Marker0
1579292103.498,30.762,34.668,-608.887,-968.750,41.016,0
1579292103.502,52.246,32.715,-856.445,-968.750,66.895,0
1579292103.506,88.379,30.762,-958.008,-968.262,38.086,0
1579292103.510,167.480,29.785,-834.473,-968.262,10.254,0
1579292103.514,234.375,32.715,-705.078,-970.703,-20.020,0
1579292103.518,235.840,33.691,-779.297,-958.984,-19.043,0
1579292103.522,193.848,32.227,-951.660,-970.215,30.762,0
1579292103.525,193.359,25.879,-882.812,-943.359,3.906,0
1579292103.529,229.004,24.414,-617.188,-550.293,-3.906,0
1579292103.533,180.664,30.273,-445.801,-246.094,33.691,0
1579292103.537,84.961,34.180,-504.883,-419.434,11.719,0
1579292103.541,61.523,33.691,-654.785,-269.531,-15.137,0
1579292103.538,58.105,23.926,-525.391,327.637,13.184,0
1579292103.542,-0.977,18.555,-308.594,713.379,53.223,0
1579292103.546,-48.828,19.531,-310.059,563.477,61.035,0
1579292103.550,-78.613,22.949,-431.152,463.867,7.324,0
1579292103.554,-87.402,25.879,-448.242,857.910,32.227,0
1579292103.558,-82.520,23.438,-443.359,-976.074,65.430,0
1579292103.562,-97.168,20.996,-527.832,984.863,6.348,0
1579292103.565,-123.047,19.531,-626.465,999.512,-40.527,0
1579292103.569,-100.098,20.020,-464.844,999.512,16.602,0
1579292103.573,-106.934,23.926,-488.770,999.512,24.414,0
1579292103.577,-145.996,27.344,-550.293,999.512,5.371,0
1579292103.581,-183.105,31.250,-319.336,999.512,47.852,0
1579292103.578,-229.492,33.203,-310.059,999.512,47.852,0
1579292103.582,-243.164,33.203,-256.836,999.512,27.832,0
1579292103.586,-294.922,39.062,-420.410,999.512,46.875,0
1579292103.590,-351.562,33.203,-646.484,999.512,28.809,0
1579292103.594,-347.168,22.949,-523.438,999.512,-16.602,0
1579292103.598,-310.547,22.949,-460.938,999.512,36.621,0
1579292103.602,-265.625,27.344,-467.285,999.512,23.438,0
1579292103.605,-268.555,36.133,-556.152,999.512,37.109,0
1579292103.609,-297.363,37.109,-728.516,999.512,64.453,0
1579292103.613,-263.672,29.297,-515.625,999.512,15.137,0
1579292103.617,-257.324,19.043,-280.762,999.512,17.090,0
1579292103.621,-295.898,23.438,-251.953,999.512,11.719,0
1579292103.638,-351.074,29.785,-387.207,999.512,20.996,0
1579292103.642,-356.445,25.879,-517.578,999.512,49.805,0
1579292103.646,-298.828,24.902,-305.664,999.512,59.570,0
1579292103.650,-294.434,26.855,-252.930,999.512,39.062,0
1579292103.654,-329.590,23.926,-328.613,999.512,10.742,0
1579292103.658,-314.453,21.973,-482.910,999.512,1.465,0
1579292103.662,-244.629,28.320,-790.039,999.512,-19.043,0
1579292103.665,-168.457,27.344,-566.406,999.512,48.340,0
1579292103.669,-128.418,27.832,-256.836,999.512,84.961,0
1579292103.673,-87.402,28.809,-329.102,999.512,11.230,0
1579292103.677,13.184,24.902,-290.527,999.512,57.129,0
1579292103.681,71.777,26.367,-434.082,999.512,30.273,0
1579292103.678,76.172,12.207,-457.031,999.512,-16.113,0
1579292103.682,86.426,10.254,-333.984,999.512,47.363,0
1579292103.686,104.980,31.250,-321.289,999.512,43.945,0
1579292103.690,110.840,41.992,-332.031,999.512,10.742,0
1579292103.694,75.195,38.574,-399.414,999.512,41.992,0
1579292103.698,34.668,48.340,-524.414,999.512,31.738,0
1579292103.702,31.250,54.199,-597.656,999.512,12.207,0
1579292103.705,80.566,39.062,-500.977,999.512,1.953,0
1579292103.709,131.348,28.320,-349.121,999.512,6.836,0
1579292103.713,127.441,28.320,-624.023,999.512,74.219,0
1579292103.717,173.340,32.227,-871.094,-996.582,36.621,0
1579292103.721,304.688,31.738,-540.527,962.402,10.254,0
1579292103.718,382.812,25.391,-387.207,-942.871,42.480,0
1579292103.722,395.508,25.391,-479.004,691.895,4.883,0
1579292103.726,437.500,35.156,-727.051,-210.449,28.320,0
1579292103.730,506.348,35.156,-765.137,-505.371,75.195,0
1579292103.734,501.953,28.809,-636.230,-754.395,103.027,0
1579292103.738,415.039,27.344,-837.891,-987.305,90.820,0
1579292103.742,316.406,21.973,-954.102,-960.938,41.016,0
1579292103.745,252.441,20.020,-919.434,-965.820,27.344,0
1579292103.749,206.543,26.855,-949.219,-969.238,57.129,0
1579292103.753,155.273,28.320,-832.520,-968.750,23.438,0
1579292103.757,89.844,31.738,-777.344,-968.750,-2.441,0
1579292103.761,73.730,30.273,-747.070,-968.750,30.762,0
1579292103.779,122.070,25.391,-780.762,-968.750,41.504,0
1579292103.783,169.922,21.973,-781.250,-968.262,48.828,0
1579292103.787,166.992,23.438,-729.492,-968.262,21.973,0
1579292103.791,149.414,27.832,-719.727,-968.750,35.645,0
1579292103.795,150.391,22.949,-630.371,-968.262,43.457,0
1579292103.799,79.590,28.320,-736.816,-968.750,45.898,0
1579292103.803,-62.988,32.227,-960.938,-965.820,31.738,0
1579292103.806,-171.875,26.855,-927.246,-973.633,-33.691,0
1579292103.810,-219.727,25.879,-695.801,-957.031,11.719,0
1579292103.814,-243.652,24.414,-483.887,-922.363,100.098,0
1579292103.818,-284.668,31.738,-623.047,-960.449,97.168,0
1579292103.822,-288.574,35.645,-908.691,-973.145,34.180,0
1579292103.818,-187.988,28.809,-783.691,-965.820,-0.977,0
1579292103.822,-72.266,27.344,-621.094,-969.238,3.418,0
1579292103.826,-3.418,27.344,-594.727,-968.262,21.973,0
1579292103.830,-9.277,23.438,-638.672,-968.262,52.734,0
1579292103.834,-44.922,19.043,-753.418,-968.750,44.922,0
1579292103.838,-87.891,19.531,-817.383,-968.750,-2.930,0
1579292103.842,-174.805,25.391,-878.906,-969.238,-22.949,0
1579292103.845,-309.570,22.949,-897.949,-952.637,-8.789,0
1579292103.849,-436.523,14.648,-858.887,-996.094,3.418,0
1579292103.853,-498.535,17.090,-948.730,-815.918,-22.949,0
1579292103.857,-523.438,21.484,-833.496,-400.391,13.184,0
1579292103.861,-536.133,19.043,-523.926,-442.383,62.500,0
1579292103.858,-549.805,15.137,-564.941,-743.164,31.738,0
1579292103.862,-493.164,16.602,-556.641,-415.039,30.762,0
1579292103.866,-405.762,21.973,-496.094,46.387,44.922,0
1579292103.870,-345.703,29.785,-612.305,-286.133,-8.301,0
1579292103.874,-308.105,32.715,-702.637,-858.887,-8.301,0
1579292103.878,-253.418,29.297,-774.414,-961.426,70.312,0
1579292103.882,-157.227,27.832,-779.297,-895.508,52.734,0
1579292103.885,-106.934,27.832,-852.539,-958.496,-3.418,0
1579292103.889,-84.961,24.902,-879.395,-974.121,20.020,0
1579292103.893,-27.344,23.438,-601.562,-965.332,92.773,0
1579292103.897,40.039,25.391,-597.168,-969.238,68.359,0
1579292103.901,82.031,25.391,-643.555,-968.750,32.227,0
1579292103.918,67.383,29.297,-747.070,-968.750,79.590,0
1579292103.922,54.199,30.762,-860.352,-968.750,39.551,0
1579292103.926,91.797,29.297,-642.578,-968.750,5.859,0
1579292103.930,82.031,33.203,-573.730,-968.262,4.395,0
1579292103.934,23.438,28.320,-585.938,-968.262,-26.367,0
1579292103.938,-43.457,25.879,-746.094,-968.750,60.059,0
1579292103.942,-63.477,34.668,-953.125,-968.750,75.684,0
1579292103.945,-41.504,27.832,-753.906,-969.727,-4.883,0
1579292103.949,-68.359,19.531,-542.969,-964.355,16.602,0
1579292103.953,-113.770,20.020,-497.070,-960.449,57.617,0
1579292103.957,-126.465,17.578,-580.078,-987.793,57.129,0
1579292103.961,-116.699,15.137,-573.730,-706.055,56.641,0
1579292103.958,-121.094,15.625,-379.883,-434.570,52.246,0
1579292103.962,-146.484,21.484,-514.648,-737.305,34.668,0
1579292103.966,-127.930,22.461,-607.910,-715.820,61.523,0
1579292103.970,-66.895,21.484,-452.637,-76.660,88.379,0
1579292103.974,-47.852,18.555,-367.676,267.578,75.684,0
1579292103.978,-72.754,20.020,-485.352,26.855,25.391,0
1579292103.982,-82.031,27.344,-691.406,-179.688,-19.043,0
1579292103.985,-56.641,23.438,-475.098,349.609,9.277,0
1579292103.989,-58.594,27.344,-229.492,938.965,37.109,0
1579292103.993,-111.328,36.133,-549.316,805.176,36.621,0
1579292103.997,-156.250,30.273,-628.418,624.512,29.297,0
1579292104.001,-151.367,26.855,-292.480,903.809,47.852,0
1579292103.998,-143.066,27.832,-158.691,-978.516,68.359,0
1579292104.002,-178.711,24.414,-194.824,987.305,53.223,0
1579292104.006,-225.098,25.391,-380.859,-1000.000,7.812,0
1579292104.010,-212.402,21.484,-322.266,999.512,54.199,0
1579292104.014,-171.387,23.438,-314.941,999.512,94.238,0
1579292104.018,-166.992,27.832,-452.637,999.512,50.781,0
1579292104.022,-177.246,24.414,-471.191,999.512,39.062,0
1579292104.025,-186.035,24.414,-752.930,999.512,10.254,0
1579292104.029,-125.488,24.414,-784.180,999.512,-14.160,0
1579292104.033,-56.641,20.508,-425.781,999.512,-25.391,0
1579292104.037,-61.035,16.113,-354.980,999.512,6.348,0
1579292104.041,-68.359,16.602,-368.652,999.512,34.180,0
1579292104.058,-32.227,21.484,-460.938,999.512,5.371,0
1579292104.062,3.906,29.785,-488.770,999.512,-31.738,0
1579292104.066,-21.973,28.809,-397.949,999.512,20.996,0
1579292104.070,-92.773,18.066,-435.547,999.512,43.945,0
1579292104.074,-111.328,20.996,-457.031,999.512,-11.230,0
1579292104.078,-139.648,21.484,-660.156,999.512,13.672,0
1579292104.082,-206.543,8.789,-747.559,999.512,35.156,0
1579292104.085,-264.648,1.465,-539.062,999.512,31.250,0
1579292104.089,-272.949,6.348,-494.141,999.512,38.574,0
1579292104.093,-213.379,12.207,-387.207,999.512,-5.859,0
1579292104.097,-185.059,21.484,-494.141,999.512,20.996,0
1579292104.101,-138.184,25.391,-569.336,999.512,83.984,0
1579292104.099,-32.715,18.555,-391.602,-999.512,85.938,0
1579292104.103,91.309,18.555,-341.797,995.117,72.754,0
1579292104.107,185.547,25.391,-360.840,-999.023,14.648,0
1579292104.111,241.699,25.391,-451.660,-998.535,35.645,0
1579292104.115,299.805,24.902,-573.730,837.891,29.785,0
1579292104.119,356.934,25.391,-615.723,832.520,2.441,0
1579292104.123,351.074,23.438,-626.465,-958.496,20.020,0
1579292104.126,284.180,24.414,-539.551,823.730,13.184,0
1579292104.130,164.551,27.344,-666.504,225.586,-22.461,0
1579292104.134,57.129,27.832,-872.559,122.070,-47.363,0
1579292104.138,7.324,24.902,-728.516,480.469,-45.410,0
1579292104.142,-91.309,24.414,-483.398,668.457,40.527,0
1579292104.138,-188.965,21.484,-329.590,432.129,115.723,0
1579292104.142,-244.629,22.461,-438.477,513.184,73.730,0
1579292104.146,-262.695,23.438,-555.176,949.219,54.688,0
1579292104.150,-264.648,19.043,-367.188,-991.211,62.500,0
1579292104.154,-298.340,19.531,-264.648,985.840,62.012,0
1579292104.158,-320.312,23.926,-441.406,-998.535,48.828,0
1579292104.162,-279.297,25.391,-491.699,999.512,41.504,0
1579292104.165,-247.070,23.438,-668.457,999.512,89.355,0
1579292104.169,-213.867,19.531,-662.109,999.512,127.930,0
1579292104.173,-154.785,18.555,-372.070,999.512,59.570,0
1579292104.177,-75.195,21.484,-328.613,999.512,20.996,0
1579292104.181,9.277,23.926,-263.672,999.512,69.336,0
1579292104.198,53.223,23.438,-378.418,999.512,41.504,0
1579292104.202,80.078,19.531,-536.133,-999.512,-6.836,0
1579292104.206,132.812,16.602,-471.191,998.047,12.695,0
1579292104.210,218.262,12.695,-389.160,975.098,-1.953,0
1579292104.214,248.047,15.137,-356.445,-952.637,17.090,0
1579292104.218,229.492,25.391,-543.945,625.000,65.918,0
1579292104.222,226.074,21.973,-755.371,49.316,59.082,0
1579292104.225,248.535,20.996,-653.809,183.105,21.484,0
1579292104.229,230.957,20.996,-540.527,48.828,24.902,0
1579292104.233,158.203,11.719,-623.535,-643.066,48.340,0
1579292104.237,78.125,13.184,-878.906,-996.094,20.020,0
1579292104.241,58.105,15.625,-989.258,-950.195,-58.594,0
1579292104.238,69.336,14.160,-833.496,-964.844,-30.273,0
1579292104.242,40.039,17.090,-719.238,-969.727,43.457,0
1579292104.246,11.230,18.555,-732.910,-968.262,34.180,0
1579292104.250,22.949,16.113,-863.770,-968.262,-12.695,0
1579292104.254,57.617,8.789,-903.320,-968.262,11.719,0
1579292104.258,69.824,9.766,-844.238,-968.262,54.199,0
1579292104.262,56.152,18.555,-952.637,-968.262,18.555,0
1579292104.265,82.520,18.066,-844.727,-968.262,34.180,0
1579292104.269,106.445,18.555,-806.641,-968.262,19.043,0
1579292104.273,71.777,24.902,-960.938,-968.750,-5.859,0
1579292104.277,46.875,21.484,-774.414,-968.750,31.250,0
1579292104.281,40.039,15.137,-650.391,-968.750,14.648,0
1579292104.298,65.918,12.695,-584.961,-968.750,12.207,0
1579292104.302,90.332,21.973,-543.457,-968.750,101.074,0
1579292104.306,79.102,25.391,-658.691,-968.750,66.406,0
1579292104.310,72.266,22.949,-629.395,-968.262,16.602,0
1579292104.314,117.188,22.949,-600.098,-968.262,7.324,0
1579292104.318,154.785,23.438,-664.062,-968.262,19.531,0
1579292104.322,143.066,21.484,-740.723,-968.262,74.219,0
1579292104.325,119.141,23.438,-916.992,-968.262,51.758,0
1579292104.329,155.273,25.879,-794.922,-968.262,29.297,0
1579292104.333,207.031,20.996,-451.172,-971.191,103.516,0
1579292104.337,197.266,20.508,-418.945,-948.730,77.637,0
1579292104.341,148.926,26.855,-565.430,-986.328,14.648,0
1579292104.339,111.816,26.855,-670.410,-844.238,18.066,0
1579292104.343,120.605,10.254,-500.000,-194.336,6.836,0
1579292104.347,102.539,9.277,-351.562,234.863,-4.883,0
1579292104.351,37.109,18.066,-337.891,106.445,33.203,0
1579292104.355,-13.184,21.973,-367.188,56.152,55.664,0
1579292104.359,-23.438,25.391,-475.098,611.328,43.457,0
1579292104.363,-46.387,14.648,-388.184,-949.707,54.199,0
1579292104.366,-102.539,11.230,-250.000,920.898,46.387,0
1579292104.370,-152.832,18.555,-305.176,819.824,25.879,0
1579292104.374,-156.738,16.113,-278.809,964.355,31.250,0
1579292104.378,-161.621,11.719,-416.992,-986.816,42.969,0
1579292104.382,-180.176,9.277,-420.410,991.699,69.824,0
1579292104.378,-194.824,8.301,-312.500,-999.512,26.367,0
1579292104.382,-183.105,7.324,-330.078,999.512,26.367,0
1579292104.386,-146.973,10.254,-197.754,999.512,96.680,0
1579292104.390,-163.574,18.555,-458.496,999.512,18.555,0
1579292104.394,-201.660,20.996,-592.285,999.512,-11.719,0
1579292104.398,-210.938,16.113,-503.906,999.512,25.391,0
1579292104.402,-192.383,14.648,-531.250,999.512,15.137,0
1579292104.405,-174.316,20.020,-297.852,999.512,32.227,0
1579292104.409,-208.984,18.066,-468.750,999.512,21.973,0
1579292104.413,-188.477,25.879,-818.359,999.512,-5.859,0
1579292104.417,-83.008,36.133,-493.652,999.512,20.020,0
1579292104.421,-42.480,22.461,-135.254,999.512,91.797,0
1579292104.438,-50.293,15.137,-59.082,999.512,109.375,0
1579292104.442,-77.148,14.160,-139.160,999.512,81.055,0
1579292104.446,-61.523,21.973,-27.344,999.512,27.832,0
1579292104.450,-42.969,30.273,331.543,999.512,36.133,0
1579292104.454,-100.098,16.602,434.570,999.512,30.762,0
1579292104.458,-160.156,7.324,473.633,999.512,35.645,0
1579292104.462,-190.918,21.484,450.684,999.512,54.199,0
1579292104.465,-197.754,31.738,367.676,999.512,76.172,0
1579292104.469,-196.777,26.855,662.598,999.512,95.215,0
1579292104.473,-238.770,33.203,789.551,999.512,20.508,0
1579292104.477,-300.293,28.809,688.965,-998.535,-6.836,0
1579292104.481,-335.938,20.508,545.898,986.328,-13.184,0
1579292104.478,-353.027,31.250,423.340,-986.816,-16.602,0
1579292104.482,-384.277,37.598,490.723,931.152,29.297,0
1579292104.486,-413.086,39.551,431.641,545.898,62.500,0
1579292104.490,-386.230,46.387,269.531,393.066,45.898,0
1579292104.494,-357.422,49.316,126.953,390.625,52.246,0
1579292104.498,-354.004,40.527,-102.539,-264.160,73.730,0
1579292104.502,-347.656,33.203,-426.758,-938.477,25.879,0
1579292104.505,-318.359,40.527,-501.465,-967.285,19.531,0
1579292104.509,-275.879,47.363,-417.969,-952.148,86.914,0
1579292104.513,-259.277,37.598,-590.332,-972.168,43.457,0
1579292104.517,-280.762,29.785,-885.742,-968.262,11.230,0
1579292104.521,-242.676,32.715,-980.469,-968.262,-17.578,0
1579292104.519,-167.480,28.320,-958.984,-968.262,-50.293,0
1579292104.523,-147.949,20.508,-966.797,-968.750,-9.766,0
1579292104.527,-145.020,15.625,-964.844,-968.262,74.219,0
1579292104.531,-128.418,11.230,-968.750,-968.262,53.223,0
1579292104.535,-72.266,14.648,-968.750,-968.262,-42.480,0
1579292104.539,-32.715,18.555,-968.262,-968.262,6.348,0
1579292104.543,-47.363,14.648,-968.262,-968.262,14.648,0
1579292104.546,-54.688,11.230,-968.750,-968.750,-41.016,0
1579292104.550,-26.855,15.137,-968.750,-968.750,3.906,0
1579292104.554,-8.301,16.602,-968.262,-968.262,1.953,0
1579292104.558,-41.016,9.277,-968.750,-968.750,16.602,0
1579292104.562,-105.957,8.789,-968.750,-968.750,78.613,0
1579292104.579,-110.352,16.602,-968.262,-968.750,49.805,0
1579292104.583,-91.309,19.043,-968.750,-968.262,-21.484,0
1579292104.587,-83.008,15.625,-967.285,-968.262,9.277,0
1579292104.591,-110.840,15.625,-967.773,-968.262,37.598,0
1579292104.595,-118.652,13.672,-966.797,-968.262,38.574,0
1579292104.599,-71.289,6.348,-967.285,-968.750,62.988,0
1579292104.603,-48.828,0.977,-966.309,-968.750,19.531,0
1579292104.606,-53.711,7.812,-976.074,-968.750,-9.277,0
1579292104.610,-43.945,7.324,-936.035,-968.750,22.461,0
1579292104.614,-10.742,1.953,-923.828,-968.262,3.906,0
1579292104.618,31.738,2.441,-956.055,-968.262,-37.109,0
1579292104.622,35.645,3.418,-946.289,-968.750,26.367,0
1579292104.619,40.039,7.324,-893.066,-968.750,85.938,0
1579292104.623,96.680,-0.488,-792.480,-968.750,62.012,0
1579292104.627,125.977,-3.418,-787.598,-968.750,5.859,0
1579292104.631,108.398,4.395,-724.121,-968.750,59.082,0
1579292104.635,77.148,5.371,-797.363,-968.262,59.082,0
1579292104.639,68.848,2.441,-970.215,-968.262,-11.719,0
1579292104.643,90.332,2.441,-971.680,-968.262,18.066,0
1579292104.646,67.383,6.348,-821.777,-968.750,80.566,0
1579292104.650,9.766,5.859,-714.355,-966.797,77.637,0
1579292104.654,-27.832,5.371,-822.266,-972.168,-1.465,0
1579292104.658,-25.391,7.324,-974.121,-958.496,9.766,0
1579292104.662,5.371,5.859,-857.422,-943.848,62.500,0
1579292104.658,-6.836,7.324,-774.902,-967.285,61.035,0
1579292104.662,-14.648,13.184,-848.145,-970.215,43.457,0
1579292104.666,41.992,10.254,-756.348,-967.285,45.898,0
1579292104.670,78.125,8.301,-780.273,-968.750,20.996,0
1579292104.674,68.848,9.766,-738.770,-968.262,29.785,0
1579292104.678,29.785,9.277,-801.758,-968.750,72.754,0
1579292104.682,47.852,10.742,-906.250,-968.262,56.152,0
1579292104.685,87.402,11.230,-725.586,-968.262,52.246,0
1579292104.689,29.297,14.160,-818.359,-968.750,32.715,0
1579292104.693,-35.645,13.672,-965.332,-968.262,-23.438,0
1579292104.697,-0.488,10.254,-763.672,-968.262,-5.859,0
1579292104.701,46.875,8.789,-610.352,-968.262,37.598,0
1579292104.718,54.199,16.113,-565.430,-968.262,47.363,0
1579292104.722,29.785,23.438,-672.852,-968.262,50.781,0
1579292104.726,39.062,13.672,-734.863,-968.262,25.391,0
1579292104.730,84.961,3.418,-734.375,-968.262,25.879,0
1579292104.734,119.629,3.418,-721.680,-968.262,7.324,0
1579292104.738,137.695,0.977,-724.121,-968.750,23.438,0
1579292104.742,144.531,-2.930,-894.043,-968.750,97.168,0
1579292104.745,211.914,0.977,-846.680,-968.262,94.727,0
1579292104.749,271.973,1.953,-637.695,-968.262,29.297,0
1579292104.753,235.840,4.883,-669.922,-968.750,-26.367,0
1579292104.757,150.391,6.348,-687.012,-968.262,-50.781,0
1579292104.761,66.895,5.859,-813.965,-968.750,-11.719,0
1579292104.758,-9.766,2.441,-881.348,-970.215,24.414,0
1579292104.762,-121.094,6.836,-660.156,-960.938,1.465,0
1579292104.766,-271.484,12.207,-587.891,-968.750,29.785,0
1579292104.770,-332.520,7.324,-571.289,-969.727,47.363,0
1579292104.774,-294.922,11.230,-593.262,-657.227,63.477,0
1579292104.778,-248.047,15.137,-704.590,-613.281,62.012,0
1579292104.782,-205.078,14.648,-797.363,-937.500,27.344,0
1579292104.785,-139.648,10.254,-847.168,-1000.000,49.316,0
1579292104.789,-46.875,3.418,-589.355,-750.000,93.750,0
1579292104.793,-38.086,3.906,-434.570,-241.699,100.586,0
1579292104.797,-124.512,11.230,-697.266,-216.797,124.023,0
1579292104.801,-193.848,12.695,-658.691,-218.750,70.801,0
1579292104.799,-225.586,10.254,-354.492,537.109,40.039,0
1579292104.803,-255.371,14.160,-168.457,-966.309,44.434,0
1579292104.807,-313.477,12.207,-214.355,956.543,43.945,0
1579292104.811,-345.215,10.254,-447.754,572.754,7.812,0
1579292104.815,-290.039,12.695,-437.988,415.039,10.742,0
1579292104.819,-221.680,14.648,-444.336,602.539,61.035,0
1579292104.823,-171.875,13.672,-487.305,172.363,143.555,0
1579292104.826,-143.066,12.207,-525.391,-658.691,179.688,0
1579292104.830,-124.023,18.066,-859.375,-992.188,56.152,0
1579292104.834,-93.262,20.996,-956.055,-947.266,-7.812,0
1579292104.838,-105.957,14.160,-774.414,-966.309,7.812,0
1579292104.842,-187.500,13.672,-696.289,-970.215,40.039,0
1579292104.859,-289.551,21.484,-695.312,-968.750,49.316,0
1579292104.863,-367.188,26.367,-862.793,-968.262,26.855,0
1579292104.867,-431.641,20.996,-820.801,-968.262,26.855,0
1579292104.871,-538.574,16.113,-674.316,-968.262,24.902,0
1579292104.875,-660.645,17.090,-784.668,-968.262,-12.695,0
1579292104.879,-668.945,20.020,-807.617,-968.750,26.855,0
1579292104.883,-625.488,19.043,-909.180,-968.750,75.684,0
1579292104.886,-620.605,14.160,-923.828,-968.262,62.012,0
1579292104.890,-579.590,13.672,-726.074,-968.262,33.691,0
1579292104.894,-472.656,12.695,-641.602,-968.262,16.113,0
1579292104.898,-354.004,15.137,-596.680,-968.750,-11.230,0
1579292104.902,-267.090,17.578,-657.227,-968.262,41.504,0
1579292104.898,-178.711,20.020,-758.789,-968.750,79.590,0
1579292104.902,-41.504,23.926,-643.066,-968.750,56.641,0
1579292104.906,84.473,20.508,-542.480,-968.262,55.664,0
1579292104.910,158.691,14.160,-493.164,-968.262,60.059,0
1579292104.914,193.848,15.137,-625.977,-968.262,47.363,0
1579292104.918,206.055,12.695,-874.023,-968.262,-32.227,0
1579292104.922,229.492,10.254,-836.914,-968.262,6.836,0
1579292104.925,236.328,10.742,-696.777,-968.750,62.500,0
1579292104.929,190.918,7.812,-515.625,-968.750,76.660,0
1579292104.933,90.820,9.766,-658.203,-968.750,77.637,0
1579292104.937,49.316,17.090,-925.293,-968.750,32.715,0
1579292104.941,47.852,17.578,-702.637,-968.262,14.648,0
1579292104.938,-13.184,15.137,-534.180,-968.262,29.297,0
1579292104.942,-92.773,14.648,-515.137,-968.262,58.105,0
1579292104.946,-159.180,15.625,-637.207,-968.262,42.480,0
1579292104.950,-179.199,16.113,-667.969,-968.750,58.105,0
1579292104.954,-189.941,13.672,-481.445,-968.262,90.820,0
1579292104.958,-236.328,20.020,-685.547,-968.262,35.156,0
1579292104.962,-243.164,27.832,-765.137,-968.262,17.578,0
1579292104.965,-199.219,28.809,-698.730,-968.750,-9.277,0
1579292104.969,-176.758,25.879,-804.688,-970.215,-6.348,0
1579292104.973,-187.988,18.555,-643.066,-952.148,47.852,0
1579292104.977,-216.797,18.555,-632.812,-996.094,-22.949,0
1579292104.981,-187.988,20.508,-604.004,-826.172,-25.879,0
1579292104.998,-159.180,19.531,-491.211,-408.691,24.902,0
1579292105.002,-185.059,22.461,-684.570,-402.832,24.902,0
1579292105.006,-201.660,20.996,-733.398,-669.434,-12.207,0
1579292105.010,-173.828,20.020,-578.613,-373.047,-28.809,0
1579292105.014,-131.836,27.832,-362.305,298.828,64.941,0
1579292105.018,-130.371,32.715,-349.609,360.840,83.984,0
1579292105.022,-164.062,29.297,-774.414,6.348,55.664,0
1579292105.025,-155.762,32.227,-828.125,103.027,44.922,0
1579292105.029,-107.422,35.645,-403.809,645.508,19.531,0
1579292105.033,-107.910,24.414,-177.734,838.379,82.520,0
1579292105.037,-135.254,23.438,-245.605,355.957,82.520,0
1579292105.041,-165.527,26.367,-527.344,83.496,-7.324,0
1579292105.039,-156.250,18.555,-444.336,528.809,37.598,0
1579292105.043,-143.555,23.926,-210.938,808.594,105.957,0
1579292105.047,-171.387,33.691,-320.801,409.668,40.527,0
1579292105.051,-188.965,33.203,-517.578,-90.332,-18.066,0
1579292105.055,-152.344,27.832,-588.379,116.699,13.672,0
1579292105.059,-112.793,25.391,-557.129,520.020,54.199,0
1579292105.063,-112.305,27.344,-592.285,285.645,47.852,0
1579292105.066,-132.812,27.344,-661.133,-228.027,42.480,0
1579292105.070,-118.164,27.344,-596.680,-230.957,76.172,0
1579292105.074,-105.469,30.273,-743.652,188.477,50.293,0
1579292105.078,-111.328,24.414,-698.730,269.531,29.297,0
1579292105.082,-134.766,20.508,-464.355,-54.199,27.832,0
1579292105.078,-158.203,27.344,-558.594,3.418,-63.965,0
1579292105.082,-128.906,25.391,-405.762,639.160,-48.340,0
1579292105.086,-90.820,28.320,-409.668,-976.074,10.742,0
1579292105.090,-43.457,26.367,-541.992,766.602,44.434,0
1579292105.094,12.207,18.555,-438.965,390.625,39.551,0
1579292105.098,90.820,20.508,-551.270,423.340,27.832,0
1579292105.102,194.336,17.578,-613.770,300.293,21.484,0
1579292105.105,248.535,24.414,-714.355,-354.980,37.598,0
1579292105.109,263.672,34.180,-890.625,-925.781,69.336,0
1579292105.113,312.012,26.855,-775.879,-969.238,28.320,0
1579292105.117,351.562,24.902,-689.453,-953.613,-11.719,0
1579292105.121,324.219,23.438,-709.961,-971.680,35.645,0
1579292105.138,237.793,22.461,-797.852,-968.262,66.406,0
1579292105.142,143.066,30.273,-937.012,-968.262,34.180,0
1579292105.146,69.824,29.297,-815.918,-968.262,-2.930,0
1579292105.150,-47.852,19.531,-604.004,-969.238,42.969,0
1579292105.154,-175.781,25.391,-626.953,-961.426,22.461,0
1579292105.158,-246.094,35.156,-785.645,-981.934,-3.418,0
1579292105.162,-257.812,33.691,-949.707,-927.246,22.461,0
1579292105.165,-234.375,22.949,-798.340,-808.105,12.207,0
1579292105.169,-229.492,20.508,-561.523,-898.438,37.109,0
1579292105.173,-228.516,28.320,-511.719,-1000.000,88.379,0
1579292105.177,-174.316,29.785,-495.117,-751.953,79.102,0
1579292105.181,-119.141,20.508,-520.020,-359.375,44.922,0
1579292105.178,-95.215,17.090,-463.867,-479.492,44.922,0
1579292105.182,-90.820,24.414,-462.402,-894.043,82.520,0
1579292105.186,-53.711,24.414,-601.562,-818.359,41.992,0
1579292105.190,8.301,20.996,-587.891,-293.945,-33.203,0
1579292105.194,20.020,21.973,-507.324,-265.625,20.508,0
1579292105.198,1.465,21.973,-623.535,-670.410,76.660,0
1579292105.202,12.207,17.090,-722.656,-779.297,79.102,0
1579292105.205,49.316,18.066,-622.559,-469.238,29.297,0
1579292105.209,86.914,17.090,-404.785,-378.418,40.039,0
1579292105.213,82.520,14.160,-686.035,-811.035,18.555,0
1579292105.217,95.215,19.043,-945.312,-997.559,-10.254,0
1579292105.221,172.852,21.973,-652.344,-920.410,41.992,0
1579292105.218,211.426,20.508,-506.836,-943.359,57.617,0
1579292105.222,175.293,14.160,-541.504,-973.633,23.438,0
1579292105.226,114.258,14.160,-648.926,-966.797,36.621,0
1579292105.230,118.164,9.766,-630.859,-968.750,60.059,0
1579292105.234,119.141,11.230,-592.773,-968.750,-32.227,0
1579292105.238,64.941,16.602,-764.160,-968.262,-64.941,0
1579292105.242,40.039,12.207,-890.625,-968.262,-63.965,0
1579292105.245,52.734,16.602,-953.125,-968.750,-22.461,0
1579292105.249,74.219,18.555,-916.016,-968.750,67.383,0
1579292105.253,90.332,14.160,-715.820,-968.262,-2.930,0
1579292105.257,64.941,10.254,-625.488,-968.262,-26.855,0
1579292105.261,53.711,6.836,-591.309,-968.262,-4.883,0
1579292105.278,78.125,10.742,-585.449,-968.262,48.340,0
1579292105.282,80.078,17.090,-600.586,-968.750,61.035,0
1579292105.286,52.734,10.254,-527.832,-968.750,61.035,0
1579292105.290,28.320,0.000,-568.848,-968.262,63.965,0
1579292105.294,50.293,2.930,-649.902,-968.750,-5.371,0
1579292105.298,55.176,5.371,-743.164,-968.262,13.184,0
1579292105.302,21.484,1.465,-921.875,-968.262,83.008,0
1579292105.305,12.207,3.418,-778.320,-968.750,82.031,0
1579292105.309,45.898,7.812,-653.809,-968.750,32.715,0
1579292105.313,101.074,3.906,-541.504,-968.262,45.898,0
1579292105.317,113.770,3.418,-500.977,-968.750,54.688,0
1579292105.321,106.934,4.883,-668.945,-968.750,13.184,0
1579292105.318,153.320,5.371,-625.977,-968.262,-13.184,0
1579292105.322,215.332,13.184,-542.480,-968.262,1.953,0
1579292105.326,223.633,15.137,-517.578,-968.262,-1.953,0
1579292105.330,180.664,5.371,-625.977,-968.750,-45.410,0
1579292105.334,171.387,9.766,-725.098,-968.750,-23.438,0
1579292105.338,188.965,11.719,-673.340,-968.750,41.992,0
1579292105.342,162.109,4.395,-687.988,-968.262,37.598,0
1579292105.345,113.281,1.465,-687.988,-968.262,-22.461,0
1579292105.349,93.262,5.859,-554.688,-968.262,3.906,0
1579292105.353,103.516,18.555,-777.832,-968.750,15.625,0
1579292105.357,132.324,16.602,-876.465,-968.750,-5.371,0
1579292105.361,132.324,9.766,-682.129,-968.750,-20.508,0
1579292105.358,87.402,8.789,-633.301,-968.750,-18.066,0
1579292105.362,83.496,10.742,-518.555,-968.750,13.672,0
1579292105.366,83.984,11.230,-521.484,-968.750,45.898,0
1579292105.370,42.969,10.742,-496.582,-968.750,75.195,0
1579292105.374,-7.812,16.602,-500.977,-968.262,41.016,0
1579292105.378,-35.156,21.973,-721.191,-968.262,-32.715,0
1579292105.382,-21.484,12.695,-718.262,-968.750,-20.996,0
1579292105.385,-43.945,7.812,-733.887,-970.215,75.195,0
1579292105.389,-88.379,22.461,-900.879,-954.590,63.477,0
1579292105.393,-78.613,21.484,-679.688,-990.234,13.672,0
1579292105.397,-46.387,6.836,-492.188,-874.023,26.855,0
1579292105.401,-31.738,10.254,-365.723,-519.531,64.941,0
1579292105.418,-59.570,21.484,-377.441,-560.059,121.094,0
1579292105.422,-76.660,20.996,-556.152,-787.598,60.059,0
1579292105.426,-55.664,24.414,-627.441,-310.059,-11.230,0
1579292105.430,-34.180,24.414,-408.203,322.266,61.035,0
1579292105.434,-38.574,20.996,-228.027,195.312,76.660,0
1579292105.438,-83.496,18.066,-611.328,-184.570,32.715,0
1579292105.442,-71.777,13.184,-786.621,-48.828,42.480,0
1579292105.445,-36.133,15.625,-412.598,446.777,55.176,0
1579292105.449,-63.965,20.508,-264.160,463.867,89.355,0
1579292105.453,-97.656,21.484,-331.055,-79.590,87.891,0
1579292105.457,-103.516,24.902,-597.168,-224.121,29.785,0
1579292105.461,-79.590,20.508,-850.098,77.637,-35.156,0
1579292105.458,-52.246,19.043,-564.453,198.730,28.320,0
1579292105.462,-70.312,29.297,-472.168,-174.316,39.551,0
1579292105.466,-97.656,20.996,-602.051,-458.008,-3.418,0
1579292105.470,-83.496,14.648,-572.754,-74.707,43.457,0
1579292105.474,-61.035,26.367,-561.035,101.562,94.727,0
1579292105.478,-68.359,28.809,-696.777,-288.086,58.105,0
1579292105.482,-74.707,18.555,-880.371,-634.277,-18.066,0
1579292105.485,-17.090,19.531,-729.980,-370.605,-16.602,0
1579292105.489,43.457,32.227,-527.832,70.801,-8.789,0
1579292105.493,26.367,30.762,-781.738,-135.254,51.758,0
1579292105.497,26.367,22.461,-933.594,-638.672,40.039,0
1579292105.501,92.773,20.508,-626.465,-520.508,52.246,0
1579292105.498,154.785,25.391,-437.500,-119.141,76.172,0
1579292105.502,181.152,25.879,-453.613,-265.137,37.598,0
1579292105.506,157.715,20.508,-609.863,-799.805,77.148,0
1579292105.510,165.527,17.090,-629.883,-973.145,102.051,0
1579292105.514,217.773,18.555,-519.531,-666.992,82.520,0
1579292105.518,222.168,21.484,-655.273,-688.965,44.434,0
1579292105.522,184.082,17.578,-753.418,-962.402,42.480,0
1579292105.525,133.789,22.461,-874.512,-972.656,-12.207,0
1579292105.529,162.598,26.367,-899.902,-960.449,-24.414,0
1579292105.533,191.895,23.438,-653.320,-970.215,8.789,0
1579292105.537,129.883,18.555,-562.012,-968.750,39.551,0
1579292105.541,55.664,21.973,-516.602,-968.262,105.957,0
1579292105.558,22.461,26.367,-536.621,-968.750,137.695,0
1579292105.562,6.836,20.020,-564.941,-970.703,73.730,0
1579292105.566,-43.457,19.043,-549.805,-955.566,20.508,0
1579292105.570,-101.074,23.926,-587.402,-979.492,32.715,0
1579292105.574,-82.031,27.832,-562.500,-894.531,19.531,0
1579292105.578,-36.621,28.320,-713.867,-451.660,49.316,0
1579292105.582,-1.465,35.156,-753.906,-225.098,71.289,0
1579292105.585,22.949,34.180,-557.617,-540.039,7.812,0
1579292105.589,34.668,23.926,-576.660,-581.543,-12.207,0
1579292105.593,88.379,20.996,-417.969,-46.875,39.062,0
1579292105.597,105.469,23.926,-423.828,210.449,114.258,0
1579292105.601,76.660,19.531,-641.602,-155.762,73.730,0
1579292105.598,55.176,13.184,-568.848,-444.336,30.762,0
1579292105.602,62.500,20.508,-511.719,-125.488,25.879,0
1579292105.606,48.828,27.344,-405.273,248.047,27.344,0
1579292105.610,-11.230,27.344,-508.789,-16.113,24.414,0
1579292105.614,-62.988,13.672,-632.324,-412.109,64.941,0
1579292105.618,-68.848,9.766,-664.062,-202.148,71.289,0
1579292105.622,-43.945,31.738,-657.715,208.008,50.293,0
1579292105.625,-36.621,33.203,-444.336,61.523,69.824,0
1579292105.629,-71.777,22.949,-581.543,-482.422,15.625,0
1579292105.633,-94.727,27.832,-935.547,-384.766,2.441,0
1579292105.637,-52.734,35.156,-668.945,172.852,59.082,0
1579292105.641,-35.645,37.598,-305.176,296.387,87.891,0
1579292105.638,-46.387,40.039,-360.840,-122.070,47.363,0
1579292105.642,-23.926,35.645,-592.773,-397.949,20.508,0
1579292105.646,48.340,26.855,-607.422,-24.902,88.867,0
1579292105.650,124.512,26.367,-465.820,41.016,38.086,0
1579292105.654,147.949,26.367,-539.062,-590.820,29.297,0
1579292105.658,141.113,25.391,-815.430,-1000.000,20.508,0
1579292105.662,153.809,22.461,-944.336,-925.781,-43.945,0
1579292105.665,138.184,20.996,-902.344,-839.355,-18.555,0
1579292105.669,54.199,20.996,-797.852,-911.133,-9.766,0
1579292105.673,-57.617,21.973,-676.758,-978.516,-6.348,0
1579292105.677,-117.188,23.926,-661.621,-924.805,-2.930,0
1579292105.681,-125.000,20.996,-488.281,-481.445,49.805,0
1579292105.699,-154.297,22.949,-578.125,-138.672,91.309,0
1579292105.703,-169.922,21.484,-732.422,-460.449,20.508,0
1579292105.707,-115.723,16.113,-562.500,-459.473,21.484,0
1579292105.711,-19.531,17.090,-422.363,-15.137,71.777,0
1579292105.715,65.918,21.484,-495.117,-5.371,22.461,0
1579292105.719,78.613,20.996,-809.082,-358.398,22.461,0
1579292105.723,83.008,16.602,-892.090,-528.809,14.648,0
1579292105.726,110.840,6.836,-559.082,7.324,6.348,0
1579292105.730,62.500,2.441,-257.812,502.930,93.262,0
1579292105.734,-37.109,14.160,-218.750,365.723,81.543,0
1579292105.738,-151.367,23.926,-455.078,306.641,13.672,0
1579292105.742,-207.031,23.438,-460.938,710.938,8.301,0
1579292105.739,-210.938,14.160,-183.105,-970.215,67.383,0
1579292105.743,-222.656,14.160,-166.504,969.727,69.336,0
1579292105.747,-214.844,20.020,-354.004,699.219,-32.715,0
1579292105.751,-153.320,15.625,-494.141,632.812,-11.230,0
1579292105.755,-48.828,15.625,-429.688,776.855,49.316,0
1579292105.759,4.395,20.508,-462.891,456.543,41.504,0
1579292105.763,-18.555,25.391,-719.238,-330.078,45.410,0
1579292105.766,-73.242,24.414,-795.898,-714.355,30.762,0
1579292105.770,-133.789,24.414,-752.441,-284.180,46.387,0
1579292105.774,-250.977,21.973,-897.461,-100.098,43.457,0
1579292105.778,-402.832,11.719,-779.297,-486.328,28.809,0
1579292105.782,-530.273,11.719,-555.664,-766.602,113.770,0
1579292105.779,-593.262,12.695,-522.461,-469.727,83.008,0
1579292105.783,-647.461,15.625,-547.852,0.977,8.789,0
1579292105.787,-708.496,20.996,-585.449,-145.508,19.043,0
1579292105.791,-714.355,22.461,-527.344,-424.316,42.480,0
1579292105.795,-645.996,17.578,-466.309,-170.410,53.223,0
1579292105.799,-533.691,18.555,-494.629,295.898,-1.465,0
1579292105.803,-420.898,27.344,-557.617,363.281,26.855,0
1579292105.806,-326.660,26.367,-654.785,-32.227,58.105,0
1579292105.810,-206.055,18.066,-554.688,-55.664,24.902,0
1579292105.814,-64.941,21.973,-333.984,275.879,46.875,0
1579292105.818,19.043,26.855,-345.703,173.340,79.102,0
1579292105.822,65.430,25.879,-482.910,-389.160,32.715,0
1579292105.839,130.371,31.250,-809.082,-813.477,-41.016,0
1579292105.843,227.051,22.461,-716.309,-577.637,22.461,0
1579292105.847,280.762,25.391,-451.660,-583.984,38.574,0
1579292105.851,255.371,38.086,-546.875,-960.449,-15.625,0
1579292105.855,188.965,27.832,-571.289,-977.051,3.418,0
1579292105.859,150.391,22.949,-723.633,-956.543,-5.859,0
1579292105.863,128.906,27.832,-720.703,-972.168,-1.465,0
1579292105.866,47.363,28.320,-521.973,-964.355,33.691,0
1579292105.870,-49.316,25.391,-482.422,-964.844,67.383,0
1579292105.874,-96.680,23.438,-433.105,-979.980,36.133,0
1579292105.878,-141.113,32.227,-643.555,-750.488,20.020,0
1579292105.882,-198.242,35.645,-635.742,-588.379,92.773,0
1579292105.879,-238.281,23.438,-431.641,-890.137,76.660,0
1579292105.883,-234.863,17.578,-524.414,-793.945,35.645,0
1579292105.887,-161.133,17.090,-323.730,-117.188,52.734,0
1579292105.891,-92.773,19.531,-269.531,153.320,37.109,0
1579292105.895,-61.035,21.973,-310.059,-97.656,58.105,0
1579292105.899,-28.809,23.438,-427.734,-257.324,95.215,0
1579292105.903,57.129,22.949,-520.020,194.824,40.039,0
1579292105.906,127.930,23.926,-277.344,655.273,-39.062,0
1579292105.910,108.398,26.855,-381.348,444.336,-10.742,0
1579292105.914,94.238,22.949,-567.383,164.551,35.156,0
1579292105.918,131.836,21.484,-424.316,357.910,18.066,0
1579292105.922,151.367,24.414,-265.137,756.836,34.668,0
1579292105.939,139.160,23.926,-192.383,639.160,0.977,0
1579292105.943,96.680,26.367,-473.633,190.430,-0.488,0
1579292105.947,89.355,20.020,-631.836,272.461,70.801,0
1579292105.951,117.676,16.602,-422.852,633.789,47.852,0
1579292105.955,92.773,27.832,-371.582,592.285,44.922,0
1579292105.959,40.527,32.227,-458.984,115.723,45.410,0
1579292105.963,6.348,34.668,-644.531,-73.730,56.641,0
1579292105.966,5.859,34.668,-777.344,267.090,80.566,0
1579292105.970,18.555,24.902,-513.672,292.969,87.891,0
1579292105.974,-4.883,22.949,-350.098,-195.312,66.895,0
1579292105.978,-13.672,30.273,-471.191,-525.879,13.672,0
1579292105.982,24.902,33.203,-519.043,-274.902,15.625,0
1579292105.979,67.871,36.621,-509.277,-20.508,30.273,0
1579292105.983,68.848,31.250,-473.633,-457.031,19.531,0
1579292105.987,47.852,25.391,-579.102,-965.820,13.672,0
1579292105.991,77.148,22.949,-633.301,-856.934,-17.090,0
1579292105.995,98.145,22.949,-611.328,-573.730,-44.434,0
1579292105.999,44.922,26.367,-700.195,-743.652,5.859,0
1579292106.003,-26.367,22.461,-747.070,-1000.000,65.430,0
1579292106.006,-71.777,20.996,-761.719,-845.215,19.531,0
1579292106.010,-82.031,20.996,-575.684,-170.410,0.488,0
1579292106.014,-93.262,20.996,-326.172,350.098,-31.738,0
1579292106.018,-120.605,24.902,-442.383,357.422,-11.230,0
1579292106.022,-81.543,23.926,-393.555,604.004,57.617,0
1579292106.019,19.531,28.809,-132.324,962.891,76.660,0
1579292106.023,99.121,28.320,-89.844,-960.449,58.594,0
1579292106.027,141.602,20.020,-175.781,765.625,18.555,0
1579292106.031,177.734,16.113,-495.605,225.098,43.945,0
1579292106.035,258.789,5.371,-555.664,186.523,77.148,0
1579292106.039,322.754,17.090,-479.980,336.426,52.246,0
1579292106.043,313.477,35.645,-588.867,-5.371,16.602,0
1579292106.046,284.180,37.109,-564.453,-478.516,-28.809,0
1579292106.050,212.891,37.598,-640.625,-260.742,37.109,0
1579292106.054,104.492,40.527,-599.121,204.102,83.008,0
1579292106.058,-43.945,40.039,-399.902,212.402,18.555,0
1579292106.062,-232.910,41.016,-375.977,-23.438,30.762,0
1579292106.078,-352.539,35.156,-383.301,145.508,-4.395,0
1579292106.082,-379.395,27.832,-515.137,777.344,-14.648,0
1579292106.086,-363.281,31.250,-581.055,-970.703,43.457,0
1579292106.090,-338.867,32.715,-340.332,911.133,35.645,0
1579292106.094,-305.664,27.832,-294.434,924.805,26.367,0
1579292106.098,-205.078,24.902,-324.219,-991.699,49.805,0
1579292106.102,-116.699,29.297,-511.719,998.535,27.832,0
1579292106.105,-76.172,27.344,-697.754,998.047,33.691,0
1579292106.109,-15.625,25.391,-480.957,999.512,37.109,0
1579292106.113,75.195,29.297,-299.316,999.512,15.137,0
1579292106.117,150.879,24.414,-252.441,999.512,15.625,0
1579292106.121,154.785,23.438,-328.125,999.512,35.156,0
1579292106.119,133.789,28.320,-485.840,999.512,46.387,0
1579292106.123,156.250,21.973,-413.574,999.512,44.434,0
1579292106.127,198.242,17.090,-309.082,994.141,33.691,0
1579292106.131,195.801,22.949,-277.832,-987.305,50.293,0
1579292106.135,172.852,24.414,-411.621,953.125,64.941,0
1579292106.139,192.871,19.531,-622.070,893.555,30.273,0
1579292106.143,238.770,17.090,-575.195,994.141,39.551,0
1579292106.146,250.977,22.461,-411.133,971.680,44.922,0
1579292106.150,200.684,24.902,-348.145,488.770,71.289,0
1579292106.154,139.648,21.484,-492.676,38.574,86.426,0
1579292106.158,121.094,31.250,-704.102,187.988,62.988,0
1579292106.162,107.422,34.668,-557.617,412.109,60.547,0
1579292106.159,55.664,26.855,-438.965,41.016,72.754,0
1579292106.163,15.137,30.273,-556.641,-421.875,72.754,0
1579292106.167,32.715,29.297,-551.758,-332.520,95.215,0
1579292106.171,55.176,26.855,-751.953,-165.527,63.965,0
1579292106.175,70.312,23.926,-811.523,-468.750,37.598,0
1579292106.179,83.984,24.414,-833.496,-917.969,-36.133,0
1579292106.183,135.254,27.344,-990.234,-968.750,-98.145,0
1579292106.186,225.586,24.902,-789.551,-900.879,20.508,0
1579292106.190,224.121,29.785,-833.008,-955.566,-5.371,0
1579292106.194,196.777,36.133,-979.004,-975.098,-75.195,0
1579292106.198,228.027,30.762,-825.684,-965.332,-41.992,0
1579292106.202,267.090,24.902,-645.508,-969.238,38.574,0
1579292106.219,286.133,27.344,-527.832,-968.262,105.469,0
1579292106.223,257.812,31.250,-668.457,-968.262,60.547,0
1579292106.227,222.656,31.250,-802.246,-968.262,-23.926,0
1579292106.231,240.234,28.320,-675.781,-968.262,4.883,0
1579292106.235,242.676,25.391,-595.215,-968.262,40.039,0
1579292106.239,190.430,21.973,-741.211,-968.262,11.719,0
1579292106.243,146.973,30.762,-933.594,-968.262,41.016,0
1579292106.246,159.180,30.762,-930.664,-968.262,58.594,0
1579292106.250,182.617,16.113,-683.594,-968.262,37.109,0
1579292106.254,149.902,19.043,-531.250,-968.262,60.059,0
1579292106.258,107.910,20.996,-593.750,-968.262,26.367,0
1579292106.262,93.750,17.090,-743.164,-968.750,1.953,0
1579292106.259,129.883,17.090,-778.320,-968.262,-16.602,0
1579292106.263,166.504,15.625,-622.070,-968.262,37.109,0
1579292106.267,151.855,14.160,-605.957,-968.262,85.938,0
1579292106.271,154.297,15.137,-655.273,-968.262,43.457,0
1579292106.275,183.594,12.207,-668.457,-968.262,93.262,0
1579292106.279,186.523,9.766,-770.508,-968.262,95.215,0
1579292106.283,162.598,5.371,-844.727,-968.262,42.969,0
1579292106.286,152.832,6.348,-892.578,-968.750,-26.855,0
1579292106.290,187.500,10.254,-683.594,-968.750,3.906,0
1579292106.294,207.520,9.766,-621.094,-970.215,73.242,0
1579292106.298,175.781,8.789,-884.277,-947.266,62.988,0
1579292106.302,162.598,6.348,-786.133,-998.535,38.574,0
1579292106.299,184.082,8.789,-534.180,-804.688,39.062,0
1579292106.303,206.055,15.137,-330.078,-242.676,96.191,0
1579292106.307,203.613,16.602,-335.938,-74.219,62.500,0
1579292106.311,166.992,22.461,-491.211,-215.332,33.691,0
1579292106.315,132.324,20.996,-432.617,-8.789,22.949,0
1579292106.319,104.004,19.531,-445.801,646.973,-13.184,0
1579292106.323,68.359,26.367,-393.555,938.965,53.711,0
1579292106.326,5.859,25.879,-303.711,606.934,50.781,0
1579292106.330,-68.848,28.320,-620.605,646.484,31.738,0
1579292106.334,-62.012,27.832,-648.926,982.422,25.391,0
1579292106.338,-38.086,24.902,-325.684,-988.770,2.930,0
1579292106.342,-70.801,32.227,-234.375,970.703,47.363,0
1579292106.359,-99.609,31.250,-316.895,970.215,52.246,0
1579292106.363,-74.219,28.809,-357.422,-998.047,69.824,0
1579292106.367,-44.434,27.832,-254.883,999.512,49.805,0
1579292106.371,-70.312,27.832,-280.273,998.535,-12.207,0
1579292106.375,-91.309,29.785,-276.855,999.512,40.039,0
1579292106.379,-65.918,33.691,-371.094,999.512,52.246,0
1579292106.383,-33.203,35.645,-625.488,999.512,-10.742,0
1579292106.386,-8.789,34.180,-553.223,999.512,-35.645,0
1579292106.390,-3.418,32.227,-382.324,999.512,-35.645,0
1579292106.394,22.949,21.973,-374.512,999.512,-1.953,0
1579292106.398,95.215,23.438,-269.043,999.512,23.438,0
1579292106.402,118.164,28.320,-438.965,999.512,22.461,0
1579292106.399,108.887,25.391,-541.016,999.512,46.387,0
1579292106.403,126.465,23.926,-353.027,999.512,42.480,0
1579292106.407,158.203,27.832,-376.465,999.512,-4.883,0
1579292106.411,179.199,25.391,-389.648,999.512,-8.301,0
1579292106.415,155.762,23.438,-474.609,999.512,17.578,0
1579292106.419,121.094,33.691,-577.637,-999.023,56.152,0
1579292106.423,124.512,33.203,-579.590,991.699,28.320,0
1579292106.426,127.441,30.273,-569.336,-998.535,-31.250,0
1579292106.430,110.840,29.297,-375.000,991.699,0.977,0
1579292106.434,61.035,31.250,-458.984,684.570,75.684,0
1579292106.438,40.039,32.715,-797.852,597.656,85.938,0
1579292106.442,75.195,27.832,-500.000,955.078,115.723,0
1579292106.439,71.289,31.738,-223.145,914.062,131.348,0
1579292106.443,46.875,29.785,-368.652,429.199,50.781,0
1579292106.447,57.617,26.367,-586.426,250.977,5.371,0
1579292106.451,104.980,29.785,-586.914,597.168,30.762,0
1579292106.455,140.137,27.832,-391.602,733.398,35.156,0
1579292106.459,117.188,30.762,-612.305,160.156,3.418,0
1579292106.463,91.797,35.645,-864.746,-215.332,5.859,0
1579292106.466,118.652,28.320,-721.680,143.555,12.207,0
1579292106.470,118.164,21.484,-841.309,374.512,-5.859,0
1579292106.474,96.680,21.973,-757.812,123.535,46.387,0
1579292106.478,66.895,24.902,-505.859,-260.742,83.984,0
1579292106.482,55.664,24.902,-471.680,-10.742,75.684,0
1579292106.499,61.523,26.855,-373.047,571.777,71.777,0
1579292106.503,25.879,35.645,-394.531,547.852,82.520,0
1579292106.507,-11.230,29.785,-405.273,162.598,98.145,0
1579292106.511,-9.277,19.043,-429.688,146.973,85.938,0
1579292106.515,24.902,22.461,-334.961,660.156,101.562,0
1579292106.519,39.551,26.855,-412.598,836.426,29.297,0
1579292106.523,-6.348,26.855,-844.238,407.227,-35.645,0
1579292106.526,3.418,22.461,-836.914,289.551,20.996,0
1579292106.530,103.516,23.438,-578.125,631.348,-9.277,0
1579292106.534,147.461,20.020,-508.789,775.879,-10.742,0
1579292106.538,150.879,20.020,-414.551,367.188,26.367,0
1579292106.542,172.852,24.414,-533.691,-157.227,62.988,0
1579292106.539,232.422,18.066,-617.188,-168.945,25.879,0
1579292106.543,268.066,19.043,-552.734,-103.516,-2.930,0
1579292106.547,240.234,25.391,-518.555,-459.961,63.477,0
1579292106.551,168.945,20.020,-606.934,-902.832,68.848,0
1579292106.555,83.008,21.484,-785.156,-753.418,24.902,0
1579292106.559,5.371,22.949,-783.203,-139.160,-2.441,0
1579292106.563,-80.078,20.508,-674.805,38.574,31.738,0
1579292106.566,-163.574,21.973,-677.246,-152.832,38.574,0
1579292106.570,-172.363,16.602,-466.309,77.148,64.941,0
1579292106.574,-122.559,23.926,-509.766,625.977,58.105,0
1579292106.578,-58.105,26.367,-682.129,745.605,42.969,0
1579292106.582,13.672,23.438,-538.086,265.137,64.941,0
1579292106.579,95.215,29.785,-580.078,18.555,30.273,0
1579292106.583,191.406,24.902,-462.891,445.801,-18.066,0
1579292106.587,220.703,14.160,-404.785,856.445,-41.992,0
1579292106.591,169.434,16.113,-388.184,776.855,8.301,0
1579292106.595,88.379,24.414,-327.637,688.965,12.695,0
1579292106.599,5.859,20.508,-458.984,931.152,-37.109,0
1579292106.603,-70.312,16.602,-389.160,-987.793,25.391,0
1579292106.606,-178.711,21.973,-333.984,-997.559,95.215,0
1579292106.610,-266.602,27.344,-523.438,947.754,34.180,0
1579292106.614,-241.699,28.320,-391.113,889.160,33.203,0
1579292106.618,-166.992,22.949,-236.328,993.164,76.660,0
1579292106.622,-94.727,22.949,-257.324,611.328,59.570,0
1579292106.639,-53.711,34.668,-563.965,-406.250,4.395,0
1579292106.643,-32.227,28.320,-895.508,-972.656,23.438,0
1579292106.647,-10.742,18.555,-851.074,-950.684,66.406,0
1579292106.651,-60.059,28.809,-749.023,-959.473,34.668,0
1579292106.655,-196.289,29.785,-652.832,-971.680,59.570,0
1579292106.659,-350.586,23.438,-765.625,-968.750,83.008,0
1579292106.663,-470.703,25.391,-976.074,-968.750,-2.441,0
1579292106.666,-559.082,26.367,-834.961,-968.262,-6.348,0
1579292106.670,-660.156,21.484,-700.684,-968.262,-41.016,0
1579292106.674,-758.789,24.902,-703.125,-968.262,-57.617,0
1579292106.678,-770.996,24.414,-620.117,-968.262,21.973,0
1579292106.682,-716.797,17.090,-692.383,-968.750,-10.742,0
1579292106.679,-650.391,16.602,-626.953,-968.262,15.625,0
1579292106.683,-584.473,16.113,-581.055,-968.262,22.461,0
1579292106.687,-453.613,10.254,-616.211,-968.262,-4.883,0
1579292106.691,-284.668,24.414,-554.688,-968.262,5.371,0
1579292106.695,-184.082,44.922,-636.719,-968.262,-16.602,0
1579292106.699,-115.723,45.898,-727.051,-968.750,22.461,0
1579292106.703,-30.762,39.551,-747.559,-968.262,17.578,0
1579292106.706,47.363,36.133,-700.684,-968.262,42.969,0
1579292106.710,114.258,34.180,-484.863,-968.750,89.844,0
1579292106.714,102.051,27.344,-649.902,-968.262,76.172,0
1579292106.718,84.961,31.250,-890.137,-968.262,56.152,0
1579292106.722,147.949,39.551,-567.871,-968.262,28.320,0
1579292106.719,164.551,31.738,-403.320,-968.750,14.648,0
1579292106.723,124.023,28.320,-429.199,-968.750,-16.602,0
1579292106.727,51.758,26.855,-532.227,-968.750,8.301,0
1579292106.731,19.043,32.227,-564.941,-968.262,0.488,0
1579292106.735,22.461,35.645,-394.531,-968.262,24.902,0
1579292106.739,-29.785,37.109,-544.434,-968.262,15.625,0
1579292106.743,-93.750,36.621,-582.031,-968.262,29.785,0
1579292106.746,-114.746,35.645,-583.008,-968.262,71.777,0
1579292106.750,-100.098,40.039,-718.262,-969.727,53.223,0
1579292106.754,-104.004,36.133,-479.980,-963.379,62.988,0
1579292106.758,-160.645,36.133,-472.656,-961.914,20.020,0
1579292106.762,-172.852,37.109,-428.223,-977.051,26.367,0
1579292106.779,-150.879,32.227,-427.246,-713.867,79.102,0
1579292106.783,-145.996,27.832,-570.801,-314.453,47.852,0
1579292106.787,-145.020,26.855,-389.648,-322.266,29.297,0
1579292106.791,-137.207,38.574,-338.867,-443.359,32.715,0
1579292106.795,-91.797,34.668,-250.488,40.527,69.336,0
1579292106.799,-74.219,23.926,-258.301,588.867,83.984,0
1579292106.803,-101.562,36.133,-624.023,456.055,28.320,0
1579292106.806,-110.352,32.227,-545.898,209.473,28.809,0
1579292106.810,-90.332,26.367,-272.461,488.770,39.062,0
1579292106.814,-62.988,39.551,-118.164,958.984,60.547,0
1579292106.818,-87.891,39.551,-99.609,974.121,65.918,0
1579292106.822,-140.137,36.133,-347.656,627.441,59.570,0
1579292106.819,-130.859,37.109,-342.773,645.508,68.848,0
1579292106.823,-98.633,35.156,-184.570,949.219,65.430,0
1579292106.827,-102.051,34.668,-139.648,-979.980,52.246,0
1579292106.831,-129.395,41.992,-231.934,647.461,56.641,0
1579292106.835,-125.000,42.969,-410.645,297.852,82.031,0
1579292106.839,-93.750,36.133,-502.441,665.039,17.578,0
1579292106.843,-78.613,40.527,-503.906,973.633,-20.508,0
1579292106.846,-89.355,37.598,-465.820,676.270,0.488,0
1579292106.850,-96.680,31.738,-357.910,300.293,73.242,0
1579292106.854,-73.730,39.551,-503.418,562.012,71.777,0
1579292106.858,-31.250,38.574,-427.246,-965.332,48.828,0
1579292106.862,-17.090,29.297,-233.887,860.352,38.574,0
1579292106.859,-19.043,35.156,-348.145,375.977,45.898,0
1579292106.863,19.531,40.527,-374.512,291.016,51.758,0
1579292106.867,43.945,41.504,-605.469,647.461,2.930,0
1579292106.871,31.738,36.621,-623.535,791.016,-13.184,0
1579292106.875,-6.836,28.809,-366.699,494.141,1.953,0
1579292106.879,-54.688,33.691,-466.797,653.320,21.973,0
1579292106.883,-41.504,35.645,-346.680,-981.445,63.477,0
1579292106.886,-22.949,35.645,-371.582,997.070,83.496,0
1579292106.890,-22.461,33.203,-587.891,992.188,77.148,0
1579292106.894,24.414,31.250,-386.719,995.605,36.621,0
1579292106.898,104.980,36.621,-259.766,990.234,16.602,0
1579292106.902,196.777,32.227,-237.793,968.750,11.230,0
1579292106.919,253.418,29.785,-375.977,584.473,15.625,0
1579292106.923,295.410,30.762,-577.637,-48.340,-9.766,0
1579292106.927,356.445,32.715,-565.918,-54.199,-23.926,0
1579292106.931,389.160,39.062,-370.605,320.801,92.285,0
1579292106.935,339.355,37.109,-378.906,18.555,45.898,0
1579292106.939,211.914,37.598,-773.926,-528.320,-40.039,0
1579292106.943,76.660,35.156,-861.816,-418.457,76.660,0
1579292106.946,-20.020,32.227,-516.602,113.770,102.051,0
1579292106.950,-133.301,32.227,-312.012,352.051,94.238,0
1579292106.954,-257.812,27.832,-254.883,45.410,151.367,0
1579292106.958,-318.359,30.273,-431.152,22.949,103.516,0
1579292106.962,-293.457,34.668,-736.328,626.953,-35.645,0
1579292106.959,-228.516,36.621,-481.934,-979.492,-39.062,0
1579292106.963,-205.566,41.016,-245.605,922.363,11.719,0
1579292106.967,-197.266,35.645,-250.488,873.047,49.805,0
1579292106.971,-147.461,31.250,-228.027,999.023,88.379,0
1579292106.975,-103.027,35.645,-304.688,-995.605,47.852,0
1579292106.979,-69.824,34.180,-369.629,994.629,40.039,0
1579292106.983,-32.715,23.926,-515.625,-999.512,29.785,0
1579292106.986,51.758,12.695,-500.000,999.512,31.250,0
1579292106.990,152.832,11.230,-402.344,999.512,58.105,0
1579292106.994,186.523,22.461,-729.980,999.512,-11.230,0
1579292106.998,210.449,22.461,-741.699,-999.512,-24.902,0
1579292107.002,273.926,21.973,-298.340,995.605,88.379,0
1579292106.999,328.125,23.438,-222.168,988.281,69.336,0
1579292107.003,331.543,15.625,-275.879,-979.980,1.465,0
1579292107.007,291.992,13.184,-392.578,716.309,41.992,0
1579292107.011,277.344,19.043,-468.262,382.812,43.457,0
1579292107.015,246.582,19.043,-423.340,628.906,3.418,0
1579292107.019,173.828,21.973,-482.910,709.473,45.898,0
1579292107.023,100.586,20.508,-524.414,261.719,72.754,0
1579292107.026,-4.395,17.090,-746.582,-160.156,50.293,0
1579292107.030,-53.711,15.625,-910.645,-6.348,4.395,0
1579292107.034,-30.273,12.695,-470.215,400.879,73.242,0
1579292107.038,-37.598,14.648,-400.879,140.625,114.746,0
1579292107.042,-47.363,21.484,-629.883,-432.617,74.219,0
1579292107.059,-9.277,27.344,-696.777,-440.430,36.621,0
1579292107.063,45.410,28.809,-611.816,-141.113,21.973,0
1579292107.067,64.453,28.320,-481.934,-370.605,62.988,0
1579292107.071,30.273,25.391,-580.078,-881.836,72.266,0
1579292107.075,17.578,28.320,-638.672,-979.980,59.570,0
1579292107.079,34.668,31.250,-834.473,-953.613,13.672,0
1579292107.083,42.969,34.668,-945.312,-970.215,7.324,0
1579292107.086,60.059,34.668,-717.773,-968.750,64.941,0
1579292107.090,67.871,32.715,-623.535,-968.262,69.336,0
1579292107.094,106.445,34.180,-595.215,-968.262,27.344,0
1579292107.098,137.695,33.691,-696.777,-968.262,-25.391,0
1579292107.102,150.879,37.109,-747.559,-968.262,-5.859,0
1579292107.099,152.832,37.109,-591.309,-968.262,56.641,0
1579292107.103,175.293,33.691,-644.043,-968.750,54.688,0
1579292107.107,215.820,34.668,-680.664,-968.262,39.551,0
1579292107.111,193.359,34.180,-685.059,-968.262,15.625,0
1579292107.115,143.066,32.715,-762.207,-968.262,-16.602,0
1579292107.119,137.695,31.738,-775.391,-968.262,-0.977,0
1579292107.123,146.973,32.227,-864.258,-968.750,-38.086,0
1579292107.126,128.906,36.133,-754.395,-968.262,-88.867,0
1579292107.130,86.914,37.598,-641.113,-968.262,-26.855,0
1579292107.134,47.363,38.086,-900.391,-968.750,0.488,0
1579292107.138,84.961,34.668,-758.301,-968.262,40.527,0
1579292107.142,122.070,27.832,-435.547,-968.262,84.961,0
1579292107.139,103.516,32.715,-476.562,-968.750,29.785,0
1579292107.143,93.750,33.203,-555.664,-968.262,19.531,0
1579292107.147,110.840,30.273,-604.980,-968.262,43.457,0
1579292107.151,131.348,25.879,-486.816,-968.750,48.828,0
1579292107.155,113.281,31.250,-546.875,-968.750,17.578,0
1579292107.159,72.266,46.875,-733.398,-968.750,5.859,0
1579292107.163,79.590,42.969,-723.633,-968.750,26.855,0
1579292107.166,85.938,41.504,-888.184,-970.215,-17.090,0
1579292107.170,67.871,40.527,-838.867,-957.031,-4.883,0
1579292107.174,34.180,33.203,-563.965,-975.586,31.738,0
1579292107.178,7.812,34.668,-508.301,-918.457,73.242,0
1579292107.182,18.066,38.086,-417.969,-526.367,28.809,0
1579292107.199,-12.695,39.062,-399.414,-248.535,-11.230,0
1579292107.203,-74.707,33.691,-405.762,-483.887,14.648,0
1579292107.207,-101.074,28.320,-337.402,-430.664,30.273,0
1579292107.211,-71.777,21.484,-123.535,464.844,48.828,0
1579292107.215,-59.082,31.738,121.582,-979.004,7.812,0
1579292107.219,-106.934,35.156,100.098,979.980,-6.348,0
1579292107.223,-156.250,21.484,136.230,990.723,31.738,0
1579292107.226,-145.508,9.766,379.883,-997.559,82.031,0
1579292107.230,-118.652,25.879,527.344,999.512,83.008,0
1579292107.234,-140.137,46.875,623.535,999.512,-0.488,0
1579292107.238,-174.316,51.758,395.020,999.512,-39.551,0
1579292107.242,-149.902,51.758,300.293,999.512,28.809,0
1579292107.239,-125.977,50.293,644.531,999.512,31.250,0
1579292107.243,-198.242,50.293,752.441,999.512,24.902,0
1579292107.247,-277.832,46.387,681.641,999.512,13.184,0
1579292107.251,-274.414,50.293,473.633,999.512,-31.250,0
1579292107.255,-222.168,53.711,477.051,999.512,27.832,0
1579292107.259,-215.820,53.223,459.961,999.512,47.363,0
1579292107.263,-237.793,55.664,201.172,999.512,0.977,0
1579292107.266,-226.074,54.688,271.484,999.512,20.508,0
1579292107.270,-195.801,57.129,269.531,998.047,63.965,0
1579292107.274,-192.871,58.594,-27.832,998.047,129.883,0
1579292107.278,-220.703,52.246,-70.801,-993.164,97.656,0
1579292107.282,-239.258,59.570,-50.781,937.500,26.855,0
1579292107.279,-199.219,63.477,-92.285,917.480,6.348,0
1579292107.283,-133.301,59.082,-174.316,-946.777,34.180,0
1579292107.287,-102.539,60.547,-378.906,695.312,25.879,0
1579292107.291,-97.168,45.898,-519.043,-64.453,22.461,0
1579292107.295,-72.754,46.875,-616.699,-170.410,46.387,0
1579292107.299,-35.156,49.316,-797.363,74.219,-2.930,0
1579292107.303,-24.414,41.016,-933.105,-62.012,-25.879,0
1579292107.306,-50.293,39.551,-958.496,-642.578,4.395,0
1579292107.310,-10.742,31.250,-969.238,-908.691,29.297,0
1579292107.314,69.824,21.484,-916.504,-543.457,10.254,0
1579292107.318,88.379,17.578,-846.191,-497.070,1.465,0
1579292107.322,71.289,18.555,-882.324,-858.887,63.965,0
1579292107.339,58.105,14.648,-963.379,-1000.000,32.715,0
1579292107.343,100.098,10.254,-971.680,-872.070,26.367,0
1579292107.347,136.230,18.066,-892.578,-747.559,77.148,0
1579292107.351,111.816,21.484,-836.914,-904.785,74.219,0
1579292107.355,76.660,21.484,-871.094,-979.980,61.523,0
1579292107.359,64.453,25.391,-951.172,-969.238,35.156,0
1579292107.363,78.125,22.461,-954.102,-824.707,45.898,0
1579292107.366,69.336,27.344,-845.215,-779.297,24.902,0
1579292107.370,31.738,25.391,-847.168,-999.023,10.254,0
1579292107.374,32.715,16.602,-840.820,-854.004,-21.973,0
1579292107.378,42.480,24.414,-879.395,-393.555,34.180,0
1579292107.382,30.762,30.273,-881.836,-294.434,42.969,0
1579292107.379,24.902,25.879,-680.176,-564.453,46.387,0
1579292107.383,35.645,19.043,-633.301,-625.000,93.750,0
1579292107.387,84.961,21.484,-552.734,-146.973,82.520,0
1579292107.391,137.695,27.832,-547.363,52.246,71.777,0
1579292107.395,164.062,28.320,-729.492,-324.707,35.156,0
1579292107.399,173.828,25.391,-863.281,-534.180,25.879,0
1579292107.403,202.637,26.367,-830.566,-180.176,31.250,0
1579292107.406,232.422,26.855,-537.598,265.137,22.461,0
1579292107.410,179.688,24.902,-618.164,28.320,28.809,0
1579292107.414,122.559,20.996,-941.406,-335.938,33.203,0
1579292107.418,142.578,12.695,-662.598,-17.578,84.473,0
1579292107.422,152.344,16.113,-453.613,465.332,24.902,0
1579292107.439,132.324,29.297,-381.348,482.422,27.832,0
1579292107.443,88.867,31.738,-505.371,4.395,80.566,0
1579292107.447,80.566,23.926,-689.941,-31.738,21.484,0
1579292107.451,133.789,23.926,-489.746,527.832,21.973,0
1579292107.455,145.996,32.227,-395.020,601.562,32.715,0
1579292107.459,114.258,32.715,-625.488,113.770,-19.531,0
1579292107.463,111.328,34.180,-897.461,-175.293,-20.020,0
1579292107.466,145.996,31.250,-877.930,195.312,2.441,0
1579292107.470,181.152,29.785,-537.598,503.906,50.293,0
1579292107.474,153.320,38.086,-483.887,127.441,38.086,0
1579292107.478,115.234,39.062,-585.449,-227.051,19.531,0
1579292107.482,113.770,36.133,-602.051,31.250,48.340,0
1579292107.479,97.168,33.691,-678.711,513.672,51.758,0
1579292107.483,55.176,33.203,-537.109,494.629,54.688,0
1579292107.487,-0.488,36.621,-562.500,115.723,-11.719,0
1579292107.491,-22.461,33.691,-591.309,277.344,-7.812,0
1579292107.495,-11.719,32.715,-466.309,714.844,32.715,0
1579292107.499,-20.996,35.156,-585.449,690.918,21.973,0
1579292107.503,-41.504,32.715,-707.520,323.242,42.480,0
1579292107.506,-15.625,31.250,-668.945,325.684,45.410,0
1579292107.510,56.641,31.738,-470.703,826.172,18.555,0
1579292107.514,107.422,32.227,-407.715,905.762,-2.930,0
1579292107.518,110.840,29.297,-798.828,407.715,-48.828,0
1579292107.522,139.648,26.855,-883.789,122.559,-17.090,0
1579292107.519,232.910,25.879,-535.156,393.555,44.434,0
1579292107.523,288.086,25.391,-364.258,505.859,77.637,0
1579292107.527,268.066,31.250,-441.406,-75.684,67.383,0
1579292107.531,197.754,36.621,-714.844,-612.305,16.113,0
1579292107.535,139.160,35.156,-705.566,-398.926,36.133,0
1579292107.539,73.242,37.598,-642.578,34.180,48.340,0
1579292107.543,-38.086,39.062,-700.684,-37.598,13.184,0
1579292107.546,-135.742,33.203,-587.891,-381.836,12.695,0
1579292107.550,-195.312,29.785,-780.762,-145.508,-19.043,0
1579292107.554,-196.777,25.879,-845.703,513.672,-27.344,0
1579292107.558,-151.855,25.879,-457.520,680.176,19.043,0
1579292107.562,-110.840,26.367,-375.488,278.320,40.039,0
1579292107.579,-36.133,21.484,-529.297,66.895,34.180,0
1579292107.583,66.406,25.391,-618.652,487.793,61.035,0
1579292107.587,140.625,26.367,-497.070,750.488,24.414,0
1579292107.591,130.371,29.297,-421.387,476.562,-39.551,0
1579292107.595,48.340,31.250,-418.457,603.516,19.531,0
1579292107.599,-28.809,28.320,-414.551,993.652,11.230,0
1579292107.603,-118.652,32.715,-538.086,-995.605,1.953,0
1579292107.606,-242.188,38.086,-700.684,988.281,50.781,0
1579292107.610,-305.176,37.109,-539.062,-995.117,11.230,0
1579292107.614,-278.809,39.551,-376.953,980.469,-1.953,0
1579292107.618,-226.074,38.086,-375.000,-986.328,14.160,0
1579292107.622,-190.918,33.691,-366.699,889.160,77.637,0
1579292107.618,-146.973,31.250,-506.836,212.891,100.586,0
1579292107.622,-78.125,25.391,-594.727,-234.375,67.383,0
1579292107.626,-28.320,22.461,-545.898,-96.680,95.703,0
1579292107.630,-47.363,26.855,-620.605,-407.227,78.125,0
1579292107.634,-156.738,34.180,-814.453,-913.574,47.852,0
1579292107.638,-289.551,42.969,-949.707,-1000.000,34.668,0
1579292107.642,-404.297,39.062,-925.781,-818.848,28.809,0
1579292107.645,-541.992,32.227,-673.340,-569.336,77.148,0
1579292107.649,-697.266,33.203,-589.355,-815.430,53.711,0
1579292107.653,-797.852,31.250,-704.590,-991.699,-1.465,0
1579292107.657,-810.059,30.762,-909.668,-572.266,-0.977,0
1579292107.661,-775.879,25.879,-813.965,-14.648,-19.043,0
1579292107.658,-747.070,23.926,-510.254,-23.926,-5.371,0
1579292107.662,-689.941,28.320,-494.629,-325.195,28.320,0
1579292107.666,-565.918,26.367,-503.418,-19.531,26.855,0
1579292107.670,-426.270,18.555,-455.078,527.344,39.551,0
1579292107.674,-325.195,19.043,-392.090,455.566,27.344,0
1579292107.678,-237.793,39.062,-551.758,-87.402,38.086,0
1579292107.682,-107.422,45.898,-732.422,-287.109,74.219,0
1579292107.685,27.344,41.992,-593.262,50.781,53.711,0
1579292107.689,66.895,43.945,-576.172,-37.109,77.637,0
1579292107.693,76.660,36.133,-672.852,-684.082,70.801,0
1579292107.697,106.934,31.250,-651.367,-1000.000,13.184,0
1579292107.701,145.508,36.133,-622.559,-881.348,26.855,0
1579292107.718,166.016,36.621,-540.039,-853.027,2.441,0
1579292107.722,109.863,40.527,-760.254,-973.145,17.090,0
1579292107.726,54.199,41.016,-876.953,-971.680,55.176,0
1579292107.730,42.480,37.109,-617.188,-964.355,41.016,0
1579292107.734,2.930,37.598,-497.559,-970.703,70.801,0
1579292107.738,-64.941,33.691,-599.121,-960.449,70.312,0
1579292107.742,-128.418,38.574,-862.305,-972.656,16.113,0
1579292107.745,-152.344,28.320,-938.477,-959.473,-0.977,0
1579292107.749,-117.676,18.066,-601.562,-690.430,53.711,0
1579292107.753,-124.023,36.133,-471.680,-579.590,74.219,0
1579292107.757,-163.574,43.945,-528.809,-834.473,36.621,0
1579292107.761,-164.551,41.504,-563.477,-820.312,38.574,0
1579292107.759,-115.723,37.109,-482.422,-281.250,73.242,0
1579292107.763,-61.523,38.574,-300.293,-93.262,58.594,0
1579292107.767,-53.711,35.156,-392.578,-475.098,16.113,0
1579292107.771,-60.059,32.715,-429.199,-556.641,38.574,0
1579292107.775,-40.527,37.109,-498.535,-189.453,5.371,0
1579292107.779,-38.086,33.203,-573.242,120.605,6.836,0
1579292107.783,-67.383,35.156,-504.883,-153.320,94.727,0
1579292107.786,-96.191,36.133,-531.250,-552.734,62.012,0
1579292107.790,-83.984,26.367,-435.547,-265.137,30.762,0
1579292107.794,-71.777,26.855,-362.305,192.383,66.406,0
1579292107.798,-103.516,29.785,-499.512,114.258,81.055,0
1579292107.802,-124.512,27.344,-440.918,-352.051,105.469,0
1579292107.798,-115.723,26.367,-492.188,-359.375,78.125,0
1579292107.802,-76.172,30.273,-408.203,216.797,50.781,0
1579292107.806,-64.453,29.785,-295.898,349.121,31.250,0
1579292107.810,-89.844,23.438,-588.867,-18.555,13.184,0
1579292107.814,-83.984,29.785,-640.625,-172.363,16.113,0
1579292107.818,-56.152,33.691,-490.234,243.652,46.387,0
1579292107.822,-56.152,35.156,-495.117,514.160,31.738,0
1579292107.825,-77.637,33.203,-407.715,102.539,15.137,0
1579292107.829,-112.793,31.738,-703.613,-196.289,38.574,0
1579292107.833,-72.266,28.320,-858.398,37.109,7.324,0
1579292107.837,7.324,31.738,-411.621,300.293,33.203,0
1579292107.841,8.789,40.527,-246.582,46.387,104.492,0
1579292107.858,-13.672,30.762,-407.227,-549.316,62.012,0
1579292107.862,-3.906,27.344,-606.934,-553.711,0.000,0
1579292107.866,11.719,34.668,-523.438,-227.539,19.043,0
1579292107.870,-28.320,36.621,-477.539,-346.680,48.828,0
1579292107.874,-108.887,35.156,-510.254,-638.184,76.660,0
1579292107.878,-150.879,41.504,-530.273,-433.105,59.570,0
1579292107.882,-166.992,38.574,-725.098,279.297,-5.371,0
1579292107.885,-190.918,32.715,-703.125,619.629,-40.039,0
1579292107.889,-195.312,35.645,-320.801,516.113,20.996,0
1579292107.893,-165.039,34.668,-206.055,719.238,44.434,0
1579292107.897,-58.594,32.715,-174.805,983.887,6.836,0
1579292107.901,44.922,33.203,-231.445,-961.426,-16.113,0
1579292107.898,124.023,33.203,-280.273,768.066,33.203,0
1579292107.902,210.449,42.480,-289.062,303.711,62.012,0
1579292107.906,313.965,47.852,-347.656,366.699,38.574,0
1579292107.910,404.297,41.992,-263.184,543.945,60.547,0
1579292107.914,408.691,45.898,-404.297,212.402,42.969,0
1579292107.918,346.191,43.945,-785.156,-436.035,-19.531,0
1579292107.922,294.434,38.574,-815.918,-342.285,30.273,0
1579292107.925,222.168,42.480,-637.695,135.742,35.156,0
1579292107.929,81.055,37.598,-454.102,4.883,1.465,0
1579292107.933,-106.445,36.621,-564.453,-425.293,47.363,0
1579292107.937,-237.305,37.598,-901.855,-478.516,68.359,0
1579292107.941,-266.602,22.949,-666.504,72.754,43.457,0
1579292107.938,-303.711,14.648,-356.934,394.043,17.578,0
1579292107.942,-347.656,29.297,-369.141,68.359,8.301,0
1579292107.946,-355.469,43.945,-478.516,-40.527,41.992,0
1579292107.950,-308.594,45.898,-469.727,402.344,58.594,0
1579292107.954,-246.582,43.945,-234.863,840.332,40.527,0
1579292107.958,-217.773,40.039,-262.695,793.457,88.867,0
1579292107.962,-187.500,36.621,-381.348,570.801,78.125,0
1579292107.965,-117.676,35.156,-285.156,791.992,27.344,0
1579292107.969,-53.223,36.621,-503.418,-960.938,52.246,0
1579292107.973,3.906,31.250,-589.844,899.414,22.949,0
1579292107.977,53.711,32.227,-372.559,531.250,22.949,0
1579292107.981,113.770,33.203,-391.113,545.410,4.883,0
1579292107.998,187.012,29.785,-323.730,945.312,27.832,0
1579292108.002,211.426,30.273,-336.914,859.863,68.848,0
1579292108.006,200.684,27.832,-468.262,308.594,-3.418,0
1579292108.010,196.289,32.227,-508.789,124.512,0.488,0
1579292108.014,220.215,27.832,-452.148,427.734,20.996,0
1579292108.018,213.867,22.461,-536.133,441.406,-3.418,0
1579292108.022,157.715,33.203,-810.059,-187.988,59.082,0
1579292108.025,115.234,35.645,-930.176,-720.703,23.926,0
1579292108.029,104.004,32.227,-636.719,-490.723,54.688,0
1579292108.033,62.988,32.715,-467.773,-425.293,108.398,0
1579292108.037,-14.160,31.250,-600.586,-850.586,54.199,0
1579292108.041,-85.938,42.480,-835.938,-989.258,10.742,0
1579292108.038,-87.891,41.504,-905.762,-954.102,-7.324,0
1579292108.042,-41.504,26.855,-707.031,-969.238,-2.930,0
1579292108.046,-31.738,24.414,-628.906,-968.750,15.137,0
1579292108.050,-44.434,31.738,-650.879,-968.750,18.555,0
1579292108.054,-11.230,37.109,-698.242,-968.262,59.570,0
1579292108.058,54.199,36.133,-779.785,-968.262,54.688,0
1579292108.062,74.219,35.645,-822.754,-968.750,18.555,0
1579292108.065,63.477,30.762,-864.258,-968.262,-23.926,0
1579292108.069,74.707,28.320,-662.598,-968.262,28.809,0
1579292108.073,108.398,27.832,-666.992,-968.750,103.516,0
1579292108.077,137.695,22.949,-916.992,-968.262,41.992,0
1579292108.081,154.785,23.438,-748.535,-968.262,13.184,0
1579292108.078,152.344,24.902,-651.367,-968.262,-5.371,0
1579292108.082,180.176,21.973,-597.656,-968.750,12.207,0
1579292108.086,210.449,27.344,-657.227,-968.750,6.836,0
1579292108.090,190.918,39.062,-731.445,-968.750,-10.254,0
1579292108.094,154.785,35.156,-662.109,-968.750,-21.484,0
1579292108.098,152.344,22.461,-723.633,-968.262,56.641,0
1579292108.102,181.641,38.086,-676.758,-968.750,87.891,0
1579292108.105,168.945,51.270,-684.570,-968.262,3.418,0
1579292108.109,100.586,38.574,-938.477,-968.750,27.832,0
1579292108.113,93.750,35.156,-781.250,-968.262,90.332,0
1579292108.117,110.352,39.062,-569.336,-968.262,19.043,0
1579292108.121,89.355,36.621,-602.539,-968.750,-60.059,0
1579292108.138,39.551,35.645,-675.781,-968.262,-32.715,0
1579292108.142,1.465,35.645,-693.359,-968.262,48.340,0
1579292108.146,16.113,31.250,-563.965,-968.750,49.805,0
1579292108.150,20.508,28.320,-523.926,-968.262,22.461,0
1579292108.154,-7.324,28.320,-529.297,-968.262,42.969,0
1579292108.158,-28.320,32.715,-676.758,-968.750,50.293,0
1579292108.162,-2.930,36.133,-837.891,-968.750,92.285,0
1579292108.165,29.785,31.250,-758.789,-970.215,41.504,0
1579292108.169,27.832,28.320,-621.582,-959.961,-28.320,0
1579292108.173,10.742,25.879,-514.160,-974.121,68.359,0
1579292108.177,37.598,24.414,-447.266,-936.523,112.793,0
1579292108.181,78.125,27.344,-655.273,-622.070,19.531,0
1579292108.178,88.379,22.461,-571.289,-491.211,59.082,0
1579292108.182,69.824,27.832,-373.047,-770.020,134.766,0
1579292108.186,48.340,30.762,-506.836,-794.434,47.363,0
1579292108.190,61.523,23.438,-493.652,-303.711,-13.184,0
1579292108.194,56.152,26.367,-432.129,65.918,57.617,0
1579292108.198,14.648,24.414,-541.992,-223.633,79.102,0
1579292108.202,-13.184,24.414,-674.316,-388.672,45.898,0
1579292108.205,4.395,30.273,-594.727,33.691,38.574,0
1579292108.209,16.113,30.273,-339.355,395.996,69.824,0
1579292108.213,-44.922,30.273,-583.008,261.230,62.012,0
1579292108.217,-91.309,30.762,-821.289,-20.508,55.664,0
1579292108.221,-75.195,30.273,-507.812,273.926,24.414,0
1579292108.218,-75.684,27.344,-243.652,714.355,53.223,0
1579292108.222,-104.492,31.738,-194.336,585.938,72.754,0
1579292108.226,-131.836,32.715,-373.535,293.457,51.270,0
1579292108.230,-108.887,21.973,-471.191,484.375,22.461,0
1579292108.234,-75.195,26.855,-352.051,947.754,3.906,0
1579292108.238,-90.820,29.297,-380.859,995.605,11.230,0
1579292108.242,-103.516,29.297,-520.996,596.680,-5.859,0
1579292108.245,-74.707,38.574,-670.898,593.262,-1.465,0
1579292108.249,-12.695,40.039,-762.207,953.613,-6.836,0
1579292108.253,43.945,40.527,-483.398,-953.125,-36.133,0
1579292108.257,43.945,44.434,-252.441,842.773,27.832,0
1579292108.261,9.766,45.410,-292.969,674.805,126.465,0
1579292108.278,13.672,42.969,-372.559,929.199,97.656,0
1579292108.282,41.016,32.715,-380.859,-969.238,2.441,0
1579292108.286,25.391,20.020,-357.422,916.992,-28.809,0
1579292108.290,-1.953,18.066,-453.125,474.121,-6.836,0
1579292108.294,19.043,20.508,-450.684,423.340,43.457,0
1579292108.298,58.105,26.367,-509.277,765.137,36.621,0
1579292108.302,32.715,35.156,-862.305,396.973,-51.758,0
1579292108.305,-2.930,26.367,-858.887,-325.684,-40.039,0
1579292108.309,13.184,16.602,-635.254,-663.574,34.668,0
1579292108.313,52.734,30.273,-573.242,-608.887,23.438,0
1579292108.317,64.941,40.039,-566.406,-743.164,35.645,0
1579292108.321,27.832,38.086,-705.566,-985.352,44.434,0
1579292108.320,-1.953,31.738,-698.242,-965.820,18.555,0
1579292108.324,-0.488,35.645,-607.422,-963.867,32.227,0
1579292108.328,-20.996,44.922,-625.488,-969.727,56.641,0
1579292108.332,-69.824,41.992,-642.578,-968.262,45.898,0
1579292108.336,-98.145,34.180,-720.215,-968.262,9.277,0
1579292108.340,-69.336,34.180,-743.652,-968.750,37.598,0
1579292108.344,-31.738,35.156,-706.543,-968.262,72.754,0
1579292108.347,-23.926,32.715,-702.148,-968.750,43.457,0
1579292108.351,-25.391,35.645,-594.727,-968.750,7.324,0
1579292108.355,-30.273,34.180,-767.578,-968.750,53.223,0
1579292108.359,-17.090,28.320,-855.469,-968.750,83.008,0
1579292108.363,-24.414,31.738,-579.590,-968.750,27.344,0
1579292108.359,-81.543,36.133,-519.531,-968.750,35.156,0
1579292108.363,-104.004,29.785,-471.680,-968.750,74.219,0
1579292108.367,-93.750,31.738,-498.535,-968.750,75.195,0
1579292108.371,-93.262,37.598,-525.391,-968.750,50.293,0
1579292108.375,-133.301,31.738,-509.766,-968.750,22.461,0
1579292108.379,-162.109,23.926,-665.039,-968.262,15.137,0
1579292108.383,-127.930,18.555,-741.699,-968.262,-1.953,0
1579292108.386,-115.723,23.926,-821.777,-968.262,10.254,0
1579292108.390,-124.023,25.879,-832.031,-968.750,-7.812,0
1579292108.394,-109.375,26.855,-587.402,-968.262,13.184,0
1579292108.398,-62.988,30.762,-458.008,-968.262,90.820,0
1579292108.402,-17.090,32.227,-414.551,-968.750,28.809,0
1579292108.418,-44.434,32.715,-633.301,-968.262,-4.883,0
1579292108.422,-90.332,30.273,-799.316,-968.750,30.762,0
1579292108.426,-85.449,33.691,-576.172,-968.262,44.434,0
1579292108.430,-84.961,27.344,-474.609,-968.750,43.945,0
1579292108.434,-118.652,17.090,-520.508,-968.750,-33.691,0
1579292108.438,-185.547,33.691,-729.492,-968.262,-32.227,0
1579292108.442,-229.980,50.293,-979.492,-968.262,10.254,0
1579292108.445,-209.961,46.387,-730.469,-968.750,55.176,0
1579292108.449,-208.008,42.969,-530.762,-968.750,9.766,0
1579292108.453,-245.117,41.992,-535.645,-968.750,-54.199,0
1579292108.457,-259.766,48.828,-571.777,-968.262,-3.418,0
1579292108.461,-235.352,51.270,-553.223,-968.262,16.602,0
1579292108.459,-214.844,44.434,-354.980,-968.262,28.320,0
1579292108.463,-225.586,40.039,-302.734,-968.262,86.914,0
1579292108.467,-232.910,38.086,-351.562,-968.750,84.473,0
1579292108.471,-197.266,38.574,-517.578,-968.262,-2.930,0
1579292108.475,-157.227,31.738,-580.566,-968.750,22.461,0
1579292108.479,-148.926,34.180,-604.492,-968.750,38.086,0
1579292108.483,-166.992,38.086,-722.168,-965.820,22.949,0
1579292108.486,-155.273,39.062,-613.281,-976.562,87.402,0
1579292108.490,-112.793,38.086,-459.961,-932.129,35.156,0
1579292108.494,-130.859,40.527,-682.617,-920.410,77.637,0
1579292108.498,-159.668,44.922,-894.531,-972.656,60.547,0
1579292108.502,-141.602,41.992,-774.414,-968.262,-40.527,0
1579292108.499,-104.980,39.062,-574.707,-967.285,-1.953,0
1579292108.503,-106.445,34.668,-445.801,-968.750,42.969,0
1579292108.507,-172.852,34.668,-574.707,-968.262,34.180,0
1579292108.511,-222.656,37.109,-621.582,-968.262,22.949,0
1579292108.515,-227.539,31.738,-465.332,-968.262,82.520,0
1579292108.519,-247.559,28.320,-552.246,-968.750,89.355,0
1579292108.523,-291.504,28.320,-648.926,-967.773,15.137,0
1579292108.526,-354.492,23.926,-796.875,-968.750,-7.812,0
1579292108.530,-354.004,21.973,-895.996,-968.750,11.230,0
1579292108.534,-287.598,20.020,-548.340,-957.031,55.664,0
1579292108.538,-256.348,22.949,-365.234,-963.379,100.586,0
1579292108.542,-240.723,27.832,-442.871,-968.750,40.039,0
1579292108.559,-196.289,29.785,-523.438,-972.168,31.738,0
1579292108.563,-121.094,30.762,-561.523,-955.566,52.246,0
1579292108.567,-55.176,31.738,-569.336,-943.359,21.484,0
1579292108.571,-15.625,33.203,-507.812,-969.238,23.926,0
1579292108.575,41.992,34.180,-410.156,-969.238,64.453,0
1579292108.579,94.238,36.621,-630.371,-967.773,73.242,0
1579292108.583,129.395,35.645,-807.617,-968.750,42.969,0
1579292108.586,118.164,31.250,-506.836,-968.750,79.102,0
1579292108.590,33.203,24.414,-488.281,-968.750,43.945,0
1579292108.594,-29.297,21.973,-451.172,-968.750,25.391,0
1579292108.598,-120.117,24.902,-490.234,-968.750,73.730,0
1579292108.602,-255.371,26.367,-600.586,-968.750,106.934,0
1579292108.599,-354.004,30.762,-494.629,-968.262,57.129,0
1579292108.603,-382.324,34.180,-465.332,-968.750,38.574,0
1579292108.607,-351.562,35.156,-396.973,-968.750,66.895,0
1579292108.611,-321.777,33.691,-483.887,-968.750,47.852,0
1579292108.615,-289.062,27.344,-703.613,-968.262,14.160,0
1579292108.619,-210.449,26.367,-738.281,-968.750,13.672,0
1579292108.623,-125.977,22.949,-728.027,-969.727,-2.441,0
1579292108.626,-106.934,26.855,-670.898,-936.523,-6.836,0
1579292108.630,-167.480,39.551,-532.227,-929.199,79.590,0
1579292108.634,-250.488,41.016,-629.395,-811.035,76.660,0
1579292108.638,-298.828,33.691,-474.609,-100.586,31.250,0
1579292108.642,-338.379,29.297,-199.219,568.359,17.578,0
1579292108.639,-384.766,29.785,-208.984,336.914,-0.977,0
1579292108.643,-411.621,29.785,-285.156,-87.402,50.293,0
1579292108.647,-385.254,29.785,-589.355,-94.238,29.297,0
1579292108.651,-317.383,29.297,-552.246,-8.301,25.391,0
1579292108.655,-287.598,31.738,-464.844,-502.930,20.996,0
1579292108.659,-302.246,34.668,-699.707,-988.281,0.000,0
1579292108.663,-315.918,33.691,-791.992,-958.984,22.949,0
1579292108.666,-323.730,37.109,-844.727,-958.984,35.156,0
1579292108.670,-353.516,39.551,-717.773,-971.680,20.996,0
1579292108.674,-437.500,32.227,-546.875,-967.285,15.625,0
1579292108.678,-550.293,26.855,-469.238,-971.191,99.121,0
1579292108.682,-654.297,24.902,-342.285,-958.984,135.742,0
1579292108.699,-788.574,17.090,-589.844,-949.707,95.703,0
1579292108.703,-922.852,20.020,-723.633,-946.289,65.430,0
1579292108.707,-967.773,34.668,-571.777,-1000.000,1.465,0
1579292108.711,-965.820,32.227,-539.551,-746.094,-16.113,0
1579292108.715,-961.914,25.879,-389.648,-295.410,-5.371,0
1579292108.719,-917.969,31.738,-624.512,-540.527,35.645,0
1579292108.723,-792.969,31.250,-877.930,-894.531,36.133,0
1579292108.726,-602.539,31.250,-587.402,-709.473,20.996,0
1579292108.730,-433.105,34.180,-419.434,-420.898,19.043,0
1579292108.734,-297.852,26.855,-368.164,-718.750,67.383,0
1579292108.738,-194.336,32.715,-625.000,-999.023,52.246,0
1579292108.742,-110.352,37.598,-745.605,-957.031,2.930,0
1579292108.739,-43.457,30.762,-520.020,-964.844,39.062,0
1579292108.743,4.395,35.156,-488.281,-969.727,40.039,0
1579292108.747,8.301,34.180,-479.492,-968.262,67.871,0
1579292108.751,7.812,37.598,-579.590,-968.750,78.613,0
1579292108.755,39.551,35.156,-644.043,-968.750,13.184,0
1579292108.759,34.180,31.250,-640.625,-968.750,-2.441,0
1579292108.763,-14.160,39.551,-732.422,-968.262,31.250,0
1579292108.766,-80.078,32.227,-660.645,-968.262,-5.371,0
1579292108.770,-151.855,26.367,-590.332,-968.262,32.715,0
1579292108.774,-221.680,23.926,-844.238,-968.262,46.875,0
1579292108.778,-287.109,13.184,-799.316,-968.750,-4.395,0
1579292108.782,-336.426,7.812,-556.641,-968.750,48.828,0
1579292108.779,-353.516,13.184,-506.348,-968.750,67.871,0
1579292108.783,-341.797,31.250,-594.238,-968.262,56.641,0
1579292108.787,-334.961,32.715,-632.812,-968.262,57.617,0
1579292108.791,-352.539,20.020,-502.441,-968.750,60.059,0
1579292108.795,-330.566,20.996,-466.309,-968.750,86.914,0
1579292108.799,-252.930,24.902,-587.402,-968.262,68.848,0
1579292108.803,-188.965,20.020,-725.586,-969.238,9.766,0
1579292108.806,-180.176,21.973,-896.484,-963.867,-2.930,0
1579292108.810,-145.996,30.762,-889.648,-978.027,-38.574,0
1579292108.814,-83.008,37.598,-623.047,-943.359,-41.992,0
1579292108.818,-68.848,40.039,-501.465,-889.160,-13.184,0
1579292108.822,-107.910,32.227,-524.414,-938.477,-5.859,0
1579292108.839,-138.672,31.738,-597.656,-1000.000,46.387,0
1579292108.843,-113.281,32.227,-540.039,-815.430,48.340,0
1579292108.847,-83.984,30.273,-366.699,-329.590,58.594,0
1579292108.851,-88.379,27.344,-334.961,-422.852,65.918,0
1579292108.855,-99.609,24.414,-539.551,-834.473,27.344,0
1579292108.859,-86.914,28.809,-689.453,-593.750,42.480,0
1579292108.863,-54.199,27.832,-601.562,-65.918,59.082,0
1579292108.866,-30.273,26.367,-381.348,109.863,62.500,0
1579292108.870,-30.762,32.715,-338.379,-194.336,51.758,0
1579292108.874,-22.949,36.621,-372.070,-170.898,35.156,0
1579292108.878,4.395,39.551,-476.562,508.789,49.805,0
1579292108.882,46.875,38.574,-399.414,817.871,55.176,0
1579292108.879,68.359,28.809,-280.762,497.559,-9.277,0
1579292108.883,77.637,23.438,-388.672,312.500,-16.113,0
1579292108.887,150.391,29.785,-256.836,704.102,48.828,0
1579292108.891,200.195,37.598,-374.023,-947.754,1.465,0
1579292108.895,194.336,32.227,-458.984,825.684,29.785,0
1579292108.899,178.711,27.832,-497.559,432.129,46.875,0
1579292108.903,189.453,34.668,-582.031,540.039,63.965,0
1579292108.906,211.914,30.273,-368.164,876.953,100.586,0
1579292108.910,157.227,28.809,-458.496,826.660,41.992,0
1579292108.914,74.219,32.715,-734.863,590.820,22.949,0
1579292108.918,49.805,29.785,-518.555,811.035,8.789,0
1579292108.922,56.152,24.414,-209.961,-972.168,28.809,0
1579292108.939,59.570,19.043,-153.809,988.770,43.945,0
1579292108.943,43.457,22.461,-313.477,997.559,16.602,0
1579292108.947,75.684,23.926,-417.969,-998.047,21.973,0
1579292108.951,178.711,24.902,-290.039,980.957,33.691,0
1579292108.955,255.859,26.855,-261.719,-973.633,42.969,0
1579292108.959,289.551,26.367,-327.637,866.211,102.051,0
1579292108.963,326.660,30.273,-549.316,428.711,98.633,0
1579292108.966,378.418,32.227,-854.492,437.500,67.383,0
1579292108.970,435.547,32.715,-682.617,636.230,26.367,0
1579292108.974,412.109,27.832,-432.129,330.078,73.730,0
1579292108.978,325.684,25.879,-573.242,-54.199,74.219,0
1579292108.982,253.418,30.762,-581.543,203.613,28.809,0
1579292108.979,160.156,32.715,-515.137,719.727,33.203,0
1579292108.983,42.480,29.785,-370.117,776.367,54.688,0
1579292108.987,-64.941,32.227,-450.684,365.723,13.672,0
1579292108.991,-114.258,32.715,-490.723,496.582,13.184,0
1579292108.995,-94.727,34.668,-331.543,966.797,59.570,0
1579292108.999,-66.406,43.457,-451.172,-970.703,7.812,0
1579292109.003,-44.434,44.434,-614.258,794.922,-8.789,0
1579292109.006,-1.953,44.922,-529.297,651.855,43.945,0
1579292109.010,66.895,51.758,-357.422,914.062,82.031,0
1579292109.014,113.281,42.969,-220.703,-961.914,76.172,0
1579292109.018,86.914,35.645,-581.543,922.363,47.852,0
1579292109.022,91.309,38.574,-829.590,744.141,22.461,0
1579292109.019,148.438,38.574,-576.172,864.746,15.625,0
1579292109.023,181.152,36.621,-452.148,-966.797,52.246,0
1579292109.027,193.848,32.227,-362.305,931.152,40.039,0
1579292109.031,197.266,35.156,-525.879,587.402,7.812,0
1579292109.035,228.027,35.156,-577.148,630.371,4.883,0
1579292109.039,245.117,31.250,-561.035,938.477,9.766,0
1579292109.043,220.703,29.785,-625.000,789.062,-2.930,0
1579292109.046,203.125,28.320,-486.816,332.520,34.180,0
1579292109.050,188.477,30.273,-701.660,155.762,43.945,0
1579292109.054,217.285,33.203,-873.047,466.309,63.477,0
1579292109.058,261.230,34.668,-572.266,462.891,54.199,0
1579292109.062,237.305,37.598,-545.898,-51.758,5.859,0
1579292109.082,227.051,43.945,-610.840,-307.129,22.949,0
1579292109.086,248.047,39.551,-637.207,-62.988,59.570,0
1579292109.090,249.023,29.785,-603.516,-17.578,50.293,0
1579292109.094,213.867,28.320,-666.504,-601.074,34.668,0
1579292109.098,161.133,26.855,-885.254,-992.676,73.242,0
1579292109.102,152.344,28.809,-948.242,-954.590,-1.465,0
1579292109.106,135.254,35.645,-959.473,-962.891,22.461,0
1579292109.109,88.379,33.203,-929.199,-970.215,77.148,0
1579292109.113,50.781,29.297,-768.555,-968.262,48.340,0
1579292109.117,39.062,34.668,-670.410,-968.262,65.918,0
1579292109.121,51.270,32.227,-612.793,-968.750,34.180,0
1579292109.125,14.160,27.832,-674.805,-968.750,38.086,0
1579292109.119,-40.527,28.320,-918.945,-968.262,17.090,0
1579292109.123,-21.484,29.785,-896.973,-968.262,-51.758,0
1579292109.127,30.273,22.949,-769.531,-968.262,-65.918,0
1579292109.131,67.383,24.414,-674.805,-968.262,-13.184,0
1579292109.135,84.961,33.691,-687.500,-968.750,35.156,0
1579292109.139,100.098,37.109,-911.133,-968.750,15.625,0
1579292109.143,155.273,41.016,-985.352,-968.750,-5.859,0
1579292109.146,194.824,40.039,-900.879,-968.750,17.090,0
1579292109.150,190.918,36.133,-765.137,-968.750,24.414,0
1579292109.154,177.246,35.645,-677.734,-968.750,32.227,0
1579292109.158,165.039,35.156,-859.863,-968.262,73.242,0
1579292109.162,174.316,33.203,-905.273,-968.262,25.879,0
1579292109.159,165.527,27.344,-703.613,-968.262,-4.395,0
1579292109.163,106.934,21.973,-630.859,-968.750,58.105,0
1579292109.167,72.266,29.297,-586.914,-968.750,109.863,0
1579292109.171,80.078,35.156,-630.371,-968.750,96.680,0
1579292109.175,62.988,25.879,-621.094,-968.262,67.383,0
1579292109.179,-4.395,17.578,-748.535,-968.262,22.949,0
1579292109.183,-50.781,16.602,-968.750,-968.750,-56.152,0
1579292109.186,-42.480,15.625,-825.684,-968.750,-83.496,0
1579292109.190,-71.777,17.578,-800.293,-969.238,-6.348,0
1579292109.194,-133.301,23.438,-992.676,-964.355,20.508,0
1579292109.198,-157.715,20.508,-833.008,-976.074,-3.418,0
1579292109.202,-141.602,23.438,-622.559,-951.172,15.137,0
1579292109.219,-139.648,19.531,-516.113,-881.836,42.969,0
1579292109.223,-193.848,11.230,-573.730,-930.664,75.195,0
1579292109.227,-234.375,19.043,-614.258,-983.887,106.445,0
1579292109.231,-235.840,20.996,-565.918,-951.660,60.059,0
1579292109.235,-232.422,20.020,-573.242,-763.184,-3.418,0
1579292109.239,-254.883,25.879,-652.344,-803.711,13.672,0
1579292109.243,-309.570,31.738,-885.742,-986.816,2.930,0
1579292109.246,-338.379,25.391,-924.316,-960.938,18.066,0
1579292109.250,-316.895,19.043,-609.863,-648.926,59.570,0
1579292109.254,-323.730,32.227,-414.551,-468.262,49.316,0
1579292109.258,-367.676,40.527,-412.598,-774.902,64.941,0
1579292109.262,-452.148,23.438,-660.156,-1000.000,-13.184,0
1579292109.259,-494.141,18.066,-843.750,-784.668,-79.102,0
1579292109.263,-499.512,23.438,-562.012,-472.656,24.902,0
1579292109.267,-550.781,23.438,-378.418,-728.027,145.508,0
1579292109.271,-622.559,21.484,-528.809,-1000.000,54.199,0
1579292109.275,-647.461,17.090,-663.574,-850.098,-3.418,0
1579292109.279,-635.254,19.531,-695.312,-504.395,43.945,0
1579292109.283,-678.223,25.391,-641.602,-508.789,51.270,0
1579292109.286,-750.000,31.250,-633.789,-867.676,11.230,0
1579292109.290,-783.691,28.320,-518.555,-656.738,19.043,0
1579292109.294,-802.734,26.367,-386.230,-211.426,53.711,0
1579292109.298,-855.469,31.738,-683.105,-300.781,62.012,0
1579292109.302,-885.742,28.809,-695.801,-606.445,72.754,0
1579292109.299,-866.211,28.320,-430.176,-592.285,63.965,0
1579292109.303,-834.961,24.414,-362.793,-182.617,20.996,0
1579292109.307,-833.496,17.090,-313.965,-99.121,20.508,0
1579292109.311,-874.512,23.438,-479.492,-566.406,54.199,0
1579292109.315,-892.090,30.762,-520.508,-820.312,42.969,0
1579292109.319,-865.234,22.949,-511.719,-572.266,40.039,0
1579292109.323,-860.840,20.020,-446.777,-426.758,71.777,0
1579292109.326,-912.598,26.367,-327.148,-756.836,68.359,0
1579292109.330,-965.820,19.043,-591.309,-999.023,32.227,0
1579292109.334,-968.750,16.113,-608.398,-940.430,5.371,0
1579292109.338,-967.285,22.461,-402.832,-917.969,-26.855,0
1579292109.342,-968.750,21.484,-368.652,-964.355,-7.812,0
1579292109.359,-968.750,20.020,-383.301,-972.168,-20.996,0
1579292109.363,-968.750,15.137,-562.500,-965.820,-11.719,0
1579292109.367,-968.750,15.137,-501.953,-969.238,27.832,0
1579292109.371,-968.750,21.484,-308.594,-968.262,-26.855,0
1579292109.375,-968.262,26.367,-350.586,-968.262,-59.082,0
1579292109.379,-968.750,23.926,-412.109,-968.262,-31.738,0
1579292109.383,-968.750,28.320,-616.699,-968.262,-15.625,0
1579292109.386,-968.262,25.391,-698.730,-968.750,-5.859,0
1579292109.390,-968.262,13.184,-370.117,-968.262,5.859,0
1579292109.394,-968.262,17.578,-166.504,-968.262,38.574,0
1579292109.398,-968.262,21.484,-81.055,-968.262,70.801,0
1579292109.402,-968.262,19.043,-116.211,-968.262,59.570,0
1579292109.399,-968.262,21.973,-196.289,-968.262,1.465,0
1579292109.403,-968.750,25.879,-154.785,-968.750,-11.719,0
1579292109.407,-968.750,22.949,-119.141,-968.262,22.949,0
1579292109.411,-968.750,19.043,-63.477,-969.727,24.902,0
1579292109.415,-968.750,26.367,-200.684,-963.379,-20.020,0
1579292109.419,-968.262,24.902,-348.145,-958.984,16.113,0
1579292109.423,-968.262,22.461,-371.094,-988.281,14.160,0
1579292109.426,-968.262,23.438,-258.301,-633.789,10.742,0
1579292109.430,-968.262,23.926,42.969,-313.965,67.383,0
1579292109.434,-968.750,30.762,-124.512,-518.066,25.391,0
1579292109.438,-968.750,26.367,-461.914,-478.516,52.246,0
1579292109.442,-968.750,14.648,-220.703,1.465,28.320,0
1579292109.438,-965.820,18.066,69.336,362.305,-20.020,0
1579292109.442,-970.703,24.902,114.746,143.555,33.691,0
1579292109.446,-950.195,17.090,-44.434,-67.383,28.809,0
1579292109.450,-849.121,13.672,-104.004,347.656,30.762,0
1579292109.454,-774.414,21.973,107.910,735.352,47.852,0
1579292109.458,-776.855,25.391,8.789,509.766,80.566,0
1579292109.462,-753.906,20.020,-168.945,-5.859,101.562,0
1579292109.465,-670.898,23.438,-96.191,159.180,82.520,0
1579292109.469,-570.801,31.250,-305.664,736.328,87.402,0
1579292109.473,-469.238,21.484,-329.590,752.441,63.965,0
1579292109.477,-389.160,20.508,-69.824,445.801,62.500,0
1579292109.481,-329.102,28.809,-53.223,322.754,107.422,0
1579292109.498,-257.324,26.367,-128.418,557.617,54.688,0
1579292109.502,-149.902,26.855,-151.855,638.672,47.852,0
1579292109.506,-55.664,32.715,-141.602,239.258,64.941,0
1579292109.510,42.480,39.062,-270.508,24.902,0.977,0
1579292109.514,183.594,38.574,-339.355,220.215,2.441,0
1579292109.518,321.289,32.715,-285.645,208.496,89.355,0
1579292109.522,392.090,31.738,-654.785,-454.102,66.406,0
1579292109.525,430.176,30.762,-909.180,-1000.000,1.953,0
1579292109.529,482.422,27.344,-578.125,-886.719,44.922,0
1579292109.533,478.516,33.691,-354.004,-699.707,103.516,0
1579292109.537,404.785,39.062,-376.465,-782.227,41.992,0
1579292109.541,315.918,27.344,-551.270,-854.004,4.395,0
1579292109.539,307.617,28.809,-484.863,-319.824,72.266,0
1579292109.543,369.629,35.156,-236.328,408.691,80.078,0
1579292109.547,436.523,31.738,-309.082,421.387,19.531,0
1579292109.551,534.180,35.645,-500.000,3.418,0.977,0
1579292109.555,665.527,37.109,-540.527,6.836,38.574,0
1579292109.559,803.223,39.551,-540.527,466.309,43.945,0
1579292109.563,877.441,38.086,-536.621,650.879,-0.977,0
1579292109.566,887.695,33.691,-534.180,315.918,20.508,0
1579292109.570,900.391,30.762,-409.180,362.305,36.133,0
1579292109.574,889.160,29.785,-471.191,886.719,7.812,0
1579292109.578,841.797,27.832,-490.723,-980.469,27.832,0
1579292109.582,751.465,24.902,-242.676,982.422,64.941,0
1579292109.578,639.160,26.367,-214.844,-999.023,95.215,0
1579292109.582,626.953,32.715,-268.066,999.512,0.000,0
1579292109.586,636.230,37.598,-412.598,995.605,-25.391,0
1579292109.590,587.891,34.668,-577.637,-991.211,4.395,0
1579292109.594,563.965,26.855,-443.848,963.379,14.160,0
1579292109.598,595.703,26.855,-456.055,917.969,79.590,0
1579292109.602,659.180,29.785,-532.227,-987.793,48.828,0
1579292109.605,642.578,27.344,-545.898,925.293,21.484,0
1579292109.609,549.805,29.785,-855.957,385.742,20.996,0
1579292109.613,476.074,29.297,-796.875,239.746,53.711,0
1579292109.617,393.066,30.273,-432.129,684.082,53.223,0
1579292109.621,268.555,32.227,-353.516,888.184,-20.508,0
1579292109.638,85.938,29.785,-432.617,578.125,-14.648,0
1579292109.642,-55.176,31.250,-611.328,278.809,-14.648,0
1579292109.646,-86.426,25.879,-530.273,581.055,-33.203,0
1579292109.650,-107.910,20.996,-338.379,829.590,36.133,0
1579292109.654,-118.652,27.344,-329.590,502.930,53.711,0
1579292109.658,-101.074,36.133,-598.633,72.754,11.719,0
1579292109.662,18.066,38.574,-784.668,239.746,29.297,0
1579292109.665,157.227,33.203,-541.016,656.738,8.789,0
1579292109.669,230.469,36.621,-442.383,528.320,-1.953,0
1579292109.673,279.297,35.645,-607.422,100.098,-0.488,0
1579292109.677,361.816,25.391,-452.148,205.566,62.988,0
1579292109.681,457.031,25.391,-525.391,654.297,87.402,0
1579292109.678,505.859,24.414,-548.340,631.348,58.105,0
1579292109.682,496.582,20.508,-444.336,44.922,36.621,0
1579292109.686,474.121,24.414,-542.480,-217.773,36.133,0
1579292109.690,497.559,27.344,-476.074,122.559,44.434,0
1579292109.694,503.906,22.949,-482.422,298.340,41.504,0
1579292109.698,454.102,28.320,-595.703,-57.129,78.613,0
1579292109.702,378.418,36.621,-724.121,-399.902,76.660,0
1579292109.705,334.961,31.250,-697.266,4.883,30.762,0
1579292109.709,288.086,20.996,-393.066,531.738,7.324,0
1579292109.713,170.898,20.508,-484.863,504.883,55.176,0
1579292109.717,78.125,23.926,-788.086,236.328,41.016,0
1579292109.721,72.754,24.902,-536.621,558.105,49.805,0
1579292109.718,79.102,25.391,-349.609,-983.398,28.809,0
1579292109.722,68.848,23.438,-230.957,996.094,2.441,0
1579292109.726,45.410,33.691,-267.578,988.281,55.664,0
1579292109.730,67.383,43.457,-348.633,-997.559,36.133,0
1579292109.734,125.000,31.738,-259.277,997.559,-3.418,0
1579292109.738,155.762,18.066,-381.836,-997.070,3.418,0
1579292109.742,185.547,15.137,-405.273,990.234,31.250,0
1579292109.745,208.008,21.484,-498.047,976.562,-13.184,0
1579292109.749,227.051,24.414,-583.496,998.535,1.953,0
1579292109.753,244.141,19.043,-282.227,-999.512,68.359,0
1579292109.757,231.934,27.344,-220.703,998.047,68.359,0
1579292109.761,195.312,32.715,-243.652,999.512,59.082,0
1579292109.778,171.875,38.086,-307.129,999.512,82.520,0
1579292109.782,169.922,37.109,-473.633,994.629,96.191,0
1579292109.786,162.109,28.320,-421.387,-984.375,85.449,0
1579292109.790,137.207,25.879,-355.469,927.246,70.801,0
1579292109.794,151.855,30.273,-316.406,880.859,53.223,0
1579292109.798,187.988,39.062,-346.191,-966.309,84.961,0
1579292109.802,169.434,35.156,-656.250,882.324,83.496,0
1579292109.805,155.762,26.367,-698.730,329.590,26.367,0
1579292109.809,183.594,28.809,-489.746,113.770,21.973,0
1579292109.813,233.398,37.598,-448.730,321.777,-16.113,0
1579292109.817,271.973,37.109,-385.742,353.027,20.508,0
1579292109.821,269.531,36.621,-522.949,-254.883,56.641,0
1579292109.818,278.809,38.086,-589.844,-743.652,74.707,0
1579292109.822,333.008,37.598,-506.348,-480.469,92.773,0
1579292109.826,379.395,37.598,-479.492,-448.730,41.992,0
1579292109.830,374.023,43.457,-506.836,-840.332,70.801,0
1579292109.834,347.656,42.969,-671.875,-986.816,75.195,0
1579292109.838,352.539,38.574,-813.965,-965.820,17.578,0
1579292109.842,353.027,34.180,-776.855,-877.441,55.176,0
1579292109.845,309.082,26.855,-730.469,-867.676,77.637,0
1579292109.849,267.090,18.555,-617.188,-978.027,20.996,0
1579292109.853,229.004,16.602,-710.449,-906.250,80.566,0
1579292109.857,251.465,15.625,-793.457,-346.680,66.895,0
1579292109.861,328.613,17.090,-352.051,212.402,46.875,0
1579292109.858,355.469,23.926,-257.812,113.281,42.969,0
1579292109.862,403.809,19.531,-302.734,147.949,48.828,0
1579292109.866,502.930,22.461,-285.156,519.043,93.262,0
1579292109.870,599.609,28.809,-235.840,566.895,94.727,0
1579292109.874,659.180,29.785,-255.859,48.340,62.988,0
1579292109.878,694.824,31.738,-555.176,-532.715,53.223,0
1579292109.882,766.113,34.668,-637.695,-413.086,65.918,0
1579292109.885,798.828,37.598,-686.035,-185.059,25.879,0
1579292109.889,754.395,37.598,-926.270,-479.004,-40.039,0
1579292109.893,689.941,29.297,-742.188,-668.457,-16.602,0
1579292109.897,615.234,25.879,-482.910,-205.566,27.832,0
1579292109.901,516.113,23.926,-311.035,560.059,17.090,0
1579292109.918,358.887,20.020,-315.918,865.234,4.883,0
1579292109.922,212.402,24.902,-406.250,865.234,-7.324,0
1579292109.926,163.574,25.879,-275.879,990.723,21.973,0
1579292109.930,189.941,27.344,-226.562,-994.141,36.133,0
1579292109.934,230.469,31.738,-247.559,994.141,20.020,0
1579292109.938,257.324,28.320,-437.012,-999.512,51.270,0
1579292109.942,313.965,21.484,-592.773,999.512,66.895,0
1579292109.945,428.223,19.531,-318.848,999.512,81.055,0
1579292109.949,524.414,19.531,-256.836,999.512,24.902,0
1579292109.953,578.613,29.785,-316.895,999.512,-18.066,0
1579292109.957,612.305,39.551,-399.414,999.512,20.508,0
1579292109.961,664.062,43.457,-594.727,999.512,11.719,0
1579292109.958,705.566,39.062,-424.805,999.512,26.855,0
1579292109.962,709.473,33.691,-301.270,999.512,41.992,0
1579292109.966,707.520,34.180,-344.238,999.512,41.992,0
1579292109.970,744.141,36.133,-411.621,999.512,17.578,0
1579292109.974,770.996,39.551,-498.535,999.512,9.766,0
1579292109.978,751.953,37.598,-502.930,999.512,27.832,0
1579292109.982,753.906,39.062,-589.355,999.512,11.230,0
1579292109.985,776.367,43.945,-569.824,999.512,-8.789,0
1579292109.989,784.668,29.297,-286.621,999.512,29.297,0
1579292109.993,751.465,36.133,-523.926,999.512,-28.320,0
1579292109.997,672.852,37.109,-536.621,999.512,-1.953,0
1579292110.001,612.305,16.602,-47.852,999.512,62.988,0
1579292109.999,588.379,28.320,156.738,999.512,34.180,0
1579292110.003,579.102,41.504,273.438,999.512,55.176,0
1579292110.007,521.484,36.621,217.773,999.512,70.312,0
1579292110.011,454.102,40.039,238.281,999.512,27.832,0
1579292110.015,423.828,48.340,383.789,-1000.000,27.344,0
1579292110.019,393.555,49.316,378.906,996.582,66.406,0
1579292110.023,367.188,53.711,428.711,-992.676,36.133,0
1579292110.026,302.734,55.176,320.801,973.633,41.504,0
1579292110.030,270.508,50.781,162.598,931.152,58.105,0
1579292110.034,308.105,52.734,479.004,-976.562,76.660,0
1579292110.038,315.430,59.570,500.488,840.332,56.152,0
1579292110.042,327.148,62.500,283.691,104.004,4.883,0
1579292110.061,355.957,66.895,49.805,-223.145,27.832,0
1579292110.065,407.227,65.918,83.496,129.883,81.055,0
1579292110.069,427.246,62.012,183.594,113.770,53.223,0
1579292110.073,388.184,70.312,-51.758,-587.891,-15.137,0
1579292110.077,368.164,76.660,-273.438,-996.094,21.973,0
1579292110.081,380.371,74.707,-614.258,-951.172,33.203,0
1579292110.085,396.973,67.383,-912.109,-962.891,-43.457,0
1579292110.088,395.508,58.594,-805.664,-970.703,-86.426,0
1579292110.092,369.141,49.805,-708.008,-968.262,-16.113,0
1579292110.096,382.324,59.082,-680.176,-968.262,19.531,0
1579292110.100,395.020,67.383,-780.762,-968.750,8.789,0
1579292110.104,366.699,56.641,-946.777,-969.238,-11.230,0
1579292110.098,324.707,50.781,-834.473,-961.426,30.273,0
1579292110.102,300.781,48.828,-769.043,-984.375,75.195,0
1579292110.106,314.453,45.410,-787.598,-918.457,17.578,0
1579292110.110,309.570,43.945,-785.645,-829.102,62.500,0
1579292110.114,270.020,38.574,-885.254,-940.430,66.406,0
1579292110.118,248.047,28.809,-957.520,-984.863,49.316,0
1579292110.122,264.648,25.391,-922.363,-599.609,94.727,0
1579292110.125,280.273,22.461,-860.352,-274.902,53.223,0
1579292110.129,264.648,20.996,-860.352,-522.949,30.762,0
1579292110.133,231.934,23.926,-955.078,-736.328,62.500,0
1579292110.137,259.277,25.391,-870.605,-398.926,53.711,0
1579292110.141,293.945,25.391,-579.590,89.844,32.227,0
1579292110.138,260.254,28.809,-477.051,-15.625,36.133,0
1579292110.142,208.496,27.832,-626.465,-333.496,-32.227,0
1579292110.146,187.012,20.508,-741.211,-72.266,-62.988,0
1579292110.150,189.941,13.184,-556.641,487.793,-33.203,0
1579292110.154,168.457,16.113,-401.855,591.797,2.441,0
1579292110.158,125.000,13.672,-509.277,263.184,79.102,0
1579292110.162,113.281,12.207,-609.863,427.246,116.211,0
1579292110.165,132.324,21.484,-663.086,936.523,40.039,0
1579292110.169,142.578,23.438,-482.422,-985.840,29.785,0
1579292110.173,116.699,18.555,-259.766,978.027,77.148,0
1579292110.177,87.891,25.391,-383.301,970.215,68.848,0
1579292110.181,126.465,26.855,-344.238,994.629,52.246,0
1579292110.199,139.160,17.578,-481.445,-997.559,27.344,0
1579292110.203,119.141,16.602,-618.164,997.559,14.160,0
1579292110.207,144.531,13.184,-402.832,999.512,37.598,0
1579292110.211,193.848,12.207,-390.137,997.559,22.949,0
1579292110.215,224.609,13.672,-319.824,999.023,19.531,0
1579292110.219,181.152,17.090,-562.988,999.512,45.410,0
1579292110.223,145.996,21.484,-799.316,999.023,-2.930,0
1579292110.226,175.781,23.926,-493.652,-1000.000,13.672,0
1579292110.230,191.895,23.438,-396.484,990.723,4.395,0
1579292110.234,167.969,19.531,-378.418,-976.562,-30.762,0
1579292110.238,119.141,20.996,-585.449,902.832,-25.879,0
1579292110.242,118.164,18.066,-700.684,839.844,19.531,0
1579292110.239,187.500,18.555,-380.859,992.188,77.637,0
1579292110.243,209.473,24.414,-481.445,995.117,-27.832,0
1579292110.247,210.449,21.973,-575.195,719.727,-64.453,0
1579292110.251,222.168,19.531,-595.215,426.270,13.672,0
1579292110.255,264.648,21.973,-590.332,733.887,30.273,0
1579292110.259,295.410,23.926,-465.332,-975.098,60.547,0
1579292110.263,278.320,31.738,-579.590,661.621,69.824,0
1579292110.266,271.973,39.062,-596.191,251.465,23.438,0
1579292110.270,279.297,30.273,-595.215,418.945,18.555,0
1579292110.274,294.922,24.414,-682.617,732.422,10.254,0
1579292110.278,302.734,21.973,-492.188,470.703,51.270,0
1579292110.282,286.621,18.066,-473.145,-108.887,89.355,0
1579292110.278,308.105,20.020,-550.781,-120.117,43.457,0
1579292110.282,345.703,30.273,-556.641,174.316,8.789,0
1579292110.286,338.867,34.180,-691.895,23.438,34.180,0
1579292110.290,310.059,32.227,-691.895,-610.840,43.945,0
1579292110.294,289.062,34.180,-775.391,-914.062,15.137,0
1579292110.298,292.480,32.715,-792.969,-521.484,40.039,0
1579292110.302,260.254,29.297,-728.516,-425.781,40.527,0
1579292110.305,172.363,26.367,-912.109,-798.340,-5.371,0
1579292110.309,109.863,26.367,-911.621,-1000.000,-1.465,0
1579292110.313,129.395,26.367,-622.070,-724.121,34.180,0
1579292110.317,137.695,22.461,-408.203,-255.371,49.805,0
1579292110.321,108.887,27.832,-380.859,-384.277,50.781,0
1579292110.338,83.008,23.438,-524.902,-670.898,65.918,0
1579292110.342,104.492,21.973,-469.238,-448.242,114.746,0
1579292110.346,164.062,34.180,-337.402,13.184,70.312,0
1579292110.350,186.035,34.668,-357.910,75.195,16.113,0
1579292110.354,165.039,28.320,-467.773,-342.285,26.367,0
1579292110.358,170.410,22.949,-677.246,-320.312,23.438,0
1579292110.362,218.262,26.367,-622.070,145.020,38.574,0
1579292110.365,228.027,32.227,-465.820,215.332,28.320,0
1579292110.369,199.707,36.133,-487.305,-159.180,23.926,0
1579292110.373,194.336,34.668,-448.242,-386.230,23.438,0
1579292110.377,182.617,30.273,-639.160,20.996,33.691,0
1579292110.381,169.434,25.879,-693.359,267.578,79.102,0
1579292110.378,136.719,30.762,-412.598,-77.637,90.820,0
1579292110.382,76.172,30.762,-422.363,-279.297,72.754,0
1579292110.386,73.730,25.391,-433.594,36.621,34.668,0
1579292110.390,73.242,35.645,-398.926,463.867,46.875,0
1579292110.394,42.480,42.480,-355.469,298.828,83.984,0
1579292110.398,28.809,45.410,-479.004,-83.008,68.359,0
1579292110.402,57.129,41.016,-663.086,186.035,24.902,0
1579292110.405,123.535,43.457,-411.133,759.277,0.488,0
1579292110.409,140.137,46.875,-315.918,893.555,41.504,0
1579292110.413,119.629,33.203,-701.660,441.406,20.996,0
1579292110.417,163.086,22.949,-699.707,259.766,-9.277,0
1579292110.421,250.488,23.438,-415.039,716.309,1.953,0
1579292110.438,331.055,26.855,-270.020,760.254,15.137,0
1579292110.442,367.188,27.344,-415.039,183.105,71.289,0
1579292110.446,396.484,25.879,-660.156,-339.844,64.453,0
1579292110.450,426.758,22.461,-627.930,-177.734,7.324,0
1579292110.454,390.625,21.484,-511.719,149.414,15.137,0
1579292110.458,270.996,26.855,-624.512,-72.266,13.672,0
1579292110.462,127.441,29.297,-774.414,-307.617,32.227,0
1579292110.465,16.602,30.762,-915.527,20.996,68.359,0
1579292110.469,-40.527,30.762,-647.461,686.523,78.125,0
1579292110.473,-76.172,32.715,-274.902,797.363,73.730,0
1579292110.477,-101.074,31.250,-343.262,399.414,49.316,0
1579292110.481,-59.082,26.855,-421.875,450.195,40.527,0
1579292110.478,32.227,27.832,-431.152,692.383,61.035,0
1579292110.482,104.492,34.180,-463.379,528.809,48.828,0
1579292110.486,128.418,34.668,-529.785,83.496,8.789,0
1579292110.490,131.836,30.762,-500.977,138.672,0.000,0
1579292110.494,122.070,34.668,-390.625,788.086,-23.438,0
1579292110.498,27.344,38.086,-423.828,-977.539,-7.812,0
1579292110.502,-105.957,33.203,-493.652,979.492,-15.625,1
1579292110.505,-200.195,27.832,-350.586,999.512,8.301,0
1579292110.509,-237.793,25.391,-283.691,995.605,15.625,0
1579292110.513,-240.723,27.832,-247.070,-998.047,8.301,0
1579292110.517,-229.492,32.227,-411.621,988.281,72.754,0
1579292110.521,-163.086,37.598,-552.734,797.852,45.898,0
1579292110.518,-32.715,41.504,-353.516,783.691,81.055,0
1579292110.522,80.566,43.945,-281.738,854.492,107.910,0
1579292110.526,124.512,42.969,-403.320,354.980,17.578,0
1579292110.530,80.566,42.969,-750.000,-434.570,0.488,0
1579292110.534,17.090,45.410,-958.496,-582.031,9.766,0
1579292110.538,-63.477,41.016,-791.504,-163.086,33.203,0
1579292110.542,-227.051,35.156,-762.207,-187.012,41.992,0
1579292110.545,-410.156,28.320,-780.762,-626.953,7.812,0
1579292110.549,-562.012,29.785,-851.074,-795.410,20.508,0
1579292110.553,-640.625,36.621,-956.055,-398.438,49.805,0
1579292110.557,-662.109,34.668,-717.285,-137.695,43.457,0
1579292110.561,-694.824,30.273,-503.906,-481.445,59.082,0
1579292110.578,-691.895,23.438,-500.977,-770.508,81.543,0
1579292110.582,-610.352,24.414,-588.379,-527.344,62.500,0
1579292110.586,-494.141,25.391,-561.035,-279.785,42.969,0
1579292110.590,-385.742,21.973,-472.656,-637.695,39.551,0
1579292110.594,-296.875,27.344,-577.637,-992.676,31.738,0
1579292110.598,-166.016,25.391,-676.758,-959.473,35.645,0
1579292110.602,-40.039,16.113,-762.695,-961.914,93.262,0
1579292110.605,16.602,18.555,-777.832,-970.215,110.840,0
1579292110.609,56.152,26.367,-601.074,-968.262,67.383,0
1579292110.613,108.398,28.320,-538.574,-968.750,45.898,0
1579292110.617,176.270,20.020,-472.656,-968.262,41.992,0
1579292110.621,205.078,25.879,-489.258,-968.262,65.430,0
1579292110.618,182.129,42.480,-767.090,-968.262,33.691,0
1579292110.622,152.344,36.621,-667.969,-968.262,35.156,0
1579292110.626,163.574,27.344,-518.066,-968.750,4.883,0
1579292110.630,158.691,20.508,-508.789,-968.262,-7.324,0
1579292110.634,80.566,21.484,-529.785,-968.262,37.598,0
1579292110.638,-20.508,24.414,-719.727,-968.262,33.691,0
1579292110.642,-59.570,24.414,-784.180,-968.262,12.695,0
1579292110.645,-63.477,26.855,-685.059,-969.727,-0.977,0
1579292110.649,-122.559,33.203,-573.730,-960.938,-31.250,0
1579292110.653,-201.660,38.574,-565.430,-971.680,-12.695,0
1579292110.657,-231.934,37.109,-850.098,-949.219,34.668,0
1579292110.661,-194.336,28.809,-805.176,-672.852,29.785,0
1579292110.658,-166.504,26.855,-409.668,-552.734,23.438,0
1579292110.662,-171.387,34.668,-346.191,-840.332,62.988,0
1579292110.666,-141.113,34.180,-416.016,-810.059,27.832,0
1579292110.670,-94.238,30.273,-380.859,-219.727,33.691,0
1579292110.674,-57.129,30.273,-213.379,63.477,68.359,0
1579292110.678,-46.875,37.598,-357.422,-260.254,29.785,0
1579292110.682,-32.715,38.574,-501.465,-407.227,51.758,0
1579292110.685,20.996,32.227,-280.762,-20.996,41.504,0
1579292110.689,28.809,36.133,-411.621,395.020,23.438,0
1579292110.693,3.906,27.832,-605.469,270.996,50.293,0
1579292110.697,-30.273,18.555,-355.957,34.180,73.730,0
1579292110.701,-47.852,26.855,-242.676,334.473,45.410,0
1579292110.718,-52.246,29.297,-241.211,770.020,29.297,0
1579292110.722,-117.188,24.414,-355.957,790.039,26.855,0
1579292110.726,-175.781,19.531,-420.410,489.258,-16.113,0
1579292110.730,-184.082,23.926,-309.082,654.785,14.648,0
1579292110.734,-180.176,32.715,-236.816,-989.258,18.555,0
1579292110.738,-197.754,32.227,-295.410,925.781,19.531,0
1579292110.742,-242.676,26.855,-614.258,481.445,15.625,0
1579292110.745,-237.305,25.879,-872.559,251.953,20.020,0
1579292110.749,-150.879,25.391,-551.758,596.191,35.645,0
1579292110.753,-116.699,27.344,-332.520,637.695,4.395,0
1579292110.757,-124.512,28.809,-421.875,85.449,-18.066,0
1579292110.761,-111.328,33.203,-529.297,-229.980,72.754,0
1579292110.758,-61.523,29.785,-536.133,6.836,101.562,0
1579292110.762,-23.926,25.391,-420.898,233.398,45.898,0
1579292110.766,-39.062,30.762,-444.336,-162.598,42.480,0
1579292110.770,-68.359,36.133,-670.410,-721.680,44.922,0
1579292110.774,-79.590,36.133,-806.152,-449.707,70.801,0
1579292110.778,-97.168,27.344,-734.375,151.367,26.855,0
1579292110.782,-133.301,24.902,-598.145,307.617,8.789,0
1579292110.785,-169.434,33.691,-424.805,120.117,85.449,0
1579292110.789,-163.086,35.156,-300.293,416.992,74.707,0
1579292110.793,-100.098,22.949,-286.621,965.820,-24.902,0
1579292110.797,-36.133,15.137,-604.980,-969.238,-42.480,0
1579292110.801,43.457,29.297,-598.633,837.891,20.020,0
1579292110.798,145.996,47.852,-367.676,376.953,41.504,0
1579292110.802,285.645,50.293,-376.465,329.590,13.184,0
1579292110.806,392.578,36.621,-397.461,368.164,-30.762,0
1579292110.810,413.086,29.297,-540.039,-224.121,-3.418,0
1579292110.814,410.645,38.086,-571.289,-672.852,66.895,0
1579292110.818,402.832,34.668,-597.168,-502.441,115.234,0
1579292110.822,371.582,29.297,-667.969,-243.164,97.168,0
1579292110.825,286.133,35.645,-660.156,-407.715,21.973,0
1579292110.829,133.301,41.504,-834.473,-805.664,48.340,0
1579292110.833,-1.465,33.691,-881.836,-621.582,85.449,0
1579292110.837,-103.516,18.555,-553.223,-208.008,52.246,0
1579292110.841,-215.820,19.531,-474.609,-267.578,4.883,0
1579292110.858,-285.645,22.461,-547.363,-525.879,-22.461,0
1579292110.862,-292.480,21.484,-661.133,-474.121,-30.762,0
1579292110.866,-238.770,20.020,-628.418,115.723,-77.148,0
1579292110.870,-193.359,19.043,-375.000,464.355,6.348,0
1579292110.874,-191.406,22.461,-322.754,220.215,89.844,0
1579292110.878,-186.035,26.367,-511.719,245.605,57.129,0
1579292110.882,-135.742,23.926,-726.562,723.633,11.230,0
1579292110.885,-64.453,20.996,-552.734,-949.707,9.766,0
1579292110.889,-28.320,25.391,-263.672,883.301,50.293,0
1579292110.893,-3.906,26.855,-393.555,626.953,72.266,0
1579292110.897,77.148,20.996,-369.141,842.773,25.391,0
1579292110.901,157.227,24.902,-435.547,-977.051,5.859,0
1579292110.898,224.609,29.785,-590.820,991.211,23.438,0
1579292110.902,298.828,26.855,-414.062,661.133,39.062,0
1579292110.906,352.051,26.367,-386.719,526.367,59.570,0
1579292110.910,396.484,25.879,-276.855,912.598,81.055,0
1579292110.914,394.043,27.832,-329.102,774.902,73.242,0
1579292110.918,343.750,29.785,-654.297,149.902,25.879,0
1579292110.922,295.898,25.879,-786.133,-166.016,18.066,0
1579292110.925,279.785,25.391,-643.066,42.480,84.473,0
1579292110.929,240.234,25.879,-425.781,79.102,98.145,0
1579292110.933,146.484,27.344,-604.004,-529.785,22.461,0
1579292110.937,61.523,25.879,-956.055,-980.469,36.133,0
1579292110.941,71.289,19.043,-837.402,-832.520,94.727,0
1579292110.938,96.680,28.320,-708.496,-750.488,40.039,0
1579292110.942,73.730,26.367,-659.180,-933.105,18.555,0
1579292110.946,27.832,14.648,-726.562,-980.957,23.926,0
1579292110.950,46.387,28.320,-808.594,-960.449,28.320,0
1579292110.954,93.750,30.273,-645.996,-969.727,42.480,0
1579292110.958,61.035,24.902,-776.855,-968.750,-20.996,0
1579292110.962,24.414,35.645,-872.559,-968.262,23.438,0
1579292110.965,47.852,40.527,-715.332,-968.262,49.805,0
1579292110.969,57.129,38.086,-857.910,-968.262,17.090,0
1579292110.973,67.871,36.621,-841.309,-968.262,55.176,0
1579292110.977,88.379,36.621,-697.754,-968.262,18.555,0
1579292110.981,111.816,36.133,-659.180,-968.262,-1.465,0
1579292110.998,180.664,32.715,-531.250,-968.262,61.035,0
1579292111.002,229.980,25.879,-564.941,-968.262,56.641,0
1579292111.006,244.141,28.809,-655.762,-968.750,26.367,0
1579292111.010,257.812,33.691,-667.969,-968.262,56.152,0
1579292111.014,311.523,30.273,-560.547,-968.262,48.340,0
1579292111.018,343.750,35.645,-653.809,-968.262,-13.672,0
1579292111.022,316.406,38.086,-831.543,-968.750,48.828,0
1579292111.025,284.180,33.691,-802.734,-968.262,23.926,0
1579292111.029,266.602,38.574,-639.160,-968.262,-39.062,0
1579292111.033,231.445,39.062,-525.879,-968.262,17.090,0
1579292111.037,174.805,35.156,-438.477,-968.750,33.691,0
1579292111.041,77.148,33.203,-704.590,-968.750,23.926,0
1579292111.038,19.531,29.785,-816.406,-968.262,50.781,0
1579292111.042,41.992,30.762,-532.227,-968.262,26.855,0
1579292111.046,47.363,32.227,-496.094,-968.750,-4.883,0
1579292111.050,29.785,30.273,-492.188,-966.797,22.949,0
1579292111.054,26.367,34.180,-599.609,-969.238,24.414,0
1579292111.058,67.383,36.621,-731.934,-971.680,3.906,0
1579292111.062,110.840,35.156,-733.398,-906.738,-37.109,0
1579292111.065,104.492,37.598,-729.004,-910.645,4.395,0
1579292111.069,97.168,36.621,-618.652,-997.070,48.340,0
1579292111.073,112.793,34.180,-600.098,-667.480,41.504,0
1579292111.077,134.277,36.133,-798.828,-225.098,-1.465,0
1579292111.081,156.738,27.832,-521.484,-277.832,47.363,0
1579292111.079,133.301,23.438,-333.008,-570.801,84.473,0
1579292111.083,126.465,25.391,-393.555,-467.773,24.902,0
1579292111.087,121.582,27.832,-401.855,0.488,18.555,0
1579292111.091,91.797,31.738,-349.121,-30.273,98.633,0
1579292111.095,60.059,29.297,-299.316,-462.891,112.305,0
1579292111.099,27.344,31.738,-523.926,-483.887,59.570,0
1579292111.103,37.598,36.621,-524.414,-16.113,77.637,0
1579292111.106,25.879,30.273,-399.902,172.852,62.500,0
1579292111.110,-37.109,20.996,-611.328,-219.238,61.523,0
1579292111.114,-59.082,22.461,-670.898,-424.316,34.668,0
1579292111.118,-38.574,29.785,-441.406,43.945,14.648,0
1579292111.122,-35.156,22.461,-275.879,450.195,13.672,0
1579292111.139,-66.406,20.020,-296.875,282.227,6.836,0
1579292111.143,-105.957,30.762,-602.051,-34.668,20.020,0
1579292111.147,-79.102,31.738,-523.438,292.969,43.457,0
1579292111.151,-27.832,30.762,-233.887,837.891,17.578,0
1579292111.155,-18.555,27.832,-245.605,739.746,-21.484,0
1579292111.159,-36.133,29.785,-397.949,374.512,18.066,0
1579292111.163,-20.020,33.203,-729.492,473.145,56.641,0
1579292111.166,51.270,29.785,-611.816,903.320,57.129,0
1579292111.170,90.820,29.297,-190.430,987.305,43.457,0
1579292111.174,68.359,32.227,-251.465,572.266,-2.441,0
1579292111.178,66.406,34.180,-316.895,383.301,25.391,0
1579292111.182,93.750,32.227,-346.191,703.613,83.496,0
1579292111.179,113.770,33.203,-364.258,778.320,11.719,0
1579292111.183,105.957,35.156,-333.008,321.289,0.488,0
1579292111.187,92.773,31.738,-457.520,-117.676,-0.488,0
1579292111.191,112.793,33.203,-514.648,65.430,-36.621,0
1579292111.195,132.812,35.156,-475.098,301.270,49.316,0
1579292111.199,107.910,29.785,-541.504,-68.848,84.473,0
1579292111.203,78.613,29.785,-710.449,-597.168,43.457,0
1579292111.206,91.797,31.738,-739.258,-581.543,29.785,0
1579292111.210,116.211,27.832,-474.121,-291.016,41.016,0
1579292111.214,83.496,33.691,-575.684,-592.773,89.355,0
1579292111.218,30.273,37.109,-951.660,-971.680,30.273,0
1579292111.222,35.156,31.738,-777.832,-973.145,-13.672,0
1579292111.219,66.406,40.527,-498.047,-882.812,72.266,0
1579292111.223,78.125,46.387,-495.605,-902.832,5.859,0
1579292111.227,33.203,39.551,-646.973,-980.469,1.465,0
1579292111.231,33.691,36.133,-746.582,-965.332,9.766,0
1579292111.235,92.285,26.367,-571.289,-968.262,3.418,0
1579292111.239,96.191,21.484,-601.074,-968.750,42.969,0
1579292111.243,78.613,34.668,-618.652,-968.262,61.523,0
1579292111.246,67.383,42.969,-612.305,-968.750,79.590,0
1579292111.250,98.633,39.551,-681.641,-968.750,92.773,0
1579292111.254,143.066,34.180,-449.707,-962.402,76.660,0
1579292111.258,145.020,39.062,-396.484,-951.172,49.316,0
1579292111.262,148.438,39.062,-433.594,-985.840,34.180,0
1579292111.279,149.902,37.109,-527.344,-895.508,17.090,0
1579292111.283,158.203,36.621,-615.234,-487.305,55.176,0
1579292111.287,165.527,30.762,-453.125,-422.852,26.855,0
1579292111.291,121.582,31.250,-365.723,-764.160,36.621,0
1579292111.295,107.422,31.250,-361.816,-714.844,71.289,0
1579292111.299,127.930,28.320,-374.023,-252.930,59.570,0
1579292111.303,101.562,34.668,-667.969,-50.781,19.531,0
1579292111.306,86.426,36.133,-622.070,-371.582,20.996,0
1579292111.310,108.887,32.715,-310.059,-424.805,51.758,0
1579292111.314,136.230,31.738,-261.230,13.672,-8.301,0
1579292111.318,142.090,37.598,-193.848,336.426,-23.438,0
1579292111.322,115.234,40.039,-240.234,246.582,9.277,0
1579292111.319,86.426,36.133,-279.785,58.105,-2.930,0
1579292111.323,100.586,38.086,-199.219,511.230,-6.836,0
1579292111.327,131.836,35.645,-45.898,990.234,35.156,0
1579292111.331,128.418,34.180,4.883,884.277,62.988,0
1579292111.335,114.746,38.086,-136.230,619.141,93.750,0
1579292111.339,137.207,34.180,-314.941,724.121,43.945,0
1579292111.343,178.223,30.762,-315.430,-981.934,17.578,0
1579292111.346,192.871,31.250,-233.398,973.145,33.691,0
1579292111.350,179.199,32.715,-258.301,657.227,10.254,0
1579292111.354,168.457,24.414,-420.898,689.453,52.734,0
1579292111.358,195.312,18.066,-303.711,972.168,93.750,0
1579292111.362,193.359,24.414,-82.031,-953.125,48.340,0
1579292111.359,122.070,28.809,-128.906,778.320,62.012,0
1579292111.363,79.102,28.809,-143.555,497.070,96.680,0
1579292111.367,62.012,29.785,-367.676,819.336,69.336,0
1579292111.371,51.758,28.320,-427.246,-960.449,64.453,0
1579292111.375,40.039,34.668,-233.887,685.547,42.969,0
1579292111.379,10.254,35.156,-447.754,90.332,49.805,0
1579292111.383,34.180,25.391,-523.438,88.867,36.133,0
1579292111.386,62.012,30.762,-507.812,414.551,42.969,0
1579292111.390,55.664,30.273,-668.945,93.750,81.055,0
1579292111.394,50.293,27.832,-623.535,-570.312,26.367,0
1579292111.398,63.965,35.645,-605.957,-741.211,-0.488,0
1579292111.402,100.586,33.203,-556.641,-475.098,11.230,0
1579292111.419,105.469,26.367,-497.559,-533.691,50.781,0
1579292111.423,87.891,30.273,-585.449,-907.715,13.672,0
1579292111.427,85.938,34.668,-539.551,-999.512,8.789,0
1579292111.431,108.887,31.250,-428.223,-835.449,62.012,0
1579292111.435,105.957,29.785,-367.188,-736.816,41.504,0
1579292111.439,36.133,34.180,-537.109,-875.977,56.152,0
1579292111.443,-17.090,38.086,-930.176,-1000.000,9.766,0
1579292111.446,14.648,37.109,-729.492,-784.668,9.766,0
1579292111.450,34.668,35.156,-307.617,-406.250,66.895,0
1579292111.454,5.371,31.250,-307.129,-613.770,-1.953,0
1579292111.458,-27.344,20.508,-425.293,-898.926,6.348,0
1579292111.462,2.441,15.625,-463.867,-663.574,43.945,0
1579292111.459,67.383,22.949,-285.156,-252.930,23.438,0
1579292111.463,113.770,34.180,-218.750,-529.785,35.156,0
1579292111.467,138.672,43.945,-425.293,-976.074,25.879,0
1579292111.471,180.664,43.457,-526.367,-966.309,-2.441,0
1579292111.475,251.465,35.645,-446.777,-958.008,47.363,0
1579292111.479,268.066,34.180,-462.891,-970.703,66.895,0
1579292111.483,228.516,36.621,-631.836,-968.262,7.812,0
1579292111.486,177.734,33.691,-583.008,-968.262,12.207,0
1579292111.490,139.648,35.156,-300.781,-969.238,64.453,0
1579292111.494,37.109,40.527,-538.574,-966.797,80.078,0
1579292111.498,-119.141,31.250,-737.305,-945.801,34.180,0
1579292111.502,-230.469,34.180,-455.078,-1000.000,9.277,0
1579292111.498,-281.250,41.504,-334.961,-658.203,12.207,0
1579292111.502,-279.785,40.527,-147.949,51.758,53.223,0
1579292111.506,-273.438,37.598,-179.688,103.516,47.852,0
1579292111.510,-250.000,25.879,-276.855,-221.191,46.387,0
1579292111.514,-167.480,23.438,-244.629,-118.652,47.852,0
1579292111.518,-98.633,28.809,-269.043,420.898,43.945,0
1579292111.522,-83.008,31.250,-256.348,654.785,61.035,0
1579292111.525,-121.582,26.367,-402.832,535.156,50.293,0
1579292111.529,-159.180,28.320,-355.957,793.945,14.160,0
1579292111.533,-174.316,33.691,-69.824,-974.609,-28.320,0
1579292111.537,-234.863,28.320,36.621,989.258,37.109,0
1579292111.541,-323.730,29.785,72.754,997.070,56.641,0
1579292111.558,-393.555,29.297,-241.211,-998.047,-8.301,0
1579292111.562,-370.605,27.832,-395.508,989.746,11.230,0
1579292111.566,-305.664,29.785,-110.352,-994.141,42.480,0
1579292111.570,-270.508,33.691,-110.352,968.262,14.160,0
1579292111.574,-226.074,29.785,-176.270,631.348,20.508,0
1579292111.578,-172.852,31.250,-444.824,468.262,33.691,0
1579292111.582,-137.207,40.527,-551.270,501.953,17.090,0
1579292111.585,-166.992,40.527,-356.934,101.074,71.777,0
1579292111.589,-274.902,35.645,-459.473,-450.684,101.074,0
1579292111.593,-375.488,33.691,-400.391,-476.074,83.984,0
1579292111.597,-500.977,37.109,-425.293,-85.449,59.082,0
1579292111.601,-649.902,33.203,-607.910,-61.523,13.184,0
1579292111.598,-767.578,28.320,-520.996,-541.992,23.926,0
1579292111.602,-848.633,26.855,-493.164,-646.973,30.762,0
1579292111.606,-852.051,23.926,-400.391,-208.008,33.203,0
1579292111.610,-810.547,28.809,-333.008,-98.145,80.078,0
1579292111.614,-767.578,32.227,-508.301,-598.145,80.078,0
1579292111.618,-696.777,33.691,-741.211,-1000.000,-26.367,0
