timestamps,TP9,AF7,AF8,TP10,Right AUX,Marker0
1579270442.714,55.664,50.293,45.410,110.840,2.441,0
1579270442.718,57.129,48.828,46.875,113.281,-7.324,0
1579270442.722,47.852,40.039,35.645,99.609,38.086,0
1579270442.726,43.457,37.109,31.250,97.168,48.340,0
1579270442.730,35.156,33.203,24.902,92.285,1.465,0
1579270442.734,48.828,48.340,36.133,104.980,-18.555,0
1579270442.738,42.969,41.504,32.715,97.168,-23.438,0
1579270442.741,22.461,23.438,14.648,73.730,3.418,0
1579270442.745,31.250,31.250,23.926,84.473,45.410,0
1579270442.749,29.785,27.832,20.020,83.496,64.941,0
1579270442.753,33.203,28.320,20.508,85.938,51.758,0
1579270442.757,39.551,39.551,30.762,92.773,3.418,0
1579270442.753,22.461,25.879,12.695,75.195,-7.324,0
1579270442.757,19.043,20.020,3.418,76.172,8.301,0
1579270442.761,23.438,27.832,6.348,84.473,2.441,0
1579270442.765,29.297,32.715,12.695,89.844,-17.090,0
1579270442.769,38.574,40.039,23.438,100.586,-20.996,0
1579270442.773,35.645,35.156,21.484,105.469,-22.461,0
1579270442.777,38.574,24.414,15.625,109.863,-20.020,0
1579270442.780,43.457,20.508,1.953,107.910,21.973,0
1579270442.784,27.832,24.902,-8.301,87.891,59.570,0
1579270442.788,38.086,52.246,21.484,87.402,63.965,0
1579270442.792,40.039,49.805,13.184,82.031,55.176,0
1579270442.796,18.555,25.879,-19.043,60.059,-0.488,0
1579270442.793,19.043,33.691,-16.602,58.105,4.395,0
1579270442.797,27.344,44.922,-14.648,64.453,0.488,0
1579270442.801,39.551,59.570,-9.766,73.730,19.531,0
1579270442.805,40.039,62.012,-15.625,71.777,50.781,0
1579270442.809,47.363,65.918,-12.207,80.566,31.250,0
1579270442.813,58.594,75.684,1.953,100.586,-2.930,0
1579270442.817,38.574,53.711,-15.625,84.473,-4.395,0
1579270442.820,45.898,55.664,-11.230,84.961,29.297,0
1579270442.824,64.941,69.336,5.371,97.656,-7.812,0
1579270442.828,39.062,40.527,-20.508,72.754,-30.273,0
1579270442.832,31.250,31.250,-25.879,73.730,-0.488,0
1579270442.836,41.016,38.574,-13.184,85.449,5.371,0
1579270442.853,53.223,46.875,-0.488,94.727,-6.836,0
1579270442.857,46.875,43.945,-1.465,95.215,-7.324,0
1579270442.861,32.227,34.180,-8.301,87.402,7.324,0
1579270442.865,36.621,36.133,-7.324,92.773,14.648,0
1579270442.869,41.016,41.016,-2.930,99.609,-21.973,0
1579270442.873,53.711,54.688,18.555,112.305,-7.324,0
1579270442.877,46.387,46.387,13.184,101.562,33.691,0
1579270442.880,31.250,30.762,0.000,88.867,54.199,0
1579270442.884,46.875,45.410,18.555,106.934,57.129,0
1579270442.888,50.781,48.828,24.902,110.352,4.395,0
1579270442.892,64.453,60.547,40.039,119.141,-28.809,0
1579270442.896,73.242,67.871,47.363,130.859,-42.480,0
1579270442.893,47.363,42.969,18.555,109.863,5.371,0
1579270442.897,53.711,46.387,21.973,109.863,18.555,0
1579270442.901,64.941,50.781,31.250,120.605,-26.367,0
1579270442.905,69.336,51.758,33.203,126.953,8.301,0
1579270442.909,75.684,60.059,40.039,134.277,27.832,0
1579270442.913,67.871,50.781,31.738,127.441,28.809,0
1579270442.917,58.594,40.527,20.020,114.746,43.945,0
1579270442.920,50.293,33.691,10.254,105.957,46.875,0
1579270442.924,44.922,29.785,6.348,104.004,28.809,0
1579270442.928,57.129,41.992,20.996,109.863,46.387,0
1579270442.932,43.457,29.785,9.766,100.098,27.832,0
1579270442.936,26.367,12.207,-7.812,94.727,0.488,0
1579270442.933,31.250,17.090,-1.953,100.098,-39.551,0
1579270442.937,23.438,13.184,-5.859,96.191,14.648,0
1579270442.941,31.738,21.484,4.395,105.469,74.219,0
1579270442.945,29.297,18.066,1.953,98.145,13.672,0
1579270442.949,24.902,12.695,-1.953,99.609,0.000,0
1579270442.953,34.180,23.438,6.348,109.863,59.082,0
1579270442.957,30.273,21.973,2.930,93.262,75.684,0
1579270442.960,33.691,27.832,12.695,95.215,9.766,0
1579270442.964,22.949,19.043,3.906,92.285,-5.371,0
1579270442.968,17.090,11.230,-6.348,81.543,33.203,0
1579270442.972,33.691,26.855,8.301,94.238,18.555,0
1579270442.976,30.762,23.438,8.789,98.633,-45.410,0
1579270442.993,44.922,34.180,22.949,115.723,-11.230,0
1579270442.997,43.945,31.738,18.555,108.398,88.867,0
1579270443.001,32.715,20.996,10.254,97.168,25.391,0
1579270443.005,40.527,27.344,19.043,105.957,-32.715,0
1579270443.009,36.133,22.461,14.160,103.027,-24.902,0
1579270443.013,49.805,37.598,31.738,122.070,14.648,0
1579270443.017,53.711,37.598,27.832,118.164,29.785,0
1579270443.020,31.250,11.719,1.953,91.309,4.883,0
1579270443.024,35.645,17.090,7.812,97.168,46.387,0
1579270443.028,47.852,22.461,17.578,109.863,15.137,0
1579270443.032,68.848,36.621,28.809,127.930,-2.441,0
1579270443.036,60.059,49.805,23.926,115.234,4.395,0
1579270443.033,30.762,48.340,13.672,85.449,-21.484,0
1579270443.037,28.320,54.688,17.090,83.984,-19.043,0
1579270443.041,24.414,52.734,18.555,82.520,40.039,0
1579270443.045,19.043,59.082,32.227,81.543,53.223,0
1579270443.049,10.742,59.570,32.715,73.730,58.594,0
1579270443.053,12.207,55.176,29.297,72.266,27.832,0
1579270443.057,12.695,47.363,24.902,72.266,-13.672,0
1579270443.060,1.953,33.203,10.742,61.523,9.766,0
1579270443.064,10.254,41.504,21.484,80.078,9.277,0
1579270443.068,22.461,50.293,33.691,89.355,14.648,0
1579270443.072,2.930,26.855,8.789,67.871,12.695,0
1579270443.076,-1.953,17.090,-2.441,66.406,-8.789,0
1579270443.073,7.324,23.438,5.859,71.777,48.340,0
1579270443.077,20.508,29.785,16.602,87.402,33.203,0
1579270443.081,30.273,36.621,22.461,97.168,38.574,0
1579270443.085,20.996,29.297,13.184,83.496,33.203,0
1579270443.089,29.297,33.203,15.137,91.797,16.602,0
1579270443.093,41.504,44.434,23.926,106.934,-4.883,0
1579270443.097,16.113,26.367,7.324,85.449,26.367,0
1579270443.100,27.832,37.598,20.996,97.656,58.105,0
1579270443.104,33.203,36.621,21.484,89.844,-25.879,0
1579270443.108,7.324,11.230,-7.324,58.105,-40.039,0
1579270443.112,16.113,19.531,0.000,70.801,-16.113,0
1579270443.116,32.227,31.738,13.184,87.402,-54.199,0
1579270443.133,21.973,25.879,10.254,85.449,-51.758,0
1579270443.137,16.602,21.484,5.371,82.520,15.137,0
1579270443.141,28.320,29.297,12.207,87.891,40.527,0
1579270443.145,27.832,27.832,10.254,83.008,33.691,0
1579270443.149,32.715,32.715,12.207,83.496,20.508,0
1579270443.153,58.105,57.617,41.016,104.980,-2.930,0
1579270443.157,48.340,46.875,31.738,90.820,2.441,0
1579270443.160,28.320,22.461,2.441,69.336,103.516,0
1579270443.164,45.410,34.668,15.625,83.984,80.078,0
1579270443.168,46.387,38.086,20.996,89.844,-12.207,0
1579270443.172,51.758,44.922,27.344,97.656,-2.441,0
1579270443.176,43.945,38.086,20.996,82.031,38.086,0
1579270443.173,34.668,27.344,8.789,72.754,14.648,0
1579270443.177,39.062,28.320,10.742,80.078,-57.129,0
1579270443.181,39.551,31.738,10.254,83.984,-43.945,0
1579270443.185,42.969,36.133,11.230,85.938,-6.836,0
1579270443.189,41.504,33.691,14.160,83.984,32.227,0
1579270443.193,47.363,41.016,22.461,90.332,58.594,0
1579270443.197,45.898,43.457,24.414,85.938,86.426,0
1579270443.200,33.691,33.691,15.625,73.730,55.176,0
1579270443.204,47.363,46.387,26.367,86.426,38.574,0
1579270443.208,54.199,55.176,34.668,87.402,19.043,0
1579270443.212,31.250,34.668,13.184,62.500,-20.508,0
1579270443.216,33.691,32.227,12.207,60.547,24.902,0
1579270443.213,37.109,34.668,18.066,63.477,24.414,0
1579270443.217,43.945,41.016,21.973,77.148,31.738,0
1579270443.221,53.711,50.781,31.250,84.473,46.387,0
1579270443.225,38.574,35.156,15.625,64.453,36.133,0
1579270443.229,37.598,34.180,13.184,64.453,-1.465,0
1579270443.233,42.480,41.992,21.973,64.941,-92.773,0
1579270443.237,33.691,34.668,11.719,50.781,-84.473,0
1579270443.240,39.062,40.039,19.531,52.246,-21.973,0
1579270443.244,22.461,26.367,9.277,41.504,-41.016,0
1579270443.248,7.812,8.789,-10.254,27.344,29.297,0
1579270443.252,23.438,18.066,0.977,37.109,93.262,0
1579270443.256,33.691,27.344,12.695,47.363,10.742,0
1579270443.273,29.297,26.367,14.160,48.340,23.926,0
1579270443.277,22.461,15.625,5.371,44.434,71.289,0
1579270443.281,28.320,15.137,4.395,48.828,50.781,0
1579270443.285,28.809,17.090,7.812,49.805,-5.859,0
1579270443.289,25.879,14.648,7.812,48.340,-1.465,0
1579270443.293,33.691,24.414,13.184,57.129,8.301,0
1579270443.297,23.438,17.090,3.418,49.805,-32.715,0
1579270443.300,13.184,9.766,1.953,46.387,3.906,0
1579270443.304,20.996,16.602,9.766,60.547,10.254,0
1579270443.308,10.254,3.906,-6.348,53.223,13.184,0
1579270443.312,34.180,24.902,14.648,68.359,59.570,0
1579270443.316,35.645,26.367,20.996,67.383,49.805,0
1579270443.313,3.906,-0.488,-7.812,36.133,89.844,0
1579270443.317,14.648,12.695,0.977,43.945,44.434,0
1579270443.321,23.926,15.625,5.371,52.246,-6.348,0
1579270443.325,31.738,20.020,7.812,47.363,44.922,0
1579270443.329,37.109,26.855,13.184,45.410,21.973,0
1579270443.333,43.457,34.668,22.461,57.617,-36.133,0
1579270443.337,35.156,31.738,18.066,51.270,-32.227,0
1579270443.340,21.484,20.996,4.883,32.715,-18.555,0
1579270443.344,49.316,46.875,28.809,50.293,-27.344,0
1579270443.348,55.176,51.758,34.668,43.457,-55.176,0
1579270443.352,34.668,29.785,15.137,20.508,-79.590,0
1579270443.356,34.668,29.297,13.184,20.020,-67.383,0
1579270443.358,32.715,26.367,8.301,13.672,-35.645,0
1579270443.362,41.504,33.203,21.484,25.879,13.672,0
1579270443.366,36.621,31.738,21.973,23.438,6.348,0
1579270443.370,26.367,26.367,9.766,14.160,-29.297,0
1579270443.374,34.180,31.738,10.254,22.949,-12.695,0
1579270443.378,39.062,34.668,16.113,29.297,17.578,0
1579270443.382,41.016,41.016,26.855,33.691,-43.945,0
1579270443.385,41.504,46.387,32.227,34.180,-13.672,0
1579270443.389,17.578,27.344,10.254,10.742,57.129,0
1579270443.393,13.672,19.531,3.906,6.836,54.199,0
1579270443.397,26.855,28.320,15.137,14.160,42.969,0
1579270443.401,28.809,34.180,23.926,4.883,40.527,0
1579270443.413,26.855,33.203,25.391,-2.930,40.527,0
1579270443.417,29.297,33.203,26.367,-3.906,-17.090,0
1579270443.421,28.320,37.598,34.668,4.883,-32.715,0
1579270443.425,25.879,34.668,27.344,-3.418,-23.926,0
1579270443.429,38.574,38.086,22.949,3.906,38.574,0
1579270443.433,44.434,44.922,36.621,26.367,74.219,0
1579270443.437,20.996,38.574,40.039,14.160,19.043,0
1579270443.440,-0.488,36.621,43.457,1.465,-14.648,0
1579270443.444,-7.324,40.039,55.176,19.531,-1.953,0
1579270443.448,-10.254,40.039,66.406,30.273,18.066,0
1579270443.452,-8.301,47.363,83.008,23.438,27.344,0
1579270443.456,-38.574,31.738,79.102,10.254,49.805,0
1579270443.453,-58.105,19.043,81.543,9.277,62.500,0
1579270443.457,-49.805,20.020,94.238,21.484,59.570,0
1579270443.461,-47.363,17.578,104.492,32.227,10.742,0
1579270443.465,-47.363,24.902,124.023,40.527,60.547,0
1579270443.469,-59.082,19.043,128.418,39.551,95.703,0
1579270443.473,-49.805,14.648,135.254,60.059,66.895,0
1579270443.477,-26.855,17.090,150.391,83.008,50.293,0
1579270443.480,-26.367,0.488,145.020,83.496,43.945,0
1579270443.484,6.348,9.277,164.551,125.000,74.707,0
1579270443.488,35.156,11.719,173.828,160.645,46.875,0
1579270443.492,26.855,-20.996,147.461,150.879,16.113,0
1579270443.496,51.758,-22.461,151.367,180.176,9.277,0
1579270443.514,77.637,-15.137,151.367,204.102,-28.320,0
1579270443.518,109.863,-5.371,159.668,231.445,-22.949,0
1579270443.522,129.395,-4.883,162.109,271.973,4.395,0
1579270443.526,150.391,-6.348,151.367,273.438,34.668,0
1579270443.530,178.711,9.277,143.555,285.156,19.043,0
1579270443.534,182.617,23.438,136.230,305.176,15.137,0
1579270443.538,195.801,34.180,148.438,322.754,32.227,0
1579270443.541,198.242,32.715,145.508,318.848,55.664,0
1579270443.545,185.547,9.766,113.281,297.363,24.414,0
1579270443.549,188.965,14.648,109.375,313.477,-17.090,0
1579270443.553,179.199,24.414,108.887,308.594,-0.488,0
1579270443.557,182.617,31.250,109.375,300.781,24.414,0
1579270443.554,191.406,40.039,112.305,302.734,13.672,0
1579270443.558,179.688,39.062,105.957,294.434,-56.641,0
1579270443.562,168.457,41.016,95.703,284.668,33.203,0
1579270443.566,167.480,44.922,84.961,279.785,63.477,0
1579270443.570,175.781,55.176,90.820,287.109,4.883,0
1579270443.574,174.805,59.570,98.633,294.922,38.086,0
1579270443.578,167.480,59.082,94.238,288.086,61.035,0
1579270443.581,165.039,63.965,90.820,270.508,20.996,0
1579270443.585,163.574,63.477,91.797,262.695,-45.898,0
1579270443.589,162.598,65.430,92.285,251.953,-3.418,0
1579270443.593,160.645,70.801,96.191,255.859,51.758,0
1579270443.597,142.578,59.570,83.984,252.930,-13.184,0
1579270443.593,135.742,57.129,73.242,224.609,-37.598,0
1579270443.597,136.719,61.035,69.824,214.355,-16.602,0
1579270443.601,139.160,64.453,77.637,219.727,-35.156,0
1579270443.605,142.578,72.754,85.938,227.539,-43.457,0
1579270443.609,123.535,62.500,71.289,216.309,-10.254,0
1579270443.613,120.117,66.406,73.730,221.191,41.016,0
1579270443.617,122.070,70.312,77.637,209.961,26.855,0
1579270443.620,117.188,63.965,67.383,194.336,27.832,0
1579270443.624,144.043,93.750,92.773,227.539,11.719,0
1579270443.628,141.602,96.680,97.168,219.727,-33.691,0
1579270443.632,109.863,64.941,65.430,185.059,15.625,0
1579270443.636,113.281,73.730,67.871,201.172,69.336,0
1579270443.653,115.234,86.426,74.707,207.031,71.777,0
1579270443.657,122.070,92.773,85.938,206.055,8.301,0
1579270443.661,113.281,82.520,77.148,188.477,-41.016,0
1579270443.665,107.910,77.637,68.848,186.035,29.785,0
1579270443.669,114.746,84.473,71.777,191.406,48.340,0
1579270443.673,105.469,79.102,65.918,182.617,29.785,0
1579270443.677,102.539,76.660,66.895,176.270,21.484,0
1579270443.680,87.402,61.523,52.734,156.250,13.184,0
1579270443.684,79.590,43.457,39.551,152.344,22.949,0
1579270443.688,105.469,58.105,50.293,168.457,27.832,0
1579270443.692,114.258,71.777,43.945,156.250,-29.785,0
1579270443.696,125.977,90.820,56.152,185.059,20.020,0
1579270443.693,110.352,91.797,60.547,158.691,18.555,0
1579270443.697,72.754,67.383,33.203,94.238,-44.434,0
1579270443.701,69.824,65.430,32.227,115.723,-30.273,0
1579270443.705,76.172,62.012,34.668,131.348,29.785,0
1579270443.709,86.914,70.801,45.898,138.184,48.828,0
1579270443.713,89.355,79.102,51.270,141.602,27.832,0
1579270443.717,82.031,69.824,37.109,130.371,20.508,0
1579270443.720,70.312,62.500,33.203,121.582,-14.160,0
1579270443.724,55.664,54.199,32.227,117.188,61.035,0
1579270443.728,69.824,65.918,45.898,131.348,90.820,0
1579270443.732,87.891,84.961,64.941,146.973,13.184,0
1579270443.736,64.453,61.523,42.480,121.582,-24.414,0
1579270443.733,59.082,53.223,35.156,118.164,-14.648,0
1579270443.737,63.965,57.129,38.574,124.512,36.133,0
1579270443.741,65.918,58.594,38.574,126.953,90.820,0
1579270443.745,72.266,65.918,45.898,135.742,65.430,0
1579270443.749,70.801,63.965,43.945,134.766,33.203,0
1579270443.753,75.684,68.848,50.293,143.066,2.441,0
1579270443.757,73.730,66.406,51.270,138.184,26.367,0
1579270443.760,65.918,54.688,44.922,133.789,30.762,0
1579270443.764,73.242,61.523,54.199,144.531,11.230,0
1579270443.768,60.059,49.316,40.039,126.953,84.961,0
1579270443.772,46.875,29.785,16.602,105.957,120.117,0
1579270443.776,57.617,42.480,27.832,116.211,83.496,0
1579270443.793,57.129,47.363,35.645,115.723,-17.578,0
1579270443.797,50.781,38.086,31.250,118.164,21.484,0
1579270443.801,54.688,41.016,33.203,123.535,68.848,0
1579270443.805,64.453,51.758,42.480,120.117,27.832,0
1579270443.809,69.824,59.082,50.781,126.465,23.926,0
1579270443.813,70.801,62.012,50.293,131.348,5.371,0
1579270443.817,72.754,68.359,59.082,131.836,18.066,0
1579270443.820,72.266,68.848,57.129,122.070,-3.418,0
1579270443.824,46.387,39.551,24.902,100.098,2.930,0
1579270443.828,48.828,40.527,31.250,104.980,26.855,0
1579270443.832,59.570,51.270,45.898,121.582,-15.137,0
1579270443.836,55.176,46.387,41.504,106.445,-34.180,0
1579270443.833,51.270,39.062,31.738,87.402,30.273,0
1579270443.837,51.758,39.551,32.227,106.934,78.125,0
1579270443.841,58.594,43.457,37.109,108.398,20.508,0
1579270443.845,46.875,35.156,27.832,90.820,-25.879,0
1579270443.849,46.875,41.016,37.598,105.469,30.762,0
1579270443.853,61.035,53.711,51.758,129.395,53.711,0
1579270443.857,55.664,50.293,42.969,124.023,-31.738,0
1579270443.860,47.852,43.945,35.156,108.887,-45.898,0
1579270443.864,38.574,32.715,28.320,98.633,14.160,0
1579270443.868,55.176,46.387,45.410,120.605,23.438,0
1579270443.872,64.941,61.035,57.617,128.906,7.812,0
1579270443.876,40.527,36.621,30.273,96.680,-0.977,0
1579270443.873,52.734,41.992,35.156,111.816,-0.977,0
1579270443.877,59.570,50.293,42.480,121.094,-34.180,0
1579270443.881,54.199,45.898,39.062,117.188,-36.133,0
1579270443.885,59.082,47.363,43.457,112.793,3.906,0
1579270443.889,57.617,45.410,41.504,103.027,-34.668,0
1579270443.893,58.594,50.293,46.387,105.469,3.906,0
1579270443.897,52.246,45.898,40.039,96.191,-15.137,0
1579270443.900,43.945,41.992,33.203,99.609,-30.273,0
1579270443.904,45.898,44.922,35.156,99.121,10.254,0
1579270443.908,33.691,32.715,21.973,86.914,37.598,0
1579270443.912,33.203,30.273,19.531,94.727,22.461,0
1579270443.916,35.156,28.809,19.531,100.098,5.859,0
1579270443.933,29.297,27.832,22.949,97.656,-1.465,0
1579270443.937,30.762,32.227,36.133,96.191,43.945,0
1579270443.941,22.949,26.367,33.691,86.426,88.867,0
1579270443.945,35.645,35.645,41.016,105.469,80.566,0
1579270443.949,47.852,40.039,42.480,109.863,80.078,0
1579270443.953,41.016,38.086,37.109,104.492,20.996,0
1579270443.957,51.270,54.199,57.617,119.141,-68.848,0
1579270443.960,30.762,33.203,37.598,76.172,-18.555,0
1579270443.964,14.648,10.254,8.301,62.500,26.855,0
1579270443.968,27.344,22.949,18.555,88.379,-7.324,0
1579270443.972,23.438,27.832,21.484,86.914,-5.859,0
1579270443.976,21.484,29.297,21.973,83.008,4.883,0
1579270443.973,18.555,24.902,19.043,77.637,9.277,0
1579270443.977,24.414,28.809,23.438,85.938,-10.742,0
1579270443.981,25.879,30.762,26.367,90.332,7.812,0
1579270443.985,26.367,30.273,23.926,89.355,17.578,0
1579270443.989,33.203,39.551,29.785,101.562,-26.367,0
1579270443.993,31.250,38.086,29.297,96.191,-2.930,0
1579270443.997,32.227,37.109,28.320,95.215,-19.043,0
1579270444.000,36.621,41.016,29.785,102.539,-83.984,0
1579270444.004,25.391,26.367,13.672,78.125,-24.902,0
1579270444.008,44.434,41.992,33.691,98.145,27.344,0
1579270444.012,60.059,58.594,52.734,119.141,-42.969,0
1579270444.016,32.715,33.203,20.996,84.961,-16.602,0
1579270444.013,32.715,36.621,20.508,89.844,7.812,0
1579270444.017,28.809,33.691,20.996,94.238,41.016,0
1579270444.021,47.852,47.852,33.691,109.863,-3.906,0
1579270444.025,49.805,51.758,35.645,113.770,-59.082,0
1579270444.029,31.738,38.574,23.926,100.586,52.734,0
1579270444.033,46.387,49.316,37.109,113.770,63.477,0
1579270444.037,32.227,35.645,21.484,105.469,50.781,0
1579270444.040,35.156,39.551,24.902,102.051,80.566,0
1579270444.044,58.594,62.988,49.805,107.910,23.438,0
1579270444.048,34.668,40.039,21.973,85.449,-36.621,0
1579270444.052,19.531,22.949,2.441,76.660,12.207,0
1579270444.056,24.902,26.855,11.719,95.703,55.664,0
1579270444.073,37.109,36.621,24.414,101.562,63.965,0
1579270444.077,34.668,36.621,18.555,94.238,45.898,0
1579270444.081,20.020,22.461,3.418,81.055,39.062,0
1579270444.085,20.508,23.438,12.695,79.102,0.488,0
1579270444.089,31.738,33.691,26.855,88.379,3.418,0
1579270444.093,47.363,47.852,39.062,103.516,45.898,0
1579270444.097,61.035,64.941,53.223,109.863,42.480,0
1579270444.100,42.969,49.316,39.062,94.238,15.137,0
1579270444.104,27.832,31.250,20.996,84.473,15.137,0
1579270444.108,41.992,46.387,37.109,95.703,-1.953,0
1579270444.112,54.688,60.059,50.781,110.352,-16.602,0
1579270444.116,60.059,64.453,51.758,112.793,66.895,0
1579270444.113,53.223,57.617,44.922,104.980,74.219,0
1579270444.117,60.059,56.641,42.480,110.352,27.832,0
1579270444.121,61.523,60.059,50.293,121.094,49.805,0
1579270444.125,60.547,61.523,53.223,130.859,0.977,0
1579270444.129,68.359,62.500,53.223,137.207,-3.418,0
1579270444.133,73.242,64.941,56.641,131.836,47.852,0
1579270444.137,72.754,64.453,53.711,115.234,12.207,0
1579270444.140,70.312,59.082,47.852,108.398,-23.926,0
1579270444.144,71.289,59.082,42.480,122.559,14.648,0
1579270444.148,85.938,76.660,56.152,139.160,88.867,0
1579270444.152,77.637,68.848,54.688,127.930,84.961,0
1579270444.156,58.105,49.316,32.227,108.887,28.809,0
1579270444.153,64.941,57.617,43.457,119.629,2.441,0
1579270444.157,66.895,61.523,54.199,130.371,7.812,0
1579270444.161,89.355,87.891,76.660,146.484,-6.836,0
1579270444.165,88.379,87.891,77.637,140.137,29.297,0
1579270444.169,62.012,64.453,54.688,126.465,63.477,0
1579270444.173,77.148,76.172,69.824,142.090,57.617,0
1579270444.177,62.500,60.547,54.688,126.953,69.824,0
1579270444.180,68.359,63.477,55.176,126.465,77.637,0
1579270444.184,75.195,69.824,66.895,128.906,-30.762,0
1579270444.188,49.805,34.180,32.715,113.770,-63.965,0
1579270444.192,50.781,25.391,22.461,121.582,4.883,0
1579270444.196,29.297,20.996,19.043,93.750,43.457,0
1579270444.213,30.273,23.438,20.020,80.566,71.289,0
1579270444.217,36.133,22.949,21.973,83.008,41.016,0
1579270444.221,34.668,18.555,16.602,80.566,18.555,0
1579270444.225,37.598,23.926,19.531,77.148,-10.742,0
1579270444.229,23.438,15.137,13.672,65.918,4.883,0
1579270444.233,36.133,22.949,20.996,79.590,26.855,0
1579270444.237,36.621,21.484,17.090,82.520,-20.996,0
1579270444.240,6.836,-2.930,-6.348,56.641,24.414,0
1579270444.244,6.836,-1.465,-10.254,57.129,60.059,0
1579270444.248,17.578,3.418,-6.348,70.801,15.625,0
1579270444.252,22.949,8.301,1.953,79.102,48.340,0
1579270444.256,36.621,22.949,14.648,82.031,34.180,0
1579270444.253,20.020,13.672,0.000,65.918,-1.465,0
1579270444.257,8.301,4.395,-5.371,62.988,1.953,0
1579270444.261,12.207,7.812,0.488,67.871,-14.160,0
1579270444.265,8.301,9.766,1.465,72.266,21.973,0
1579270444.269,14.648,14.160,7.812,81.055,53.223,0
1579270444.273,18.066,18.066,11.719,78.613,42.969,0
1579270444.277,19.531,19.531,10.742,69.824,19.531,0
1579270444.280,10.742,13.672,2.930,53.711,9.277,0
1579270444.284,-0.488,4.883,-2.930,50.293,32.715,0
1579270444.288,20.508,22.461,19.531,74.219,26.855,0
1579270444.292,14.648,16.602,13.672,63.965,6.348,0
1579270444.296,-6.348,-0.977,-6.836,49.316,-14.648,0
1579270444.293,8.301,11.230,5.859,64.453,-3.418,0
1579270444.297,12.207,13.672,7.812,74.219,8.789,0
1579270444.301,5.859,13.672,6.348,78.613,45.898,0
1579270444.305,5.859,17.090,5.859,63.965,10.254,0
1579270444.309,10.254,19.043,5.371,52.734,15.137,0
1579270444.313,21.973,28.809,17.578,64.453,70.312,0
1579270444.317,11.230,18.066,4.395,64.453,97.168,0
1579270444.320,21.484,26.367,9.766,70.801,19.043,0
1579270444.324,20.996,27.344,15.137,65.918,-25.391,0
1579270444.328,-2.441,6.836,-4.395,49.805,-0.488,0
1579270444.332,-5.371,3.906,-3.418,52.734,33.691,0
1579270444.336,-6.348,4.883,-3.906,59.082,30.273,0
1579270444.353,16.113,26.855,10.254,73.730,-56.152,0
1579270444.357,8.301,20.020,2.441,55.664,-24.902,0
1579270444.361,-12.207,2.441,-18.555,43.945,20.020,0
1579270444.365,-4.883,10.254,-12.695,62.012,13.184,0
1579270444.369,-2.441,11.719,-3.906,67.383,-10.254,0
1579270444.373,13.672,26.855,17.578,90.820,-51.270,0
1579270444.377,14.648,29.297,22.461,93.262,12.695,0
1579270444.380,-1.953,6.836,-3.418,62.012,34.668,0
1579270444.384,11.719,15.137,1.953,65.430,16.602,0
1579270444.388,23.438,27.832,14.648,79.590,3.418,0
1579270444.392,30.273,34.668,20.508,96.680,-26.855,0
1579270444.396,26.855,35.645,17.090,105.469,18.555,0
1579270444.393,14.648,21.973,6.348,93.750,63.965,0
1579270444.397,29.297,29.297,15.137,82.031,56.152,0
1579270444.401,40.039,42.969,23.926,82.520,47.363,0
1579270444.405,31.250,34.668,16.113,88.379,41.016,0
1579270444.409,35.645,29.297,8.301,84.473,9.766,0
1579270444.413,41.016,32.227,15.137,83.984,-4.883,0
1579270444.417,31.250,25.391,20.020,88.867,55.664,0
1579270444.420,13.672,11.719,18.066,82.031,69.824,0
1579270444.424,-10.254,-0.488,19.531,58.594,11.719,0
1579270444.428,-10.742,15.137,46.875,63.965,16.602,0
1579270444.432,-30.762,5.859,44.434,41.992,23.438,0
1579270444.436,-61.523,-20.020,24.902,13.184,30.762,0
1579270444.433,-66.406,-20.996,36.133,20.996,57.617,0
1579270444.437,-67.383,-20.020,42.969,17.578,9.277,0
1579270444.441,-59.082,-17.578,48.340,16.602,-13.672,0
1579270444.445,-71.289,-26.367,39.551,10.742,2.930,0
1579270444.449,-73.730,-24.902,39.062,11.719,4.395,0
1579270444.453,-47.363,-14.648,49.805,30.273,30.273,0
1579270444.457,-47.852,-15.137,36.621,25.879,28.809,0
1579270444.460,-35.645,6.348,47.363,33.691,-55.664,0
1579270444.464,-36.133,2.930,40.527,29.785,-62.988,0
1579270444.468,-55.664,-24.902,5.859,15.625,23.926,0
1579270444.472,-28.809,-10.742,13.672,38.086,4.883,0
1579270444.476,-13.184,1.465,16.602,47.852,-64.941,0
1579270444.493,-7.324,2.441,14.160,55.176,-10.742,0
1579270444.497,-6.836,2.441,8.789,52.734,22.949,0
1579270444.501,-4.883,0.488,6.836,51.270,0.000,0
1579270444.505,0.977,2.441,11.719,56.641,23.438,0
1579270444.509,8.301,6.836,11.719,56.641,11.719,0
1579270444.513,24.902,18.066,16.602,72.266,20.020,0
1579270444.517,16.113,11.230,7.324,67.871,38.086,0
1579270444.520,-5.371,-9.766,-16.602,38.574,16.602,0
1579270444.524,14.160,3.906,-8.301,52.246,10.742,0
1579270444.528,16.602,4.883,-5.859,60.547,0.000,0
1579270444.532,11.719,8.789,-5.859,58.594,-22.949,0
1579270444.536,11.719,10.742,-5.371,57.617,12.207,0
1579270444.533,-1.465,-7.324,-22.461,47.363,0.977,0
1579270444.537,4.395,-0.977,-20.508,51.758,2.930,0
1579270444.541,9.766,4.395,-19.531,52.246,-20.020,0
1579270444.545,18.066,13.672,-15.137,55.664,-33.203,0
1579270444.549,20.508,20.508,-7.812,59.082,23.438,0
1579270444.553,10.254,12.695,-12.695,53.711,-5.371,0
1579270444.557,11.230,14.648,-14.160,53.711,26.367,0
1579270444.560,12.207,17.578,-12.695,57.617,-24.414,0
1579270444.564,5.859,16.602,-13.672,48.340,-37.598,0
1579270444.568,18.066,30.273,1.465,51.270,31.250,0
1579270444.572,3.906,15.625,-11.719,36.621,31.250,0
1579270444.576,-2.441,10.742,-16.602,38.574,41.992,0
1579270444.573,-1.465,12.207,-13.672,44.434,-9.766,0
1579270444.577,-8.301,8.789,-21.484,35.645,0.000,0
1579270444.581,-4.883,15.137,-16.113,51.270,35.645,0
1579270444.585,-7.324,8.789,-24.902,51.758,20.020,0
1579270444.589,-2.930,10.742,-23.926,44.922,50.781,0
1579270444.593,15.137,24.414,-8.789,51.270,36.621,0
1579270444.597,6.836,11.230,-23.926,45.410,24.414,0
1579270444.600,14.648,22.949,-10.742,60.547,37.109,0
1579270444.604,9.277,22.949,-9.766,53.223,32.715,0
1579270444.608,-14.648,2.930,-35.645,32.227,-19.531,0
1579270444.612,-0.488,14.160,-24.414,41.504,-58.105,0
1579270444.616,3.906,13.672,-22.461,42.969,-24.414,0
1579270444.633,1.465,17.578,-20.996,48.340,-3.418,0
1579270444.637,7.324,21.973,-15.137,56.152,-23.926,0
1579270444.641,13.672,21.484,-12.695,58.594,-30.273,0
1579270444.645,12.207,21.973,-12.695,66.895,-30.762,0
1579270444.649,14.648,21.484,-12.695,68.359,-3.906,0
1579270444.653,43.457,44.922,6.836,80.566,21.484,0
1579270444.657,39.062,40.527,0.000,71.289,-28.809,0
1579270444.660,16.602,17.090,-24.902,60.547,-15.625,0
1579270444.664,32.227,26.367,-15.137,82.520,46.875,0
1579270444.668,35.645,30.273,-12.207,81.543,36.133,0
1579270444.672,40.527,41.504,-7.812,86.914,22.461,0
1579270444.676,30.762,36.133,-9.766,87.891,50.781,0
1579270444.673,20.996,25.391,-15.625,75.684,34.180,0
1579270444.677,25.391,27.344,-13.672,72.754,63.477,0
1579270444.681,31.250,34.180,-8.301,76.172,33.203,0
1579270444.685,34.668,41.504,0.977,87.402,13.184,0
1579270444.689,21.973,32.715,-4.395,88.379,76.660,0
1579270444.693,26.855,33.203,-4.883,88.867,29.297,0
1579270444.697,36.621,38.086,-0.488,95.215,3.906,0
1579270444.700,27.832,28.320,-12.207,79.102,6.348,0
1579270444.704,34.180,34.668,-2.930,83.984,29.785,0
1579270444.708,51.270,54.199,20.020,104.004,52.734,0
1579270444.712,35.156,36.621,0.000,85.449,-29.297,0
1579270444.716,26.367,22.461,-13.184,80.078,-68.848,0
1579270444.715,23.926,24.414,-11.230,82.520,-10.742,0
1579270444.719,38.086,35.645,-0.488,96.191,-8.789,0
1579270444.723,47.363,35.645,1.953,103.027,7.324,0
1579270444.727,43.457,31.250,-0.977,95.215,38.086,0
1579270444.731,61.523,41.992,6.836,108.887,52.246,0
1579270444.735,88.379,47.852,17.578,137.207,16.602,0
1579270444.739,75.195,46.875,11.719,118.652,-8.301,0
1579270444.742,31.738,49.805,1.953,74.219,66.406,0
1579270444.746,14.648,43.945,-1.953,53.711,45.410,0
1579270444.750,4.395,42.969,-7.812,38.086,-24.414,0
1579270444.754,-10.742,52.246,-7.812,20.508,-65.918,0
1579270444.758,-14.160,53.223,-6.836,9.766,-1.465,0
1579270444.774,-21.484,59.082,1.953,11.719,12.695,0
1579270444.778,-39.062,46.387,-12.695,-0.488,-31.738,0
1579270444.782,-34.668,34.668,-26.855,-5.371,36.621,0
1579270444.786,-18.555,36.621,-20.508,9.766,55.664,0
1579270444.790,-13.184,31.738,-20.020,23.926,70.312,0
1579270444.794,17.578,53.711,4.395,43.945,93.262,0
1579270444.798,20.996,50.781,4.395,36.133,-17.090,0
1579270444.801,-3.418,23.926,-23.438,20.996,-38.574,0
1579270444.805,6.348,26.367,-21.484,42.480,-5.371,0
1579270444.809,6.836,24.902,-22.461,49.316,23.926,0
1579270444.813,20.508,39.551,-8.301,66.895,47.852,0
1579270444.817,21.973,38.086,-6.348,67.871,0.977,0
1579270444.814,11.230,25.879,-17.578,61.523,-5.371,0
1579270444.818,24.902,34.180,-9.766,78.125,-8.301,0
1579270444.822,40.039,42.969,-2.930,68.848,-56.152,0
1579270444.826,41.504,43.457,-3.906,61.523,-102.051,0
1579270444.830,25.879,32.715,-9.277,56.641,-79.102,0
1579270444.834,22.461,31.250,-5.371,66.895,-16.113,0
1579270444.838,25.879,31.250,-7.324,72.754,35.645,0
1579270444.841,20.996,24.902,-15.137,63.477,13.184,0
1579270444.845,39.551,40.527,2.441,80.566,4.883,0
1579270444.849,35.156,40.527,0.977,78.613,20.996,0
1579270444.853,5.859,8.789,-28.320,52.246,52.734,0
1579270444.857,14.648,12.695,-26.367,61.035,59.082,0
1579270444.853,29.785,22.949,-22.949,69.336,25.391,0
1579270444.857,43.457,35.645,-7.812,81.055,25.879,0
1579270444.861,42.969,36.133,-0.488,80.566,36.133,0
1579270444.865,34.180,18.066,-19.531,62.988,15.137,0
1579270444.869,41.016,28.809,-12.695,71.777,-63.965,0
1579270444.873,39.062,31.738,-7.324,83.496,-30.762,0
1579270444.877,43.457,33.203,-3.906,90.332,26.367,0
1579270444.880,43.457,34.668,-1.953,82.031,-36.621,0
1579270444.884,31.250,20.996,-18.066,66.406,-55.664,0
1579270444.888,38.086,26.367,-14.160,78.125,-12.207,0
1579270444.892,43.945,31.738,-9.277,78.613,12.695,0
1579270444.896,47.363,35.645,-5.859,78.613,-2.441,0
1579270444.914,47.852,38.086,-1.465,86.914,6.836,0
1579270444.918,43.457,25.879,-11.719,72.754,31.738,0
1579270444.922,44.922,27.344,-11.230,76.660,47.852,0
1579270444.926,47.852,34.668,-3.906,89.355,25.391,0
1579270444.930,59.082,43.945,8.301,95.215,14.160,0
1579270444.934,65.918,50.293,17.090,99.609,8.789,0
1579270444.938,59.570,36.621,6.836,88.379,31.738,0
1579270444.941,59.082,33.203,1.953,83.496,-5.371,0
1579270444.945,59.570,34.180,2.441,82.031,33.691,0
1579270444.949,64.453,32.227,0.488,86.914,100.586,0
1579270444.953,97.168,53.223,21.484,113.281,43.457,0
1579270444.957,96.680,50.293,12.207,109.375,-3.906,0
1579270444.954,55.176,32.715,-15.625,81.055,19.531,0
1579270444.958,26.367,48.340,-10.742,52.246,22.949,0
1579270444.962,11.230,62.500,-9.277,28.809,-16.602,0
1579270444.966,0.488,68.359,-9.766,20.996,-3.906,0
1579270444.970,-30.762,66.406,-22.461,-7.812,11.719,0
1579270444.974,-41.504,72.266,-28.320,-22.949,26.855,0
1579270444.978,-46.387,78.125,-35.156,-41.016,38.086,0
1579270444.981,-60.059,81.543,-43.945,-61.035,43.945,0
1579270444.985,-47.363,106.934,-29.297,-49.316,-9.277,0
1579270444.989,-48.828,104.492,-44.922,-58.594,-19.531,0
1579270444.993,-67.871,90.332,-69.824,-76.172,-17.090,0
1579270444.997,-60.547,99.121,-66.406,-69.824,-41.016,0
1579270445.013,-55.664,92.773,-69.336,-69.824,-65.430,0
1579270445.017,-31.738,102.539,-56.152,-46.387,-52.734,0
1579270445.021,-24.902,99.609,-46.875,-38.574,19.531,0
1579270445.025,-33.691,70.312,-61.035,-44.434,14.160,0
1579270445.029,-9.766,74.219,-54.199,-17.578,22.949,0
1579270445.033,3.418,75.195,-44.922,2.441,44.434,0
1579270445.037,14.648,70.312,-38.086,21.484,7.324,0
1579270445.040,25.391,65.918,-34.668,22.949,-2.441,0
1579270445.044,11.230,42.969,-45.410,19.043,-57.617,0
1579270445.048,6.836,31.250,-46.875,36.133,-41.016,0
1579270445.052,26.367,33.203,-39.551,42.969,31.738,0
1579270445.056,41.992,35.156,-28.809,53.223,-9.277,0
1579270445.054,44.434,28.809,-26.855,60.547,-38.086,0
1579270445.058,40.527,17.090,-33.691,57.129,16.113,0
1579270445.062,37.109,13.184,-29.785,63.477,74.707,0
1579270445.066,39.551,14.648,-22.461,72.266,56.152,0
1579270445.070,51.758,19.043,-13.672,88.379,49.805,0
1579270445.074,55.664,18.066,-8.789,93.262,104.004,0
1579270445.078,52.246,7.812,-13.672,87.891,86.426,0
1579270445.081,51.270,3.906,-14.160,87.891,66.406,0
1579270445.085,51.758,8.789,-11.230,90.332,18.066,0
1579270445.089,57.129,14.160,-2.930,98.145,-13.672,0
1579270445.093,56.152,15.625,7.324,102.051,-3.906,0
1579270445.097,41.992,2.930,-2.930,89.355,8.789,0
1579270445.094,43.945,-0.977,-3.418,90.332,25.391,0
1579270445.098,48.340,3.418,6.348,104.980,20.020,0
1579270445.102,42.480,0.000,-0.488,101.074,48.340,0
1579270445.106,45.410,6.836,2.441,93.262,17.578,0
1579270445.110,35.156,4.395,-0.977,89.355,8.301,0
1579270445.114,37.598,8.301,1.953,91.797,36.133,0
1579270445.118,34.180,3.418,-0.488,83.496,54.199,0
1579270445.121,18.555,-9.277,-9.277,75.195,75.684,0
1579270445.125,37.598,11.230,17.578,93.262,71.289,0
1579270445.129,33.691,6.836,13.184,76.172,31.250,0
1579270445.133,7.324,-19.043,-13.184,46.387,7.324,0
1579270445.137,8.789,-14.648,-9.277,54.688,27.832,0
1579270445.154,11.230,-14.160,-6.836,61.523,32.715,0
1579270445.158,25.879,-3.906,6.348,72.266,-1.465,0
1579270445.162,28.320,-2.930,1.953,68.848,-10.742,0
1579270445.166,21.484,-10.742,-7.324,60.547,62.988,0
1579270445.170,28.320,-0.488,2.441,74.219,58.594,0
1579270445.174,20.508,1.465,2.930,76.172,8.301,0
1579270445.178,23.926,9.277,12.695,75.684,34.668,0
1579270445.181,18.555,0.000,2.930,57.617,36.621,0
1579270445.185,6.836,-16.602,-15.137,45.410,31.250,0
1579270445.189,22.949,-0.977,0.977,64.941,-4.395,0
1579270445.193,12.695,-4.883,0.977,62.012,-13.672,0
1579270445.197,21.484,1.465,8.301,73.242,39.551,0
1579270445.193,30.273,6.836,13.184,78.125,-0.488,0
1579270445.197,11.230,-8.789,-6.348,60.059,-0.977,0
1579270445.201,20.996,-1.953,-1.953,67.871,-7.812,0
1579270445.205,13.672,-0.488,-1.953,64.453,-28.320,0
1579270445.209,23.926,9.277,6.836,70.312,17.090,0
1579270445.213,38.086,14.160,15.137,79.590,22.461,0
1579270445.217,21.484,4.395,5.371,70.312,-5.371,0
1579270445.220,22.949,3.418,5.859,64.941,27.832,0
1579270445.224,19.531,-1.465,5.371,62.012,13.672,0
1579270445.228,19.531,2.441,9.766,68.848,2.930,0
1579270445.232,39.062,20.508,30.762,86.426,-11.230,0
1579270445.236,24.414,4.395,15.137,64.453,-78.125,0
1579270445.233,18.555,-11.719,-3.906,58.594,-44.922,0
1579270445.237,35.156,-5.371,3.906,79.102,10.254,0
1579270445.241,37.109,-7.812,13.672,108.887,29.785,0
1579270445.245,16.113,-12.207,17.578,85.449,27.832,0
1579270445.249,-9.277,-15.137,20.508,31.250,-28.320,0
1579270445.253,-7.812,-11.719,33.691,40.527,-20.508,0
1579270445.257,-9.277,-17.090,37.598,43.945,-9.277,0
1579270445.260,-22.949,-32.227,27.344,27.344,-21.973,0
1579270445.264,-11.719,-18.066,42.969,32.227,58.105,0
1579270445.268,-21.973,-20.996,37.598,21.484,74.707,0
1579270445.272,-42.969,-41.016,11.230,7.812,45.898,0
1579270445.276,-33.691,-35.645,9.766,17.090,57.617,0
1579270445.294,-23.926,-28.809,14.160,22.461,6.348,0
1579270445.298,-21.484,-21.484,17.090,30.762,1.953,0
1579270445.302,-15.137,-17.578,14.648,36.621,27.832,0
1579270445.306,-8.789,-15.137,16.602,39.551,-22.461,0
1579270445.310,-9.277,-12.207,16.602,46.875,-12.207,0
1579270445.314,1.953,-7.324,18.066,59.082,-4.395,0
1579270445.318,21.973,8.301,29.297,75.684,57.129,0
1579270445.321,21.484,5.859,29.785,70.801,42.969,0
1579270445.325,0.000,-17.578,11.719,49.316,-1.953,0
1579270445.329,5.859,-8.301,16.602,59.082,-21.973,0
1579270445.333,12.695,-3.906,17.578,64.941,-76.172,0
1579270445.337,8.301,-6.836,14.648,64.941,9.766,0
1579270445.334,19.531,4.883,24.902,69.336,28.809,0
1579270445.338,30.762,10.254,28.320,74.219,-50.781,0
1579270445.342,23.438,4.395,18.555,71.777,-32.715,0
1579270445.346,28.320,11.719,19.043,72.754,-26.855,0
1579270445.350,35.645,22.949,23.926,76.660,-8.301,0
1579270445.354,31.250,25.391,25.391,82.031,15.625,0
1579270445.358,24.902,21.484,21.484,78.125,3.418,0
1579270445.361,30.762,20.508,19.043,75.195,16.602,0
1579270445.365,29.297,16.113,16.113,77.637,35.156,0
1579270445.369,39.062,30.762,29.785,95.215,65.430,0
1579270445.373,49.805,45.898,46.875,100.586,3.418,0
1579270445.377,17.090,19.531,20.996,72.754,-52.734,0
1579270445.374,15.137,15.625,17.090,78.613,-1.953,0
1579270445.378,33.691,28.320,27.832,88.379,-7.812,0
1579270445.382,38.086,35.645,29.785,84.961,-18.066,0
1579270445.386,39.062,39.551,32.715,92.285,53.711,0
1579270445.390,40.527,36.133,23.438,109.863,53.711,0
1579270445.394,48.340,40.039,21.973,94.238,24.414,0
1579270445.398,36.621,41.016,22.461,67.383,19.043,0
1579270445.401,28.809,39.062,20.508,73.730,-7.324,0
1579270445.405,47.852,61.035,41.016,92.773,-5.859,0
1579270445.409,37.109,50.781,29.785,76.660,31.738,0
1579270445.413,18.555,31.250,7.324,57.129,34.180,0
1579270445.417,17.578,37.109,9.766,64.941,25.879,0
1579270445.434,20.508,41.992,8.789,67.871,10.742,0
1579270445.438,20.996,43.457,6.348,70.312,-15.137,0
1579270445.442,9.766,32.715,-7.812,65.430,49.316,0
1579270445.446,11.230,29.785,-13.184,66.895,83.496,0
1579270445.450,24.902,36.621,-8.301,75.684,27.832,0
1579270445.454,43.457,52.734,0.000,101.074,15.625,0
1579270445.458,53.223,55.176,-9.277,101.562,25.879,0
1579270445.461,52.246,41.992,-19.531,91.797,-11.719,0
1579270445.465,45.410,43.457,-6.836,100.098,-33.203,0
1579270445.469,30.762,45.410,-2.930,90.332,-23.438,0
1579270445.473,25.879,38.574,-9.277,83.008,43.457,0
1579270445.477,42.969,53.223,-0.488,92.285,64.453,0
1579270445.474,30.762,50.781,-13.672,79.590,53.223,0
1579270445.478,22.461,40.039,-23.438,73.730,60.059,0
1579270445.482,32.227,47.852,-10.742,89.844,6.348,0
1579270445.486,30.273,44.922,-17.090,87.402,27.832,0
1579270445.490,46.387,55.664,-8.789,104.492,43.945,0
1579270445.494,42.480,57.129,-7.324,113.770,-10.742,0
1579270445.498,36.133,49.316,-12.695,106.445,20.508,0
1579270445.501,41.992,49.805,-12.695,102.051,9.277,0
1579270445.505,35.156,38.086,-25.879,87.891,45.898,0
1579270445.509,57.617,58.594,-3.906,117.188,64.941,0
1579270445.513,62.988,67.383,3.906,124.512,-27.832,0
1579270445.517,38.086,39.551,-25.879,93.262,20.508,0
1579270445.514,45.898,42.480,-21.973,105.469,31.250,0
1579270445.518,48.340,49.316,-15.137,119.629,-7.812,0
1579270445.522,62.500,60.059,-5.371,120.117,-51.270,0
1579270445.526,57.617,51.758,-13.672,103.516,-23.438,0
1579270445.530,42.480,42.480,-25.879,94.727,16.602,0
1579270445.534,60.547,62.500,-10.254,113.281,19.531,0
1579270445.538,56.641,55.664,-15.137,100.098,20.996,0
1579270445.541,51.270,51.758,-14.648,93.262,0.977,0
1579270445.545,65.430,68.848,2.441,111.328,53.223,0
1579270445.549,52.246,51.270,-12.695,97.656,67.383,0
1579270445.553,48.340,42.480,-18.066,98.145,43.457,0
1579270445.557,59.082,49.316,-10.254,102.051,47.852,0
1579270445.573,70.312,57.129,1.465,103.027,31.250,0
1579270445.577,72.754,54.688,2.930,105.957,22.461,0
1579270445.581,74.219,53.223,2.441,105.469,-18.555,0
1579270445.585,73.242,60.547,15.137,114.258,-42.969,0
1579270445.589,61.523,58.105,17.090,107.910,-21.973,0
1579270445.593,62.012,63.965,24.902,112.305,-4.883,0
1579270445.597,54.199,60.059,27.832,108.887,53.223,0
1579270445.600,43.457,50.781,26.367,95.215,23.438,0
1579270445.604,44.922,51.758,34.668,98.633,4.883,0
1579270445.608,45.898,50.293,43.457,95.703,59.570,0
1579270445.612,46.387,52.246,42.969,97.656,36.133,0
1579270445.616,53.223,66.895,51.270,115.234,22.949,0
1579270445.613,40.527,61.035,44.434,96.680,7.812,0
1579270445.617,26.367,44.922,31.250,74.707,25.879,0
1579270445.621,34.180,50.781,41.016,85.449,35.156,0
1579270445.625,39.062,57.129,48.340,95.215,-3.418,0
1579270445.629,32.227,48.828,41.504,90.820,30.273,0
1579270445.633,27.344,42.480,37.598,80.078,55.664,0
1579270445.637,35.645,46.387,41.504,87.891,15.625,0
1579270445.640,46.387,44.434,36.621,93.750,-2.441,0
1579270445.644,37.109,32.715,36.133,84.961,16.113,0
1579270445.648,35.156,51.270,75.684,92.773,-3.418,0
1579270445.652,22.949,52.734,87.891,79.590,16.113,0
1579270445.656,3.906,22.949,65.430,66.895,31.738,0
1579270445.654,3.906,31.738,76.660,82.520,4.883,0
1579270445.658,-6.836,40.527,95.215,76.172,-4.883,0
1579270445.662,-1.953,46.387,113.281,77.637,19.531,0
1579270445.666,-9.766,36.621,116.699,73.242,-0.977,0
1579270445.670,-18.555,28.809,121.094,67.383,-0.488,0
1579270445.674,-21.484,38.574,142.578,71.777,50.293,0
1579270445.678,-38.086,34.180,148.438,61.523,53.223,0
1579270445.681,-22.461,39.551,157.227,73.242,0.000,0
1579270445.685,-12.207,39.551,164.551,92.285,-31.738,0
1579270445.689,-32.715,27.344,157.715,84.473,6.348,0
1579270445.693,-29.297,36.621,165.527,78.125,23.926,0
1579270445.697,-22.461,34.180,161.621,80.566,-6.836,0
1579270445.713,0.000,39.062,171.875,119.141,-38.574,0
1579270445.717,20.996,40.527,181.641,145.508,2.930,0
1579270445.721,15.137,29.297,163.574,116.699,0.977,0
1579270445.725,25.879,29.297,161.621,117.676,10.742,0
1579270445.729,51.758,32.227,169.434,139.648,80.566,0
1579270445.733,84.961,48.828,167.969,163.086,31.738,0
1579270445.737,115.234,69.824,170.898,191.895,10.254,0
1579270445.740,103.516,51.758,144.043,174.805,89.844,0
1579270445.744,104.492,38.086,125.000,174.805,100.098,0
1579270445.748,129.395,47.852,139.160,197.266,-6.836,0
1579270445.752,137.207,36.621,128.418,203.125,44.922,0
1579270445.756,143.066,34.668,119.629,218.262,93.750,0
1579270445.753,141.602,31.738,105.957,213.379,14.160,0
1579270445.757,146.484,31.250,97.168,203.125,-11.230,0
1579270445.761,149.414,31.738,95.703,207.520,-4.883,0
1579270445.765,156.250,32.715,97.656,216.797,-3.906,0
1579270445.769,157.227,35.156,95.703,217.773,12.207,0
1579270445.773,150.391,39.062,97.656,226.562,28.809,0
1579270445.777,151.367,45.410,98.145,228.516,7.812,0
1579270445.780,145.996,42.480,82.520,208.984,16.113,0
1579270445.784,134.277,34.180,73.730,197.266,25.391,0
1579270445.788,158.691,60.547,103.027,222.168,11.719,0
1579270445.792,155.273,56.641,96.680,210.449,20.508,0
1579270445.796,120.117,31.738,66.895,180.664,31.738,0
1579270445.793,130.371,45.410,79.102,201.660,32.227,0
1579270445.797,137.695,45.898,72.266,197.754,10.742,0
1579270445.801,136.719,47.852,63.477,192.383,6.836,0
1579270445.805,137.207,44.922,62.012,191.406,14.160,0
1579270445.809,132.324,39.551,61.523,176.270,21.973,0
1579270445.813,137.695,48.828,68.848,184.082,-24.902,0
1579270445.817,129.395,43.457,58.105,187.012,-38.574,0
1579270445.820,129.883,45.410,62.988,190.430,-20.508,0
1579270445.824,135.742,50.781,67.871,175.781,-26.855,0
1579270445.828,106.934,29.785,38.086,140.625,-20.508,0
1579270445.832,106.445,31.738,38.574,151.855,-1.953,0
1579270445.836,106.934,34.668,42.969,152.344,7.812,0
1579270445.854,102.051,38.086,45.410,150.879,58.105,0
1579270445.858,100.586,41.504,44.922,155.273,60.059,0
1579270445.862,100.586,42.480,42.480,157.227,39.062,0
1579270445.866,102.051,44.434,46.875,161.621,16.113,0
1579270445.870,82.520,33.691,36.133,144.531,-24.902,0
1579270445.874,90.332,46.875,47.852,146.973,-6.348,0
1579270445.878,100.098,54.688,52.734,149.902,24.902,0
1579270445.881,80.566,33.691,29.785,128.418,26.367,0
1579270445.885,84.961,36.621,32.227,134.766,-20.996,0
1579270445.889,87.891,40.527,39.551,142.090,-53.711,0
1579270445.893,91.797,45.898,47.852,136.719,-39.551,0
1579270445.897,87.891,45.898,49.316,137.207,-9.277,0
1579270445.894,74.707,34.180,41.016,132.812,62.012,0
1579270445.898,74.219,34.180,41.504,126.465,19.043,0
1579270445.902,64.453,28.809,33.691,116.699,40.527,0
1579270445.906,74.707,38.574,43.457,126.465,77.637,0
1579270445.910,88.867,51.270,51.270,138.184,9.766,0
1579270445.914,80.566,49.316,48.828,134.766,2.930,0
1579270445.918,63.477,47.363,46.875,129.883,13.672,0
1579270445.921,57.617,37.598,30.273,116.211,3.906,0
1579270445.925,58.594,35.156,26.367,116.699,-20.508,0
1579270445.929,60.547,39.062,34.668,119.141,58.105,0
1579270445.933,53.711,31.738,34.180,102.051,42.480,0
1579270445.937,48.340,27.344,35.645,100.586,-14.160,0
1579270445.933,50.781,28.809,36.621,104.980,37.109,0
1579270445.937,50.781,29.785,33.691,104.004,43.457,0
1579270445.941,57.129,41.016,46.387,119.629,28.320,0
1579270445.945,48.340,33.203,40.527,109.863,-23.438,0
1579270445.949,45.410,28.320,29.785,98.633,-28.320,0
1579270445.953,58.105,42.480,40.527,111.816,-22.949,0
1579270445.957,54.199,34.668,30.762,103.027,37.598,0
1579270445.960,64.453,52.246,42.480,119.629,31.738,0
1579270445.964,67.383,57.617,47.852,116.699,-20.996,0
1579270445.968,49.316,21.484,18.066,89.355,-11.719,0
1579270445.972,55.664,26.855,18.555,95.703,-6.348,0
1579270445.976,51.758,42.480,19.043,90.332,-7.812,0
1579270445.993,45.898,42.480,22.461,96.191,15.137,0
1579270445.997,51.758,40.039,22.949,104.004,7.324,0
1579270446.001,46.875,38.574,23.438,93.750,-39.062,0
1579270446.005,45.898,41.992,32.227,95.703,-27.832,0
1579270446.009,47.852,40.039,31.738,100.586,32.227,0
1579270446.013,63.965,59.570,47.852,106.934,45.410,0
1579270446.017,62.012,60.059,47.363,96.680,-9.766,0
1579270446.020,25.391,30.762,21.484,73.730,-26.855,0
1579270446.024,24.902,30.762,20.996,82.520,-16.602,0
1579270446.028,32.715,28.320,18.066,82.520,-29.785,0
1579270446.032,40.039,32.715,25.391,86.426,25.391,0
1579270446.036,51.758,42.480,32.715,85.449,38.574,0
1579270446.033,43.457,33.691,22.949,79.102,0.488,0
1579270446.037,35.645,29.297,23.926,85.938,-6.348,0
1579270446.041,29.785,22.949,20.020,83.008,0.977,0
1579270446.045,35.156,26.367,21.973,88.867,13.672,0
1579270446.049,46.387,36.133,30.273,94.727,-6.348,0
1579270446.053,30.273,23.438,22.949,81.055,11.719,0
1579270446.057,24.902,16.113,17.090,79.590,47.852,0
1579270446.060,26.855,15.625,8.789,73.242,38.574,0
1579270446.064,29.297,14.160,4.883,67.871,41.504,0
1579270446.068,45.898,31.250,22.461,88.379,14.160,0
1579270446.072,28.809,19.531,14.160,80.078,-19.531,0
1579270446.076,16.602,5.371,0.488,75.684,41.016,0
1579270446.073,30.273,14.648,5.859,85.449,42.480,0
1579270446.077,42.969,23.926,18.555,89.844,-14.160,0
1579270446.081,53.223,37.109,34.668,99.609,-64.453,0
1579270446.085,41.016,30.273,16.113,89.844,-46.875,0
1579270446.089,38.086,26.855,4.883,84.473,37.598,0
1579270446.093,40.039,34.180,19.531,92.773,34.180,0
1579270446.097,21.973,20.508,5.371,76.660,30.762,0
1579270446.100,38.086,32.227,23.438,82.520,46.875,0
1579270446.104,40.527,32.715,33.203,83.984,22.461,0
1579270446.108,19.043,11.719,8.301,69.824,4.883,0
1579270446.112,23.438,19.531,9.277,74.707,-6.348,0
1579270446.116,28.320,24.414,12.207,74.219,-12.207,0
1579270446.133,35.645,25.391,15.137,80.566,-18.555,0
1579270446.137,21.973,17.090,4.395,74.219,63.477,0
1579270446.141,18.555,15.625,7.324,69.336,55.176,0
1579270446.145,27.832,17.578,11.230,79.102,13.184,0
1579270446.149,24.414,12.695,2.930,76.660,35.156,0
1579270446.153,39.551,28.809,19.531,84.961,0.488,0
1579270446.157,38.574,29.785,20.508,78.125,-22.949,0
1579270446.160,20.020,11.230,0.488,61.035,-26.367,0
1579270446.164,18.555,12.207,3.906,68.359,18.555,0
1579270446.168,20.020,12.695,6.836,64.941,49.805,0
1579270446.172,40.527,30.273,19.531,75.684,57.129,0
1579270446.176,35.156,35.156,20.508,82.031,36.133,0
1579270446.173,12.207,13.184,3.906,71.777,-8.789,0
1579270446.177,19.531,13.184,9.277,72.266,-3.906,0
1579270446.181,18.066,17.578,9.277,72.754,7.812,0
1579270446.185,31.738,24.414,10.742,77.148,31.250,0
1579270446.189,37.598,22.461,9.277,75.195,16.602,0
1579270446.193,21.973,17.578,7.324,77.637,-1.465,0
1579270446.197,16.602,11.230,3.906,63.965,-3.418,0
1579270446.200,11.230,2.441,-6.836,54.688,16.113,0
1579270446.204,28.320,18.066,5.371,78.613,-20.020,0
1579270446.208,31.738,20.508,5.371,75.684,-27.832,0
1579270446.212,9.766,-0.488,-16.602,53.711,-6.836,0
1579270446.216,1.953,-0.488,-19.043,55.176,55.664,0
1579270446.213,10.254,6.348,-10.742,61.035,58.105,0
1579270446.217,16.602,10.742,-1.465,66.406,19.043,0
1579270446.221,15.625,13.184,5.371,68.848,34.668,0
1579270446.225,6.836,1.953,-3.418,65.918,48.340,0
1579270446.229,5.859,6.836,-1.465,62.500,45.410,0
1579270446.233,14.648,20.996,8.301,69.824,6.836,0
1579270446.237,9.766,12.695,1.953,70.312,-23.926,0
1579270446.240,26.855,24.414,9.277,75.195,12.695,0
1579270446.244,17.578,14.648,-0.488,58.105,91.797,0
1579270446.248,-8.789,-5.371,-12.695,44.922,79.102,0
1579270446.252,5.859,9.766,2.441,62.012,46.387,0
1579270446.256,20.020,23.438,10.742,71.289,-29.297,0
1579270446.274,14.160,20.020,9.277,72.754,-69.336,0
1579270446.278,2.930,7.324,-6.348,59.082,-26.367,0
1579270446.282,3.418,4.883,-8.789,50.781,6.836,0
1579270446.286,9.277,9.766,0.488,55.176,38.574,0
1579270446.290,18.555,12.207,5.371,57.617,-21.484,0
1579270446.294,34.180,25.391,21.973,80.566,13.672,0
1579270446.298,25.879,16.113,11.230,73.242,40.527,0
1579270446.301,7.324,-1.465,-2.930,56.641,0.000,0
1579270446.305,17.578,9.766,11.719,70.801,41.992,0
1579270446.309,22.949,10.742,10.742,73.242,63.965,0
1579270446.313,29.785,18.066,16.602,78.125,53.223,0
1579270446.317,25.391,16.602,14.160,72.266,-20.508,0
1579270446.314,17.578,9.277,4.883,62.012,7.812,0
1579270446.318,23.438,17.090,15.137,67.871,66.406,0
1579270446.322,32.715,21.973,21.484,79.590,-0.488,0
1579270446.326,34.180,19.043,16.602,79.102,-15.625,0
1579270446.330,23.926,14.160,11.230,70.312,-11.719,0
1579270446.334,18.555,15.625,12.695,67.871,-5.371,0
1579270446.338,8.301,9.277,12.695,63.965,26.855,0
1579270446.341,0.000,0.000,3.906,59.082,0.977,0
1579270446.345,17.090,19.531,15.137,72.266,-48.828,0
1579270446.349,19.043,25.391,21.484,70.312,-63.965,0
1579270446.353,-6.836,-4.395,-3.906,43.945,-24.414,0
1579270446.357,-0.488,-1.953,0.488,52.734,21.484,0
1579270446.354,11.230,7.812,9.277,62.012,-22.461,0
1579270446.358,15.625,13.672,11.230,64.941,15.137,0
1579270446.362,13.672,16.113,13.184,67.871,40.527,0
1579270446.366,3.906,7.812,4.883,58.594,4.395,0
1579270446.370,12.207,12.695,9.766,62.012,44.434,0
1579270446.374,19.531,13.672,16.113,66.895,9.277,0
1579270446.378,17.578,15.625,20.020,77.148,-44.922,0
1579270446.381,7.812,12.695,13.184,78.125,6.348,0
1579270446.385,-1.465,0.488,-4.395,57.617,23.926,0
1579270446.389,6.348,5.859,0.000,61.035,56.152,0
1579270446.393,11.230,11.719,7.324,64.941,70.801,0
1579270446.397,15.137,15.625,13.184,69.824,75.195,0
1579270446.414,22.949,22.949,21.973,78.125,33.203,0
1579270446.418,17.090,12.695,10.742,66.895,-5.859,0
1579270446.422,20.020,9.766,7.324,66.406,-35.645,0
1579270446.426,17.578,9.766,8.789,63.965,-19.531,0
1579270446.430,13.672,7.812,10.742,63.965,30.762,0
1579270446.434,35.645,29.297,32.227,78.613,25.879,0
1579270446.438,21.484,18.555,19.531,61.035,17.578,0
1579270446.441,10.742,2.930,1.953,56.641,4.395,0
1579270446.445,25.391,11.230,7.324,72.266,5.859,0
1579270446.449,19.531,9.766,5.371,66.406,-32.715,0
1579270446.453,11.719,12.695,14.648,66.406,-20.996,0
1579270446.457,4.395,7.812,11.230,59.570,30.273,0
1579270446.453,6.836,5.859,7.812,58.594,-1.953,0
1579270446.457,5.859,7.812,10.254,70.312,-33.203,0
1579270446.461,11.230,12.695,13.184,76.172,-13.184,0
1579270446.465,15.625,15.137,10.742,72.266,-4.395,0
1579270446.469,12.695,8.301,3.906,62.500,44.434,0
1579270446.473,25.879,13.184,12.207,69.336,60.547,0
1579270446.477,26.367,15.625,17.090,75.684,35.156,0
1579270446.480,8.301,7.812,5.859,65.918,-15.625,0
1579270446.484,27.832,24.902,19.531,77.637,-44.434,0
1579270446.488,23.438,20.020,18.066,71.289,-9.277,0
1579270446.492,1.465,-0.977,-3.418,48.340,14.648,0
1579270446.496,7.812,3.418,-2.441,57.617,37.109,0
1579270446.514,4.395,3.418,-9.766,52.734,11.719,0
1579270446.518,24.414,20.020,3.906,62.988,-10.254,0
1579270446.522,21.973,16.602,3.418,67.383,26.367,0
1579270446.526,5.859,0.488,-9.277,52.734,77.637,0
1579270446.530,20.996,13.672,3.418,62.988,21.484,0
1579270446.534,22.461,19.531,12.207,75.195,-20.508,0
1579270446.538,24.902,19.531,14.160,75.195,-2.930,0
1579270446.541,20.996,14.160,4.395,65.430,-9.766,0
1579270446.545,8.789,0.488,-6.836,52.734,-7.812,0
1579270446.549,25.879,10.254,8.301,62.988,-21.484,0
1579270446.553,24.414,11.719,7.324,66.406,-45.410,0
1579270446.557,28.320,17.578,12.207,78.125,-69.336,0
1579270446.553,33.691,24.414,21.973,83.984,-66.406,0
1579270446.557,23.926,19.043,19.043,78.613,-90.332,0
1579270446.561,19.531,14.648,18.066,77.637,-64.453,0
1579270446.565,13.672,8.301,10.742,65.918,5.371,0
1579270446.569,16.602,16.113,18.555,68.848,42.480,0
1579270446.573,21.484,22.461,25.391,75.195,96.191,0
1579270446.577,21.973,22.949,26.367,74.219,75.195,0
1579270446.580,18.555,16.602,23.926,70.312,-8.789,0
1579270446.584,13.184,8.789,21.973,64.941,-22.949,0
1579270446.588,10.742,8.301,21.973,66.406,66.895,0
1579270446.592,31.250,28.320,38.574,91.797,107.422,0
1579270446.596,26.855,21.973,34.180,81.543,47.363,0
1579270446.593,9.766,0.488,14.648,56.152,17.578,0
1579270446.597,8.789,7.812,23.926,72.266,35.156,0
1579270446.601,6.836,16.602,29.785,76.660,-4.395,0
1579270446.605,17.578,19.531,25.391,75.195,-21.973,0
1579270446.609,21.484,15.625,17.578,83.984,22.461,0
1579270446.613,26.855,20.508,29.297,92.285,32.227,0
1579270446.617,23.438,18.555,36.133,88.379,-13.672,0
1579270446.620,12.695,9.277,29.297,82.520,25.391,0
1579270446.624,27.832,24.902,43.945,95.215,55.664,0
1579270446.628,28.320,25.879,39.551,87.891,-2.441,0
1579270446.632,19.043,17.578,23.926,78.613,34.180,0
1579270446.636,33.691,27.832,36.621,92.285,50.781,0
1579270446.653,30.762,24.414,33.691,95.215,6.836,0
1579270446.657,36.133,34.180,37.598,101.074,16.113,0
1579270446.661,36.621,35.156,42.969,95.215,36.621,0
1579270446.665,23.926,17.578,26.855,77.637,40.527,0
1579270446.669,33.203,25.391,29.297,85.449,41.504,0
1579270446.673,35.645,31.250,39.551,92.285,-4.883,0
1579270446.677,41.016,32.715,45.410,96.191,18.555,0
1579270446.680,40.527,24.414,39.551,91.797,77.148,0
1579270446.684,17.578,4.883,20.996,72.754,-25.391,0
1579270446.688,17.578,8.789,19.043,73.242,-24.414,0
1579270446.692,22.461,14.648,21.973,79.590,24.414,0
1579270446.696,33.691,22.949,29.297,91.309,11.719,0
1579270446.694,39.062,22.949,26.367,98.633,25.391,0
1579270446.698,30.762,16.113,15.625,93.262,-35.156,0
1579270446.702,33.203,19.043,17.090,88.867,-28.320,0
1579270446.706,28.809,13.184,13.184,80.566,50.781,0
1579270446.710,35.156,19.043,17.578,91.797,58.105,0
1579270446.714,42.480,29.785,25.879,100.586,-1.465,0
1579270446.718,33.203,20.996,19.531,93.750,-26.367,0
1579270446.721,28.809,20.020,22.461,93.750,-45.410,0
1579270446.725,19.531,10.742,14.648,76.172,1.953,0
1579270446.729,26.855,8.789,12.207,75.684,115.234,0
1579270446.733,37.109,20.996,24.902,90.332,56.641,0
1579270446.737,25.879,9.766,14.648,80.078,-18.066,0
1579270446.733,25.879,5.371,10.742,76.660,42.480,0
1579270446.737,28.320,9.277,11.230,75.195,125.000,0
1579270446.741,33.203,15.137,19.043,84.961,81.055,0
1579270446.745,30.762,20.508,22.461,92.285,-12.695,0
1579270446.749,22.949,10.254,8.789,86.914,3.418,0
1579270446.753,28.320,11.719,9.277,88.867,46.875,0
1579270446.757,24.902,10.742,10.254,84.473,86.914,0
1579270446.760,22.949,7.812,9.766,79.590,31.250,0
1579270446.764,49.316,33.691,33.691,100.586,-69.824,0
1579270446.768,43.457,29.785,31.250,91.797,-50.293,0
1579270446.772,26.855,9.766,10.254,76.660,-59.082,0
1579270446.776,35.645,16.113,17.090,88.379,-42.480,0
1579270446.793,35.156,18.555,21.484,86.426,17.578,0
1579270446.797,44.434,23.438,23.438,91.797,30.273,0
1579270446.801,41.504,19.531,22.949,93.750,13.184,0
1579270446.805,36.133,15.137,21.973,88.867,1.953,0
1579270446.809,37.109,16.113,20.996,84.961,46.387,0
1579270446.813,27.832,13.672,20.020,84.473,52.246,0
1579270446.817,35.156,24.902,29.785,92.773,41.016,0
1579270446.820,35.645,20.996,26.855,82.520,28.809,0
1579270446.824,16.113,-1.953,1.465,62.012,55.664,0
1579270446.828,23.926,9.766,6.348,72.754,7.324,0
1579270446.832,26.855,6.836,9.277,72.754,-15.137,0
1579270446.836,25.879,7.812,11.230,79.102,54.688,0
1579270446.834,15.625,7.812,11.230,81.543,-3.906,0
1579270446.838,18.555,6.348,11.230,81.055,-40.039,0
1579270446.842,23.926,11.230,7.324,80.566,-21.484,0
1579270446.846,20.020,8.789,1.953,74.707,-2.930,0
1579270446.850,32.715,21.484,18.066,87.891,17.090,0
1579270446.854,35.156,25.391,25.879,85.449,1.465,0
1579270446.858,20.508,13.184,18.555,70.312,21.484,0
1579270446.861,17.578,9.277,15.137,73.242,19.043,0
1579270446.865,16.113,5.859,10.254,67.871,24.414,0
1579270446.869,31.250,20.020,24.902,80.078,11.719,0
1579270446.873,33.203,24.902,31.250,89.844,-34.180,0
1579270446.877,2.441,-0.488,7.324,64.453,-1.953,0
1579270446.873,5.859,2.441,5.371,60.059,76.172,0
1579270446.877,24.902,13.184,15.137,66.406,45.898,0
1579270446.881,38.574,18.555,28.809,83.984,-23.438,0
1579270446.885,33.203,17.090,28.809,83.008,13.672,0
1579270446.889,26.367,12.207,19.531,71.289,-8.301,0
1579270446.893,36.621,20.020,25.879,79.590,-20.020,0
1579270446.897,24.902,18.066,23.438,68.848,16.113,0
1579270446.900,20.020,14.160,18.555,70.801,17.090,0
1579270446.904,36.621,31.250,40.039,88.867,18.555,0
1579270446.908,24.902,21.973,38.086,68.848,-9.277,0
1579270446.912,3.906,-0.977,14.648,51.758,4.883,0
1579270446.916,11.719,5.859,18.066,64.453,59.570,0
1579270446.933,17.578,12.695,24.414,73.242,11.230,0
1579270446.937,20.996,19.043,25.879,78.613,5.859,0
1579270446.941,20.020,18.066,25.879,77.637,-9.766,0
1579270446.945,9.277,15.137,27.832,73.730,-47.363,0
1579270446.949,8.301,20.020,29.297,73.242,-4.395,0
1579270446.953,13.184,17.090,26.855,73.730,20.020,0
1579270446.957,22.461,27.344,35.156,80.078,35.645,0
1579270446.960,8.789,19.531,23.926,62.012,43.945,0
1579270446.964,-12.207,-5.371,-0.977,49.316,106.445,0
1579270446.968,12.207,12.207,17.578,74.219,75.684,0
1579270446.972,23.926,23.926,28.320,77.148,5.371,0
1579270446.976,27.344,26.367,30.273,85.449,-13.184,0
1579270446.973,27.832,25.879,26.855,87.402,-25.879,0
1579270446.977,17.578,20.996,19.531,71.289,-8.301,0
1579270446.981,20.020,20.996,23.438,73.242,-20.508,0
1579270446.985,17.578,20.996,23.926,71.289,0.977,0
1579270446.989,27.832,29.785,32.715,77.637,-26.855,0
1579270446.993,29.785,28.809,35.156,82.520,3.418,0
1579270446.997,22.949,20.996,31.738,77.148,54.199,0
1579270447.000,23.926,17.090,25.391,71.289,41.504,0
1579270447.004,18.555,11.719,16.602,73.730,44.434,0
1579270447.008,39.062,28.320,34.180,94.727,49.805,0
1579270447.012,44.434,36.133,43.945,96.191,15.137,0
1579270447.016,17.090,11.719,21.484,63.477,-13.184,0
1579270447.013,25.391,18.066,22.461,66.895,21.973,0
1579270447.017,32.715,21.484,20.996,83.008,-15.625,0
1579270447.021,35.645,18.555,24.414,93.750,-23.926,0
1579270447.025,31.738,17.578,37.109,96.191,-13.672,0
1579270447.029,20.020,11.230,34.668,90.332,-44.434,0
1579270447.033,31.250,21.973,38.574,100.586,-8.789,0
1579270447.037,26.367,20.996,33.691,100.098,7.324,0
1579270447.040,17.090,20.020,29.297,83.496,23.438,0
1579270447.044,20.508,23.438,25.879,77.148,67.871,0
1579270447.048,16.602,13.184,10.742,73.242,63.477,0
1579270447.052,18.555,10.742,12.207,77.637,42.969,0
1579270447.056,20.508,12.695,16.602,86.914,-35.156,0
1579270447.073,19.531,15.137,19.531,86.426,-10.742,0
1579270447.077,28.809,22.949,30.762,88.379,39.551,0
1579270447.081,15.137,8.301,16.602,82.031,-10.742,0
1579270447.085,12.695,3.906,6.836,81.543,-20.020,0
1579270447.089,21.484,7.812,7.812,83.984,26.855,0
1579270447.093,19.043,6.348,6.348,83.984,106.445,0
1579270447.097,33.691,23.438,22.949,93.262,45.898,0
1579270447.100,22.461,16.602,16.602,76.660,-12.207,0
1579270447.104,8.301,4.883,5.371,67.871,-5.859,0
1579270447.108,20.508,14.648,12.207,79.102,-49.805,0
1579270447.112,25.879,19.043,9.277,77.148,-40.527,0
1579270447.116,22.949,18.066,9.766,78.613,24.902,0
1579270447.113,20.508,16.113,11.719,81.055,35.156,0
1579270447.117,30.762,20.996,14.648,87.402,0.977,0
1579270447.121,29.785,18.066,12.207,89.844,6.348,0
1579270447.125,23.438,11.719,9.766,90.332,31.250,0
1579270447.129,30.273,18.066,16.602,103.516,39.551,0
1579270447.133,38.574,22.949,16.602,102.051,36.133,0
1579270447.137,40.527,16.113,12.695,88.867,78.125,0
1579270447.140,39.551,16.113,14.648,94.238,77.148,0
1579270447.144,38.086,17.578,11.230,98.145,19.531,0
1579270447.148,51.270,28.809,24.902,104.980,0.977,0
1579270447.152,48.828,28.320,23.438,100.586,20.020,0
1579270447.156,27.832,14.160,10.742,91.309,-0.977,0
1579270447.153,30.273,20.508,19.043,98.145,22.461,0
1579270447.157,37.598,22.949,20.508,104.492,4.883,0
1579270447.161,51.270,37.109,35.645,118.164,-24.414,0
1579270447.165,42.480,33.691,31.738,105.469,31.250,0
1579270447.169,21.484,11.719,11.230,88.379,21.973,0
1579270447.173,24.902,18.555,15.625,97.656,12.695,0
1579270447.177,14.160,11.230,6.836,81.543,21.484,0
1579270447.180,18.555,16.602,13.672,87.891,20.996,0
1579270447.184,28.320,27.832,26.855,101.074,9.766,0
1579270447.188,2.930,1.465,1.465,75.195,-5.859,0
1579270447.192,4.395,-3.418,-2.930,68.359,-6.348,0
1579270447.196,18.066,4.883,2.441,81.055,-13.184,0
1579270447.213,17.578,7.812,3.418,82.520,60.059,0
1579270447.217,23.926,14.160,14.648,85.449,41.992,0
1579270447.221,21.484,6.348,8.301,85.449,-3.906,0
1579270447.225,22.949,9.766,5.859,87.402,43.945,0
1579270447.229,20.020,15.625,12.207,87.402,15.137,0
1579270447.233,26.855,20.020,22.461,97.168,-40.039,0
1579270447.237,20.996,15.625,17.090,93.262,1.953,0
1579270447.240,8.789,4.883,-2.930,76.172,7.324,0
1579270447.244,18.555,5.371,-2.930,81.543,23.438,0
1579270447.248,23.926,4.883,4.395,85.449,14.160,0
1579270447.252,20.996,2.930,3.906,84.473,-15.137,0
1579270447.256,26.855,8.789,12.207,86.426,51.270,0
1579270447.253,19.043,-1.465,8.301,79.102,54.688,0
1579270447.257,8.301,-5.859,2.441,76.172,1.465,0
1579270447.261,22.461,2.930,10.742,84.961,18.066,0
1579270447.265,31.738,6.348,14.160,96.191,27.344,0
1579270447.269,30.762,11.719,19.043,94.727,20.996,0
1579270447.273,29.297,12.695,17.578,90.332,14.160,0
1579270447.277,33.691,11.719,20.020,93.750,4.883,0
1579270447.280,32.715,10.742,23.438,93.262,-0.488,0
1579270447.284,24.414,4.883,14.160,86.914,17.578,0
1579270447.288,45.410,21.484,28.809,97.656,43.945,0
1579270447.292,36.621,18.066,30.273,87.402,37.598,0
1579270447.296,13.672,-2.441,7.812,76.172,10.254,0
1579270447.293,25.391,6.348,12.695,91.797,-30.273,0
1579270447.297,25.391,2.930,13.184,91.797,18.066,0
1579270447.301,29.785,6.836,14.648,97.168,27.832,0
1579270447.305,31.738,8.789,12.695,97.656,-24.414,0
1579270447.309,26.367,2.930,9.277,89.355,-15.137,0
1579270447.313,28.320,5.371,17.090,90.820,15.625,0
1579270447.317,19.043,-5.859,7.812,86.426,20.020,0
1579270447.320,26.367,4.883,14.648,91.797,1.953,0
1579270447.324,26.855,14.160,19.043,93.750,55.176,0
1579270447.328,11.230,-4.883,2.930,82.031,91.797,0
1579270447.332,16.113,2.441,9.766,89.844,35.156,0
1579270447.336,12.695,1.953,7.812,79.102,26.367,0
1579270447.353,20.508,7.324,13.184,77.637,33.691,0
1579270447.357,22.949,11.230,16.602,80.566,36.621,0
1579270447.361,18.555,4.883,9.277,81.055,18.066,0
1579270447.365,15.137,1.465,5.859,81.055,-1.953,0
1579270447.369,3.418,-4.883,-0.977,70.312,40.527,0
1579270447.373,19.043,8.789,6.836,80.078,53.223,0
1579270447.377,23.926,12.695,10.254,83.496,0.000,0
1579270447.380,5.371,-6.836,-5.859,65.430,-17.090,0
1579270447.384,8.789,-8.789,-3.906,67.383,-30.762,0
1579270447.388,4.883,-6.348,-0.977,63.965,17.578,0
1579270447.392,16.113,7.812,9.277,77.637,22.949,0
1579270447.396,29.785,17.090,18.066,90.820,-29.785,0
1579270447.394,14.648,4.395,4.883,67.871,-13.184,0
1579270447.398,16.602,7.324,4.883,66.406,27.832,0
1579270447.402,20.996,12.695,9.277,73.242,24.902,0
1579270447.406,11.230,11.230,11.719,74.219,5.371,0
1579270447.410,17.578,15.137,16.602,90.332,-56.641,0
1579270447.414,19.531,12.695,12.695,92.285,-41.992,0
1579270447.418,19.531,11.230,8.789,85.938,8.789,0
1579270447.421,12.207,3.906,5.371,81.055,19.531,0
1579270447.425,14.648,6.348,7.812,77.637,32.227,0
1579270447.429,23.438,14.160,15.137,83.496,14.160,0
1579270447.433,1.465,-2.441,0.488,66.406,9.277,0
1579270447.437,-1.953,-8.301,-4.883,63.477,28.809,0
1579270447.433,8.789,-2.930,-2.930,74.219,37.109,0
1579270447.437,12.207,-0.488,-4.395,73.730,41.504,0
1579270447.441,22.461,12.695,6.836,82.031,29.297,0
1579270447.445,16.602,13.184,-0.977,74.219,31.738,0
1579270447.449,9.277,13.184,-7.812,70.312,31.250,0
1579270447.453,18.555,26.367,1.465,80.078,20.020,0
1579270447.457,6.348,22.949,-5.859,69.336,25.391,0
1579270447.460,20.508,39.062,7.812,79.102,15.137,0
1579270447.464,25.391,40.039,11.230,81.543,20.508,0
1579270447.468,6.348,20.020,-0.977,74.219,17.090,0
1579270447.472,3.418,18.066,2.441,74.219,44.922,0
1579270447.476,5.859,16.113,3.906,68.359,4.883,0
1579270447.493,23.926,24.414,16.602,82.031,-98.145,0
1579270447.497,12.207,10.742,7.324,70.801,-39.551,0
1579270447.501,-7.324,-9.277,-11.230,55.176,-18.066,0
1579270447.505,1.953,1.465,-0.977,64.941,-16.602,0
1579270447.509,8.301,7.324,4.883,71.289,-20.996,0
1579270447.513,25.879,20.508,18.066,87.891,-18.066,0
1579270447.517,32.227,22.949,20.508,84.473,23.926,0
1579270447.520,7.324,-1.465,-5.371,62.012,22.461,0
1579270447.524,10.254,2.441,-2.930,68.848,-10.254,0
1579270447.528,13.672,4.883,-4.395,67.871,13.184,0
1579270447.532,24.414,13.672,4.395,80.078,-4.883,0
1579270447.536,29.785,20.020,10.254,92.773,-64.453,0
1579270447.534,17.090,6.348,-0.977,76.172,-16.113,0
1579270447.538,27.344,5.859,7.324,77.637,13.672,0
1579270447.542,31.738,7.812,9.766,85.938,33.203,0
1579270447.546,29.297,16.602,15.625,97.656,20.508,0
1579270447.550,29.785,21.973,19.531,103.027,-33.691,0
1579270447.554,27.832,19.531,16.602,97.168,-7.324,0
1579270447.558,20.508,16.113,12.695,87.891,73.730,0
1579270447.561,17.578,13.184,7.812,78.125,62.500,0
1579270447.565,20.020,17.578,8.301,76.660,25.391,0
1579270447.569,15.137,16.602,9.766,76.660,35.156,0
1579270447.573,7.812,4.883,0.977,64.941,33.691,0
1579270447.577,13.672,7.324,2.930,64.941,24.902,0
1579270447.573,14.648,12.207,8.789,72.266,-2.441,0
1579270447.577,17.090,15.625,16.602,83.496,-45.898,0
1579270447.581,28.809,24.902,23.438,86.426,-44.434,0
1579270447.585,18.555,18.555,6.836,66.406,44.434,0
1579270447.589,16.602,19.531,10.742,74.219,-6.836,0
1579270447.593,31.250,29.785,23.926,92.773,-30.273,0
1579270447.597,24.414,23.438,13.672,90.332,26.855,0
1579270447.600,32.227,32.715,24.414,99.609,38.086,0
1579270447.604,32.715,34.668,29.297,93.262,47.852,0
1579270447.608,15.137,18.555,12.207,74.707,51.758,0
1579270447.612,27.344,27.832,12.695,81.543,29.785,0
1579270447.616,34.180,29.785,13.184,88.867,17.090,0
1579270447.633,34.668,34.668,24.414,95.703,4.883,0
1579270447.637,29.785,34.180,32.715,88.379,-26.855,0
1579270447.641,28.320,30.762,30.273,81.543,23.926,0
1579270447.645,36.621,35.156,28.320,89.355,64.941,0
1579270447.649,40.039,35.156,27.344,97.656,20.508,0
1579270447.653,59.082,55.176,45.898,112.305,10.254,0
1579270447.657,56.152,56.152,48.340,113.281,-13.184,0
1579270447.660,28.809,23.926,16.113,88.867,54.199,0
1579270447.664,45.410,34.668,24.414,104.004,89.844,0
1579270447.668,56.641,43.945,38.086,120.605,40.527,0
1579270447.672,55.176,41.504,43.457,118.164,64.941,0
1579270447.676,57.617,45.410,49.316,121.094,47.852,0
1579270447.673,60.547,46.875,46.387,117.676,42.480,0
1579270447.677,69.824,52.246,51.270,121.094,35.645,0
1579270447.681,76.172,51.758,46.875,124.512,40.527,0
1579270447.685,82.031,61.035,49.805,129.883,62.500,0
1579270447.689,80.078,61.523,55.664,129.883,12.207,0
1579270447.693,76.660,56.152,54.199,126.953,-29.297,0
1579270447.697,81.055,59.082,53.223,126.465,11.719,0
1579270447.700,79.102,54.199,46.875,117.188,24.414,0
1579270447.704,73.242,53.711,47.852,121.582,-8.789,0
1579270447.708,80.566,67.383,61.035,143.066,19.531,0
1579270447.712,70.312,57.617,46.387,124.023,42.969,0
1579270447.716,68.848,52.734,35.645,109.375,-28.809,0
1579270447.713,66.895,49.316,31.738,110.352,-53.711,0
1579270447.717,66.895,51.758,33.203,118.164,18.066,0
1579270447.721,77.637,64.941,46.387,127.441,-9.766,0
1579270447.725,73.730,58.105,40.039,114.746,7.812,0
1579270447.729,78.125,60.547,44.434,125.488,55.664,0
1579270447.733,87.402,70.312,60.547,142.578,-6.836,0
1579270447.737,82.520,62.500,52.734,132.812,-17.090,0
1579270447.740,88.867,70.312,61.035,136.719,16.602,0
1579270447.744,77.148,64.941,55.176,124.023,-7.812,0
1579270447.748,58.594,43.945,28.809,107.910,-21.973,0
1579270447.752,64.453,44.922,32.227,114.258,39.062,0
1579270447.756,64.453,51.270,46.875,125.977,42.969,0
1579270447.773,62.500,54.199,54.199,130.371,5.859,0
1579270447.777,58.594,50.293,49.805,123.535,51.270,0
1579270447.781,61.035,55.664,52.246,128.906,49.805,0
1579270447.785,55.664,51.758,44.922,117.188,-22.461,0
1579270447.789,49.805,43.457,36.133,105.957,-3.906,0
1579270447.793,69.824,61.523,58.594,128.906,18.555,0
1579270447.797,65.430,59.082,53.711,123.047,-21.973,0
1579270447.800,43.945,43.457,31.738,102.539,7.324,0
1579270447.804,55.664,52.734,41.016,113.281,64.941,0
1579270447.808,68.848,53.223,43.945,124.023,1.465,0
1579270447.812,65.430,50.781,46.875,128.418,10.254,0
1579270447.816,53.711,45.410,44.434,116.699,34.180,0
1579270447.813,61.523,48.340,46.387,110.352,4.883,0
1579270447.817,62.500,51.758,56.152,116.211,-59.082,0
1579270447.821,53.223,45.898,51.758,115.234,-111.328,0
1579270447.825,58.105,52.246,56.152,127.441,-88.379,0
1579270447.829,73.242,57.129,52.734,142.090,-45.410,0
1579270447.833,75.195,67.383,46.875,135.254,13.672,0
1579270447.837,29.297,76.172,45.898,91.797,25.391,0
1579270447.840,-18.066,69.824,24.902,39.062,20.020,0
1579270447.844,-20.996,88.867,31.250,31.738,50.293,0
1579270447.848,-46.875,105.469,38.086,0.488,40.527,0
1579270447.852,-104.492,86.914,2.441,-70.312,57.129,0
1579270447.856,-123.535,97.656,-9.766,-98.145,101.562,0
1579270447.853,-148.926,117.676,-10.742,-129.883,87.402,0
1579270447.857,-164.551,139.160,-12.695,-156.738,38.574,0
1579270447.861,-180.664,146.484,-19.531,-178.223,-4.883,0
1579270447.865,-218.262,136.230,-42.969,-221.680,30.762,0
1579270447.869,-230.469,145.508,-49.805,-236.328,83.496,0
1579270447.873,-224.609,165.039,-39.062,-227.539,36.621,0
1579270447.877,-228.516,165.527,-42.480,-235.840,26.367,0
1579270447.880,-222.168,175.293,-44.434,-245.117,70.801,0
1579270447.884,-235.352,167.969,-60.059,-260.742,21.484,0
1579270447.888,-236.328,157.715,-74.219,-255.371,5.371,0
1579270447.892,-209.473,176.758,-67.383,-232.910,-3.418,0
1579270447.896,-203.613,180.176,-69.336,-224.609,0.000,0
1579270447.913,-195.312,167.969,-74.219,-208.984,-1.465,0
1579270447.917,-174.316,154.297,-83.984,-196.289,0.977,0
1579270447.921,-157.227,148.438,-91.309,-179.688,8.789,0
1579270447.925,-125.977,133.301,-96.191,-145.508,-44.434,0
1579270447.929,-102.051,118.652,-97.168,-118.652,6.836,0
1579270447.933,-81.055,117.676,-93.262,-91.797,46.875,0
1579270447.937,-70.312,106.934,-97.168,-74.219,16.602,0
1579270447.940,-72.266,96.191,-99.609,-67.871,13.184,0
1579270447.944,-52.734,92.285,-94.727,-43.945,13.672,0
1579270447.948,-37.109,77.148,-87.891,-21.973,14.648,0
1579270447.952,0.488,85.449,-62.012,20.020,1.465,0
1579270447.956,21.484,76.172,-59.082,41.504,23.926,0
1579270447.953,20.020,45.898,-71.777,47.852,-11.230,0
1579270447.957,43.457,41.992,-62.500,72.266,-42.969,0
1579270447.961,59.082,34.668,-53.711,85.938,-16.113,0
1579270447.965,71.289,26.855,-43.457,102.051,23.438,0
1579270447.969,79.102,20.020,-43.457,112.305,8.789,0
1579270447.973,85.449,20.020,-36.621,124.512,12.695,0
1579270447.977,95.215,20.996,-28.809,133.301,45.898,0
1579270447.980,97.168,11.230,-33.203,134.766,59.570,0
1579270447.984,112.305,20.996,-12.695,157.227,42.969,0
1579270447.988,111.816,18.555,-8.301,156.250,27.344,0
1579270447.992,92.773,-10.742,-31.250,135.254,59.082,0
1579270447.996,106.445,-4.883,-19.531,150.879,1.465,0
1579270447.993,114.746,5.371,-8.789,157.227,-34.180,0
1579270447.997,122.559,13.672,4.395,167.969,-5.859,0
1579270448.001,124.023,9.277,7.812,173.340,-39.062,0
1579270448.005,118.652,-2.930,-0.977,162.598,-39.062,0
1579270448.009,122.070,5.859,9.277,166.504,-20.996,0
1579270448.013,114.746,5.859,7.324,162.598,19.531,0
1579270448.017,110.840,1.953,6.348,163.574,15.137,0
1579270448.020,108.398,1.465,13.672,158.691,5.859,0
1579270448.024,89.844,-17.090,-3.418,133.301,41.016,0
1579270448.028,84.473,-23.926,-10.254,131.348,52.734,0
1579270448.032,88.379,-18.555,-3.418,138.184,8.789,0
1579270448.036,95.215,-9.766,6.836,146.973,-6.348,0
1579270448.053,99.121,-7.324,11.230,153.809,10.742,0
1579270448.057,91.309,-17.090,4.883,145.020,-22.949,0
1579270448.061,89.844,-17.090,9.766,142.090,-5.371,0
1579270448.065,87.891,-15.625,8.789,139.160,42.969,0
1579270448.069,91.309,-8.789,16.113,145.020,-12.207,0
1579270448.073,85.938,-2.441,23.438,144.531,28.320,0
1579270448.077,80.566,-8.789,13.184,138.184,118.652,0
1579270448.080,94.727,-8.301,17.090,150.879,58.105,0
1579270448.084,86.426,-3.906,20.020,143.066,47.852,0
1579270448.088,71.777,1.465,12.207,128.906,25.879,0
1579270448.092,92.285,22.461,26.855,147.461,-61.035,0
1579270448.096,79.590,14.648,16.113,135.742,-7.324,0
1579270448.093,59.570,1.953,4.883,118.164,20.020,0
1579270448.097,55.664,7.812,17.090,110.840,43.457,0
1579270448.101,53.711,12.207,21.484,110.352,35.156,0
1579270448.105,58.105,13.184,19.531,112.793,13.184,0
1579270448.109,56.152,9.766,16.113,107.910,51.758,0
1579270448.113,69.824,20.508,27.344,123.535,20.996,0
1579270448.117,69.336,17.578,28.320,117.676,-6.348,0
1579270448.120,54.688,2.930,19.043,99.609,7.812,0
1579270448.124,63.477,13.672,32.715,117.188,-2.930,0
1579270448.128,57.617,13.184,31.250,111.816,-45.898,0
1579270448.132,33.203,-8.789,7.324,87.891,7.812,0
1579270448.136,44.922,-5.859,13.672,103.516,60.059,0
1579270448.153,48.828,-6.348,15.625,111.816,9.766,0
1579270448.157,47.852,-8.301,17.578,112.793,32.715,0
1579270448.161,40.527,-13.672,14.160,104.004,90.332,0
1579270448.165,36.133,-14.160,4.883,100.098,88.379,0
1579270448.169,40.527,-8.301,7.324,104.492,70.801,0
1579270448.173,42.969,-5.859,14.160,107.910,28.809,0
1579270448.177,43.457,-5.859,18.066,109.375,20.508,0
1579270448.180,34.668,-18.066,14.160,98.633,56.641,0
1579270448.184,25.391,-29.297,9.277,94.727,2.441,0
1579270448.188,24.902,-26.855,7.324,92.773,-18.066,0
1579270448.192,24.414,-21.484,12.207,90.332,37.598,0
1579270448.196,29.785,-10.742,22.949,101.074,55.176,0
1579270448.193,28.320,-12.695,16.602,96.191,26.367,0
1579270448.197,20.996,-20.508,6.348,86.426,-21.484,0
1579270448.201,25.879,-15.625,8.789,88.379,39.062,0
1579270448.205,21.973,-20.996,3.906,82.520,94.238,0
1579270448.209,27.832,-15.137,9.277,91.309,26.367,0
1579270448.213,35.156,-5.859,18.555,101.074,-64.941,0
1579270448.217,24.902,-14.160,11.230,92.773,-12.695,0
1579270448.220,23.926,-14.160,8.301,89.844,51.270,0
1579270448.224,26.367,-11.719,8.301,89.355,20.020,0
1579270448.228,26.855,-3.418,16.113,100.586,22.949,0
1579270448.232,44.922,19.531,37.598,120.117,-5.859,0
1579270448.236,32.227,1.953,20.020,94.238,-20.996,0
1579270448.233,17.090,-11.230,3.418,75.195,36.133,0
1579270448.237,31.250,4.395,14.160,87.402,22.461,0
1579270448.241,31.250,0.977,8.789,90.820,70.312,0
1579270448.245,30.273,3.418,12.207,100.098,48.340,0
1579270448.249,20.996,0.488,10.742,95.703,25.879,0
1579270448.253,25.391,1.953,14.160,98.633,66.406,0
1579270448.257,26.367,-3.418,14.160,97.168,35.156,0
1579270448.260,22.949,-8.301,6.348,94.238,20.996,0
1579270448.264,53.223,17.090,26.367,121.582,11.230,0
1579270448.268,45.898,14.160,29.297,117.188,26.855,0
1579270448.272,5.371,-5.859,12.695,86.914,25.879,0
1579270448.276,0.488,-5.859,16.602,82.520,45.410,0
1579270448.293,4.395,-8.301,21.484,82.520,69.336,0
1579270448.297,14.648,-5.371,27.344,90.820,-7.812,0
1579270448.301,7.324,-14.648,23.926,99.121,-16.602,0
1579270448.305,1.953,-17.578,25.879,105.957,-18.066,0
1579270448.309,9.277,-6.836,33.203,90.332,-13.672,0
1579270448.313,8.789,-0.977,34.668,89.844,-58.594,0
1579270448.317,27.344,9.766,42.969,104.004,-59.570,0
1579270448.320,22.949,7.812,32.715,86.914,13.184,0
1579270448.324,-3.418,-8.789,7.324,62.500,23.926,0
1579270448.328,14.648,0.488,13.672,72.754,11.719,0
1579270448.332,20.996,3.906,18.555,88.867,-8.789,0
1579270448.336,24.902,11.230,27.344,104.492,7.324,0
1579270448.333,28.809,12.695,26.367,101.074,39.551,0
1579270448.337,31.250,14.160,27.344,102.051,13.184,0
1579270448.341,37.109,19.043,35.156,116.699,-2.930,0
1579270448.345,30.762,10.254,27.344,110.352,73.242,0
1579270448.349,41.016,21.484,36.133,119.629,81.055,0
1579270448.353,48.828,30.273,45.410,131.348,22.949,0
1579270448.357,40.039,18.555,31.250,118.164,44.922,0
1579270448.360,41.992,18.555,28.809,118.164,117.188,0
1579270448.364,37.109,16.113,26.855,116.699,60.547,0
1579270448.368,35.156,22.461,28.320,117.188,4.395,0
1579270448.372,49.316,37.109,41.504,130.859,19.531,0
1579270448.376,32.227,16.113,18.555,109.863,32.227,0
1579270448.373,27.832,10.742,12.695,107.422,40.527,0
1579270448.377,43.457,20.996,23.926,122.070,-17.578,0
1579270448.381,50.781,27.832,28.809,129.395,-16.113,0
1579270448.385,51.758,33.203,29.297,134.766,20.508,0
1579270448.389,46.875,24.902,17.578,125.000,23.438,0
1579270448.393,56.152,30.273,24.902,127.441,4.395,0
1579270448.397,54.688,27.832,27.832,126.953,-21.973,0
1579270448.400,42.480,18.555,22.461,117.676,-1.953,0
1579270448.404,36.133,19.043,16.602,113.770,11.719,0
1579270448.408,27.832,11.230,6.836,104.980,36.133,0
1579270448.412,31.250,14.648,15.137,111.816,16.602,0
1579270448.416,31.250,19.531,16.602,114.258,-11.719,0
1579270448.433,31.250,18.555,15.137,113.281,19.043,0
1579270448.437,46.387,31.738,31.250,124.512,-3.418,0
1579270448.441,34.668,21.973,17.090,106.445,-6.836,0
1579270448.445,19.531,11.230,5.371,97.656,36.621,0
1579270448.449,35.156,21.973,20.020,108.887,64.941,0
1579270448.453,45.410,27.344,28.320,118.652,25.879,0
1579270448.457,53.711,36.621,41.504,129.883,5.859,0
1579270448.460,44.434,27.344,32.227,115.723,30.273,0
1579270448.464,25.391,10.254,12.695,92.773,-18.066,0
1579270448.468,29.297,19.043,17.578,96.191,5.859,0
1579270448.472,35.156,25.879,21.484,97.656,20.020,0
1579270448.476,46.875,32.227,29.297,105.469,14.648,0
1579270448.473,55.664,39.551,39.062,116.211,-18.555,0
1579270448.477,50.781,34.180,32.715,107.422,-47.363,0
1579270448.481,55.176,28.809,24.902,102.051,9.766,0
1579270448.485,62.500,34.668,24.902,115.723,10.742,0
1579270448.489,70.312,38.574,27.832,133.301,21.484,0
1579270448.493,67.871,37.109,30.273,109.375,75.195,0
1579270448.497,58.105,34.668,29.297,87.891,69.824,0
1579270448.500,51.758,31.250,26.855,89.355,21.973,0
1579270448.504,40.039,22.461,22.461,84.961,9.766,0
1579270448.508,56.152,33.691,39.551,97.656,24.902,0
1579270448.512,62.500,42.969,45.898,96.680,-7.324,0
1579270448.516,27.832,19.531,17.578,69.824,-61.035,0
1579270448.513,16.602,9.766,11.719,65.918,-28.809,0
1579270448.517,14.648,9.277,14.160,68.848,-14.648,0
1579270448.521,17.090,15.137,15.625,79.590,-37.598,0
1579270448.525,26.367,19.043,22.949,87.402,-0.977,0
1579270448.529,19.531,13.184,19.043,75.195,-0.488,0
1579270448.533,18.555,18.066,18.555,77.637,14.648,0
1579270448.537,20.508,17.090,17.578,79.102,77.637,0
1579270448.540,25.879,18.555,17.090,78.613,79.102,0
1579270448.544,43.945,35.645,28.809,83.984,20.020,0
1579270448.548,27.832,21.973,16.113,64.941,3.418,0
1579270448.552,15.137,10.254,6.836,66.406,8.789,0
1579270448.556,27.344,17.090,14.160,78.125,-6.348,0
1579270448.573,33.691,24.902,19.043,80.078,50.293,0
1579270448.577,41.992,32.227,24.414,88.379,10.254,0
1579270448.581,39.551,27.344,18.555,89.844,-21.484,0
1579270448.585,37.109,27.344,20.996,94.238,14.160,0
1579270448.589,37.598,27.344,24.902,94.727,-10.254,0
1579270448.593,41.016,27.832,31.250,101.562,41.016,0
1579270448.597,54.199,41.016,46.387,116.699,61.035,0
1579270448.600,41.016,31.250,34.668,98.145,18.555,0
1579270448.604,27.832,14.160,16.602,87.402,-17.578,0
1579270448.608,41.504,22.461,23.438,104.492,-14.160,0
1579270448.612,46.387,26.855,25.879,106.934,-41.992,0
1579270448.616,34.668,29.785,22.949,95.703,-11.230,0
1579270448.613,18.555,24.414,15.137,75.684,0.977,0
1579270448.617,33.691,25.879,16.113,79.102,-37.598,0
1579270448.621,29.785,22.461,15.625,83.984,-16.602,0
1579270448.625,9.766,12.207,7.324,69.336,28.320,0
1579270448.629,25.879,27.832,18.066,76.660,-14.160,0
1579270448.633,29.785,31.738,21.484,82.031,-16.602,0
1579270448.637,27.832,29.785,17.090,83.496,8.789,0
1579270448.640,28.809,27.832,13.184,83.008,-20.996,0
1579270448.644,23.926,20.996,8.789,80.078,29.785,0
1579270448.648,53.711,42.969,37.109,106.934,33.691,0
1579270448.652,59.082,43.457,36.621,106.445,10.254,0
1579270448.656,42.969,28.320,16.113,89.844,-12.207,0
1579270448.653,45.898,30.762,20.508,100.098,14.648,0
1579270448.657,36.621,29.785,17.090,96.191,97.168,0
1579270448.661,52.246,54.688,34.668,108.887,83.496,0
1579270448.665,53.223,59.082,36.133,109.375,57.617,0
1579270448.669,36.133,40.527,19.531,93.262,18.555,0
1579270448.673,48.340,50.293,31.738,105.469,33.203,0
1579270448.677,44.434,44.434,26.855,97.656,38.086,0
1579270448.680,43.945,45.898,27.344,100.586,37.598,0
1579270448.684,53.711,55.176,36.621,108.398,30.762,0
1579270448.688,35.156,33.203,17.578,87.402,-9.766,0
1579270448.692,33.203,24.414,13.184,85.938,60.059,0
1579270448.696,37.109,30.273,20.996,89.355,25.879,0
1579270448.713,40.527,37.109,25.879,95.703,-1.465,0
1579270448.717,39.551,37.109,22.461,97.168,66.895,0
1579270448.721,34.180,32.715,17.090,91.797,34.180,0
1579270448.725,35.645,32.227,19.043,92.773,35.156,0
1579270448.729,41.016,39.551,24.902,101.074,12.207,0
1579270448.733,49.805,50.781,31.738,114.258,3.418,0
1579270448.737,60.059,60.547,44.434,117.676,49.805,0
1579270448.740,50.293,46.875,31.738,98.145,-7.324,0
1579270448.744,33.203,31.250,13.672,88.867,-50.293,0
1579270448.748,33.203,36.133,17.090,93.750,-16.113,0
1579270448.752,37.109,38.086,20.020,93.750,73.242,0
1579270448.756,48.828,45.410,29.785,104.004,53.223,0
1579270448.753,49.805,47.852,28.320,104.980,32.227,0
1579270448.757,51.270,47.363,25.879,105.957,55.664,0
1579270448.761,61.035,49.316,28.320,111.328,4.883,0
1579270448.765,55.176,45.898,29.297,110.840,-19.043,0
1579270448.769,39.062,36.621,26.855,103.027,53.223,0
1579270448.773,40.039,41.504,26.367,103.516,16.602,0
1579270448.777,41.992,44.434,26.367,100.586,-82.520,0
1579270448.780,35.645,35.645,22.461,88.867,-46.387,0
1579270448.784,26.855,27.344,15.137,84.473,24.902,0
1579270448.788,48.340,47.852,36.621,101.562,20.996,0
1579270448.792,45.410,50.293,41.992,100.098,36.133,0
1579270448.796,21.973,30.273,19.531,84.473,17.090,0
1579270448.793,25.879,34.668,21.484,85.449,34.180,0
1579270448.797,25.391,38.086,24.902,87.891,66.895,0
1579270448.801,38.086,46.387,29.785,101.562,34.180,0
1579270448.805,45.410,44.922,25.879,111.816,5.859,0
1579270448.809,46.875,42.480,31.738,117.676,-24.902,0
1579270448.813,41.016,46.387,48.828,112.305,-29.297,0
1579270448.817,9.766,28.320,39.062,81.543,24.902,0
1579270448.820,9.277,24.902,43.945,86.914,52.246,0
1579270448.824,23.926,30.762,52.734,98.145,29.297,0
1579270448.828,2.930,13.184,32.715,69.336,-54.688,0
1579270448.832,-2.930,11.719,31.250,64.453,-54.688,0
1579270448.836,-3.418,12.695,31.738,65.918,-4.883,0
1579270448.853,9.277,17.578,35.645,78.613,7.812,0
1579270448.857,20.996,20.508,34.180,83.984,45.410,0
1579270448.861,22.461,19.043,28.809,82.520,44.922,0
1579270448.865,26.855,19.531,31.250,89.844,37.598,0
1579270448.869,28.320,17.090,27.832,91.309,43.457,0
1579270448.873,40.039,30.762,40.039,102.539,-9.277,0
1579270448.877,38.574,26.855,40.039,97.168,29.297,0
1579270448.880,28.809,16.113,28.320,87.891,41.016,0
1579270448.884,37.109,25.879,33.691,96.680,-44.922,0
1579270448.888,34.668,21.973,27.832,95.215,36.133,0
1579270448.892,32.715,20.996,28.809,97.168,82.520,0
1579270448.896,40.039,30.762,37.598,101.074,53.711,0
1579270448.893,34.180,22.461,31.250,92.773,77.148,0
1579270448.897,38.574,25.879,32.227,94.727,33.691,0
1579270448.901,38.574,29.785,30.762,92.773,3.418,0
1579270448.905,38.086,28.809,31.250,92.773,-7.812,0
1579270448.909,42.969,33.691,33.691,99.121,-48.340,0
1579270448.913,36.133,29.785,28.809,97.168,51.758,0
1579270448.917,34.180,26.855,28.320,91.797,87.891,0
1579270448.920,35.645,25.391,25.879,87.891,17.090,0
1579270448.924,39.062,24.902,22.461,93.750,29.785,0
1579270448.928,60.547,43.945,39.551,109.863,4.395,0
1579270448.932,54.688,39.062,35.645,97.656,5.371,0
1579270448.936,38.574,25.391,20.508,87.402,-10.254,0
1579270448.933,48.340,31.738,25.879,97.656,-91.309,0
1579270448.937,36.621,21.484,17.090,94.727,-41.016,0
1579270448.941,38.086,28.809,24.902,103.027,8.301,0
1579270448.945,32.715,25.391,24.414,90.332,30.273,0
1579270448.949,27.344,22.461,20.020,80.566,58.594,0
1579270448.953,37.598,32.227,30.273,95.215,-9.766,0
1579270448.957,26.367,20.508,16.602,80.566,8.789,0
1579270448.960,37.109,32.227,22.949,86.426,37.598,0
1579270448.964,39.551,34.668,22.461,89.355,23.926,0
1579270448.968,15.137,12.695,-2.930,65.918,56.641,0
1579270448.972,23.926,19.531,8.301,78.613,34.668,0
1579270448.976,26.367,21.973,10.254,82.520,11.230,0
1579270448.993,30.762,27.344,13.672,81.055,42.969,0
1579270448.997,28.320,22.949,8.789,77.637,35.156,0
1579270449.001,31.250,22.461,9.277,78.613,44.922,0
1579270449.005,35.645,26.367,14.648,81.543,34.668,0
1579270449.009,32.227,24.414,9.277,73.730,41.992,0
1579270449.013,49.316,40.527,25.879,84.473,29.785,0
1579270449.017,45.898,38.086,22.949,79.590,15.625,0
1579270449.020,19.531,14.648,-4.395,54.199,13.672,0
1579270449.024,21.973,20.020,-0.488,65.430,-3.906,0
1579270449.028,29.785,26.367,6.348,74.707,-14.160,0
1579270449.032,40.527,27.832,12.695,76.172,-15.137,0
1579270449.036,43.457,29.785,19.531,83.008,-50.781,0
1579270449.033,27.832,23.926,11.719,75.684,-25.391,0
1579270449.037,27.832,27.344,12.207,75.195,5.371,0
1579270449.041,31.738,24.902,7.812,77.637,1.953,0
1579270449.045,29.785,19.531,2.930,78.125,2.441,0
1579270449.049,28.320,19.531,4.395,76.172,79.102,0
1579270449.053,31.250,19.531,6.348,82.031,93.262,0
1579270449.057,33.203,15.137,5.371,89.355,33.691,0
1579270449.060,28.809,16.113,0.000,83.008,-5.371,0
1579270449.064,16.113,20.020,-5.859,67.871,-32.715,0
1579270449.068,21.973,33.203,4.883,68.848,-15.625,0
1579270449.072,17.090,29.785,1.953,61.523,-12.207,0
1579270449.076,2.930,16.113,-10.742,50.781,27.344,0
1579270449.073,8.789,20.020,-4.883,55.664,69.824,0
1579270449.077,14.160,22.461,-2.441,59.082,55.664,0
1579270449.081,18.555,24.902,1.953,70.312,19.531,0
1579270449.085,16.113,19.043,-2.441,65.918,9.766,0
1579270449.089,18.066,18.066,-3.906,62.012,16.113,0
1579270449.093,25.879,27.832,1.953,73.242,-7.812,0
1579270449.097,26.855,27.832,-3.418,70.801,-6.836,0
1579270449.100,25.879,34.180,1.465,74.707,13.672,0
1579270449.104,23.438,36.133,2.441,72.754,38.574,0
1579270449.108,27.344,32.715,0.000,69.824,68.848,0
1579270449.112,33.203,41.016,9.277,79.102,61.523,0
1579270449.116,32.715,41.992,7.812,83.496,23.926,0
1579270449.133,49.805,58.105,22.461,96.680,-27.832,0
1579270449.137,41.504,51.758,19.531,85.938,31.250,0
1579270449.141,30.762,40.039,11.719,79.590,60.547,0
1579270449.145,42.480,51.270,22.949,91.797,0.977,0
1579270449.149,38.574,46.875,17.578,89.355,41.992,0
1579270449.153,51.758,60.547,32.227,103.027,-4.395,0
1579270449.157,48.828,56.641,29.785,96.680,-36.133,0
1579270449.160,23.926,26.855,0.977,73.730,-7.324,0
1579270449.164,31.738,26.367,2.441,80.078,-32.715,0
1579270449.168,36.621,32.715,7.812,84.961,-66.895,0
1579270449.172,38.086,40.527,14.648,91.309,-0.488,0
1579270449.176,39.062,39.062,19.531,95.215,58.594,0
1579270449.173,28.809,29.297,9.277,84.961,18.555,0
1579270449.177,33.691,34.668,7.812,87.891,-7.324,0
1579270449.181,30.273,33.691,6.348,77.148,-14.648,0
1579270449.185,31.738,34.668,12.207,73.730,-22.461,0
1579270449.189,40.039,34.180,17.090,87.891,-9.766,0
1579270449.193,37.598,31.738,13.672,84.473,-6.348,0
1579270449.197,32.715,31.250,13.672,79.102,-3.418,0
1579270449.200,20.508,20.020,3.906,74.219,39.551,0
1579270449.204,27.832,26.367,7.812,84.473,59.082,0
1579270449.208,50.781,50.293,30.273,99.121,-31.738,0
1579270449.212,28.809,32.227,12.695,74.219,-26.855,0
1579270449.216,18.066,16.602,-1.465,65.430,32.715,0
1579270449.213,29.297,24.414,8.789,83.008,39.551,0
1579270449.217,31.738,29.297,17.090,91.797,44.434,0
1579270449.221,37.109,33.203,22.949,93.750,38.086,0
1579270449.225,29.297,24.902,13.672,84.473,-6.836,0
1579270449.229,27.344,23.438,16.602,83.008,15.625,0
1579270449.233,37.598,35.156,30.273,94.727,58.105,0
1579270449.237,37.109,33.691,24.414,93.262,80.566,0
1579270449.240,42.969,37.598,30.273,93.262,9.766,0
1579270449.244,33.203,31.738,25.879,83.496,-52.734,0
1579270449.248,17.090,16.113,8.789,71.289,14.160,0
1579270449.252,21.484,20.020,14.160,84.961,24.902,0
1579270449.256,23.438,26.855,22.461,91.309,-14.160,0
1579270449.273,36.133,39.551,34.180,97.656,-14.160,0
1579270449.277,23.438,28.809,19.043,85.449,11.719,0
1579270449.281,6.348,15.137,5.371,70.312,10.742,0
1579270449.285,14.648,18.555,13.672,77.148,-14.160,0
1579270449.289,17.090,11.719,11.719,75.684,46.875,0
1579270449.293,37.109,27.832,27.344,90.820,76.172,0
1579270449.297,37.109,32.227,31.250,92.773,-4.395,0
1579270449.300,15.625,8.789,7.812,74.219,-22.949,0
1579270449.304,18.066,6.348,3.418,76.660,62.500,0
1579270449.308,23.926,10.254,9.277,81.543,55.664,0
1579270449.312,36.621,27.344,31.250,96.191,5.859,0
1579270449.316,43.945,32.227,39.551,101.074,-16.113,0
1579270449.313,32.227,19.043,23.438,83.984,-20.020,0
1579270449.317,28.320,23.438,27.344,84.473,-21.484,0
1579270449.321,23.438,22.461,24.902,87.402,14.648,0
1579270449.325,31.738,25.879,34.180,93.262,19.531,0
1579270449.329,34.180,30.762,37.598,95.703,-12.207,0
1579270449.333,34.668,33.203,30.273,92.285,37.109,0
1579270449.337,31.738,28.320,28.320,94.238,40.039,0
1579270449.340,24.414,21.973,20.508,86.426,47.852,0
1579270449.344,44.922,42.480,35.645,98.145,1.465,0
1579270449.348,42.969,42.480,37.109,95.215,-25.879,0
1579270449.352,16.113,20.508,20.020,73.730,-6.348,0
1579270449.356,17.578,19.043,17.090,76.660,27.832,0
1579270449.353,22.949,18.066,12.207,79.102,74.707,0
1579270449.357,32.227,26.855,23.438,94.238,20.996,0
1579270449.361,34.180,34.668,30.273,99.609,-13.672,0
1579270449.365,23.438,20.020,13.184,76.172,-26.855,0
1579270449.369,27.832,23.438,16.602,85.938,7.324,0
1579270449.373,35.645,30.762,23.926,100.098,41.016,0
1579270449.377,36.621,26.855,18.555,87.891,74.219,0
1579270449.380,46.875,39.551,30.762,91.309,74.219,0
1579270449.384,34.668,25.879,17.090,83.496,18.555,0
1579270449.388,18.066,10.254,-2.441,72.266,40.039,0
1579270449.392,28.809,20.508,3.906,79.590,73.730,0
1579270449.396,31.250,24.414,7.812,87.891,61.035,0
1579270449.413,26.855,20.996,8.789,90.332,49.805,0
1579270449.417,20.508,17.090,2.441,79.102,56.641,0
1579270449.421,22.949,21.484,5.371,76.660,14.648,0
1579270449.425,30.273,23.438,11.719,76.660,-67.871,0
1579270449.429,23.438,20.020,7.324,81.543,-19.531,0
1579270449.433,25.879,23.438,11.230,81.543,23.438,0
1579270449.437,26.855,22.949,9.766,69.336,-14.648,0
1579270449.440,18.555,18.555,-1.465,64.453,-15.625,0
1579270449.444,22.949,23.926,-2.930,67.871,-5.371,0
1579270449.448,23.438,21.973,3.906,72.754,-6.348,0
1579270449.452,45.898,41.016,25.879,91.797,-1.465,0
1579270449.456,42.969,41.016,26.367,85.938,-12.695,0
1579270449.453,13.184,18.066,0.488,68.848,15.137,0
1579270449.457,25.879,24.902,-0.488,78.613,38.086,0
1579270449.461,41.992,31.250,4.395,86.914,-7.812,0
1579270449.465,45.898,28.809,0.977,95.215,38.086,0
1579270449.469,43.457,23.926,9.766,99.121,32.715,0
1579270449.473,34.180,23.926,25.879,93.262,-66.895,0
1579270449.477,10.254,16.113,25.879,78.613,-32.715,0
1579270449.480,-7.324,2.441,20.020,63.965,57.129,0
1579270449.484,20.508,23.438,42.480,91.797,47.852,0
1579270449.488,28.320,27.344,47.852,97.168,35.156,0
1579270449.492,0.000,1.953,22.461,68.359,52.734,0
1579270449.496,-8.789,11.230,22.949,62.988,-4.883,0
1579270449.513,-12.207,15.625,24.414,56.152,-20.996,0
1579270449.517,0.977,21.973,28.809,68.848,-27.832,0
1579270449.521,7.324,20.508,21.973,72.754,34.180,0
1579270449.525,2.441,8.301,13.184,62.988,41.992,0
1579270449.529,13.184,11.230,21.484,68.848,11.719,0
1579270449.533,17.578,12.695,20.996,73.242,34.180,0
1579270449.537,21.484,16.113,18.066,75.195,41.016,0
1579270449.540,31.250,28.320,23.438,73.730,32.227,0
1579270449.544,18.066,12.695,2.441,53.711,12.207,0
1579270449.548,18.066,8.301,1.953,56.641,-21.973,0
1579270449.552,26.367,15.625,11.230,62.988,-61.035,0
1579270449.556,30.273,20.020,9.766,65.430,-24.414,0
1579270449.553,41.016,28.320,17.090,72.754,-26.367,0
1579270449.557,29.785,21.484,11.230,62.012,-9.277,0
1579270449.561,30.273,25.391,16.602,65.918,-13.672,0
1579270449.565,37.109,32.227,24.414,75.684,-59.082,0
1579270449.569,30.273,32.227,28.809,77.148,-32.227,0
1579270449.573,33.203,35.156,35.156,81.543,-31.738,0
1579270449.577,28.809,26.855,22.461,71.777,-22.461,0
1579270449.580,29.297,26.367,20.996,69.336,-31.250,0
1579270449.584,31.738,27.832,21.973,68.359,-5.859,0
1579270449.588,31.250,27.344,20.020,70.801,18.555,0
1579270449.592,41.016,39.551,36.133,86.426,-12.695,0
1579270449.596,39.062,29.785,29.297,76.172,40.527,0
1579270449.593,37.598,20.996,23.438,72.266,66.406,0
1579270449.597,38.086,21.973,27.832,76.172,19.531,0
1579270449.601,33.691,17.578,24.902,72.266,20.996,0
1579270449.605,45.410,27.832,38.574,87.402,31.250,0
1579270449.609,42.480,24.414,34.180,82.031,-26.855,0
1579270449.613,34.180,15.137,23.926,67.383,-20.508,0
1579270449.617,37.109,19.043,31.738,73.242,42.480,0
1579270449.620,26.855,7.812,17.090,64.941,49.316,3
1579270449.624,44.434,20.996,29.785,78.613,44.434,0
1579270449.628,48.828,28.320,35.645,80.078,29.297,0
1579270449.632,32.715,11.719,19.043,65.430,35.645,0
1579270449.636,32.715,8.789,21.484,64.453,34.180,0
1579270449.653,20.508,1.953,13.184,54.199,17.578,0
1579270449.657,28.809,7.812,18.066,62.988,54.199,0
1579270449.661,39.551,12.695,25.879,69.824,39.551,0
1579270449.665,38.574,15.625,23.926,70.801,-13.184,0
1579270449.669,39.062,18.555,22.461,64.941,12.207,0
1579270449.673,42.480,20.508,28.809,62.012,43.457,0
1579270449.677,52.734,30.273,40.039,68.359,2.930,0
1579270449.680,57.129,35.156,39.062,63.477,21.484,0
1579270449.684,34.668,12.207,19.531,39.062,38.574,0
1579270449.688,30.273,0.488,19.531,45.898,33.691,0
1579270449.692,49.316,7.324,27.344,65.430,7.324,0
1579270449.696,57.129,25.391,29.785,66.895,10.742,0
1579270449.693,47.363,33.691,26.367,51.270,21.973,0
1579270449.697,30.762,29.785,13.672,29.297,41.504,0
1579270449.701,23.438,33.203,9.277,20.508,43.457,0
1579270449.705,25.879,33.691,8.301,20.996,12.207,0
1579270449.709,27.344,39.062,15.625,23.926,-26.367,0
1579270449.713,25.879,45.898,20.996,18.066,-10.742,0
1579270449.717,23.438,42.480,15.137,14.160,0.488,0
1579270449.720,21.484,41.016,12.695,16.602,48.828,0
1579270449.724,22.949,42.969,17.578,17.578,65.918,0
1579270449.728,32.715,44.434,24.414,30.273,-1.953,0
1579270449.732,57.617,61.523,41.016,52.246,8.789,0
1579270449.736,53.223,53.223,32.715,40.039,28.320,0
1579270449.733,35.645,32.715,16.602,27.832,1.953,0
1579270449.737,41.016,32.227,22.949,29.785,-14.160,0
1579270449.741,47.363,34.668,26.367,27.344,-12.207,0
1579270449.745,50.781,40.039,30.273,29.297,14.160,0
1579270449.749,46.875,38.574,30.762,26.367,61.035,0
1579270449.753,47.852,40.039,36.621,28.320,51.758,0
1579270449.757,45.898,38.574,35.645,27.832,16.113,0
1579270449.760,35.156,27.344,21.484,17.090,40.039,0
1579270449.764,52.734,39.551,40.039,24.902,89.844,0
1579270449.768,55.176,36.133,49.316,26.367,77.637,0
1579270449.772,32.227,15.137,26.855,10.742,18.066,0
1579270449.776,40.527,24.902,28.809,17.090,7.324,0
1579270449.793,46.875,27.832,30.762,23.438,11.230,0
1579270449.797,44.922,26.855,31.250,26.855,65.430,0
1579270449.801,44.922,26.367,33.691,28.320,31.738,0
1579270449.805,43.945,24.902,34.180,22.949,-43.945,0
1579270449.809,50.293,26.855,36.133,24.414,-37.109,0
1579270449.813,50.293,27.832,34.180,24.414,-20.020,0
1579270449.817,50.293,36.621,37.598,22.949,18.066,0
1579270449.820,44.922,31.738,30.273,12.207,-2.930,0
1579270449.824,25.391,8.789,8.789,-3.418,-3.906,0
1579270449.828,27.832,12.207,16.113,4.395,16.602,0
1579270449.832,28.809,13.672,16.113,10.254,33.691,0
1579270449.836,36.621,18.066,16.113,21.484,89.844,0
1579270449.833,33.691,20.996,21.484,18.066,63.477,0
1579270449.837,25.391,17.090,21.484,13.184,13.672,0
1579270449.841,31.250,18.066,25.391,19.043,68.359,0
1579270449.845,31.738,20.996,28.320,20.996,55.664,0
1579270449.849,38.086,29.785,35.156,26.367,14.648,0
1579270449.853,41.504,32.227,38.086,28.809,10.254,0
1579270449.857,31.250,21.973,26.855,16.602,42.969,0
1579270449.860,20.996,11.719,18.066,7.812,19.043,0
1579270449.864,12.207,2.441,15.137,-0.488,-20.508,0
1579270449.868,23.438,13.672,20.996,7.324,20.020,0
1579270449.872,37.598,33.691,34.668,17.578,32.227,0
1579270449.876,17.090,16.602,20.508,-3.418,-7.812,0
1579270449.873,7.324,6.836,10.742,-7.812,-51.270,0
1579270449.877,16.602,18.066,16.602,3.418,-18.066,0
1579270449.881,24.902,27.832,25.391,16.113,22.461,0
1579270449.885,21.484,23.926,22.949,16.602,23.926,0
1579270449.889,14.160,16.602,13.184,8.789,17.578,0
1579270449.893,29.297,25.879,26.855,22.461,-26.855,0
1579270449.897,27.832,20.996,24.902,21.484,2.441,0
1579270449.900,20.020,15.625,20.996,17.578,19.043,0
1579270449.904,39.551,34.180,41.504,39.062,7.812,0
1579270449.908,31.250,28.809,32.227,32.227,45.410,0
1579270449.912,12.207,14.648,14.160,17.090,48.828,0
1579270449.916,20.020,20.020,19.531,29.785,73.730,0
1579270449.933,31.738,26.855,24.414,46.387,26.855,0
1579270449.937,32.227,26.855,25.391,47.852,-8.301,0
1579270449.941,19.043,16.113,18.066,38.574,-6.836,0
1579270449.945,17.090,12.207,12.695,40.039,46.875,0
1579270449.949,29.297,20.020,17.090,56.152,67.871,0
1579270449.953,39.062,32.227,23.926,67.383,33.691,0
1579270449.957,41.016,39.062,33.203,71.777,22.461,0
1579270449.960,31.738,31.250,24.902,63.965,-34.668,0
1579270449.964,23.926,19.531,12.695,52.734,-41.992,0
1579270449.968,26.855,18.066,17.090,58.105,4.883,0
1579270449.972,28.809,17.578,15.137,66.406,8.789,0
1579270449.976,40.527,34.668,33.203,77.637,57.617,0
1579270449.973,37.598,34.180,35.156,76.172,58.594,0
1579270449.977,26.855,17.090,17.578,73.242,-30.273,0
1579270449.981,30.762,20.996,19.531,77.637,-0.977,0
1579270449.985,37.109,27.832,20.996,81.055,9.766,0
1579270449.989,47.363,38.086,36.133,98.633,-45.898,0
1579270449.993,37.598,34.180,38.086,97.168,-7.812,0
1579270449.997,28.320,25.879,24.414,91.797,28.809,0
1579270450.000,32.227,21.484,19.043,92.285,-6.348,0
1579270450.004,26.367,17.090,14.160,84.473,51.758,0
1579270450.008,41.992,34.180,30.762,102.539,40.039,0
1579270450.012,51.270,40.527,37.598,106.934,13.672,0
1579270450.016,21.484,12.207,6.836,79.590,64.941,0
1579270450.013,14.648,9.766,2.441,81.055,64.453,0
1579270450.017,18.066,14.160,6.348,84.961,125.488,0
1579270450.021,28.809,20.020,14.160,94.238,35.156,0
1579270450.025,32.715,22.949,17.578,92.773,-14.160,0
1579270450.029,28.320,20.996,9.766,87.402,41.504,0
1579270450.033,33.691,30.762,16.602,100.586,2.930,0
1579270450.037,30.273,32.227,19.043,99.121,0.977,0
1579270450.040,27.832,30.273,18.555,93.750,-41.992,0
1579270450.044,20.020,26.367,14.160,83.496,-19.531,0
1579270450.048,11.230,21.484,9.277,77.148,2.441,0
1579270450.052,16.113,25.391,9.277,86.426,-7.812,0
1579270450.056,17.090,23.926,6.348,86.914,0.488,0
1579270450.073,20.508,26.855,7.324,87.402,29.785,0
1579270450.077,33.691,37.598,17.090,101.562,20.508,0
1579270450.081,25.879,28.809,6.348,93.262,-0.977,0
1579270450.085,20.996,26.855,3.418,87.891,-7.812,0
1579270450.089,26.367,35.156,11.719,93.262,-40.039,0
1579270450.093,34.180,36.621,9.277,92.285,-1.465,0
1579270450.097,42.969,45.898,20.020,98.145,8.789,0
1579270450.100,31.250,39.062,15.625,90.820,1.953,0
1579270450.104,11.230,20.508,-7.812,73.242,56.152,0
1579270450.108,20.020,28.809,0.977,84.473,38.574,0
1579270450.112,23.438,31.250,8.789,93.262,0.488,0
1579270450.116,23.926,25.879,7.812,96.191,-14.160,0
1579270450.113,28.809,22.949,3.906,93.750,-12.207,0
1579270450.117,21.484,24.902,-2.930,82.031,42.969,0
1579270450.121,15.625,25.391,5.859,81.543,47.363,0
1579270450.125,12.695,24.414,9.277,81.543,17.090,0
1579270450.129,20.020,33.203,14.648,89.355,-46.387,0
1579270450.133,18.066,33.203,16.113,90.332,-80.566,0
1579270450.137,11.230,27.344,6.836,81.543,-4.395,0
1579270450.140,13.672,22.461,4.395,80.078,47.363,0
1579270450.144,9.277,15.137,-0.977,78.125,47.363,0
1579270450.148,22.461,32.227,13.672,90.820,43.945,0
1579270450.152,32.227,35.645,19.531,93.750,29.785,0
1579270450.156,9.277,10.742,-4.883,74.707,14.648,0
1579270450.153,15.137,16.602,-0.488,82.031,23.438,0
1579270450.157,23.438,21.484,3.906,84.473,-19.531,0
1579270450.161,29.297,26.855,8.301,88.379,-14.160,0
1579270450.165,31.738,26.367,9.277,95.215,24.414,0
1579270450.169,20.020,15.137,-2.930,86.914,74.219,0
1579270450.173,30.762,24.902,5.859,95.215,43.457,0
1579270450.177,27.832,21.484,2.930,91.797,-39.062,0
1579270450.180,26.367,21.973,0.977,88.867,5.371,0
1579270450.184,30.762,31.250,10.254,94.727,43.945,0
1579270450.188,17.578,15.625,-3.418,82.520,17.578,0
1579270450.192,18.555,13.672,-7.324,80.078,12.207,0
1579270450.196,20.996,19.531,-0.488,80.566,21.973,0
1579270450.213,20.508,17.578,2.441,84.961,5.371,0
1579270450.217,23.438,15.137,1.953,89.844,21.973,0
1579270450.221,17.578,8.301,-2.441,79.590,3.418,0
1579270450.225,21.973,14.160,5.371,83.008,8.301,0
1579270450.229,23.926,17.578,5.371,87.891,10.254,0
1579270450.233,18.555,14.648,1.465,87.402,19.043,0
1579270450.237,30.273,26.367,18.555,97.168,44.434,0
1579270450.240,20.508,17.578,12.695,82.031,26.367,0
1579270450.244,11.719,8.301,-1.465,73.242,37.109,0
1579270450.248,24.902,19.531,5.371,88.867,40.527,0
1579270450.252,25.879,22.461,6.836,88.379,42.480,0
1579270450.256,25.879,25.879,7.812,86.914,62.988,0
1579270450.253,20.020,22.461,4.395,83.008,82.031,0
1579270450.257,20.020,21.973,4.883,84.473,10.254,0
1579270450.261,18.555,21.973,4.883,85.938,-44.922,0
1579270450.265,16.602,20.020,2.441,82.520,18.555,0
1579270450.269,27.344,23.926,8.301,87.891,20.996,0
1579270450.273,28.320,21.484,4.395,84.473,22.949,0
1579270450.277,21.973,18.555,0.977,80.078,28.320,0
1579270450.280,22.461,20.508,4.395,80.078,46.875,0
1579270450.284,19.043,18.555,-3.418,70.801,33.203,0
1579270450.288,27.832,32.715,7.324,82.520,14.160,0
1579270450.292,27.344,31.250,6.348,80.566,-10.742,0
1579270450.296,18.066,16.602,-8.789,67.383,-23.438,0
1579270450.293,21.973,20.508,-4.395,72.754,10.742,0
1579270450.297,24.902,19.531,-1.465,78.613,18.555,0
1579270450.301,45.410,36.621,16.113,100.098,-16.602,0
1579270450.305,38.574,34.668,12.695,93.750,-15.625,0
1579270450.309,18.555,16.113,-5.371,79.590,44.434,0
1579270450.313,29.297,24.414,6.348,91.797,42.969,0
1579270450.317,25.391,18.555,1.953,87.891,-2.441,0
1579270450.320,29.785,23.438,5.859,90.332,34.180,0
1579270450.324,38.574,34.180,19.531,91.309,90.820,0
1579270450.328,23.438,19.043,5.859,75.195,58.594,0
1579270450.332,23.926,20.996,3.906,83.008,-15.137,0
1579270450.336,26.367,25.391,7.812,86.426,-2.930,0
1579270450.353,31.250,33.691,14.648,91.797,60.059,0
1579270450.357,33.691,37.109,20.020,95.703,64.453,0
1579270450.361,25.391,27.344,11.230,85.449,55.176,0
1579270450.365,27.832,30.762,11.230,85.449,67.871,0
1579270450.369,36.133,38.086,20.020,94.238,-4.883,0
1579270450.373,41.504,41.504,27.344,100.098,-43.457,0
1579270450.377,41.016,43.945,31.738,97.656,2.930,0
1579270450.380,25.879,28.320,13.672,80.078,-32.227,0
1579270450.384,22.949,17.090,3.418,77.148,-41.016,0
1579270450.388,29.785,21.973,9.277,85.938,38.086,0
1579270450.392,40.527,33.691,18.555,94.727,8.301,0
1579270450.396,47.363,40.039,25.391,100.098,-12.695,0
1579270450.393,38.574,35.645,20.020,96.191,-14.160,0
1579270450.397,30.273,33.203,14.648,88.867,-10.742,0
1579270450.401,25.879,32.715,10.742,83.496,36.133,0
1579270450.405,34.180,38.086,17.578,86.426,19.043,0
1579270450.409,32.227,37.598,20.020,85.449,22.461,0
1579270450.413,22.949,34.668,15.137,84.473,9.766,0
1579270450.417,21.973,34.180,12.695,83.984,-12.207,0
1579270450.420,19.043,28.809,11.719,76.660,20.508,0
1579270450.424,19.531,23.438,13.184,78.125,57.129,0
1579270450.428,45.898,45.898,36.621,100.098,56.641,0
1579270450.432,47.852,46.387,36.133,95.703,30.273,0
1579270450.436,22.461,23.926,10.254,72.266,54.199,0
1579270450.433,28.809,31.250,15.137,80.078,61.523,0
1579270450.437,37.109,35.645,20.996,86.914,-23.926,0
1579270450.441,41.992,39.062,23.926,87.402,-46.387,0
1579270450.445,40.039,35.156,17.578,82.031,34.668,0
1579270450.449,38.086,31.738,12.207,79.590,6.348,0
1579270450.453,46.875,39.062,19.531,86.914,4.883,0
1579270450.457,45.898,37.598,16.113,84.961,20.508,0
1579270450.460,53.711,48.828,26.855,91.797,-20.020,0
1579270450.464,55.664,55.664,32.227,91.797,10.254,0
1579270450.468,35.645,41.504,16.602,76.172,2.441,0
1579270450.472,31.738,41.504,19.043,76.172,-32.227,0
1579270450.476,30.762,38.574,20.996,75.684,11.230,0
1579270450.493,38.086,46.387,28.809,84.473,57.129,0
1579270450.497,28.320,42.969,24.902,80.566,50.781,0
1579270450.501,22.949,36.621,19.531,75.684,57.617,0
1579270450.505,31.738,41.992,24.902,81.543,32.227,0
1579270450.509,22.949,35.645,14.160,74.707,48.828,0
1579270450.513,36.621,45.410,21.973,93.262,16.113,0
1579270450.517,44.434,49.316,32.715,99.121,-63.965,0
1579270450.520,25.879,32.227,17.578,75.195,-48.340,0
1579270450.524,33.691,37.109,19.531,82.031,-6.348,0
1579270450.528,33.203,37.598,17.090,83.008,-32.227,0
1579270450.532,35.645,39.062,18.555,85.938,-10.742,0
1579270450.536,40.527,41.016,20.996,88.379,12.207,0
1579270450.533,27.832,29.297,6.836,76.172,-40.527,0
1579270450.537,31.738,30.762,14.160,81.055,-37.598,0
1579270450.541,35.156,35.645,23.438,86.426,11.230,0
1579270450.545,37.598,39.551,26.855,88.379,31.250,0
1579270450.549,40.039,41.504,31.250,89.844,-2.930,0
1579270450.553,33.691,38.086,32.227,83.984,-32.715,0
1579270450.557,32.715,38.574,31.738,84.473,14.160,0
1579270450.560,33.691,36.621,26.855,82.520,57.129,0
1579270450.564,36.133,37.598,27.832,81.055,32.227,0
1579270450.568,38.574,39.551,32.715,80.078,33.691,0
1579270450.572,27.344,29.297,22.461,71.777,40.527,0
1579270450.576,30.273,29.785,20.996,77.148,-39.551,0
1579270450.573,34.668,31.250,22.461,78.613,-65.918,0
1579270450.577,32.227,27.832,20.020,79.590,20.996,0
1579270450.581,46.875,40.039,34.668,94.727,5.371,0
1579270450.585,41.016,30.273,26.367,87.402,-31.250,0
1579270450.589,30.273,18.555,15.625,74.219,-6.348,0
1579270450.593,41.504,31.738,29.785,81.543,47.852,0
1579270450.597,34.180,25.879,21.973,76.660,92.285,0
1579270450.600,45.898,38.086,31.738,84.961,37.598,0
1579270450.604,46.387,40.527,34.668,82.520,-24.902,0
1579270450.608,20.020,17.578,14.160,63.965,26.855,0
1579270450.612,20.996,19.531,20.508,72.266,36.621,0
1579270450.616,25.879,27.344,23.926,80.078,-4.883,0
1579270450.633,28.320,34.668,27.344,81.543,-2.441,0
1579270450.637,25.391,33.691,23.926,76.172,5.371,0
1579270450.641,24.902,32.227,19.043,70.312,10.254,0
1579270450.645,21.973,30.273,20.020,67.383,-9.766,0
1579270450.649,24.414,29.785,19.531,72.266,-8.301,0
1579270450.653,43.457,43.457,32.715,85.938,-13.672,0
1579270450.657,36.621,35.645,28.320,77.637,-25.879,0
1579270450.660,20.020,20.020,11.719,65.430,-34.668,0
1579270450.664,25.879,25.391,18.066,70.312,0.488,0
1579270450.668,27.344,24.414,21.484,69.336,4.883,0
1579270450.672,38.086,32.227,29.785,78.125,28.809,0
1579270450.676,40.039,35.156,29.785,79.590,70.801,0
1579270450.673,26.855,21.484,14.160,68.359,44.922,0
1579270450.677,25.391,20.508,15.625,66.895,36.133,0
1579270450.681,30.762,27.344,23.438,70.312,57.129,0
1579270450.685,39.062,33.203,30.762,74.219,-24.902,0
1579270450.689,31.738,21.973,22.949,66.406,-24.902,0
1579270450.693,27.832,17.090,15.625,63.477,36.621,0
1579270450.697,31.250,19.531,17.090,66.895,77.148,0
1579270450.700,28.809,16.602,14.648,65.430,101.074,0
1579270450.704,29.297,17.578,16.113,64.941,51.758,0
1579270450.708,39.062,31.250,28.809,76.660,26.367,0
1579270450.712,23.926,20.020,14.648,61.523,62.500,0
1579270450.716,17.090,14.160,8.789,56.152,61.523,0
1579270450.713,27.832,24.414,20.508,64.941,16.113,0
1579270450.717,33.203,27.344,20.020,68.359,43.457,0
1579270450.721,40.527,33.691,25.879,76.172,27.832,0
1579270450.725,36.133,28.320,18.555,68.848,-24.902,0
1579270450.729,35.156,25.879,13.184,67.383,16.113,0
1579270450.733,38.574,30.762,22.461,73.730,14.648,0
1579270450.737,35.156,26.367,21.484,74.707,1.465,0
1579270450.740,44.922,32.715,29.785,79.590,50.781,0
1579270450.744,38.086,27.832,26.855,66.406,58.594,0
1579270450.748,19.043,12.695,8.789,54.688,-4.883,0
1579270450.752,22.461,14.648,10.254,64.941,14.160,0
1579270450.756,26.367,15.625,12.207,67.871,48.828,0
1579270450.773,29.297,25.391,20.020,70.801,-29.785,0
1579270450.777,25.391,22.949,16.113,67.871,-44.434,0
1579270450.781,22.461,15.137,10.742,65.430,16.113,0
1579270450.785,20.996,12.695,12.207,61.523,21.484,0
1579270450.789,21.973,14.648,8.301,57.617,-37.109,0
1579270450.793,36.133,30.273,20.020,74.219,-44.434,0
1579270450.797,27.344,23.926,16.113,70.312,12.207,0
1579270450.800,15.625,9.766,1.465,51.758,-16.602,0
1579270450.804,24.902,19.531,10.254,58.594,-33.203,0
1579270450.808,16.113,15.625,7.812,52.734,-16.602,0
1579270450.812,14.648,14.160,6.348,49.805,-0.977,1
1579270450.816,15.137,14.160,5.371,49.316,-7.812,0
1579270450.813,14.160,10.742,6.348,41.504,-10.742,0
1579270450.817,14.160,12.207,8.301,42.969,-9.277,0
1579270450.821,7.812,10.742,1.953,46.387,59.082,0
1579270450.825,15.137,18.555,9.766,54.199,90.332,0
1579270450.829,22.949,22.461,15.137,55.176,39.062,0
1579270450.833,24.902,23.926,11.230,54.199,-5.859,0
1579270450.837,20.508,22.949,5.371,52.246,8.789,0
1579270450.840,14.648,13.184,-3.418,44.434,3.906,0
1579270450.844,22.461,22.461,6.348,52.734,20.020,0
1579270450.848,33.203,37.109,20.996,61.523,30.273,0
1579270450.852,17.578,21.973,2.441,44.922,18.555,0
1579270450.856,16.602,20.020,-3.906,46.875,12.207,0
1579270450.853,20.020,20.996,0.000,48.828,19.531,0
1579270450.857,24.414,23.926,3.906,45.410,57.129,0
1579270450.861,28.809,30.273,6.348,46.875,84.473,0
1579270450.865,20.020,21.973,0.488,38.574,69.824,0
1579270450.869,24.902,23.438,5.859,42.969,24.414,0
1579270450.873,31.738,34.180,12.695,52.734,-9.277,0
1579270450.877,34.180,37.598,16.113,55.664,-52.246,0
1579270450.880,31.738,29.297,14.648,53.711,10.742,0
1579270450.884,21.973,19.043,5.371,42.969,62.500,0
1579270450.888,23.926,23.438,8.789,46.387,8.301,0
1579270450.892,20.996,21.973,9.766,41.016,11.230,0
1579270450.896,20.020,20.020,9.766,35.645,64.941,0
1579270450.913,28.809,30.762,20.996,44.434,46.387,0
1579270450.917,21.973,23.926,15.137,36.133,33.691,0
1579270450.921,19.043,20.996,12.695,35.645,27.832,0
1579270450.925,17.578,20.508,14.648,37.598,11.719,0
1579270450.929,20.020,19.531,11.230,41.016,2.441,0
1579270450.933,43.945,39.062,31.738,58.105,-13.184,0
1579270450.937,36.621,28.809,25.391,41.504,43.945,0
1579270450.940,20.508,12.695,6.836,30.762,60.059,0
1579270450.944,27.832,25.391,9.277,40.039,55.176,0
1579270450.948,26.367,21.973,8.301,35.156,72.266,0
1579270450.952,39.551,33.691,28.320,51.270,16.602,0
1579270450.956,40.527,37.598,28.809,54.688,-5.371,0
1579270450.953,31.250,26.855,19.043,44.922,-19.531,0
1579270450.957,30.273,25.391,17.578,46.387,30.273,0
1579270450.961,30.762,28.320,21.484,52.734,28.809,0
1579270450.965,32.715,29.785,28.320,57.617,30.273,0
1579270450.969,39.062,32.715,32.227,61.523,47.852,0
1579270450.973,46.875,37.598,36.621,67.871,15.137,0
1579270450.977,47.363,39.551,36.621,67.871,-19.531,0
1579270450.980,38.086,34.180,26.367,56.152,-31.738,0
1579270450.984,49.805,40.527,36.133,64.453,-12.207,0
1579270450.988,56.152,47.363,45.410,69.336,-34.180,0
1579270450.992,36.621,31.738,24.414,49.805,-35.156,0
1579270450.996,32.227,29.785,19.531,49.316,20.996,0
1579270450.993,30.273,28.809,20.020,45.898,17.578,0
1579270450.997,32.715,35.645,22.461,46.387,28.320,0
1579270451.001,30.762,36.621,20.996,41.992,33.203,0
1579270451.005,24.902,26.855,16.113,35.156,33.691,0
1579270451.009,32.227,36.621,25.879,44.434,71.289,0
1579270451.013,34.668,44.434,28.320,50.781,74.707,0
1579270451.017,38.086,45.410,30.273,56.641,29.297,0
1579270451.020,39.062,47.363,39.062,55.664,6.836,0
1579270451.024,16.602,24.902,18.555,27.832,72.754,0
1579270451.028,16.113,20.508,12.207,26.367,12.207,0
1579270451.032,21.484,27.344,16.113,36.621,-53.223,0
1579270451.036,20.020,25.391,11.719,32.715,35.156,0
1579270451.053,28.320,34.668,21.973,38.086,13.672,0
1579270451.057,25.391,33.203,16.113,35.156,-14.648,0
1579270451.061,26.855,32.715,14.648,35.156,33.203,0
1579270451.065,24.902,30.762,16.602,39.062,12.695,0
1579270451.069,26.855,34.180,19.043,42.480,-11.230,0
1579270451.073,32.715,41.992,26.855,48.340,47.363,0
1579270451.077,25.391,34.180,16.602,44.434,88.379,0
1579270451.080,20.996,28.809,10.742,43.457,57.617,0
1579270451.084,26.367,30.762,16.113,45.898,-1.465,0
1579270451.088,22.949,26.367,8.301,38.574,52.246,0
1579270451.092,34.668,37.598,19.531,50.781,45.898,0
1579270451.096,27.832,27.832,15.625,43.945,33.203,0
1579270451.093,14.648,17.090,6.348,31.250,38.086,0
1579270451.097,23.926,27.344,19.531,43.945,-7.324,0
1579270451.101,30.273,29.785,22.461,51.270,15.137,0
1579270451.105,29.785,30.762,20.996,52.734,37.109,0
1579270451.109,27.832,28.809,20.996,52.734,16.113,0
1579270451.113,34.668,35.645,28.809,57.617,-6.348,0
1579270451.117,35.645,39.062,26.367,60.547,-39.062,0
1579270451.120,26.367,27.832,11.719,53.711,-51.758,0
1579270451.124,37.109,37.109,23.926,66.895,23.926,0
1579270451.128,37.598,39.551,27.832,66.895,47.852,0
1579270451.132,22.949,26.855,14.648,51.758,-12.695,0
1579270451.136,22.949,26.855,15.625,52.734,-32.715,0
1579270451.154,17.090,20.996,8.789,49.805,-18.555,0
1579270451.158,28.320,32.227,19.531,62.500,-23.438,0
1579270451.162,28.320,33.691,24.902,63.477,-3.906,0
1579270451.166,18.066,23.438,15.137,51.758,-2.441,0
1579270451.170,26.367,31.738,23.438,61.035,-12.207,0
1579270451.174,32.715,39.062,31.250,66.895,-18.066,0
1579270451.178,35.645,41.992,31.250,65.430,15.137,0
1579270451.181,36.133,44.922,35.645,65.918,52.246,0
1579270451.185,20.508,27.344,17.578,47.852,23.438,0
1579270451.189,20.508,22.949,10.254,47.852,-15.137,0
1579270451.193,24.414,28.809,16.113,52.246,-9.277,0
1579270451.197,21.973,30.762,18.555,58.105,6.348,0
1579270451.197,23.438,33.203,20.508,65.430,-33.691,0
1579270451.201,20.508,29.297,11.719,62.500,-63.965,0
1579270451.205,26.367,32.715,15.625,69.336,-23.926,0
1579270451.209,24.414,32.227,16.602,66.406,24.414,0
1579270451.213,30.762,37.598,23.438,74.707,0.488,0
1579270451.217,32.715,35.645,24.414,77.148,31.738,0
1579270451.221,26.855,30.762,20.996,69.824,25.879,0
1579270451.224,22.461,30.762,19.043,63.965,-8.301,0
1579270451.228,15.137,25.391,11.230,56.152,59.570,0
1579270451.232,23.926,32.227,19.531,66.406,15.137,0
1579270451.236,33.691,41.504,29.297,74.707,-14.160,0
1579270451.240,27.832,34.180,21.484,66.406,17.578,0
1579270451.233,29.785,36.133,19.531,73.730,-13.184,0
1579270451.237,28.809,32.227,18.555,74.219,38.574,0
1579270451.241,30.273,30.273,22.949,72.754,69.824,0
1579270451.245,47.363,46.387,39.551,85.449,-24.414,0
1579270451.249,40.527,41.016,34.180,80.078,10.254,0
1579270451.253,37.598,38.574,28.809,80.078,49.316,0
1579270451.257,35.645,38.086,26.855,80.566,28.809,0
1579270451.260,28.320,36.133,25.879,77.637,68.848,0
1579270451.264,44.434,48.828,37.109,88.867,71.777,0
1579270451.268,35.645,41.992,25.391,79.590,-11.719,0
1579270451.272,21.484,30.762,11.230,67.871,19.043,0
1579270451.276,32.715,37.109,20.508,76.172,40.039,0
1579270451.293,31.250,36.621,20.020,74.219,21.484,0
1579270451.297,41.504,47.363,29.785,83.984,22.949,0
1579270451.301,40.039,45.410,28.320,85.449,-0.488,0
1579270451.305,18.066,25.879,9.766,71.777,-10.742,0
1579270451.309,23.438,27.832,14.160,73.730,42.480,0
1579270451.313,30.762,31.250,19.043,78.613,42.969,0
1579270451.317,36.621,40.039,27.832,87.891,-18.555,0
1579270451.320,29.297,34.668,20.020,80.078,-17.578,0
1579270451.324,15.625,19.043,1.953,63.477,23.438,0
1579270451.328,19.043,24.414,6.836,68.848,65.430,0
1579270451.332,25.391,29.297,14.648,78.125,1.953,0
1579270451.336,30.273,32.227,21.484,84.473,-39.551,0
1579270451.333,26.367,28.809,20.996,80.078,31.738,0
1579270451.337,19.531,15.137,10.742,66.895,27.344,0
1579270451.341,22.949,20.508,15.625,72.266,12.695,0
1579270451.345,21.973,20.996,15.625,77.148,16.602,0
1579270451.349,29.297,24.414,15.625,83.496,20.020,0
1579270451.353,32.227,31.738,20.996,83.984,14.648,0
1579270451.357,17.578,23.438,14.648,70.312,18.066,0
1579270451.360,14.160,20.020,13.184,70.801,-41.992,0
1579270451.364,11.230,20.996,11.230,70.312,-24.414,0
1579270451.368,11.230,24.414,10.254,70.312,83.008,0
1579270451.372,31.250,47.363,30.762,83.984,45.410,0
1579270451.376,19.043,39.062,18.555,67.383,-3.418,0
1579270451.373,15.137,28.809,1.953,65.918,24.414,0
1579270451.377,36.133,41.992,8.789,83.496,54.199,0
1579270451.381,40.527,48.828,13.184,85.938,72.266,0
1579270451.385,33.691,65.918,21.484,82.031,57.129,0
1579270451.389,17.090,88.867,21.484,63.965,27.344,0
1579270451.393,15.625,119.141,27.832,62.988,8.301,0
1579270451.397,14.160,132.812,26.855,62.012,-39.062,0
1579270451.400,-3.906,127.441,14.648,44.922,-85.938,0
1579270451.404,6.836,141.602,36.133,56.641,-54.688,0
1579270451.408,0.000,138.184,41.016,48.340,-22.949,0
1579270451.412,-22.949,123.535,26.855,20.508,-25.391,0
1579270451.416,-26.855,123.535,32.715,13.184,5.859,0
1579270451.433,-47.363,119.141,33.691,-3.906,-2.930,0
1579270451.437,-72.754,122.559,38.086,-32.227,20.996,0
1579270451.441,-99.121,125.977,41.504,-61.523,58.105,0
1579270451.445,-119.629,135.254,53.711,-86.426,67.871,0
1579270451.449,-142.578,137.207,63.965,-109.375,50.781,0
1579270451.453,-159.668,132.812,60.547,-123.535,4.883,0
1579270451.457,-165.039,141.113,69.824,-130.859,15.625,0
1579270451.460,-184.570,136.719,62.500,-158.203,21.484,0
1579270451.464,-203.613,119.141,39.551,-185.059,33.691,0
1579270451.468,-197.754,120.605,48.828,-172.363,28.809,0
1579270451.472,-196.289,114.258,49.805,-168.457,68.848,0
1579270451.476,-181.152,117.188,54.688,-160.645,66.406,0
1579270451.473,-176.270,111.816,56.641,-154.785,-2.930,0
1579270451.477,-172.852,104.004,51.758,-149.902,7.324,0
1579270451.481,-160.645,104.492,51.270,-133.789,-18.555,0
1579270451.485,-151.367,98.633,46.387,-125.000,-25.879,0
1579270451.489,-129.395,100.586,50.781,-104.492,7.324,0
