timestamps,TP9,AF7,AF8,TP10,Right AUX,Marker0
1579019270.054,36.133,32.715,30.273,39.062,16.113,0
1579019270.058,32.227,33.203,30.273,42.969,39.062,0
1579019270.062,27.832,34.180,29.297,31.738,27.832,0
1579019270.066,22.949,30.762,28.809,30.273,10.254,0
1579019270.070,22.949,28.809,32.227,37.598,17.578,0
1579019270.074,28.809,30.762,34.180,39.062,69.336,0
1579019270.078,28.320,30.762,34.668,29.297,66.895,0
1579019270.081,27.344,29.297,33.691,24.414,28.320,0
1579019270.085,29.785,29.785,32.227,24.902,19.531,0
1579019270.089,45.898,29.785,31.250,33.203,58.594,0
1579019270.093,55.664,27.344,30.762,48.340,71.289,0
1579019270.097,24.902,24.902,31.250,24.902,71.289,0
1579019270.095,8.301,26.367,34.180,7.324,52.246,0
1579019270.099,28.809,28.320,38.086,37.109,10.742,0
1579019270.103,37.109,28.809,39.551,49.316,-0.488,0
1579019270.107,31.250,29.785,36.621,33.691,36.621,0
1579019270.111,42.480,29.297,37.109,36.621,70.801,0
1579019270.115,44.922,34.180,38.086,44.434,80.078,0
1579019270.119,40.527,34.668,37.109,49.805,32.227,0
1579019270.122,38.574,30.762,36.133,43.457,16.602,0
1579019270.126,37.109,29.297,34.668,36.133,45.410,0
1579019270.130,37.598,28.320,33.691,41.504,14.160,0
1579019270.134,38.086,30.273,27.832,42.480,75.684,0
1579019270.138,38.086,32.715,25.879,34.668,87.402,0
1579019270.165,38.574,34.668,28.809,27.832,13.672,0
1579019270.169,39.062,36.621,29.297,31.738,50.293,0
1579019270.173,41.016,37.598,28.320,39.062,118.652,0
1579019270.177,41.504,36.621,27.832,35.645,66.406,0
1579019270.181,40.527,32.227,32.227,26.855,-14.160,0
1579019270.185,42.480,31.738,34.668,27.832,-20.020,0
1579019270.189,41.504,33.203,30.762,34.668,-6.348,0
1579019270.192,38.574,32.715,29.785,40.527,19.531,0
1579019270.196,37.109,35.645,31.250,38.086,2.930,0
1579019270.200,34.668,35.156,31.738,36.621,-25.879,0
1579019270.204,29.785,32.715,31.738,39.551,-58.594,0
1579019270.208,31.250,35.645,31.738,40.039,-39.062,0
1579019270.215,38.574,38.086,32.227,38.574,21.484,0
1579019270.219,40.527,37.109,33.203,34.668,29.785,0
1579019270.223,34.668,33.691,32.227,37.109,44.922,0
1579019270.227,28.809,28.809,32.227,41.992,82.520,0
1579019270.231,29.785,31.250,33.691,39.062,69.824,0
1579019270.235,33.203,35.156,33.691,35.156,63.965,0
1579019270.239,28.809,33.203,32.715,35.156,26.855,0
1579019270.242,20.996,30.762,29.297,37.109,3.418,0
1579019270.246,25.391,35.156,27.832,36.621,27.832,0
1579019270.250,34.180,39.551,31.250,26.855,32.227,0
1579019270.254,35.156,37.109,33.691,28.809,20.996,0
1579019270.258,32.227,34.668,31.250,40.039,61.035,0
1579019270.235,35.156,35.156,29.297,40.039,40.527,0
1579019270.239,39.062,30.273,31.738,38.574,37.109,0
1579019270.243,39.062,30.273,33.691,37.598,32.715,0
1579019270.247,39.551,33.691,33.691,43.945,5.371,0
1579019270.251,41.992,34.180,36.133,52.246,16.602,0
1579019270.255,46.875,37.109,36.133,44.434,9.766,0
1579019270.259,50.781,40.527,34.180,47.852,73.730,0
1579019270.262,55.664,39.062,35.156,66.406,44.434,0
1579019270.266,43.457,36.133,36.133,59.570,54.688,0
1579019270.270,20.020,33.203,35.156,34.668,88.867,0
1579019270.274,24.902,31.738,36.621,36.621,13.672,0
1579019270.278,38.574,35.156,38.086,57.129,11.230,0
1579019270.295,39.062,34.180,39.062,59.082,24.902,0
1579019270.299,39.062,31.250,38.574,52.734,10.742,0
1579019270.303,36.621,34.180,36.133,47.363,25.391,0
1579019270.307,34.180,34.180,34.180,40.039,21.973,0
1579019270.311,35.645,33.691,32.715,42.480,32.227,0
1579019270.315,32.715,33.691,33.691,42.480,45.410,0
1579019270.319,29.785,29.785,32.715,35.156,86.914,0
1579019270.322,32.715,28.809,34.180,32.227,100.586,0
1579019270.326,32.715,30.273,34.180,37.598,38.574,0
1579019270.330,28.809,29.785,32.715,42.969,5.371,0
1579019270.334,25.879,29.297,35.156,30.273,71.289,0
1579019270.338,23.926,28.809,34.668,17.578,69.824,0
1579019270.335,25.391,28.320,31.738,21.484,30.762,0
1579019270.339,25.879,29.297,31.250,24.902,31.250,0
1579019270.343,23.926,29.785,29.785,17.578,48.828,0
1579019270.347,26.367,29.297,32.227,13.672,28.320,0
1579019270.351,25.391,27.832,37.598,18.555,-30.273,0
1579019270.355,16.113,27.344,34.668,28.809,40.527,0
1579019270.359,13.672,30.762,31.250,30.273,62.012,0
1579019270.362,16.602,32.715,29.297,25.879,-11.719,0
1579019270.366,23.438,35.645,29.785,30.273,8.789,0
1579019270.370,29.297,37.109,35.645,36.133,52.734,0
1579019270.374,28.809,33.203,34.668,38.086,-27.344,0
1579019270.378,33.691,34.180,32.715,34.180,4.395,0
1579019270.395,32.227,34.668,33.203,31.738,78.613,0
1579019270.399,27.832,33.203,34.180,38.574,59.570,0
1579019270.403,26.855,32.715,34.668,42.480,32.227,0
1579019270.407,26.855,33.203,28.809,37.109,54.199,0
1579019270.411,34.180,32.715,27.832,37.598,69.336,0
1579019270.415,32.227,29.785,31.738,41.016,29.297,0
1579019270.419,26.367,29.297,32.715,43.457,30.762,0
1579019270.422,30.762,30.762,33.203,37.598,82.031,0
1579019270.426,28.809,30.762,34.668,29.785,85.449,0
1579019270.430,27.832,29.785,35.645,36.133,21.484,0
1579019270.434,30.273,33.203,33.203,41.016,13.672,0
1579019270.438,27.832,33.203,32.227,36.133,57.129,0
1579019270.434,31.250,31.738,32.227,28.320,23.926,0
1579019270.438,36.133,32.715,29.785,31.250,-4.883,0
1579019270.442,35.645,35.156,27.832,32.715,9.766,0
1579019270.446,40.527,40.039,24.902,28.320,0.488,0
1579019270.450,37.598,39.062,22.461,19.043,38.086,0
1579019270.454,30.762,38.086,23.438,13.672,31.250,0
1579019270.458,31.738,40.527,23.438,22.949,5.371,0
1579019270.461,26.855,40.039,24.902,27.344,24.902,0
1579019270.465,21.484,39.062,26.855,20.508,33.203,0
1579019270.469,22.949,39.062,25.879,20.020,55.664,0
1579019270.473,20.996,38.086,24.414,20.020,63.965,0
1579019270.477,20.996,37.598,26.367,25.391,17.578,0
1579019270.475,25.391,39.062,28.320,31.250,23.926,0
1579019270.479,25.879,41.016,26.367,24.902,22.461,0
1579019270.483,24.902,36.133,26.367,22.461,-2.441,0
1579019270.487,16.602,31.738,27.832,25.879,22.949,0
1579019270.491,17.090,33.203,29.785,27.344,34.668,0
1579019270.495,21.973,35.645,29.785,23.438,21.973,0
1579019270.499,19.531,37.598,32.227,23.926,46.387,0
1579019270.502,24.414,35.156,33.203,35.645,55.176,0
1579019270.506,25.879,31.738,31.250,36.621,24.902,0
1579019270.510,33.203,33.203,31.738,33.691,31.738,0
1579019270.514,36.621,32.227,31.250,36.133,20.508,0
1579019270.518,20.020,29.785,28.320,27.344,43.457,0
1579019270.535,23.926,30.273,28.320,38.086,54.199,0
1579019270.539,35.156,31.250,32.715,40.039,-8.301,0
1579019270.543,28.320,27.344,34.180,20.508,3.418,0
1579019270.547,30.762,29.297,30.762,19.531,-1.465,0
1579019270.551,35.645,33.691,32.227,30.273,-12.695,0
1579019270.555,30.762,33.691,33.691,28.809,11.719,0
1579019270.559,24.902,34.668,28.809,18.066,65.918,0
1579019270.562,24.902,35.156,25.879,16.113,36.133,0
1579019270.566,22.949,32.715,27.832,25.391,25.879,0
1579019270.570,19.531,29.297,27.344,25.879,43.945,0
1579019270.574,18.066,27.832,25.879,14.648,28.809,0
1579019270.578,21.973,30.762,27.832,21.484,39.062,0
1579019270.575,24.902,32.227,27.344,36.133,48.340,0
1579019270.579,22.461,29.785,30.762,37.598,59.082,0
1579019270.583,23.926,29.785,32.715,36.133,58.105,0
1579019270.587,23.926,28.320,30.273,35.156,64.941,0
1579019270.591,18.555,25.391,33.203,37.598,71.777,0
1579019270.595,12.695,26.855,35.156,40.039,20.996,0
1579019270.599,13.184,29.297,29.785,35.645,-27.344,0
1579019270.602,11.719,29.297,26.367,31.738,-23.926,0
1579019270.606,13.672,29.297,33.691,34.180,-9.277,0
1579019270.610,20.020,29.297,39.551,43.945,-32.715,0
1579019270.614,21.973,30.273,35.156,41.504,4.395,0
1579019270.618,24.414,32.227,30.273,32.715,20.996,0
1579019270.615,34.180,34.180,30.273,35.156,-6.348,0
1579019270.619,39.062,33.691,35.156,42.969,13.672,0
1579019270.623,38.086,33.691,34.180,46.387,28.320,0
1579019270.627,40.039,34.180,33.691,42.480,31.738,0
1579019270.631,38.086,32.715,37.109,39.062,34.668,0
1579019270.635,39.551,30.273,40.039,46.387,49.316,0
1579019270.639,40.039,26.367,37.598,43.457,48.828,0
1579019270.642,36.133,26.855,36.133,33.203,13.184,0
1579019270.646,32.227,33.203,36.621,25.879,30.273,0
1579019270.650,25.391,37.109,35.156,24.414,-15.137,0
1579019270.654,20.996,37.109,33.203,32.227,11.719,0
1579019270.658,22.461,39.062,32.715,32.715,77.148,0
1579019270.675,25.391,41.504,30.273,26.367,55.176,0
1579019270.679,22.461,39.062,28.320,24.902,83.008,0
1579019270.683,20.996,34.668,28.320,29.785,54.688,0
1579019270.687,22.461,34.668,27.344,35.156,38.086,0
1579019270.691,26.367,34.668,29.785,29.297,67.383,0
1579019270.695,27.832,34.668,29.785,27.344,63.965,0
1579019270.699,26.855,36.621,26.855,37.109,97.168,0
1579019270.702,24.902,37.109,27.832,33.203,82.031,0
1579019270.706,26.367,35.645,24.414,29.785,11.719,0
1579019270.710,34.180,39.062,24.902,37.109,-9.766,0
1579019270.714,33.691,41.504,27.344,39.062,-6.348,0
1579019270.718,28.809,33.691,25.879,41.504,32.227,0
1579019270.715,30.273,28.809,24.414,33.691,23.438,0
1579019270.719,36.133,31.250,24.414,25.391,43.457,0
1579019270.723,35.645,32.227,28.809,27.832,63.477,0
1579019270.727,29.297,32.227,31.738,30.273,56.641,0
1579019270.731,33.203,32.715,31.250,34.668,37.109,0
1579019270.735,36.621,33.203,31.738,31.250,43.945,0
1579019270.739,35.645,34.668,32.715,27.832,86.914,0
1579019270.742,37.109,35.645,32.227,32.227,29.785,0
1579019270.746,31.738,34.180,29.785,26.367,-16.602,0
1579019270.750,33.691,34.668,30.762,17.578,49.316,0
1579019270.754,39.551,38.086,32.227,14.648,48.340,0
1579019270.758,34.668,37.598,29.785,19.531,49.805,0
1579019270.754,27.832,33.691,26.367,24.414,63.477,0
1579019270.758,28.809,30.273,27.832,20.996,4.395,0
1579019270.762,34.668,30.762,33.203,24.902,-14.648,0
1579019270.766,34.668,34.180,34.180,34.180,35.645,0
1579019270.770,36.621,34.668,32.227,39.551,-24.414,0
1579019270.774,40.039,33.691,33.203,37.598,-25.879,0
1579019270.778,40.527,35.645,32.227,38.086,56.152,0
1579019270.781,38.574,38.086,29.785,47.363,101.074,0
1579019270.785,35.645,39.551,32.227,51.270,83.496,0
1579019270.789,37.598,41.504,33.203,45.898,34.668,0
1579019270.793,39.062,41.016,31.250,39.551,39.062,0
1579019270.797,37.109,39.062,32.227,38.574,42.480,0
1579019270.815,33.691,40.527,30.273,40.039,26.367,0
1579019270.819,29.785,41.016,28.320,37.598,14.648,0
1579019270.823,29.785,43.457,31.250,30.273,27.832,0
1579019270.827,31.250,43.945,30.273,24.902,-1.953,0
1579019270.831,28.320,39.551,27.344,25.391,6.348,0
1579019270.835,27.832,40.039,28.809,25.391,26.855,0
1579019270.839,32.227,39.551,30.762,21.973,52.246,0
1579019270.842,46.875,41.016,28.320,23.438,95.703,0
1579019270.846,26.855,42.969,28.320,14.648,45.410,0
1579019270.850,-0.488,37.598,30.273,4.395,54.199,0
1579019270.854,16.602,37.598,29.785,10.254,34.180,0
1579019270.858,20.996,40.527,29.297,12.207,16.113,0
1579019270.855,6.348,37.109,28.320,11.719,25.391,0
1579019270.859,0.977,31.250,26.367,14.648,4.395,0
1579019270.863,1.953,33.203,26.855,13.184,38.086,0
1579019270.867,7.812,38.086,27.344,9.277,75.684,0
1579019270.871,12.695,38.574,32.227,17.578,94.238,0
1579019270.875,10.742,38.574,30.273,23.926,41.504,0
1579019270.879,9.766,36.621,23.438,20.508,46.387,0
1579019270.882,16.602,36.621,27.344,20.020,67.871,0
1579019270.886,24.902,37.598,27.832,24.414,56.152,0
1579019270.890,24.902,38.574,28.809,29.297,33.203,0
1579019270.894,15.625,38.086,30.762,24.414,53.223,0
1579019270.898,17.578,33.691,27.832,20.508,99.121,0
1579019270.895,29.785,32.227,29.297,21.484,71.289,0
1579019270.899,30.273,34.668,31.738,22.949,45.410,0
1579019270.903,26.367,34.180,29.297,25.879,23.438,0
1579019270.907,24.414,35.645,24.414,20.508,10.254,0
1579019270.911,29.785,38.574,25.879,20.020,1.465,0
1579019270.915,33.691,35.645,25.879,27.344,-1.953,0
1579019270.919,27.344,35.645,22.949,29.297,-20.020,0
1579019270.922,24.902,35.645,24.902,27.832,5.859,0
1579019270.926,31.738,36.133,26.855,20.996,66.406,0
1579019270.930,33.203,36.133,27.832,18.066,8.789,0
1579019270.934,26.367,35.645,27.344,22.949,-51.758,0
1579019270.938,25.391,37.109,26.855,21.484,-5.371,0
1579019270.955,31.250,39.062,27.344,17.090,37.598,0
1579019270.959,35.156,40.039,27.832,14.160,32.715,0
1579019270.963,34.180,39.062,26.855,16.113,13.672,0
1579019270.967,27.344,39.062,27.832,18.555,1.465,0
1579019270.971,27.832,38.574,28.320,17.090,-35.645,0
1579019270.975,33.203,35.156,28.809,17.090,17.578,0
1579019270.979,33.691,33.203,31.738,17.578,11.719,0
1579019270.982,33.691,34.180,32.715,24.414,-47.852,0
1579019270.986,32.227,32.227,28.809,24.902,4.395,0
1579019270.990,30.762,30.762,27.344,19.043,34.668,0
1579019270.994,30.762,32.715,30.762,24.414,54.199,0
1579019270.998,24.902,35.645,33.691,27.832,76.660,0
1579019270.995,24.414,34.668,36.133,26.367,38.574,0
1579019270.999,21.973,33.691,36.133,22.949,46.387,0
1579019271.003,17.578,33.203,35.645,19.043,33.203,0
1579019271.007,20.996,29.785,38.574,27.832,5.371,0
1579019271.011,23.926,31.250,37.598,35.645,88.379,0
1579019271.015,26.367,29.785,37.598,31.250,90.332,0
1579019271.019,35.156,28.809,34.668,33.203,51.270,0
1579019271.022,45.898,29.785,29.785,52.246,64.941,0
1579019271.026,29.785,31.738,31.738,44.922,41.992,0
1579019271.030,19.043,35.645,30.762,31.250,35.645,0
1579019271.034,23.438,36.133,34.180,31.250,84.961,0
1579019271.038,28.809,38.086,34.180,41.992,36.133,0
1579019271.035,37.598,36.621,34.180,61.523,-10.254,0
1579019271.039,31.738,36.133,35.156,50.293,78.125,0
1579019271.043,31.250,33.691,35.156,34.668,59.082,0
1579019271.047,37.109,32.227,32.227,37.109,38.574,0
1579019271.051,37.109,34.668,27.344,41.992,69.824,0
1579019271.055,34.668,35.156,29.785,39.062,-21.973,0
1579019271.059,37.109,33.203,31.738,31.250,-22.461,0
1579019271.062,36.133,34.180,28.809,27.344,10.742,0
1579019271.066,26.855,36.621,30.273,26.855,16.602,0
1579019271.070,30.273,38.574,33.203,31.250,3.418,0
1579019271.074,30.273,36.133,31.738,25.879,-39.062,0
1579019271.078,28.809,34.180,30.273,19.531,23.926,0
1579019271.095,32.227,34.668,29.785,28.320,118.652,0
1579019271.099,30.273,34.180,31.250,31.250,71.289,0
1579019271.103,28.809,34.668,33.691,27.344,30.273,0
1579019271.107,26.367,35.645,32.715,22.461,-32.715,0
1579019271.111,20.508,31.738,27.832,20.996,-20.996,0
1579019271.115,18.066,28.809,27.832,30.273,24.414,0
1579019271.119,21.973,29.785,33.691,29.785,18.555,0
1579019271.122,24.902,30.273,32.715,23.926,65.430,0
1579019271.126,27.832,29.785,32.715,30.762,31.250,0
1579019271.130,33.203,28.809,35.645,40.039,-27.344,0
1579019271.134,35.645,31.738,36.133,43.945,23.438,0
1579019271.138,37.598,34.180,36.621,39.551,21.484,0
1579019271.135,39.062,34.180,32.227,36.133,22.461,0
1579019271.139,40.039,33.203,27.832,40.527,27.344,0
1579019271.143,39.551,32.227,26.367,41.504,52.734,0
1579019271.147,38.086,32.715,23.926,36.621,66.895,0
1579019271.151,39.551,33.691,24.414,28.809,39.062,0
1579019271.155,41.504,35.156,27.832,31.738,52.734,0
1579019271.159,32.227,36.621,28.320,36.621,77.637,0
1579019271.162,25.391,35.645,26.855,28.809,54.199,0
1579019271.166,31.250,37.109,26.855,23.926,17.090,0
1579019271.170,27.344,37.598,28.320,26.367,-1.953,0
1579019271.174,20.508,34.668,24.902,24.414,25.879,0
1579019271.178,21.973,33.691,27.344,24.902,43.457,0
1579019271.176,27.344,32.715,29.297,21.484,33.691,0
1579019271.180,29.785,31.250,25.391,21.484,32.715,0
1579019271.184,24.902,34.180,28.320,27.832,23.438,0
1579019271.188,16.602,39.551,29.297,29.297,3.906,0
1579019271.192,16.113,39.062,26.367,21.973,4.395,0
1579019271.196,20.020,38.086,28.809,20.020,13.672,0
1579019271.200,21.484,40.039,29.297,27.344,46.875,0
1579019271.203,23.926,38.086,28.320,27.832,82.520,0
1579019271.207,31.738,33.691,28.809,21.484,78.125,0
1579019271.211,29.297,33.203,27.832,14.648,41.016,0
1579019271.215,28.320,30.273,33.691,20.508,45.410,0
1579019271.219,22.949,28.809,32.227,21.973,63.477,0
1579019271.235,20.020,33.203,29.785,16.602,40.527,0
1579019271.239,27.832,35.156,32.715,18.066,15.625,0
1579019271.243,28.320,35.645,31.250,26.367,-27.832,0
1579019271.247,24.414,36.621,28.809,31.250,18.555,0
1579019271.251,34.180,36.133,29.785,33.203,23.438,0
1579019271.255,45.410,35.156,31.250,33.203,-8.789,0
1579019271.259,39.062,33.203,33.691,31.250,16.113,0
1579019271.262,35.156,33.203,33.203,37.598,-15.137,0
1579019271.266,39.062,32.715,30.762,43.945,53.711,0
1579019271.270,39.551,35.645,30.273,40.039,47.852,0
1579019271.274,38.574,39.551,30.273,37.598,-23.926,0
1579019271.278,34.668,39.062,31.250,41.016,43.457,0
1579019271.275,31.250,36.621,30.762,42.480,97.168,0
1579019271.279,34.180,35.645,33.203,40.527,59.570,0
1579019271.283,32.715,36.621,34.668,36.621,-12.695,0
1579019271.287,33.203,37.109,30.762,37.598,-10.254,0
1579019271.291,31.738,36.133,28.320,39.062,47.852,0
1579019271.295,28.320,35.156,28.809,30.273,-0.488,0
1579019271.299,28.320,36.133,27.832,16.113,7.812,0
1579019271.302,23.438,37.598,26.855,16.113,37.598,0
1579019271.306,23.926,37.109,30.273,28.320,31.738,0
1579019271.310,28.320,39.062,33.203,24.902,30.273,0
1579019271.314,27.832,38.574,31.250,13.184,17.578,0
1579019271.318,25.879,35.156,28.320,17.090,51.270,0
1579019271.315,26.855,38.086,33.203,27.832,25.391,0
1579019271.319,32.715,40.527,36.133,30.762,9.766,0
1579019271.323,34.180,36.133,31.250,19.531,63.965,0
1579019271.327,35.645,32.715,29.297,16.602,17.578,0
1579019271.331,38.574,33.203,32.715,28.809,48.828,0
1579019271.335,36.621,34.180,35.645,31.738,115.723,0
1579019271.339,42.480,31.738,34.668,37.109,105.957,0
1579019271.342,46.875,31.738,32.227,40.527,73.730,0
1579019271.346,35.645,33.691,33.203,29.785,61.523,0
1579019271.350,34.180,37.109,31.738,32.715,55.664,0
1579019271.354,39.551,41.016,32.715,33.203,40.039,0
1579019271.358,40.527,40.039,33.203,28.809,36.621,0
1579019271.375,45.898,40.039,31.250,36.621,47.363,0
1579019271.379,43.945,37.598,31.738,41.504,26.367,0
1579019271.383,39.062,35.645,30.762,38.574,31.250,0
1579019271.387,40.527,39.062,27.344,33.203,31.738,0
1579019271.391,41.016,39.551,29.785,32.227,40.039,0
1579019271.395,39.551,38.574,30.762,38.574,96.680,0
1579019271.399,39.062,44.434,29.297,40.039,77.637,0
1579019271.402,40.039,47.363,30.273,37.109,13.184,0
1579019271.406,39.551,45.410,31.250,40.527,23.926,0
1579019271.410,40.039,41.992,31.250,50.293,62.988,0
1579019271.414,37.598,37.598,29.297,48.828,44.922,0
1579019271.418,31.738,37.598,24.414,37.109,85.449,0
1579019271.415,33.203,38.086,22.949,31.250,61.523,0
1579019271.419,37.598,38.574,23.926,33.691,31.738,0
1579019271.423,41.016,38.086,24.414,39.551,63.965,0
1579019271.427,38.574,38.086,25.879,32.715,-1.465,0
1579019271.431,34.180,39.551,29.297,21.973,11.719,0
1579019271.435,34.668,40.039,28.809,22.461,54.688,0
1579019271.439,38.574,41.016,24.902,25.391,29.297,0
1579019271.442,44.434,43.457,28.320,27.832,-20.020,0
1579019271.446,46.875,41.016,29.297,24.414,3.418,0
1579019271.450,44.434,38.574,25.879,16.113,5.859,0
1579019271.454,40.039,36.621,26.367,16.602,33.203,0
1579019271.458,36.621,35.645,28.809,26.367,-0.977,0
1579019271.455,42.969,35.645,31.250,33.203,-69.824,0
1579019271.459,46.875,34.180,29.785,32.227,-0.977,0
1579019271.463,38.086,39.062,31.250,36.621,-17.090,0
1579019271.467,32.227,41.016,34.668,43.457,15.137,0
1579019271.471,33.203,39.551,32.715,41.504,43.457,0
1579019271.475,30.762,36.133,32.227,36.133,20.996,0
1579019271.479,26.855,32.227,32.227,35.156,82.520,0
1579019271.482,31.738,34.668,34.668,40.527,67.383,0
1579019271.486,34.668,36.621,37.109,40.039,69.336,0
1579019271.490,34.180,35.156,34.668,33.691,57.617,0
1579019271.494,34.180,33.691,33.203,34.668,52.246,0
1579019271.498,27.832,32.715,31.250,36.621,42.480,0
1579019271.515,27.344,33.691,30.762,35.156,54.688,0
1579019271.519,34.180,37.598,31.738,32.227,108.887,0
1579019271.523,32.227,38.086,30.273,24.414,60.547,0
1579019271.527,26.855,33.203,29.785,24.902,37.109,0
1579019271.531,28.809,32.715,32.227,28.320,45.898,0
1579019271.535,31.738,36.133,33.203,23.926,51.758,0
1579019271.539,30.273,36.621,30.273,17.578,43.945,0
1579019271.542,33.691,36.621,25.879,22.461,-0.977,0
1579019271.546,38.086,36.621,27.832,37.598,17.578,0
1579019271.550,35.645,35.645,27.832,37.598,37.598,0
1579019271.554,43.457,36.133,25.391,30.762,-14.160,0
1579019271.558,49.805,36.621,27.344,34.668,5.371,0
1579019271.555,44.434,35.645,27.344,41.992,42.480,0
1579019271.559,40.039,34.668,31.250,45.898,37.109,0
1579019271.563,41.016,36.133,33.203,40.039,18.066,0
1579019271.567,41.016,35.645,30.762,41.504,9.766,0
1579019271.571,33.203,34.180,32.715,53.711,111.816,0
1579019271.575,27.832,33.203,33.203,59.082,59.570,0
1579019271.579,27.832,34.180,32.715,49.805,-40.039,0
1579019271.582,25.879,36.621,32.715,35.645,-20.996,0
1579019271.586,30.762,36.621,34.180,45.410,47.363,0
1579019271.590,37.598,39.062,35.645,51.270,59.570,0
1579019271.594,32.715,39.062,36.621,42.969,-2.441,0
1579019271.598,27.344,34.668,35.156,38.574,-20.996,0
1579019271.595,34.668,35.156,30.762,37.109,3.906,0
1579019271.599,34.668,36.621,29.785,40.039,34.180,0
1579019271.603,24.414,36.621,31.738,30.273,-38.086,0
1579019271.607,28.320,37.109,27.344,15.625,-40.527,0
1579019271.611,31.250,36.621,23.926,14.160,-19.043,0
1579019271.615,28.809,36.133,27.832,20.508,-39.062,0
1579019271.619,30.762,35.645,30.273,23.926,43.945,0
1579019271.622,33.691,38.574,26.855,17.578,83.496,0
1579019271.626,35.645,39.551,26.855,13.672,28.809,0
1579019271.630,34.180,40.039,28.809,22.949,48.340,0
1579019271.634,31.738,40.039,30.762,24.414,56.152,0
1579019271.638,34.180,37.109,32.715,21.484,42.969,0
1579019271.655,38.086,36.133,29.785,13.672,39.551,0
1579019271.659,33.691,34.180,28.809,15.137,13.184,0
1579019271.663,26.855,33.203,29.297,26.855,0.488,0
1579019271.667,24.414,34.180,30.762,24.902,-5.371,0
1579019271.671,28.809,35.645,30.762,20.020,53.223,0
1579019271.675,23.926,36.133,30.273,17.578,66.406,0
1579019271.679,18.555,37.598,30.273,20.996,62.012,0
1579019271.682,18.066,35.645,33.203,18.555,75.684,0
1579019271.686,16.113,34.180,36.621,8.789,62.988,0
1579019271.690,11.719,36.621,37.109,6.348,20.996,0
1579019271.694,3.906,35.645,38.574,5.371,30.762,0
1579019271.698,-2.441,30.762,41.992,1.465,74.219,0
1579019271.695,-3.906,31.250,49.805,-5.859,76.172,0
1579019271.699,-5.859,37.109,52.734,-6.836,76.660,0
1579019271.703,-17.578,33.203,50.293,-6.348,68.848,0
1579019271.707,-30.762,30.273,49.805,-10.254,61.035,0
1579019271.711,-44.922,28.809,50.781,-27.344,15.137,0
1579019271.715,-60.059,24.902,55.176,-47.852,-36.621,0
1579019271.719,-71.289,23.438,57.617,-52.734,-21.973,0
1579019271.722,-78.613,24.414,57.129,-56.152,55.176,0
1579019271.726,-90.820,20.508,55.176,-74.219,94.238,0
1579019271.730,-107.422,17.578,53.223,-103.516,44.922,0
1579019271.734,-114.746,20.508,54.688,-115.723,47.363,0
1579019271.738,-124.023,18.555,58.594,-115.723,-26.367,0
1579019271.735,-144.043,13.184,59.082,-137.695,-75.195,0
1579019271.739,-145.020,15.625,57.617,-151.367,3.906,0
1579019271.743,-134.766,17.578,57.129,-146.484,44.434,0
1579019271.747,-141.602,14.160,55.664,-147.949,30.273,0
1579019271.751,-148.438,14.160,53.711,-151.855,90.332,0
1579019271.755,-143.066,13.184,54.688,-147.949,67.383,0
1579019271.759,-136.230,15.625,54.199,-142.090,-13.184,0
1579019271.762,-138.184,19.043,54.688,-141.602,44.434,0
1579019271.766,-137.695,20.508,52.246,-136.719,35.645,0
1579019271.770,-121.582,21.484,49.316,-125.488,17.578,0
1579019271.774,-107.422,21.973,46.387,-120.117,46.387,0
1579019271.778,-100.586,21.484,44.922,-111.328,59.082,0
1579019271.795,-92.285,20.020,46.387,-94.727,33.203,0
1579019271.799,-83.496,20.508,45.410,-84.473,-11.719,0
1579019271.803,-75.684,21.484,43.945,-75.195,-20.020,0
1579019271.807,-59.082,22.461,45.410,-52.734,-3.418,0
1579019271.811,-38.574,27.832,42.969,-21.973,5.371,0
1579019271.815,-29.297,26.367,39.551,-12.695,47.363,0
1579019271.819,-25.879,25.879,41.016,-15.625,41.016,0
1579019271.822,2.441,28.809,38.574,10.742,11.719,0
1579019271.826,19.043,25.391,37.109,33.691,48.340,0
1579019271.830,17.578,25.391,34.668,35.645,85.938,0
1579019271.834,36.133,25.879,29.297,43.457,86.426,0
1579019271.838,59.082,29.297,28.320,57.617,28.809,0
1579019271.835,64.453,34.668,23.926,65.430,1.953,0
1579019271.839,68.848,36.133,24.414,72.754,45.410,0
1579019271.843,89.355,36.133,26.855,84.961,20.996,0
1579019271.847,102.051,38.574,22.461,84.961,41.992,0
1579019271.851,101.562,39.062,19.531,81.055,70.312,0
1579019271.855,108.398,39.551,19.531,93.750,56.152,0
1579019271.859,112.793,41.016,15.625,101.074,90.820,0
1579019271.862,115.723,42.480,13.672,101.074,88.379,0
1579019271.866,120.117,46.387,14.160,102.539,24.414,0
1579019271.870,120.117,49.316,11.230,108.887,-13.672,0
1579019271.874,119.629,50.781,16.113,116.211,-29.785,0
1579019271.878,119.629,45.410,18.066,111.816,35.645,0
1579019271.894,122.559,43.457,9.766,105.957,80.566,0
1579019271.898,118.652,45.898,8.789,107.910,36.133,0
1579019271.902,110.840,45.410,12.207,111.816,59.082,0
1579019271.906,113.770,44.922,15.137,110.840,63.965,0
1579019271.910,114.258,45.898,19.043,107.422,14.648,0
1579019271.914,109.863,43.945,21.484,112.305,17.578,0
1579019271.918,104.492,42.969,20.020,118.652,-4.395,0
1579019271.921,104.980,43.945,21.484,114.258,21.973,0
1579019271.925,102.051,41.992,20.508,107.910,44.434,0
1579019271.929,100.586,39.551,19.531,111.328,67.383,0
1579019271.933,100.586,38.574,23.438,113.281,43.945,0
1579019271.937,96.680,38.574,26.367,115.723,24.414,0
1579019271.934,100.098,39.062,24.414,109.863,77.637,0
1579019271.938,104.004,40.527,26.367,108.398,25.391,0
1579019271.942,100.098,41.992,24.902,112.793,-7.324,0
1579019271.946,98.633,41.504,21.484,105.957,26.855,0
1579019271.950,103.516,39.551,22.949,98.145,82.520,0
1579019271.954,103.516,39.551,22.949,92.773,100.586,0
1579019271.958,101.074,41.504,23.438,95.215,30.762,0
1579019271.961,102.539,41.016,23.438,97.656,31.738,0
1579019271.965,97.168,38.574,22.461,88.379,26.367,0
1579019271.969,93.750,40.527,21.484,86.426,-18.555,0
1579019271.973,96.191,43.457,24.902,91.797,5.371,0
1579019271.977,87.891,41.016,27.344,90.820,68.848,0
1579019272.004,81.055,38.574,23.926,81.543,41.504,0
1579019272.008,81.543,39.062,23.438,75.195,-11.719,0
1579019272.012,80.566,39.551,24.414,76.172,49.316,0
1579019272.016,76.172,41.016,24.902,75.684,77.637,0
1579019272.020,76.172,42.969,23.926,73.242,41.016,0
1579019272.024,79.102,44.434,24.414,66.406,66.895,0
1579019272.028,72.266,44.434,21.484,59.570,45.898,0
1579019272.031,61.523,43.457,20.508,61.523,-14.648,0
1579019272.035,56.152,43.945,22.949,62.500,35.156,0
1579019272.039,56.641,42.480,24.902,57.617,76.660,0
1579019272.043,58.105,39.551,25.879,58.594,31.738,0
1579019272.047,51.758,37.598,26.855,65.430,53.711,0
1579019272.035,48.340,37.109,26.367,67.871,62.988,0
1579019272.039,44.922,39.062,27.344,58.594,84.473,0
1579019272.043,43.945,41.016,28.320,47.852,113.281,0
1579019272.047,45.898,40.039,27.344,50.293,50.293,0
1579019272.051,37.598,38.086,25.879,54.199,-27.832,0
1579019272.055,34.668,37.109,25.391,45.410,33.691,0
1579019272.059,41.504,39.062,26.855,37.109,71.289,0
1579019272.062,44.434,40.039,26.367,36.621,36.621,0
1579019272.066,42.480,37.109,23.926,36.133,27.832,0
1579019272.070,39.551,36.621,24.902,32.715,-10.254,0
1579019272.074,42.480,34.668,27.832,31.250,32.227,0
1579019272.078,48.340,32.227,30.273,35.645,39.551,0
1579019272.075,42.969,35.156,32.715,40.039,8.301,0
1579019272.079,38.086,35.156,34.180,43.945,20.020,0
1579019272.083,39.062,35.645,34.180,43.945,24.414,0
1579019272.087,43.457,36.133,30.273,36.133,28.809,0
1579019272.091,42.480,35.156,28.809,36.133,13.672,0
1579019272.095,39.062,36.133,34.668,45.898,53.223,0
1579019272.099,41.016,39.062,36.133,41.504,49.805,0
1579019272.102,38.086,39.062,31.250,32.715,-5.859,0
1579019272.106,37.598,35.156,30.762,35.645,20.508,0
1579019272.110,37.109,35.645,28.809,39.551,28.809,0
1579019272.114,39.062,37.109,31.250,37.598,26.367,0
1579019272.118,43.945,36.621,32.227,28.320,5.859,0
1579019272.115,44.434,39.551,28.320,32.227,-39.551,0
1579019272.119,39.551,42.480,31.738,44.434,21.973,0
1579019272.123,39.551,42.969,33.203,45.898,30.273,0
1579019272.127,44.434,44.434,33.691,38.574,21.973,0
1579019272.131,45.898,44.434,35.645,33.691,70.312,0
1579019272.135,44.922,40.527,32.715,42.969,74.707,0
1579019272.139,40.039,38.086,30.273,48.828,11.230,0
1579019272.142,40.527,37.598,30.762,44.922,-18.066,0
1579019272.146,43.945,36.621,32.715,41.504,46.875,0
1579019272.150,42.480,38.086,32.715,42.969,90.332,0
1579019272.154,43.457,38.574,34.180,48.340,30.273,0
1579019272.158,43.457,36.621,32.715,41.504,25.391,0
1579019272.175,39.062,36.621,29.785,34.668,40.039,0
1579019272.179,33.203,37.598,31.738,35.645,75.195,0
1579019272.183,32.715,38.574,34.180,39.062,86.426,0
1579019272.187,32.715,37.598,33.203,34.668,33.691,0
1579019272.191,32.227,33.691,33.691,25.879,10.254,0
1579019272.195,33.203,33.203,33.203,28.809,44.922,0
1579019272.199,30.762,32.715,29.297,27.344,110.352,0
1579019272.202,30.762,32.715,30.273,20.020,50.781,0
1579019272.206,35.645,31.738,32.227,20.020,-19.043,0
1579019272.210,31.250,29.297,33.203,21.484,11.719,0
1579019272.214,22.949,32.227,33.203,27.344,-3.418,0
1579019272.218,18.555,30.762,39.551,34.180,20.020,0
1579019272.215,19.043,29.785,41.016,26.367,82.520,0
1579019272.219,22.461,29.785,35.645,20.020,41.504,0
1579019272.223,21.973,30.273,32.715,21.973,6.348,0
1579019272.227,20.508,28.809,33.203,29.297,-13.184,0
1579019272.231,25.391,29.297,32.227,30.762,37.109,0
1579019272.235,34.180,34.668,33.203,24.902,55.176,0
1579019272.239,39.062,36.621,36.621,34.180,24.902,0
1579019272.242,36.133,40.039,34.668,41.504,3.906,0
1579019272.246,37.109,43.945,31.738,39.062,-10.742,0
1579019272.250,46.875,41.992,32.227,37.598,85.449,0
1579019272.254,49.316,42.969,34.180,35.156,129.883,0
1579019272.258,45.410,44.434,32.715,37.109,8.301,0
1579019272.254,47.852,45.898,28.809,37.598,-29.297,0
1579019272.258,49.316,44.434,26.367,31.250,-35.645,0
1579019272.262,41.992,44.434,26.367,29.297,-14.648,0
1579019272.266,36.621,46.387,29.785,35.156,-17.578,0
1579019272.270,33.203,44.434,32.715,41.016,6.836,0
1579019272.274,27.344,43.945,35.645,39.551,55.176,0
1579019272.278,23.926,42.480,34.668,35.645,24.902,0
1579019272.281,20.996,39.551,36.133,41.992,41.016,0
1579019272.285,17.578,37.109,38.574,46.387,31.738,0
1579019272.289,19.043,37.109,35.645,40.039,11.719,0
1579019272.293,24.414,33.691,36.621,32.715,-11.230,0
1579019272.297,25.879,31.250,38.574,36.133,-35.645,0
1579019272.296,23.926,32.715,35.156,41.992,-44.434,0
1579019272.300,26.367,29.785,37.598,39.062,-40.527,0
1579019272.304,30.273,28.809,38.574,30.762,-33.691,0
1579019272.308,38.086,31.250,35.645,36.621,-30.273,0
1579019272.312,39.062,31.738,38.086,46.387,-7.324,0
1579019272.316,35.156,32.715,40.527,51.758,-1.465,0
1579019272.320,42.480,33.691,40.527,46.875,26.367,0
1579019272.323,45.898,28.809,37.109,36.133,20.020,0
1579019272.327,41.016,26.367,34.668,41.016,34.668,0
1579019272.331,35.645,29.297,32.715,41.504,29.785,0
1579019272.335,37.598,30.762,29.785,34.668,102.051,0
1579019272.339,43.457,33.203,29.785,29.297,131.836,0
1579019272.354,41.016,32.715,29.785,30.273,52.246,0
1579019272.358,40.527,31.738,30.762,32.227,19.531,0
1579019272.362,41.992,32.715,34.668,28.320,5.371,0
1579019272.366,45.410,37.598,35.156,20.996,38.574,0
1579019272.370,46.387,38.574,32.715,20.020,117.676,0
1579019272.374,39.062,36.133,33.691,23.926,100.586,0
1579019272.378,35.645,35.645,29.785,24.414,62.500,0
1579019272.381,38.574,36.621,23.926,21.484,37.598,0
1579019272.385,38.574,38.574,24.902,21.973,-21.484,0
1579019272.389,33.203,41.016,24.902,29.297,-3.906,0
1579019272.393,34.668,47.363,21.973,31.250,24.902,0
1579019272.397,41.504,47.852,23.926,29.297,6.836,0
1579019272.395,48.340,45.898,26.367,31.738,29.785,0
1579019272.399,44.922,46.875,27.832,37.598,38.574,0
1579019272.403,36.621,45.898,31.250,40.527,-11.719,0
1579019272.407,34.180,42.969,30.762,38.574,19.531,0
1579019272.411,32.227,39.062,29.297,37.598,62.500,0
1579019272.415,28.320,36.621,33.203,41.992,1.465,0
1579019272.419,23.438,34.180,35.156,48.340,-26.855,0
1579019272.422,23.926,33.203,34.668,46.875,56.641,0
1579019272.426,29.785,35.156,33.691,38.574,50.781,0
1579019272.430,30.762,36.621,33.203,35.645,37.598,0
1579019272.434,25.879,38.086,35.645,41.992,99.609,0
1579019272.438,23.438,40.527,36.621,47.363,102.051,0
1579019272.455,25.391,37.109,34.180,38.574,62.988,0
1579019272.459,27.832,28.809,33.203,30.762,30.273,0
1579019272.463,24.902,25.391,34.668,32.715,0.488,0
1579019272.467,23.438,28.809,36.621,33.691,-2.441,0
1579019272.471,30.762,32.715,37.109,30.273,18.555,0
1579019272.475,31.250,34.668,34.180,31.738,12.695,0
1579019272.479,27.832,33.691,32.715,36.133,50.781,0
1579019272.482,32.715,32.715,34.668,41.504,53.223,0
1579019272.486,44.922,32.715,34.668,46.387,1.953,0
1579019272.490,41.992,34.180,33.203,41.992,25.879,0
1579019272.494,34.180,33.203,31.250,41.992,21.973,0
1579019272.498,36.621,31.738,29.785,46.387,16.602,0
1579019272.495,38.086,31.250,31.250,41.016,10.742,0
1579019272.499,39.062,29.785,33.203,38.086,23.926,0
1579019272.503,36.621,28.809,32.227,38.086,53.711,0
1579019272.507,31.250,30.762,31.250,46.387,61.523,0
1579019272.511,32.227,34.180,36.133,52.734,75.195,0
1579019272.515,34.668,36.133,32.715,44.922,22.461,0
1579019272.519,37.109,36.621,31.738,42.969,42.969,0
1579019272.522,37.109,34.668,33.691,43.945,101.562,0
1579019272.526,27.344,31.738,29.785,38.574,19.531,0
1579019272.530,22.949,33.691,28.809,30.273,18.066,0
1579019272.534,26.855,36.621,28.809,28.320,49.805,0
1579019272.538,30.273,37.109,28.320,33.691,22.949,0
1579019272.535,31.250,38.574,29.297,34.180,74.707,0
1579019272.539,33.691,39.551,33.691,32.715,68.359,0
1579019272.543,35.645,39.062,32.227,26.855,8.301,0
1579019272.547,30.762,36.621,32.715,20.996,9.766,0
1579019272.551,28.320,36.133,36.621,29.297,-3.906,0
1579019272.555,26.367,37.109,33.691,28.809,7.324,0
1579019272.559,24.902,37.598,30.273,14.160,45.410,0
1579019272.562,24.414,35.645,31.250,12.695,25.879,0
1579019272.566,17.578,35.156,34.668,20.020,33.203,0
1579019272.570,19.531,38.086,34.668,22.461,10.254,0
1579019272.574,26.855,37.109,33.203,15.137,6.836,0
1579019272.578,29.297,35.645,30.273,13.184,20.020,0
1579019272.595,27.344,34.180,31.738,24.414,1.953,0
1579019272.599,27.344,33.203,36.133,27.832,7.812,0
1579019272.603,31.250,36.133,36.621,26.855,34.180,0
1579019272.607,24.414,34.180,36.621,23.438,23.926,0
1579019272.611,20.508,32.227,32.227,28.809,-16.113,0
1579019272.615,22.949,33.203,33.691,38.574,39.062,0
1579019272.619,20.996,30.762,34.180,32.715,61.523,0
1579019272.622,24.902,31.250,32.715,28.320,23.438,0
1579019272.626,27.344,35.156,34.668,32.227,64.453,0
1579019272.630,28.320,35.156,35.645,41.992,45.898,0
1579019272.634,36.133,36.621,33.203,45.898,-3.906,0
1579019272.638,39.551,38.086,32.715,39.551,19.043,0
1579019272.635,39.062,39.062,30.273,34.668,13.184,0
1579019272.639,40.039,39.551,30.762,43.457,14.160,0
1579019272.643,40.039,38.086,33.691,50.781,42.969,0
1579019272.647,37.598,39.062,30.762,36.621,38.574,0
1579019272.651,36.133,37.598,34.180,27.832,14.648,0
1579019272.655,35.645,36.133,35.645,33.691,-10.254,0
1579019272.659,39.551,36.621,28.320,35.156,4.395,0
1579019272.662,39.062,36.133,26.855,26.367,60.059,0
1579019272.666,37.109,40.527,26.855,17.090,42.969,0
1579019272.670,40.527,43.945,28.809,22.949,59.570,0
1579019272.674,37.109,40.527,29.297,26.855,62.500,0
1579019272.678,37.109,41.016,29.297,24.902,81.055,0
1579019272.675,39.551,41.504,28.320,18.555,73.242,0
1579019272.679,35.645,39.062,28.320,16.602,24.902,0
1579019272.683,35.156,40.039,29.297,24.414,76.660,0
1579019272.687,33.203,39.551,28.809,22.949,77.637,0
1579019272.691,29.785,38.574,29.297,15.137,49.316,0
1579019272.695,30.762,36.133,28.320,13.184,49.316,0
1579019272.699,27.344,34.180,25.879,18.555,20.020,0
1579019272.702,23.926,35.645,28.320,24.414,45.410,0
1579019272.706,23.926,39.062,33.691,17.578,39.551,0
1579019272.710,20.996,36.133,32.227,11.230,20.996,0
1579019272.714,11.719,33.203,27.832,12.695,77.637,0
1579019272.718,10.254,33.203,24.902,13.184,43.945,0
1579019272.735,12.695,34.180,26.855,9.766,42.480,0
1579019272.739,17.090,35.645,26.855,11.230,94.238,0
1579019272.743,25.879,36.621,26.855,19.043,91.309,0
1579019272.747,31.250,36.133,31.738,31.738,27.832,0
1579019272.751,38.086,34.668,32.715,43.457,55.176,0
1579019272.755,41.016,32.715,34.668,39.062,84.961,0
1579019272.759,39.062,33.203,34.668,37.109,61.523,0
1579019272.762,42.480,33.691,34.180,50.781,81.055,0
1579019272.766,51.270,35.645,34.668,55.664,39.551,0
1579019272.770,45.410,36.133,34.668,45.410,4.395,0
1579019272.774,37.598,39.062,38.086,43.945,20.996,0
1579019272.778,38.574,40.039,35.645,44.922,37.109,0
1579019272.776,39.551,35.645,32.227,47.363,52.734,0
1579019272.780,38.574,34.180,33.691,43.945,58.105,0
1579019272.784,32.715,33.691,32.227,32.227,62.012,0
1579019272.788,33.203,33.203,29.785,30.762,17.090,0
1579019272.792,34.668,33.691,31.738,33.691,12.695,0
1579019272.796,30.762,34.180,34.180,26.855,40.039,0
1579019272.800,28.320,35.156,33.691,13.184,69.824,0
1579019272.803,29.785,36.621,30.762,11.230,67.871,0
1579019272.807,26.855,37.109,30.762,22.461,-2.930,0
1579019272.811,27.344,37.598,33.691,20.020,20.996,0
1579019272.815,25.391,35.156,37.598,11.230,73.242,0
1579019272.819,18.555,32.227,36.621,15.625,30.762,0
1579019272.815,24.414,31.738,32.715,29.785,51.758,0
1579019272.819,35.156,32.227,32.715,40.527,98.145,0
1579019272.823,33.203,31.738,31.738,32.715,87.402,0
1579019272.827,30.273,32.227,29.785,26.855,35.156,0
1579019272.831,38.574,35.645,30.273,38.086,-24.902,0
1579019272.835,46.387,37.109,34.668,44.434,57.129,0
1579019272.839,40.527,37.109,32.715,36.133,83.984,0
1579019272.842,36.133,35.156,29.785,31.250,20.020,0
1579019272.846,37.598,34.668,34.180,35.645,7.324,0
1579019272.850,36.133,33.691,37.109,43.457,22.949,0
1579019272.854,32.227,31.250,34.180,41.504,78.613,0
1579019272.858,33.691,31.738,32.715,31.738,81.055,0
1579019272.876,33.691,33.203,34.668,32.715,18.066,0
1579019272.880,31.250,32.227,35.156,40.039,25.879,0
1579019272.884,36.621,33.203,32.227,49.316,58.594,0
1579019272.888,28.809,33.203,35.156,34.668,44.922,0
1579019272.892,20.996,32.715,39.062,22.461,31.250,0
1579019272.896,28.320,31.250,39.551,39.551,43.945,0
1579019272.900,32.715,32.715,39.062,39.551,39.062,0
1579019272.903,43.457,33.203,34.668,34.180,-29.297,0
1579019272.907,46.387,30.273,33.203,35.645,-14.648,0
1579019272.911,46.387,31.738,34.668,40.527,3.418,0
1579019272.915,48.828,34.668,34.668,44.434,19.043,0
1579019272.919,43.945,37.109,35.645,39.551,5.371,0
1579019272.915,39.062,39.551,36.133,31.250,31.250,0
1579019272.919,36.133,37.109,33.203,29.297,91.797,0
1579019272.923,38.574,36.133,34.668,35.645,24.414,0
1579019272.927,37.109,39.062,35.156,27.344,8.789,0
1579019272.931,25.391,38.086,27.832,10.742,36.133,0
1579019272.935,20.508,37.109,26.367,7.324,24.902,0
1579019272.939,22.461,39.062,28.809,14.160,21.484,0
1579019272.942,26.855,40.039,26.367,20.020,7.324,0
1579019272.946,27.344,40.039,23.438,14.160,10.254,0
1579019272.950,21.484,39.551,28.809,10.254,4.395,0
1579019272.954,20.508,38.574,31.738,21.973,3.906,0
1579019272.958,25.391,34.180,32.227,30.762,22.949,0
1579019272.955,26.855,33.203,33.203,26.367,39.062,0
1579019272.959,25.879,33.203,29.297,21.973,75.684,0
1579019272.963,31.738,31.738,31.738,30.273,62.988,0
1579019272.967,31.738,34.180,37.598,40.527,47.363,0
1579019272.971,31.738,35.156,40.039,41.504,52.734,0
1579019272.975,33.691,34.180,40.039,41.016,43.457,0
1579019272.979,33.203,34.180,41.016,48.828,-5.859,0
1579019272.982,31.738,32.715,40.039,55.176,28.809,0
1579019272.986,26.367,32.227,35.645,46.875,22.949,0
1579019272.990,23.438,32.715,35.645,41.504,15.625,0
1579019272.994,22.461,32.715,38.574,41.504,77.148,0
1579019272.998,22.949,33.203,38.086,41.504,44.922,0
1579019273.035,25.879,34.180,39.551,43.457,6.348,0
1579019273.039,28.320,34.180,41.504,38.086,17.090,0
1579019273.043,29.785,36.133,39.551,32.715,43.945,0
1579019273.047,33.203,40.527,39.062,37.109,10.742,0
1579019273.051,33.203,38.574,35.645,41.504,55.664,0
1579019273.055,29.297,35.156,31.250,29.297,91.797,0
1579019273.059,24.902,35.645,32.715,16.602,52.246,0
1579019273.062,28.320,37.598,31.250,22.461,38.086,0
1579019273.066,37.109,39.062,25.879,28.809,21.973,0
1579019273.070,37.598,41.504,31.250,26.855,58.594,0
1579019273.074,35.156,41.504,33.691,20.020,61.035,0
1579019273.078,36.133,37.109,29.785,21.484,9.766,0
1579019273.055,36.621,36.133,30.273,27.832,3.418,0
1579019273.059,34.180,34.668,30.762,31.738,-12.207,0
1579019273.063,33.691,36.621,30.762,31.250,-5.371,0
1579019273.067,36.621,40.039,29.785,31.738,18.066,0
1579019273.071,43.945,40.039,31.738,45.410,-4.883,0
1579019273.075,45.898,41.992,33.691,57.129,-59.570,0
1579019273.079,40.527,39.551,33.691,51.758,-45.898,0
1579019273.082,36.621,36.133,31.250,44.434,10.742,0
1579019273.086,36.133,37.598,31.738,52.734,19.531,0
1579019273.090,39.062,35.156,35.156,61.035,8.789,0
1579019273.094,38.574,34.668,34.180,51.758,18.555,0
1579019273.098,32.715,36.133,39.551,41.016,16.113,0
1579019273.095,30.273,34.180,41.504,41.504,13.184,0
1579019273.099,35.156,35.645,37.598,49.316,49.805,0
1579019273.103,37.598,40.039,34.668,37.598,44.922,0
1579019273.107,31.250,41.016,32.227,17.090,-0.977,0
1579019273.111,32.227,40.039,31.250,19.531,-33.203,0
1579019273.115,36.133,38.574,31.250,33.691,4.395,0
1579019273.119,37.598,37.109,34.180,32.715,3.418,0
1579019273.122,36.621,38.574,35.645,15.625,5.859,0
1579019273.126,30.762,38.574,31.250,11.230,19.531,0
1579019273.130,34.180,39.062,30.762,24.414,16.113,0
1579019273.134,37.598,40.527,32.715,29.297,60.547,0
1579019273.138,35.645,40.039,30.273,22.949,62.012,0
1579019273.155,31.738,39.062,27.832,19.531,-16.113,0
1579019273.159,36.621,41.504,28.809,29.297,-27.344,0
1579019273.163,42.969,41.016,26.367,35.645,50.781,0
1579019273.167,39.551,35.156,26.367,27.344,74.219,0
1579019273.171,34.668,36.621,25.879,21.484,64.453,0
1579019273.175,35.156,39.551,25.879,29.785,75.684,0
1579019273.179,53.711,40.039,24.414,57.617,49.316,0
1579019273.182,57.129,40.039,26.855,57.617,63.477,0
1579019273.186,20.996,35.645,33.691,15.625,61.035,0
1579019273.190,10.742,29.785,33.691,15.137,11.719,0
1579019273.194,27.832,27.832,34.180,44.434,23.926,0
1579019273.198,37.109,26.855,34.668,51.758,28.809,0
1579019273.195,33.691,23.926,41.016,46.875,19.043,0
1579019273.199,29.297,22.461,48.828,51.758,21.973,0
1579019273.203,28.809,19.531,48.828,63.965,17.090,0
1579019273.207,31.250,18.555,49.805,66.406,43.457,0
1579019273.211,42.480,20.020,50.293,68.359,26.855,0
1579019273.215,42.480,17.578,51.270,67.871,43.457,0
1579019273.219,44.922,17.090,50.781,75.195,49.316,0
1579019273.222,45.898,21.973,47.363,79.590,-17.090,0
1579019273.226,42.969,23.438,47.363,71.777,43.945,0
1579019273.230,40.039,21.484,45.898,59.570,113.770,0
1579019273.234,40.527,23.926,44.434,61.523,76.660,0
1579019273.238,49.805,25.879,47.852,72.754,62.500,0
1579019273.235,51.270,27.344,45.898,67.383,56.152,0
1579019273.239,47.852,28.320,41.504,53.223,18.066,0
1579019273.243,46.875,29.785,42.480,49.316,-1.953,0
1579019273.247,51.758,32.227,39.551,57.129,20.996,0
1579019273.251,50.293,32.227,36.133,57.129,43.457,0
1579019273.255,45.898,31.250,41.016,45.898,40.527,0
1579019273.259,45.898,31.738,44.922,41.504,63.477,0
1579019273.262,45.410,34.180,40.527,46.387,113.281,0
1579019273.266,43.457,34.668,37.598,47.852,62.500,0
1579019273.270,40.039,36.621,37.109,41.016,30.762,0
1579019273.274,37.109,36.133,36.621,37.109,100.098,0
1579019273.278,31.738,34.668,35.645,41.992,55.176,0
1579019273.295,33.203,39.062,34.668,48.828,31.250,0
1579019273.299,33.203,35.156,34.180,42.969,37.598,0
1579019273.303,26.367,30.273,34.668,30.762,38.574,0
1579019273.307,26.367,33.203,35.156,32.227,74.707,0
1579019273.311,30.762,35.156,36.133,44.434,40.039,0
1579019273.315,32.715,34.180,37.109,45.898,38.574,0
1579019273.319,30.273,33.203,36.133,30.762,13.184,0
1579019273.322,31.250,33.203,35.645,27.832,9.766,0
1579019273.326,37.109,31.250,32.227,39.062,42.969,0
1579019273.330,50.781,32.227,29.297,50.293,36.133,0
1579019273.334,66.406,35.156,33.691,56.641,47.363,0
1579019273.338,54.688,32.227,36.621,49.805,59.082,0
1579019273.335,33.691,30.273,36.621,40.527,62.500,0
1579019273.339,33.691,34.180,39.551,43.945,40.527,0
1579019273.343,46.875,36.133,40.527,51.758,-5.371,0
1579019273.347,45.898,35.645,40.527,45.410,26.367,0
1579019273.351,40.527,29.785,41.992,53.223,81.055,0
1579019273.355,41.504,26.855,41.016,69.336,83.008,0
1579019273.359,33.691,26.855,45.410,63.965,82.031,0
1579019273.362,30.273,25.879,46.387,55.664,11.719,0
1579019273.366,34.180,24.902,42.969,51.270,9.766,0
1579019273.370,38.574,25.879,41.504,56.152,81.055,0
1579019273.374,39.062,29.297,40.039,60.547,57.617,0
1579019273.378,33.203,27.832,41.504,48.828,0.488,0
1579019273.395,31.738,31.738,41.016,41.504,0.000,0
1579019273.399,32.715,32.715,42.969,48.340,51.758,0
1579019273.403,37.598,31.738,42.969,47.852,21.973,0
1579019273.407,41.992,32.715,40.527,37.598,-18.066,0
1579019273.411,39.062,29.785,38.574,30.762,22.461,0
1579019273.415,42.480,31.250,37.598,36.133,41.016,0
1579019273.419,46.387,34.180,37.109,41.016,41.016,0
1579019273.422,46.875,34.668,36.621,34.180,16.113,0
1579019273.426,43.457,36.621,34.180,25.391,21.484,0
1579019273.430,42.969,36.133,29.297,31.250,31.250,0
1579019273.434,46.875,36.133,29.785,42.480,29.785,0
1579019273.438,40.039,36.621,33.203,41.992,27.832,0
1579019273.435,37.109,37.109,36.133,31.738,-0.977,0
1579019273.439,47.363,39.062,37.598,35.645,27.832,0
1579019273.443,48.828,38.574,38.574,50.293,57.129,0
1579019273.447,36.621,34.180,39.062,49.316,8.789,0
1579019273.451,30.273,32.715,37.109,41.016,-21.973,0
1579019273.455,36.621,33.203,35.156,40.039,0.977,0
1579019273.459,41.016,35.156,35.156,50.781,51.270,0
1579019273.462,38.086,34.668,35.645,57.129,63.477,0
1579019273.466,38.086,33.691,35.645,45.898,47.852,0
1579019273.470,37.598,36.621,39.062,41.016,47.363,0
1579019273.474,38.086,38.086,41.504,47.363,62.988,0
1579019273.478,39.551,37.598,42.480,46.387,70.312,0
1579019273.475,35.156,36.621,41.992,38.574,15.625,0
1579019273.479,33.691,31.738,40.527,32.227,34.180,0
1579019273.483,56.641,31.250,37.109,55.664,44.434,0
1579019273.487,58.105,40.527,32.715,53.223,15.137,0
1579019273.491,28.320,43.457,30.273,15.137,35.645,0
1579019273.495,15.625,41.016,30.273,1.953,41.992,0
1579019273.499,9.766,41.992,33.203,-1.465,21.484,0
1579019273.502,6.348,43.457,26.855,-0.488,33.691,0
1579019273.506,-2.930,45.410,21.973,-15.625,43.457,0
1579019273.510,-7.812,48.828,19.043,-43.945,17.090,0
1579019273.514,-8.789,49.805,14.648,-55.176,-10.254,0
1579019273.518,-7.324,52.246,10.742,-46.387,-15.625,0
1579019273.534,-10.254,56.152,7.812,-45.898,11.719,0
1579019273.538,-10.742,53.711,12.207,-50.293,73.730,0
1579019273.542,-10.254,50.293,13.672,-54.199,68.359,0
1579019273.546,-9.277,47.852,11.230,-49.316,52.246,0
1579019273.550,-0.977,48.828,13.184,-30.762,23.926,0
1579019273.554,7.812,48.340,15.625,-22.461,2.930,0
1579019273.558,11.230,48.340,13.672,-24.902,70.801,0
1579019273.561,17.578,50.781,13.672,-15.625,68.848,0
1579019273.565,25.391,51.270,15.625,3.418,72.266,0
1579019273.569,25.879,50.293,18.066,9.766,27.832,0
1579019273.573,23.438,49.316,18.066,3.418,5.371,0
1579019273.577,24.902,44.922,21.484,7.324,31.738,0
1579019273.574,27.344,42.480,23.926,20.020,7.324,0
1579019273.578,22.949,41.992,22.461,19.531,20.508,0
1579019273.582,17.090,41.992,25.391,12.695,-1.465,0
1579019273.586,18.555,44.922,26.855,11.230,26.367,0
1579019273.590,20.508,46.387,25.879,17.090,32.227,0
1579019273.594,17.578,42.480,29.785,21.973,-12.695,0
1579019273.598,18.555,41.504,28.320,14.648,-21.484,0
1579019273.601,14.160,43.457,22.949,2.441,24.902,0
1579019273.605,13.184,43.945,25.879,12.695,80.566,0
1579019273.609,20.020,44.434,31.250,28.320,58.594,0
1579019273.613,21.484,46.387,32.715,17.578,25.391,0
1579019273.617,19.043,45.898,31.738,4.883,0.000,0
1579019273.615,18.555,41.504,28.809,9.766,45.410,0
1579019273.619,24.414,41.016,29.785,21.484,74.707,0
1579019273.623,27.344,40.527,28.809,24.902,2.930,0
1579019273.627,15.625,37.598,25.879,13.184,11.230,0
1579019273.631,14.648,38.086,26.855,12.207,25.391,0
1579019273.635,31.738,40.039,28.809,26.367,12.207,0
1579019273.639,37.598,41.016,29.785,36.621,-0.488,0
1579019273.642,31.250,44.922,30.762,33.691,24.902,0
1579019273.646,29.785,44.922,31.250,27.832,56.641,0
1579019273.650,32.227,43.457,31.250,32.715,39.551,0
1579019273.654,35.156,41.016,30.762,39.062,24.902,0
1579019273.658,35.156,41.016,29.785,36.133,2.441,0
1579019273.675,28.809,40.527,30.273,29.297,53.711,0
1579019273.679,27.344,36.621,28.809,30.273,30.273,0
1579019273.683,29.785,37.109,29.785,39.062,-14.160,0
1579019273.687,31.738,41.016,33.691,40.527,0.000,0
1579019273.691,25.879,41.992,33.203,32.227,4.395,0
1579019273.695,18.066,40.527,33.203,29.297,54.199,0
1579019273.699,21.973,40.527,34.668,40.039,33.691,0
1579019273.702,23.438,38.574,35.645,40.527,43.945,0
1579019273.706,16.113,35.156,35.156,29.785,24.414,0
1579019273.710,14.160,32.227,35.156,24.902,4.883,0
1579019273.714,15.137,29.297,35.156,26.367,17.578,0
1579019273.718,19.531,32.227,35.156,25.879,-2.441,0
1579019273.715,21.973,35.645,33.691,20.508,13.672,0
1579019273.719,20.020,38.574,33.691,17.578,1.465,0
1579019273.723,25.879,38.574,36.621,26.855,-6.348,0
1579019273.727,33.691,38.086,34.180,39.062,61.523,0
1579019273.731,34.180,40.527,34.668,35.645,68.359,0
1579019273.735,41.504,38.574,34.180,31.738,25.879,0
1579019273.739,55.176,36.133,28.809,46.875,37.598,0
1579019273.742,36.621,36.133,30.762,37.109,51.758,0
1579019273.746,21.973,37.598,30.273,21.484,36.621,0
1579019273.750,36.133,42.480,29.297,31.250,65.430,0
1579019273.754,32.715,42.969,31.250,27.832,76.660,0
1579019273.758,33.691,40.527,28.320,32.715,47.852,0
1579019273.755,49.316,41.504,30.273,48.828,10.254,0
1579019273.759,42.480,43.945,35.156,36.621,24.414,0
1579019273.763,30.762,41.992,35.645,24.902,40.039,0
1579019273.767,39.062,35.645,36.133,37.598,17.578,0
1579019273.771,40.039,31.738,36.133,42.969,32.715,0
1579019273.775,33.203,32.715,36.133,35.156,57.129,0
1579019273.779,29.297,31.250,36.621,29.785,81.055,0
1579019273.782,29.785,29.297,34.180,39.062,40.527,0
1579019273.786,36.133,32.715,36.133,45.898,37.598,0
1579019273.790,40.527,33.203,37.109,41.992,86.914,0
1579019273.794,42.969,34.180,37.109,45.410,85.938,0
1579019273.798,40.527,36.133,37.598,50.781,36.133,0
1579019273.815,35.156,34.668,34.668,57.129,50.781,0
1579019273.819,36.133,32.715,33.203,54.688,37.598,0
1579019273.823,37.598,31.738,36.133,43.457,7.812,0
1579019273.827,36.133,33.691,37.598,41.016,42.480,0
1579019273.831,40.039,34.180,37.598,47.852,53.223,0
1579019273.835,40.039,33.691,37.109,47.363,53.711,0
1579019273.839,38.574,35.645,38.086,37.109,79.102,0
1579019273.842,35.156,36.133,37.109,35.156,77.148,0
1579019273.846,37.598,35.645,34.180,41.016,41.992,0
1579019273.850,42.480,32.715,35.645,47.363,20.020,0
1579019273.854,39.062,31.250,37.598,45.410,-20.996,0
1579019273.858,34.180,34.668,32.227,37.109,-23.438,0
1579019273.855,39.551,34.180,31.250,36.621,26.367,0
1579019273.859,44.434,35.156,35.156,42.480,77.148,0
1579019273.863,40.039,35.156,33.203,35.645,46.875,0
1579019273.867,31.738,34.668,32.715,25.879,65.918,0
1579019273.871,32.715,36.133,37.598,30.273,72.266,0
1579019273.875,37.598,38.086,35.645,35.156,-47.363,0
1579019273.879,32.227,36.133,31.250,32.715,-33.691,0
1579019273.882,28.320,34.180,31.738,24.414,-35.645,0
1579019273.886,24.902,33.691,33.203,18.555,-16.602,0
1579019273.890,22.461,34.668,35.645,29.785,52.246,0
1579019273.894,22.461,38.086,37.109,32.715,29.785,0
1579019273.898,20.996,38.574,35.645,25.391,2.441,0
1579019273.896,21.973,38.574,38.086,28.320,72.266,0
1579019273.900,22.949,39.062,36.133,31.738,35.156,0
1579019273.904,27.344,38.086,35.645,35.645,-58.594,0
1579019273.908,33.691,37.598,39.551,33.691,-3.906,0
1579019273.912,32.715,37.109,33.691,23.926,26.855,0
1579019273.916,27.344,36.621,30.762,27.832,13.672,0
1579019273.920,30.762,36.133,33.691,41.504,52.246,0
1579019273.923,32.715,34.668,33.203,38.574,97.656,0
1579019273.927,28.809,38.574,33.691,31.738,41.992,0
1579019273.931,34.180,42.969,32.715,34.668,-6.836,0
1579019273.935,39.551,41.016,32.227,45.410,0.977,0
1579019273.939,40.039,39.551,33.691,46.875,7.812,0
1579019273.955,35.645,37.598,35.645,34.668,14.160,0
1579019273.959,28.320,35.156,33.203,25.391,40.527,0
1579019273.963,28.320,37.109,29.785,28.809,38.574,0
1579019273.967,29.297,38.086,29.297,30.762,20.020,0
1579019273.971,30.762,38.086,29.785,28.320,60.059,0
1579019273.975,38.086,37.109,34.668,34.180,48.828,0
1579019273.979,29.785,35.156,35.645,31.738,20.996,0
1579019273.982,21.973,36.621,35.645,22.949,-8.301,0
1579019273.986,31.738,36.133,37.109,27.344,-17.090,0
1579019273.990,22.949,30.762,41.992,21.484,35.156,0
1579019273.994,6.348,26.367,40.039,9.277,45.898,0
1579019273.998,18.555,22.461,35.645,20.020,20.508,0
1579019273.995,25.391,20.020,38.574,24.902,54.199,0
1579019273.999,20.020,20.020,42.480,18.066,99.121,0
1579019274.003,21.973,21.973,42.480,17.578,73.730,0
1579019274.007,29.785,24.414,40.527,29.297,40.039,0
1579019274.011,36.133,28.809,39.062,35.645,24.414,0
1579019274.015,32.227,29.785,38.574,26.855,38.086,0
1579019274.019,25.391,26.855,39.551,23.926,0.977,0
1579019274.022,30.273,24.902,39.551,35.645,-8.301,0
1579019274.026,38.086,25.391,37.109,42.480,-1.953,0
1579019274.030,36.621,25.879,34.180,32.227,38.086,0
1579019274.034,31.250,27.832,33.203,23.438,82.520,0
1579019274.038,31.250,28.809,34.180,32.715,62.012,0
1579019274.035,32.715,30.273,31.738,40.527,34.668,0
1579019274.039,38.086,33.203,34.668,41.504,55.664,0
1579019274.043,39.062,32.227,37.598,34.180,73.242,0
1579019274.047,36.621,30.273,35.156,27.344,44.434,0
1579019274.051,42.480,28.320,35.645,38.086,22.949,0
1579019274.055,39.062,28.320,35.156,40.527,26.367,0
1579019274.059,36.133,32.227,30.762,29.785,5.859,0
1579019274.062,37.598,33.691,28.809,30.273,45.410,0
1579019274.066,39.062,35.156,31.250,39.062,54.199,0
1579019274.070,44.922,41.016,31.738,41.504,34.180,0
1579019274.074,45.898,42.480,35.156,40.039,60.059,0
1579019274.078,37.598,41.016,38.086,35.645,38.574,0
1579019274.102,33.691,37.598,36.133,41.992,17.090,0
1579019274.106,36.621,35.156,37.109,52.734,77.637,0
1579019274.110,37.109,39.551,38.574,47.363,72.754,0
1579019274.114,32.227,39.551,41.016,35.645,-2.441,0
1579019274.118,31.250,36.621,40.039,41.016,20.996,0
1579019274.122,39.551,36.133,35.645,52.246,0.000,0
1579019274.126,36.133,36.133,36.621,38.574,-9.766,0
1579019274.129,32.227,35.156,37.598,28.320,50.293,0
1579019274.133,38.574,36.133,37.109,40.039,41.992,0
1579019274.137,38.574,36.133,37.598,47.363,-2.930,0
1579019274.141,37.598,33.203,33.203,40.527,-28.809,0
1579019274.145,37.598,35.645,32.715,29.785,0.000,0
1579019274.146,35.156,37.109,35.156,26.367,53.711,0
1579019274.150,37.598,36.133,34.668,32.715,29.297,0
1579019274.154,43.457,36.133,33.691,35.645,1.953,0
1579019274.158,38.574,34.668,30.762,24.414,38.574,0
1579019274.162,30.273,34.180,32.715,19.531,60.059,0
1579019274.166,27.832,33.203,34.180,27.344,39.551,0
1579019274.170,27.832,33.691,36.133,34.180,23.438,0
1579019274.173,23.438,34.668,37.109,27.344,27.832,0
1579019274.177,20.508,34.180,34.668,18.555,-2.441,0
1579019274.181,23.438,37.598,36.621,21.973,36.133,0
1579019274.185,24.902,37.598,37.109,25.391,25.879,0
1579019274.189,20.996,33.203,33.203,23.926,-16.113,0
1579019274.177,12.695,33.691,30.762,15.625,24.414,0
1579019274.181,15.625,37.598,33.691,15.137,21.973,0
1579019274.185,21.973,39.551,33.691,21.973,24.902,0
1579019274.189,20.996,35.645,31.250,21.484,19.531,0
1579019274.193,21.973,33.691,31.738,8.789,-2.930,0
1579019274.197,22.949,33.691,31.738,7.324,38.086,0
1579019274.201,25.391,33.203,33.203,16.602,31.738,0
1579019274.204,26.367,34.668,38.086,17.090,45.898,0
1579019274.208,22.461,35.645,36.621,5.859,112.305,0
1579019274.212,22.949,37.109,32.227,3.418,67.383,0
1579019274.216,24.902,39.551,33.691,17.578,82.031,0
1579019274.220,21.484,40.039,31.250,21.973,105.957,0
1579019274.235,23.926,37.598,32.715,20.020,101.562,0
1579019274.239,25.879,37.598,32.227,17.578,94.238,0
1579019274.243,26.367,40.039,31.250,20.020,41.504,0
1579019274.247,33.203,41.016,33.203,31.250,10.254,0
1579019274.251,32.715,40.039,26.855,29.785,41.504,0
1579019274.255,30.762,39.062,25.391,17.578,25.879,0
1579019274.259,32.227,38.574,31.250,20.020,14.648,0
1579019274.262,41.504,36.133,31.738,44.922,32.715,0
1579019274.266,48.340,36.621,30.273,61.035,-5.859,0
1579019274.270,20.020,41.992,29.297,16.602,37.598,0
1579019274.274,13.672,44.922,28.809,0.000,36.621,0
1579019274.278,28.809,47.363,24.414,26.367,-13.672,0
1579019274.275,26.855,46.387,22.461,25.879,6.836,0
1579019274.279,32.227,46.875,24.414,21.484,0.000,0
1579019274.283,37.598,48.828,26.367,15.137,-19.043,0
1579019274.287,39.551,48.828,28.320,18.066,38.574,0
1579019274.291,37.109,48.340,28.320,30.762,52.734,0
1579019274.295,29.297,44.434,28.320,23.926,7.812,0
1579019274.299,27.344,43.457,27.832,14.160,15.625,0
1579019274.302,30.273,43.457,25.879,20.020,54.688,0
1579019274.306,31.250,43.457,25.879,28.809,28.809,0
1579019274.310,33.691,44.922,30.273,28.809,11.230,0
1579019274.314,35.645,46.387,30.762,18.555,24.902,0
1579019274.318,38.574,44.922,29.297,21.484,8.789,0
1579019274.314,45.410,43.945,27.832,35.645,20.508,0
1579019274.318,47.363,45.410,27.832,38.574,14.160,0
1579019274.322,46.387,46.387,31.250,32.227,53.711,0
1579019274.326,44.434,47.363,30.273,35.156,52.246,0
1579019274.330,41.504,45.410,28.809,41.992,20.508,0
1579019274.334,62.012,47.363,26.367,66.895,36.133,0
1579019274.338,80.566,47.363,29.297,83.008,26.367,0
1579019274.341,48.340,43.457,36.133,48.340,38.086,0
1579019274.345,33.203,43.457,33.203,41.504,0.488,0
1579019274.349,47.363,40.039,34.668,69.824,-9.277,0
1579019274.353,56.152,37.598,38.086,79.590,67.871,0
1579019274.357,66.406,38.086,37.598,82.031,34.668,0
1579019274.375,72.754,36.621,40.039,92.285,-10.742,0
1579019274.379,78.125,35.645,44.922,109.375,24.902,0
1579019274.383,84.473,35.156,51.270,115.234,62.988,0
1579019274.387,95.215,34.668,53.223,118.652,43.457,0
1579019274.391,105.469,33.691,52.734,128.906,39.551,0
1579019274.395,105.469,34.180,57.617,141.113,80.078,0
1579019274.399,107.422,37.109,58.594,145.020,54.688,0
1579019274.402,102.539,35.156,56.152,132.324,-7.324,0
1579019274.406,95.703,28.320,57.617,134.277,13.672,0
1579019274.410,104.492,27.832,57.617,148.926,12.207,0
1579019274.414,107.422,30.273,58.594,144.531,40.527,0
1579019274.418,101.074,27.832,59.570,124.512,72.266,0
1579019274.415,88.867,27.832,52.734,110.352,64.941,0
1579019274.419,90.332,31.738,49.316,117.188,83.496,0
1579019274.423,100.098,32.715,49.805,126.953,34.180,0
1579019274.427,99.609,32.227,50.293,124.023,8.789,0
1579019274.431,94.727,33.691,51.758,110.840,21.484,0
1579019274.435,90.332,36.133,53.711,104.004,17.578,0
1579019274.439,92.285,39.062,56.152,109.863,23.438,0
1579019274.442,94.238,41.016,56.152,110.352,24.414,0
1579019274.446,88.379,41.504,56.152,99.609,29.297,0
1579019274.450,74.707,39.551,50.293,82.520,92.773,0
1579019274.454,70.801,38.086,43.945,80.078,100.586,0
1579019274.458,75.195,39.062,46.387,84.961,113.281,0
1579019274.454,67.871,40.527,44.434,69.336,99.121,0
1579019274.458,62.500,42.480,41.992,56.641,6.348,0
1579019274.462,60.547,41.016,40.039,59.082,-18.555,0
1579019274.466,58.594,41.016,38.574,60.059,45.898,0
1579019274.470,60.059,43.457,43.945,57.129,50.781,0
1579019274.474,50.781,41.504,43.945,46.875,38.574,0
1579019274.478,41.992,38.086,39.551,48.828,36.621,0
1579019274.481,40.039,39.551,39.551,58.105,41.504,0
1579019274.485,40.039,41.504,38.574,48.828,49.805,0
1579019274.489,39.062,41.016,38.574,40.527,20.508,0
1579019274.493,39.062,40.039,41.016,45.898,23.438,0
1579019274.497,39.062,39.062,38.574,49.805,6.836,0
1579019274.514,35.156,35.645,35.645,48.828,-16.602,0
1579019274.518,34.180,39.551,33.203,41.504,-12.695,0
1579019274.522,34.180,42.969,34.180,40.527,62.012,0
1579019274.526,36.621,40.039,36.133,47.852,55.176,0
1579019274.530,35.645,38.574,38.574,55.176,29.785,0
1579019274.534,35.156,39.062,41.992,50.293,41.992,0
1579019274.538,34.668,37.109,41.016,35.645,31.250,0
1579019274.541,34.180,36.621,37.598,42.969,-15.137,0
1579019274.545,37.109,36.621,39.062,54.688,-13.184,0
1579019274.549,36.621,35.645,38.086,43.457,74.219,0
1579019274.553,36.621,37.109,35.156,36.621,84.473,0
1579019274.557,33.691,35.645,34.668,39.062,70.801,0
1579019274.554,31.738,34.180,35.645,45.898,60.547,0
1579019274.558,29.785,34.668,34.668,44.434,12.207,0
1579019274.562,25.391,34.668,36.133,35.645,38.086,0
1579019274.566,26.367,37.598,37.598,33.691,74.707,0
1579019274.570,27.344,37.109,37.109,38.086,83.984,0
1579019274.574,28.320,34.668,34.180,37.598,103.027,0
1579019274.578,28.320,33.691,34.180,29.297,93.262,0
1579019274.581,25.391,32.227,36.133,32.227,41.504,0
1579019274.585,26.367,33.203,34.180,43.945,11.230,0
1579019274.589,25.391,36.621,36.133,43.457,21.973,0
1579019274.593,18.555,39.062,38.086,36.133,21.973,0
1579019274.597,20.020,38.574,37.598,35.156,-15.137,0
1579019274.595,25.879,34.668,32.227,39.062,-7.812,0
1579019274.599,27.832,33.691,29.297,47.363,5.859,0
1579019274.603,27.832,34.668,34.668,47.363,6.348,0
1579019274.607,25.879,34.668,35.645,40.527,58.594,0
1579019274.611,23.926,36.133,36.621,45.898,41.992,0
1579019274.615,24.902,37.109,38.574,55.664,11.230,0
1579019274.619,26.367,34.180,38.086,56.641,38.086,0
1579019274.622,25.391,32.227,38.574,47.852,4.395,0
1579019274.626,22.949,33.691,38.574,46.875,13.672,0
1579019274.630,28.320,33.691,37.109,63.477,15.625,0
1579019274.634,36.133,33.203,36.133,66.406,11.719,0
1579019274.638,36.133,36.133,35.645,55.664,30.273,0
1579019274.654,31.250,38.574,35.645,52.734,4.883,0
1579019274.658,29.785,39.062,35.156,58.105,26.855,0
1579019274.662,30.762,39.062,36.621,57.129,83.008,0
1579019274.666,26.367,35.156,38.086,50.293,39.551,0
1579019274.670,22.949,36.133,33.203,40.039,62.012,0
1579019274.674,25.879,39.551,30.273,38.086,74.219,0
1579019274.678,29.785,42.480,29.785,42.480,64.941,0
1579019274.681,29.297,41.016,29.785,39.551,17.578,0
1579019274.685,30.273,41.504,30.273,34.668,24.902,0
1579019274.689,40.039,43.945,26.367,32.715,74.707,0
1579019274.693,45.410,42.969,26.855,43.457,38.086,0
1579019274.697,41.992,40.039,29.785,46.387,16.602,0
1579019274.695,36.133,37.109,26.855,30.762,23.438,0
1579019274.699,37.598,37.109,25.391,30.762,-42.480,0
1579019274.703,44.434,36.621,28.809,40.039,-32.227,0
1579019274.707,45.410,35.645,29.785,39.062,93.750,0
1579019274.711,41.016,35.645,29.785,34.180,94.238,0
1579019274.715,42.480,36.133,31.250,35.156,29.785,0
1579019274.719,49.316,36.621,31.250,42.969,20.020,0
1579019274.722,46.875,36.621,31.250,47.363,40.039,0
1579019274.726,41.504,37.598,33.203,40.039,52.246,0
1579019274.730,41.992,39.062,38.574,27.344,27.344,0
1579019274.734,41.504,38.086,39.551,30.762,19.043,0
1579019274.738,40.527,34.180,35.645,49.316,44.922,0
1579019274.735,37.598,31.250,34.668,47.363,79.102,0
1579019274.739,38.574,30.762,34.668,33.691,98.633,0
1579019274.743,43.457,32.227,36.621,31.738,21.484,0
1579019274.747,41.016,33.203,35.156,41.992,-10.254,0
1579019274.751,43.945,36.133,30.762,45.898,15.137,0
1579019274.755,53.711,38.574,34.668,40.527,21.973,0
1579019274.759,54.688,37.598,37.109,36.133,55.176,0
1579019274.762,56.641,40.527,35.645,36.133,78.125,0
1579019274.766,53.223,42.480,34.668,34.180,87.402,0
1579019274.770,52.734,43.457,30.273,32.715,35.645,0
1579019274.774,52.246,43.457,31.738,27.344,13.672,0
1579019274.778,52.246,38.574,35.645,32.715,5.859,0
1579019274.794,70.312,37.109,30.762,60.547,9.766,0
1579019274.798,56.152,44.434,21.484,43.945,-11.719,0
1579019274.802,17.090,45.410,20.508,-7.812,-30.762,0
1579019274.806,11.230,40.527,25.391,-7.812,6.836,0
1579019274.810,-4.395,41.016,20.508,-12.695,78.125,0
1579019274.814,-27.344,43.457,17.578,-41.992,83.008,0
1579019274.818,-32.715,45.898,15.625,-57.129,3.906,0
1579019274.821,-56.152,44.434,10.254,-83.984,27.832,0
1579019274.825,-62.988,38.574,7.812,-83.984,52.246,0
1579019274.829,-68.848,39.551,8.789,-84.961,18.555,0
1579019274.833,-86.426,37.109,5.859,-108.398,47.852,0
1579019274.837,-86.426,32.715,3.418,-111.816,61.523,0
1579019274.836,-83.984,34.180,2.441,-103.027,-11.230,0
1579019274.840,-80.078,35.645,1.465,-92.773,-44.434,0
1579019274.844,-75.684,37.598,3.906,-88.867,-27.344,0
1579019274.848,-60.547,41.992,9.277,-80.566,8.789,0
1579019274.852,-45.898,40.527,9.766,-62.988,-2.441,0
1579019274.856,-37.598,37.109,8.789,-43.945,32.227,0
1579019274.860,-26.367,37.598,11.230,-39.551,119.141,0
1579019274.863,-17.090,40.039,11.230,-41.992,104.004,0
1579019274.867,-7.812,39.551,16.602,-35.156,69.336,0
1579019274.871,-0.488,38.086,18.066,-19.531,11.230,0
1579019274.875,3.906,40.527,15.137,-11.230,-65.918,0
1579019274.879,8.301,44.922,15.137,-8.301,4.395,0
1579019274.875,14.160,47.852,16.602,-4.395,38.086,0
1579019274.879,16.113,46.875,14.648,4.395,-10.254,0
1579019274.883,15.625,44.922,12.207,8.301,-7.324,0
1579019274.887,18.066,45.410,11.230,4.395,28.809,0
1579019274.891,22.461,42.969,11.230,1.953,82.031,0
1579019274.895,27.344,40.527,15.625,9.766,30.762,0
1579019274.899,30.762,43.457,18.555,15.625,-0.977,0
1579019274.902,30.762,45.898,19.531,5.371,21.973,0
1579019274.906,27.344,44.434,20.508,-1.953,-2.441,0
1579019274.910,28.320,44.922,20.020,8.301,62.988,0
1579019274.914,34.180,44.434,20.020,22.461,38.086,0
1579019274.918,40.039,44.434,21.484,23.438,-41.504,0
1579019274.934,41.016,45.898,21.484,15.625,5.859,0
1579019274.938,39.551,44.434,22.949,25.879,55.176,0
1579019274.942,37.598,42.969,24.902,37.598,66.895,0
1579019274.946,39.551,42.480,23.438,35.156,38.574,0
1579019274.950,39.551,38.574,25.391,28.320,29.297,0
1579019274.954,33.691,38.574,26.367,25.391,10.254,0
1579019274.958,31.250,41.992,28.320,38.086,13.672,0
1579019274.961,29.297,41.992,31.250,39.551,49.316,0
1579019274.965,25.879,41.992,27.832,23.926,43.457,0
1579019274.969,23.438,41.016,29.785,17.578,115.234,0
1579019274.973,22.461,40.039,33.203,23.438,86.426,0
1579019274.977,22.461,38.086,28.809,27.344,31.250,0
1579019274.974,23.438,38.086,26.367,20.508,41.992,0
1579019274.978,22.949,39.062,27.344,7.812,-15.137,0
1579019274.982,24.902,38.086,27.344,9.277,41.016,0
1579019274.986,29.785,38.574,28.320,19.043,89.844,0
1579019274.990,28.809,42.480,26.855,12.207,61.523,0
1579019274.994,25.391,44.434,27.344,1.953,83.008,0
1579019274.998,23.438,41.504,28.320,0.977,45.410,0
1579019275.001,24.902,41.504,28.809,5.371,-17.090,0
1579019275.005,25.391,44.922,27.832,8.301,4.395,0
1579019275.009,20.020,43.945,26.367,-1.953,-8.301,0
1579019275.013,18.555,38.574,25.391,-4.883,-6.836,0
1579019275.017,20.996,39.062,30.273,10.254,45.410,0
1579019275.034,21.484,41.992,33.691,14.648,43.457,0
1579019275.038,16.602,39.551,35.156,7.324,26.367,0
1579019275.042,6.836,38.086,36.133,3.906,69.336,0
1579019275.046,8.301,39.551,34.180,15.625,81.543,0
1579019275.050,14.160,37.598,34.180,27.832,92.773,0
1579019275.054,11.230,36.133,32.715,24.902,51.270,0
1579019275.058,10.742,35.645,29.785,19.043,24.414,0
1579019275.061,12.207,36.133,29.785,22.461,53.711,0
1579019275.065,16.602,36.133,33.203,36.133,-20.508,0
1579019275.069,20.020,33.691,36.621,38.574,-20.508,0
1579019275.073,11.230,32.227,36.133,29.297,-6.348,0
1579019275.077,17.090,33.691,35.156,29.297,-2.930,0
1579019275.075,27.344,35.645,34.668,32.715,-28.320,0
1579019275.079,29.785,36.621,34.668,31.250,-39.551,0
1579019275.083,36.621,36.621,35.156,29.297,22.949,0
1579019275.087,40.527,37.109,33.203,29.297,56.152,0
1579019275.091,42.969,36.621,31.250,33.203,61.523,0
1579019275.095,37.109,36.621,31.250,39.062,60.547,0
1579019275.099,28.320,36.621,32.227,33.691,82.031,0
1579019275.102,21.973,35.645,33.203,21.973,115.234,0
1579019275.106,24.902,37.598,33.203,30.273,12.695,0
1579019275.110,27.344,38.086,32.715,41.992,-41.016,0
1579019275.114,25.879,37.109,31.738,36.133,-2.930,0
1579019275.118,27.832,36.133,30.273,28.320,18.555,0
1579019275.114,31.250,36.621,27.832,31.738,39.062,0
1579019275.118,34.668,37.109,24.902,41.016,23.438,0
1579019275.122,34.180,35.645,29.297,45.898,38.086,0
1579019275.126,28.320,33.203,33.203,38.574,3.906,0
1579019275.130,32.715,33.203,31.738,41.504,-8.789,0
1579019275.134,41.992,34.668,33.203,61.035,31.250,0
1579019275.138,45.898,37.598,34.668,66.895,18.066,0
1579019275.141,43.457,36.621,31.738,56.641,-12.207,0
1579019275.145,38.086,33.691,30.273,50.781,63.965,0
1579019275.149,45.898,34.668,30.762,55.176,75.684,0
1579019275.153,55.664,36.621,31.250,65.918,11.230,0
1579019275.157,51.270,32.227,31.250,62.500,34.668,0
1579019275.174,42.969,30.273,31.738,51.758,-7.812,0
1579019275.178,45.410,35.156,32.715,56.152,-16.602,0
1579019275.182,52.246,36.133,33.203,65.430,-13.672,0
1579019275.186,50.781,33.203,31.250,58.594,16.113,0
1579019275.190,50.781,33.691,31.738,46.387,62.988,0
1579019275.194,55.176,34.668,31.250,49.316,97.656,0
1579019275.198,50.781,34.180,31.738,59.570,85.449,0
1579019275.201,44.434,33.203,30.762,50.781,30.762,0
1579019275.205,43.945,33.203,27.344,36.621,36.621,0
1579019275.209,41.504,35.156,25.879,32.227,91.797,0
1579019275.213,42.480,34.180,27.344,36.133,43.457,0
1579019275.217,43.945,33.691,30.762,38.086,-16.113,0
1579019275.214,37.598,33.691,32.227,29.297,14.160,0
1579019275.218,35.156,35.156,32.227,20.996,50.781,0
1579019275.222,35.156,35.156,33.203,21.973,54.199,0
1579019275.226,35.156,35.645,34.180,27.344,30.762,0
1579019275.230,35.645,37.598,35.645,19.043,7.812,0
1579019275.234,28.809,41.016,36.133,6.348,25.391,0
1579019275.238,27.344,40.039,31.250,2.930,115.234,0
1579019275.241,30.273,35.645,29.297,9.766,90.332,0
1579019275.245,23.926,37.109,27.832,8.789,48.828,0
1579019275.249,20.996,39.551,27.344,0.977,51.270,0
1579019275.253,16.113,38.574,30.762,1.465,58.594,0
1579019275.257,18.066,39.062,31.738,9.277,104.980,0
1579019275.254,25.391,39.551,31.250,11.719,90.332,0
1579019275.258,22.461,38.086,33.203,0.977,70.801,0
1579019275.262,24.902,35.645,35.645,13.672,31.738,0
1579019275.266,30.273,35.645,34.180,35.156,47.363,0
1579019275.270,18.066,39.062,33.203,22.461,69.824,0
1579019275.274,5.859,41.016,31.738,9.277,48.340,0
1579019275.278,13.184,41.504,28.809,12.207,34.180,0
1579019275.281,15.137,39.062,27.832,25.879,11.230,0
1579019275.285,16.602,36.133,27.832,33.691,1.465,0
1579019275.289,21.973,35.156,27.832,25.879,10.742,0
1579019275.293,24.414,37.598,27.832,24.902,12.207,0
1579019275.297,33.691,41.504,27.832,31.250,-4.883,0
1579019275.314,39.551,42.969,29.785,43.457,11.230,0
1579019275.318,41.992,42.969,33.203,42.969,28.809,0
1579019275.322,39.551,42.969,30.762,31.250,7.812,0
1579019275.326,34.180,41.992,27.832,32.227,5.371,0
1579019275.330,35.645,41.504,27.344,40.039,3.906,0
1579019275.334,37.598,40.527,25.879,43.945,37.598,0
1579019275.338,29.297,40.527,28.320,35.645,68.848,0
1579019275.341,29.297,41.992,32.227,32.227,33.203,0
1579019275.345,34.668,40.039,29.785,48.340,21.484,0
1579019275.349,37.109,36.621,29.785,59.082,9.766,0
1579019275.353,37.598,37.109,31.250,49.805,22.949,0
1579019275.357,28.320,38.086,32.715,38.574,45.898,0
1579019275.355,21.973,36.133,33.691,42.969,49.316,0
1579019275.359,18.066,38.574,31.250,51.758,80.566,0
1579019275.363,11.719,40.527,33.203,49.805,36.133,0
1579019275.367,9.277,37.109,33.691,41.992,-25.391,0
1579019275.371,13.184,36.133,35.156,39.551,3.418,0
1579019275.375,19.531,36.621,33.691,40.527,32.715,0
1579019275.379,21.973,36.621,32.715,42.969,57.617,0
1579019275.382,18.066,34.180,36.133,36.621,76.660,0
1579019275.386,20.508,33.203,37.109,34.180,30.762,0
1579019275.390,30.762,36.133,39.062,44.434,40.039,0
1579019275.394,36.133,36.621,37.109,42.480,47.363,0
1579019275.398,33.203,33.203,31.250,32.715,33.691,0
1579019275.394,34.180,31.250,35.156,31.738,71.289,0
1579019275.398,41.016,36.133,38.574,40.039,50.293,0
1579019275.402,41.992,37.109,34.668,44.922,12.207,0
1579019275.406,41.992,37.109,33.691,36.133,-8.301,0
1579019275.410,41.504,41.504,29.785,24.902,18.555,0
1579019275.414,40.039,42.480,29.297,25.879,66.895,0
1579019275.418,37.598,39.551,30.273,38.574,77.637,0
1579019275.421,34.180,38.086,30.273,40.527,39.062,0
1579019275.425,34.668,40.527,32.227,23.926,6.836,0
1579019275.429,39.062,41.016,33.203,22.949,-39.551,0
1579019275.433,47.852,38.574,34.180,35.156,-11.230,0
1579019275.437,45.410,38.086,32.715,31.250,33.691,0
1579019275.454,34.180,41.016,32.227,20.508,-10.742,0
1579019275.458,27.344,38.574,33.691,20.020,22.461,0
1579019275.462,28.320,35.156,32.227,29.297,48.340,0
1579019275.466,29.785,36.133,32.715,31.738,39.551,0
1579019275.470,26.855,37.598,34.668,23.438,59.570,0
1579019275.474,20.508,37.598,37.598,14.160,32.227,0
1579019275.478,16.113,35.645,38.574,11.719,38.574,0
1579019275.481,21.973,35.156,35.645,12.695,78.613,0
1579019275.485,15.137,34.668,36.621,3.906,96.191,0
1579019275.489,5.859,38.086,39.062,-1.465,27.344,0
1579019275.493,11.719,37.598,40.039,2.930,-82.031,0
1579019275.497,18.066,37.598,42.480,6.836,-10.254,0
1579019275.494,19.043,37.598,49.805,1.953,19.531,0
1579019275.498,11.230,29.297,43.457,-13.184,-41.992,0
1579019275.502,6.836,24.414,36.133,-18.555,17.578,0
1579019275.506,10.254,28.809,45.410,-12.207,46.875,0
1579019275.510,5.371,30.273,48.828,-15.625,49.805,0
1579019275.514,-13.672,28.320,44.434,-36.621,64.941,0
1579019275.518,-14.648,29.297,44.434,-40.527,75.195,0
1579019275.521,-25.879,30.762,47.852,-46.875,85.938,0
1579019275.525,-59.082,33.691,48.828,-79.102,82.520,0
1579019275.529,-71.777,31.250,54.199,-96.191,36.133,0
1579019275.533,-95.215,22.461,58.105,-119.629,0.488,0
1579019275.537,-120.117,19.531,58.594,-137.207,15.137,0
1579019275.535,-129.395,19.531,57.129,-139.648,35.645,0
1579019275.539,-150.391,16.602,58.594,-155.762,45.898,0
1579019275.543,-169.922,12.695,63.965,-173.340,48.828,0
1579019275.547,-168.457,12.695,61.523,-167.969,20.996,0
1579019275.551,-176.270,13.184,62.012,-163.574,-14.648,0
1579019275.555,-176.758,12.207,65.430,-163.086,45.898,0
1579019275.559,-166.992,16.113,62.500,-160.156,88.379,0
1579019275.562,-169.434,15.625,62.012,-161.621,53.223,0
1579019275.566,-157.715,13.184,61.523,-145.508,41.504,0
1579019275.570,-134.766,11.230,61.035,-121.094,58.105,0
1579019275.574,-125.977,10.254,62.012,-117.188,6.348,0
1579019275.578,-117.188,14.648,55.664,-107.910,25.879,0
1579019275.594,-91.797,16.602,53.223,-67.871,95.703,0
1579019275.598,-82.031,15.137,57.617,-48.340,33.203,0
1579019275.602,-74.219,16.113,52.246,-51.758,-4.395,0
1579019275.606,-45.898,19.531,45.898,-27.832,52.246,0
1579019275.610,-31.738,24.414,42.969,-5.371,97.656,0
1579019275.614,-15.625,26.855,40.527,16.602,44.434,0
1579019275.618,20.508,32.715,37.109,42.480,30.762,0
1579019275.621,23.926,36.621,37.598,33.203,41.992,0
1579019275.625,28.320,32.715,37.109,45.410,82.031,0
1579019275.629,60.059,32.715,31.250,86.426,78.125,0
1579019275.633,54.199,35.156,27.832,74.707,19.531,0
1579019275.637,49.316,36.133,23.438,59.570,5.859,0
1579019275.635,83.496,40.527,16.602,88.379,26.855,0
1579019275.639,86.426,46.387,13.672,89.844,49.805,0
1579019275.643,89.355,48.828,15.625,80.078,25.879,0
1579019275.647,114.746,57.617,15.137,89.355,28.320,0
1579019275.651,120.605,62.988,12.695,88.379,44.922,0
1579019275.655,122.070,58.105,9.277,93.262,-15.625,0
1579019275.659,131.348,58.105,5.859,106.934,-7.324,0
1579019275.662,129.395,57.129,5.859,104.004,41.504,0
1579019275.666,122.559,52.734,7.324,100.586,82.031,0
1579019275.670,125.000,54.199,8.301,110.352,115.234,0
1579019275.674,131.348,53.711,13.672,127.930,29.297,0
1579019275.678,135.742,52.246,14.648,135.742,-2.441,0
1579019275.675,129.883,50.781,14.648,128.906,32.227,0
1579019275.679,125.977,48.340,15.625,131.836,31.250,0
1579019275.683,128.906,48.828,17.090,140.625,38.574,0
1579019275.687,123.535,48.828,20.508,137.207,3.418,0
1579019275.691,114.746,49.805,21.484,127.441,-17.578,0
1579019275.695,111.816,51.270,24.902,123.047,-10.742,0
1579019275.699,111.816,49.316,27.832,125.977,4.883,0
1579019275.702,110.352,47.363,22.949,120.605,70.801,0
1579019275.706,104.492,47.363,18.066,98.633,65.430,0
1579019275.710,95.215,45.410,19.043,87.402,36.621,0
1579019275.714,92.285,41.016,20.508,93.262,61.035,0
1579019275.718,93.262,41.992,20.508,96.191,60.059,0
1579019275.734,90.820,45.410,20.508,91.797,52.734,0
1579019275.738,91.309,45.410,20.996,84.473,41.016,0
1579019275.742,96.191,42.480,23.926,87.402,32.227,3
1579019275.746,105.469,41.016,26.367,94.238,27.344,0
1579019275.750,105.957,41.504,24.414,91.309,8.301,0
1579019275.754,103.027,40.039,23.438,86.914,60.059,0
1579019275.758,98.145,39.062,26.855,84.961,100.586,0
1579019275.761,91.797,40.039,26.855,86.426,83.496,0
1579019275.765,93.262,41.504,24.414,88.867,98.633,0
1579019275.769,85.938,43.945,21.973,76.660,60.059,0
1579019275.773,78.125,46.875,19.531,64.941,-10.254,0
1579019275.777,76.660,44.434,24.414,69.336,11.719,0
1579019275.775,76.172,43.457,23.926,69.824,-1.465,0
1579019275.779,77.148,45.410,22.461,63.477,-27.344,0
1579019275.783,78.125,46.875,25.879,60.547,0.488,0
1579019275.787,75.195,47.363,25.879,66.406,42.480,0
1579019275.791,71.777,43.945,21.484,69.824,46.875,0
1579019275.795,71.289,46.875,24.902,66.406,11.230,0
1579019275.799,65.918,50.781,29.297,60.547,8.301,0
1579019275.802,61.523,48.340,27.344,60.547,-5.371,0
1579019275.806,62.012,45.410,24.902,63.477,-38.574,0
1579019275.810,62.012,44.922,26.855,55.664,-44.922,0
1579019275.814,57.617,45.410,30.762,44.922,-48.340,0
1579019275.818,54.688,42.480,30.762,43.457,-41.016,0
1579019275.815,59.082,40.039,30.273,53.711,-1.953,0
1579019275.819,58.594,41.504,28.320,52.246,-23.926,0
1579019275.823,51.758,40.527,25.879,38.086,-6.836,0
1579019275.827,50.781,39.062,25.879,38.574,49.805,0
1579019275.831,50.781,41.992,25.391,44.434,-16.113,0
1579019275.835,45.410,43.457,24.902,47.363,-4.395,0
1579019275.839,46.875,43.457,27.832,42.969,-17.090,0
1579019275.842,47.852,39.551,29.297,32.227,-9.277,0
1579019275.846,41.992,38.086,32.227,33.691,44.922,0
1579019275.850,41.016,40.039,30.762,40.039,-19.531,0
1579019275.854,44.434,39.551,27.344,35.645,31.250,0
1579019275.858,41.504,39.551,30.273,31.250,103.516,0
1579019275.874,44.922,39.551,34.180,41.504,119.629,0
1579019275.878,48.340,39.062,34.180,50.293,66.895,0
1579019275.882,53.223,39.551,28.809,44.434,19.043,0
1579019275.886,54.199,41.504,27.832,35.645,25.391,0
1579019275.890,52.246,40.527,29.297,33.691,105.469,0
1579019275.894,47.852,41.016,29.785,41.504,101.074,0
1579019275.898,41.504,44.434,29.785,43.457,28.320,0
1579019275.901,42.969,44.922,30.762,35.645,18.555,0
1579019275.905,42.480,43.945,31.738,36.133,0.000,0
1579019275.909,43.945,44.922,37.598,48.828,27.344,0
1579019275.913,48.828,42.480,40.527,54.688,59.570,0
1579019275.917,50.293,41.504,38.086,47.363,1.465,0
1579019275.914,52.246,43.457,37.598,44.922,0.488,0
1579019275.918,44.922,43.457,32.227,50.781,10.254,0
1579019275.922,41.504,41.504,30.273,53.711,30.273,0
1579019275.926,45.410,41.992,30.762,49.805,1.465,0
1579019275.930,41.504,42.480,28.809,41.016,28.809,0
1579019275.934,39.551,42.480,31.738,43.457,80.078,0
1579019275.938,43.457,43.457,36.133,52.246,37.598,0
1579019275.941,45.898,42.480,37.109,48.340,47.363,0
1579019275.945,39.551,38.574,36.133,40.039,54.199,0
1579019275.949,36.133,35.156,36.621,33.691,39.062,0
1579019275.953,41.504,39.062,37.598,41.016,5.859,0
1579019275.957,47.363,42.969,35.156,46.875,25.879,0
1579019275.954,45.898,42.969,35.645,32.227,32.227,0
1579019275.958,42.480,41.992,36.621,26.855,45.410,0
1579019275.962,36.621,39.551,33.203,32.715,15.625,0
1579019275.966,26.855,35.645,32.715,35.156,27.344,0
1579019275.970,18.555,35.156,31.738,27.344,36.621,0
1579019275.974,19.531,37.109,33.691,16.113,11.230,0
1579019275.978,20.508,35.645,33.691,20.508,88.867,0
1579019275.981,20.508,35.645,31.738,30.273,140.137,0
1579019275.985,18.555,40.527,34.668,25.391,84.473,0
1579019275.989,14.648,39.062,35.156,16.602,44.922,0
1579019275.993,16.113,35.156,35.645,17.090,29.297,0
1579019275.997,22.461,34.180,35.156,27.344,-4.883,0
1579019276.014,30.273,37.598,32.715,30.762,68.359,0
1579019276.018,29.297,40.527,29.297,20.020,29.785,0
1579019276.022,26.367,39.551,25.879,15.137,1.953,0
1579019276.026,30.762,43.457,25.391,27.344,54.688,0
1579019276.030,35.156,45.410,26.855,36.621,3.418,0
1579019276.034,36.621,41.992,29.785,29.785,-8.789,0
1579019276.038,36.621,41.992,30.762,24.414,-9.766,0
1579019276.041,34.668,39.551,30.762,33.691,-8.301,0
1579019276.045,34.668,39.062,34.180,46.387,-13.672,0
1579019276.049,34.668,40.527,38.086,42.480,-6.836,0
1579019276.053,31.738,40.527,36.621,34.668,55.176,0
1579019276.057,22.461,39.062,34.180,33.203,77.148,0
1579019276.054,19.531,36.621,34.668,39.062,53.711,0
1579019276.058,22.461,37.109,36.621,41.016,0.000,0
1579019276.062,24.902,37.109,37.598,33.691,37.598,0
1579019276.066,25.391,36.621,40.527,36.133,35.156,0
1579019276.070,23.438,37.598,42.480,41.504,-27.344,0
1579019276.074,26.855,37.109,40.039,43.457,-16.602,0
1579019276.078,30.762,36.133,34.180,31.738,37.598,0
1579019276.081,33.203,34.180,29.297,25.879,77.148,0
1579019276.085,36.133,35.156,29.297,37.598,57.129,0
1579019276.089,34.668,38.086,34.668,36.621,76.660,0
1579019276.093,31.250,41.504,34.668,26.855,122.559,0
1579019276.097,30.762,39.551,30.762,20.996,91.309,0
1579019276.094,32.715,38.086,34.668,27.832,17.578,0
1579019276.098,32.715,39.551,38.086,38.086,40.039,0
1579019276.102,32.227,38.086,34.180,34.180,42.480,0
1579019276.106,31.738,39.062,29.297,28.320,20.508,0
1579019276.110,30.273,40.039,27.344,33.691,59.570,0
1579019276.114,32.227,37.598,29.297,40.527,64.453,0
1579019276.118,32.227,35.645,33.203,39.551,29.785,0
1579019276.121,28.320,34.668,34.180,31.738,58.594,0
1579019276.125,28.809,34.668,32.227,31.250,70.801,0
1579019276.129,25.879,31.250,31.738,40.527,52.246,0
1579019276.133,20.020,30.762,32.227,41.504,64.453,0
1579019276.137,25.391,32.227,31.250,35.645,39.062,0
1579019276.154,29.297,32.227,32.227,33.203,19.043,0
1579019276.158,34.180,33.203,35.156,45.410,75.195,0
1579019276.162,36.621,32.715,36.133,52.734,90.332,0
1579019276.166,35.156,29.785,33.203,43.457,15.625,0
1579019276.170,37.598,28.809,32.715,33.691,-12.695,0
1579019276.174,39.551,32.715,34.180,38.574,36.133,0
1579019276.178,43.457,37.109,34.668,45.410,47.852,0
1579019276.181,43.457,37.109,33.203,34.668,10.254,0
1579019276.185,42.480,36.133,32.715,25.391,33.203,0
1579019276.189,42.969,39.062,31.738,32.715,65.918,0
1579019276.193,40.039,41.504,33.203,39.551,40.527,0
1579019276.197,39.551,40.039,35.156,36.133,18.555,0
1579019276.194,34.668,38.574,31.738,25.391,36.133,0
1579019276.198,32.227,40.039,29.785,24.414,-1.465,0
1579019276.202,37.598,41.016,32.715,34.668,19.043,0
1579019276.206,35.156,40.527,34.180,34.668,70.801,0
1579019276.210,35.156,41.992,30.762,27.344,22.949,0
1579019276.214,55.176,41.016,27.344,40.527,-8.301,0
1579019276.218,53.223,37.598,33.691,55.176,-4.883,0
1579019276.221,26.855,35.645,35.645,40.527,14.160,0
1579019276.225,23.438,32.715,35.645,30.273,30.273,0
1579019276.229,34.668,31.738,37.109,33.203,1.953,0
1579019276.233,36.621,31.250,35.645,37.598,-0.977,0
1579019276.237,36.133,30.762,40.039,48.340,67.871,0
1579019276.234,35.645,30.273,41.504,45.898,67.871,0
1579019276.238,30.273,29.785,38.086,35.645,31.250,0
1579019276.242,29.785,29.297,37.109,39.062,-5.859,0
1579019276.246,36.133,28.809,35.645,51.270,15.137,0
1579019276.250,40.527,31.738,37.598,54.688,1.953,0
1579019276.254,42.480,32.715,41.992,44.922,-36.133,0
1579019276.258,40.039,31.250,41.992,41.504,10.742,0
1579019276.261,39.062,32.715,41.016,47.852,48.828,0
1579019276.265,41.016,34.668,39.062,46.387,42.480,0
1579019276.269,37.109,36.133,36.133,36.133,17.578,0
1579019276.273,29.297,33.691,37.598,26.855,47.363,0
1579019276.277,26.367,37.109,37.109,34.668,28.809,0
1579019276.294,33.691,41.016,36.133,44.434,-15.625,0
1579019276.298,33.691,41.504,36.133,33.691,-3.906,0
1579019276.302,34.668,43.457,32.227,27.344,44.922,0
1579019276.306,41.992,43.945,31.250,36.133,50.293,0
1579019276.310,41.504,43.945,30.762,43.457,-2.930,0
1579019276.314,42.480,41.504,30.273,42.480,38.574,0
1579019276.318,42.480,39.551,32.715,35.156,89.844,0
1579019276.321,43.945,40.039,33.691,39.551,43.457,0
1579019276.325,41.504,36.621,34.668,49.316,79.590,0
1579019276.329,36.621,34.180,36.133,54.199,77.637,0
1579019276.333,34.180,36.621,35.156,43.945,29.785,0
1579019276.337,24.902,35.156,35.645,36.621,40.039,0
1579019276.335,27.344,32.715,36.133,51.270,35.645,0
1579019276.339,37.598,34.668,36.621,60.059,47.363,0
1579019276.343,41.016,35.156,38.574,51.758,2.930,0
1579019276.347,41.016,34.668,37.598,41.016,-29.785,0
1579019276.351,42.969,33.691,35.645,40.527,8.301,0
1579019276.355,46.875,33.203,34.668,48.828,-30.273,0
1579019276.359,45.898,35.645,33.691,46.387,22.461,0
1579019276.362,45.410,37.109,36.133,36.133,103.027,0
1579019276.366,44.434,37.109,41.504,37.109,92.285,0
1579019276.370,44.922,35.645,41.504,41.016,44.922,0
1579019276.374,41.992,36.133,40.039,33.203,-14.160,0
1579019276.378,31.738,35.645,34.668,20.020,2.930,0
1579019276.375,30.762,34.668,30.762,16.602,23.438,0
1579019276.379,32.227,35.645,35.156,23.926,29.785,0
1579019276.383,29.297,37.109,35.156,26.367,25.879,0
1579019276.387,23.926,36.133,32.227,17.090,30.762,0
1579019276.391,21.484,35.156,31.738,9.277,43.457,0
1579019276.395,24.414,40.039,27.832,15.137,17.090,0
1579019276.399,28.320,42.969,27.344,22.461,-36.133,0
1579019276.402,27.832,43.945,28.320,12.695,-34.180,0
1579019276.406,22.461,44.434,29.785,0.977,-16.602,0
1579019276.410,22.461,41.504,31.250,5.859,-7.812,0
1579019276.414,29.297,38.086,30.273,16.602,-41.992,0
1579019276.418,28.320,39.551,30.762,10.742,-14.160,0
1579019276.435,21.973,40.039,32.227,-1.953,52.246,0
1579019276.439,24.414,39.551,33.203,1.465,50.293,0
1579019276.443,28.809,40.527,28.809,14.648,64.941,0
1579019276.447,26.855,41.504,27.832,18.555,37.109,0
1579019276.451,16.113,40.039,33.203,15.137,5.371,0
1579019276.455,16.113,39.551,35.645,15.625,33.203,0
1579019276.459,20.020,39.551,34.668,20.996,72.266,0
1579019276.462,24.414,40.039,38.086,27.832,30.273,0
1579019276.466,28.809,39.551,39.551,21.973,1.953,0
1579019276.470,25.879,36.133,37.109,23.926,43.457,0
1579019276.474,23.926,34.668,41.504,35.645,57.617,0
1579019276.478,25.879,35.645,41.016,41.992,58.105,0
1579019276.475,26.855,35.645,37.109,38.574,84.961,0
1579019276.479,25.391,38.086,34.668,29.785,54.199,0
1579019276.483,28.809,38.086,34.668,35.645,10.254,0
1579019276.487,36.133,35.156,35.645,49.316,71.289,0
1579019276.491,38.086,38.086,34.180,48.340,114.258,0
1579019276.495,31.738,38.086,35.645,35.156,109.863,0
1579019276.499,30.762,36.621,35.156,33.691,50.781,0
1579019276.502,32.715,37.109,33.203,41.504,51.758,0
1579019276.506,30.762,37.109,33.203,43.457,32.715,0
1579019276.510,23.438,39.062,33.691,34.668,16.602,0
1579019276.514,17.578,39.062,32.227,33.691,-10.742,0
1579019276.518,20.508,39.551,29.785,44.922,-29.297,0
1579019276.514,24.902,39.551,30.273,47.852,39.551,0
1579019276.518,22.949,39.551,32.715,36.133,16.602,0
1579019276.522,22.461,40.039,34.668,27.344,-14.160,0
1579019276.526,31.250,42.969,34.668,38.574,20.508,0
1579019276.530,38.574,42.480,35.645,48.340,46.387,0
1579019276.534,42.480,40.039,38.086,42.480,49.805,0
1579019276.538,39.062,41.504,36.621,32.715,22.461,0
1579019276.541,34.180,40.527,34.668,29.785,25.879,0
1579019276.545,36.133,36.621,34.668,38.574,1.465,0
1579019276.549,37.109,35.156,35.156,36.133,17.090,0
1579019276.553,35.645,35.645,39.062,19.531,20.996,0
1579019276.557,34.668,36.133,38.574,23.438,51.270,0
1579019276.575,37.598,34.668,37.598,35.645,63.965,0
1579019276.579,39.062,34.180,35.645,37.598,32.715,0
1579019276.583,35.156,36.133,35.645,29.297,24.414,0
1579019276.587,33.203,37.109,41.016,25.391,48.828,0
1579019276.591,35.156,35.645,41.016,33.203,77.637,0
1579019276.595,37.598,33.691,36.621,35.645,87.402,0
1579019276.599,33.691,32.227,36.621,23.438,76.660,0
1579019276.602,28.320,32.227,36.133,17.090,29.297,0
1579019276.606,34.180,30.762,36.621,28.320,36.133,0
1579019276.610,36.621,29.785,38.086,36.133,51.270,0
1579019276.614,32.227,35.645,37.598,26.367,20.020,0
1579019276.618,33.203,38.086,35.645,20.996,-4.883,0
1579019276.614,36.133,36.133,33.691,29.297,10.254,0
1579019276.618,36.621,37.109,33.691,41.016,2.930,0
1579019276.622,32.227,38.574,32.227,39.062,-0.977,0
1579019276.626,26.855,37.598,33.203,26.367,69.824,0
1579019276.630,30.762,36.133,34.180,24.414,54.199,0
1579019276.634,36.621,34.668,34.180,35.156,24.414,0
1579019276.638,38.574,31.738,33.691,37.598,62.012,0
1579019276.641,41.992,32.715,30.762,35.156,-3.418,0
1579019276.645,40.527,35.645,32.227,32.227,-2.930,0
1579019276.649,38.574,39.551,31.250,28.320,44.922,0
1579019276.653,36.621,43.457,29.785,32.227,40.527,0
1579019276.657,30.273,42.480,31.738,26.367,2.930,0
1579019276.674,33.203,41.992,30.762,22.461,-13.672,0
1579019276.678,35.645,40.039,29.297,30.273,4.395,0
1579019276.682,39.551,37.598,32.227,40.039,-35.156,0
1579019276.686,41.016,35.645,34.180,39.062,5.371,0
1579019276.690,37.109,33.203,35.645,33.203,33.691,0
1579019276.694,41.504,31.738,34.668,40.527,2.930,0
1579019276.698,42.480,30.273,34.668,50.781,83.984,0
1579019276.701,38.574,31.738,34.180,48.828,55.664,0
1579019276.705,35.156,32.715,32.227,39.062,37.109,0
1579019276.709,42.480,35.156,34.180,40.527,70.312,0
1579019276.713,48.828,36.133,37.109,55.664,31.250,0
1579019276.717,49.316,36.621,37.598,61.523,66.895,0
1579019276.715,49.316,38.086,36.621,51.270,39.062,0
1579019276.719,37.109,37.109,35.156,41.016,-16.113,0
1579019276.723,34.668,34.180,37.598,44.434,7.324,0
1579019276.727,39.551,30.762,38.574,47.363,23.926,0
1579019276.731,39.551,32.227,37.598,35.645,39.551,0
1579019276.735,37.109,34.180,36.133,23.438,35.156,0
1579019276.739,34.180,33.203,31.738,31.250,9.277,0
1579019276.742,38.086,34.180,32.227,39.551,7.812,0
1579019276.746,41.504,36.133,34.668,31.250,41.016,0
1579019276.750,39.551,36.621,31.738,19.043,57.617,0
1579019276.754,40.527,37.598,28.809,15.625,109.863,0
1579019276.758,50.781,36.133,32.715,27.832,104.004,0
1579019276.755,47.363,34.180,31.738,30.762,23.438,0
1579019276.759,36.133,35.156,28.809,21.973,29.785,0
1579019276.763,33.691,37.598,32.715,23.926,49.316,0
1579019276.767,40.527,36.133,35.156,37.598,1.465,0
1579019276.771,44.434,34.668,35.645,41.016,3.906,0
1579019276.775,38.574,37.109,33.691,29.785,31.250,0
1579019276.779,33.691,36.621,34.668,25.391,61.035,0
1579019276.782,34.668,34.668,35.645,31.738,100.098,0
1579019276.786,38.574,38.086,31.250,38.086,77.637,0
1579019276.790,31.738,39.062,32.227,31.738,54.688,0
1579019276.794,25.879,37.598,37.598,20.508,80.566,0
1579019276.798,27.344,36.621,36.133,26.855,62.500,0
1579019276.814,30.762,34.668,32.715,34.668,49.805,0
1579019276.818,30.273,36.133,37.109,26.855,5.371,0
1579019276.822,28.809,41.504,38.086,16.113,-16.113,0
1579019276.826,28.320,40.039,34.668,19.043,42.480,0
1579019276.830,30.273,37.598,32.715,31.738,20.996,0
1579019276.834,36.621,38.574,33.203,31.250,32.715,0
1579019276.838,31.250,36.621,31.250,19.043,33.203,0
1579019276.841,24.414,36.133,30.273,17.090,15.625,0
1579019276.845,26.367,36.621,31.250,28.320,52.734,0
1579019276.849,31.738,36.621,33.691,36.133,22.949,0
1579019276.853,32.715,36.133,34.668,27.832,42.969,0
1579019276.857,27.832,33.691,37.109,20.996,56.641,0
1579019276.874,24.414,33.203,41.992,32.715,-0.488,3
1579019276.878,26.855,35.156,38.574,42.480,32.715,0
1579019276.882,23.438,36.133,35.156,35.645,62.500,0
1579019276.886,20.020,39.062,36.133,27.344,53.711,0
1579019276.890,27.832,40.527,39.062,32.715,4.883,0
1579019276.894,32.227,39.062,38.086,42.480,3.906,0
1579019276.898,32.715,39.062,35.645,40.527,40.527,0
1579019276.901,31.738,35.645,35.156,26.367,76.660,0
1579019276.905,32.227,32.227,32.715,23.438,40.039,0
1579019276.909,28.809,33.691,28.320,34.668,-19.531,0
1579019276.913,29.785,32.227,28.320,26.855,1.953,0
1579019276.917,32.715,32.227,30.762,11.719,12.695,0
1579019276.895,29.785,36.133,33.203,17.090,27.832,0
1579019276.899,26.367,33.691,34.668,26.855,22.949,0
1579019276.903,22.949,33.203,36.621,32.227,37.598,0
1579019276.907,19.531,36.133,40.039,24.902,39.551,0
1579019276.911,24.414,35.645,39.551,15.625,45.898,0
1579019276.915,29.297,35.645,36.133,25.879,65.918,0
1579019276.919,34.668,39.062,34.180,38.574,48.828,0
1579019276.922,33.691,39.551,34.668,33.691,16.602,0
1579019276.926,25.879,38.086,35.645,22.949,4.395,0
1579019276.930,27.832,37.109,37.109,23.438,30.273,0
1579019276.934,31.738,38.574,33.691,34.180,66.406,0
1579019276.938,32.227,37.109,34.668,35.645,48.340,0
1579019276.955,33.691,34.668,33.691,24.902,17.578,0
1579019276.959,34.180,35.156,31.738,21.973,17.090,0
1579019276.963,40.039,35.645,34.180,33.203,34.180,0
1579019276.967,40.527,38.086,35.156,43.457,72.266,0
1579019276.971,33.203,38.574,33.691,36.621,61.523,0
1579019276.975,30.762,37.598,30.273,31.738,34.180,0
1579019276.979,30.762,39.062,32.715,36.133,40.527,0
1579019276.982,34.180,39.062,34.180,37.109,69.824,0
1579019276.986,29.785,37.598,32.227,29.785,58.594,0
1579019276.990,24.902,36.133,32.227,17.090,0.977,0
1579019276.994,30.762,33.691,30.762,19.531,30.273,0
1579019276.998,34.180,32.227,30.762,31.250,62.500,0
1579019276.995,30.762,33.691,34.180,30.762,31.738,0
1579019276.999,26.367,37.109,32.715,19.043,10.254,0
1579019277.003,29.297,37.598,29.785,20.020,20.020,0
1579019277.007,34.180,37.598,30.762,38.086,67.871,0
1579019277.011,37.109,38.086,31.250,43.945,66.406,0
1579019277.015,36.621,36.133,31.738,31.738,34.180,0
1579019277.019,41.016,34.668,32.715,31.738,26.367,0
1579019277.022,43.945,35.156,32.715,45.898,40.039,0
1579019277.026,44.434,33.203,32.227,45.410,31.250,0
1579019277.030,42.969,33.203,31.250,34.668,37.109,0
1579019277.034,36.621,36.621,32.227,26.367,34.180,0
1579019277.038,39.551,39.551,30.762,31.738,-20.996,0
1579019277.034,42.969,40.039,29.785,41.992,-4.883,0
1579019277.038,36.133,39.551,34.180,38.086,-21.973,0
1579019277.042,25.879,36.621,32.715,25.879,6.348,0
1579019277.046,22.461,36.133,29.785,24.902,19.043,0
1579019277.050,25.391,37.598,31.738,32.715,12.695,0
1579019277.054,29.785,36.621,35.645,35.645,59.082,0
1579019277.058,29.785,36.133,35.156,25.391,36.621,0
1579019277.061,28.320,37.109,32.715,25.879,0.000,0
1579019277.065,33.691,39.062,34.668,37.109,18.555,0
1579019277.069,33.203,40.039,34.668,37.109,47.363,0
1579019277.073,29.785,38.086,31.250,28.320,46.387,0
1579019277.077,36.621,38.574,30.762,27.344,4.883,0
1579019277.094,42.969,40.527,36.133,41.504,-3.906,0
1579019277.098,39.062,38.086,34.180,46.387,44.434,0
1579019277.102,35.156,39.551,32.227,34.180,30.762,0
1579019277.106,34.668,40.039,31.738,24.414,21.973,0
1579019277.110,37.109,39.062,29.297,33.691,78.613,0
1579019277.114,40.039,41.016,32.227,44.434,69.824,0
1579019277.118,35.156,41.992,32.715,33.691,16.602,0
1579019277.121,35.156,41.016,33.691,24.902,-0.977,0
1579019277.125,38.574,39.062,35.156,31.738,10.742,0
1579019277.129,43.945,39.062,35.645,44.922,51.270,0
1579019277.133,50.293,36.621,34.180,49.316,102.051,0
1579019277.137,45.898,35.645,35.645,37.109,65.918,0
1579019277.135,38.086,36.133,35.645,36.133,-40.527,0
1579019277.139,37.109,36.621,36.621,48.340,-11.230,0
1579019277.143,39.551,37.109,37.598,47.852,21.484,0
1579019277.147,34.180,35.645,34.668,35.156,-21.484,0
1579019277.151,29.297,34.180,33.203,29.297,-17.578,0
1579019277.155,29.297,38.574,32.715,35.645,-18.066,0
1579019277.159,31.250,41.016,33.691,41.504,0.977,0
1579019277.162,31.738,39.062,37.109,36.133,37.598,0
1579019277.166,26.855,40.039,36.621,29.785,8.301,0
1579019277.170,33.691,41.016,37.109,36.621,-25.879,0
1579019277.174,39.062,40.039,35.645,38.086,64.453,0
1579019277.178,33.691,38.086,31.738,30.762,113.281,0
1579019277.174,32.227,38.086,36.133,26.367,29.785,0
1579019277.178,35.645,39.062,37.109,29.297,-55.176,0
1579019277.182,40.039,40.527,32.227,35.645,-2.930,0
1579019277.186,37.598,40.039,28.809,32.227,60.547,0
1579019277.190,33.203,39.062,26.855,23.926,25.879,0
1579019277.194,32.227,41.016,31.738,25.879,42.969,0
1579019277.198,34.180,38.574,37.598,35.156,100.586,0
1579019277.201,35.156,36.133,38.086,42.480,36.621,0
1579019277.205,25.879,39.551,38.574,28.809,33.203,0
1579019277.209,23.926,38.086,37.598,23.926,56.152,0
1579019277.213,27.832,34.180,38.086,41.504,45.898,0
1579019277.217,27.344,34.180,37.598,47.363,100.586,0
1579019277.234,27.832,35.645,34.668,38.574,98.145,0
1579019277.238,26.855,36.133,31.250,27.344,85.938,0
1579019277.242,25.391,35.645,30.762,32.227,29.785,0
1579019277.246,28.809,34.180,35.156,42.480,12.695,0
1579019277.250,30.273,34.668,35.645,37.598,84.473,0
1579019277.254,22.461,37.109,36.621,28.320,104.492,0
1579019277.258,23.926,35.645,37.598,31.250,79.102,0
1579019277.261,27.832,35.156,33.691,40.039,37.109,0
1579019277.265,23.926,33.691,33.203,38.086,36.621,0
1579019277.269,22.949,35.156,31.738,27.344,55.664,0
1579019277.273,22.949,34.668,31.250,28.809,16.113,0
1579019277.277,22.949,31.738,30.273,34.180,16.602,0
1579019277.274,29.297,31.250,30.273,37.109,4.395,0
1579019277.278,29.785,32.227,34.180,39.062,3.906,0
1579019277.282,29.297,34.668,37.598,34.180,56.641,0
1579019277.286,36.621,37.109,37.109,41.016,1.953,0
1579019277.290,40.039,37.109,36.621,48.340,-25.391,0
1579019277.294,40.039,38.086,36.133,38.574,-9.277,0
1579019277.298,35.156,38.086,35.156,32.227,-6.836,0
1579019277.301,34.180,33.691,36.621,39.062,-22.949,0
1579019277.305,38.574,33.203,36.621,44.434,-13.184,0
1579019277.309,34.180,36.133,34.668,33.203,73.730,0
1579019277.313,29.297,37.109,32.715,18.066,11.230,0
1579019277.317,34.668,37.109,33.203,25.879,-29.785,0
1579019277.314,36.621,35.156,35.156,41.016,58.105,0
1579019277.318,33.203,32.227,35.156,40.527,26.855,0
1579019277.322,31.738,33.203,36.133,25.879,32.715,0
1579019277.326,26.367,35.645,34.668,18.555,51.270,0
1579019277.330,25.391,36.621,32.715,28.809,25.879,0
1579019277.334,23.926,35.156,30.273,33.691,75.195,0
1579019277.338,19.043,34.668,27.832,22.949,91.309,0
1579019277.341,21.484,37.109,29.785,16.113,41.016,0
1579019277.345,24.902,37.598,29.785,22.461,89.844,0
1579019277.349,28.320,36.621,26.367,31.738,75.195,0
1579019277.353,28.809,37.109,27.344,28.320,50.781,0
1579019277.357,24.902,34.668,28.809,22.461,23.926,0
1579019277.374,27.832,32.227,29.297,26.855,38.574,0
1579019277.378,28.320,34.180,29.785,34.180,22.949,0
1579019277.382,21.973,33.203,29.785,30.762,-6.348,0
1579019277.386,22.461,36.621,30.762,23.926,9.277,0
1579019277.390,28.809,39.062,35.156,28.320,-7.812,0
1579019277.394,46.387,38.574,38.086,44.922,21.484,0
1579019277.398,39.062,40.039,35.645,36.133,25.391,0
1579019277.401,24.902,35.645,33.691,13.672,18.555,0
1579019277.405,28.320,32.227,35.645,15.625,32.227,0
1579019277.409,21.484,33.203,37.109,20.020,33.203,0
1579019277.413,23.926,30.273,36.621,29.297,36.133,0
1579019277.417,27.832,30.762,32.715,21.973,44.922,0
1579019277.415,19.043,31.250,34.668,11.719,5.371,0
1579019277.419,13.672,26.855,35.156,20.508,10.742,0
1579019277.423,18.066,24.414,31.250,29.297,91.797,0
1579019277.427,20.020,28.320,31.738,27.344,65.918,0
1579019277.431,20.020,33.203,32.227,18.066,55.664,0
1579019277.435,22.949,32.227,36.133,20.020,85.449,0
1579019277.439,21.973,30.762,38.086,31.738,71.777,0
1579019277.442,20.020,31.738,34.180,30.762,42.480,0
1579019277.446,17.578,30.273,30.273,20.996,9.277,0
1579019277.450,16.113,31.250,29.297,21.484,21.973,0
1579019277.454,23.926,33.203,26.855,29.785,70.312,0
1579019277.458,32.715,33.203,28.809,33.203,64.453,0
1579019277.454,35.156,33.691,32.227,22.949,53.223,0
1579019277.458,33.203,35.645,31.738,19.531,95.215,0
1579019277.462,34.180,37.109,32.715,33.203,62.012,0
1579019277.466,37.109,35.156,32.715,38.574,-11.230,0
1579019277.470,33.691,36.621,32.227,31.250,-20.996,0
1579019277.474,34.668,40.039,34.668,26.855,20.508,0
1579019277.478,38.086,37.109,35.645,31.250,-19.531,0
1579019277.481,40.039,33.691,36.133,39.551,-2.930,0
1579019277.485,44.922,32.715,37.109,35.645,61.523,0
1579019277.489,36.621,33.691,35.645,24.902,8.789,0
1579019277.493,31.250,37.598,33.203,29.297,32.227,0
1579019277.497,37.109,39.062,33.691,43.457,104.980,0
1579019277.514,32.227,36.133,35.156,42.480,29.785,0
1579019277.518,27.344,36.621,35.156,29.785,-13.672,0
1579019277.522,26.855,37.598,38.574,29.785,52.734,0
1579019277.526,26.855,36.621,42.480,37.598,24.414,0
1579019277.530,31.738,34.668,37.598,37.109,1.953,0
1579019277.534,29.785,36.133,36.621,23.438,97.168,0
1579019277.538,22.949,35.645,35.156,6.836,44.434,0
1579019277.541,23.438,32.715,32.227,11.719,3.906,0
1579019277.545,22.461,35.156,32.227,22.461,48.340,0
1579019277.549,19.043,34.180,31.250,18.066,-20.020,0
1579019277.553,19.531,31.250,31.738,14.160,2.930,0
1579019277.557,28.320,31.250,31.738,26.367,44.434,0
1579019277.555,36.621,34.668,28.809,39.062,26.855,0
1579019277.559,38.086,38.086,29.785,41.992,74.707,0
1579019277.563,39.551,38.574,30.762,35.645,47.852,0
1579019277.567,38.574,40.039,29.297,32.227,4.883,0
1579019277.571,44.434,41.016,31.250,42.969,38.574,0
1579019277.575,49.805,41.992,31.738,49.805,2.441,0
1579019277.579,46.387,41.016,33.203,38.574,12.207,0
1579019277.582,33.691,36.133,32.227,27.344,54.688,0
1579019277.586,26.855,31.738,31.250,36.133,29.785,0
1579019277.590,27.832,31.738,31.738,40.527,7.812,0
1579019277.594,26.855,34.668,31.738,28.809,52.734,0
1579019277.598,25.879,35.645,32.227,21.484,8.301,0
1579019277.614,31.250,35.156,28.809,29.785,-4.395,0
1579019277.618,36.621,35.156,25.391,34.668,74.707,0
1579019277.622,36.133,36.621,26.855,26.367,76.172,0
1579019277.626,34.668,39.062,30.762,21.484,30.273,0
1579019277.630,37.109,37.598,32.715,24.414,48.828,0
1579019277.634,37.109,34.180,27.832,29.297,52.734,0
1579019277.638,37.109,34.180,25.391,26.855,10.742,0
1579019277.641,36.621,37.109,32.227,21.484,6.348,0
1579019277.645,30.273,38.086,35.156,26.855,15.625,0
1579019277.649,37.109,38.574,27.832,43.945,72.266,0
1579019277.653,41.992,37.598,28.320,48.340,106.445,0
1579019277.657,36.621,38.574,32.227,41.016,88.867,0
1579019277.655,37.598,39.062,32.227,37.109,81.055,0
1579019277.659,38.574,36.133,34.668,44.434,47.363,0
1579019277.663,36.133,35.156,33.691,50.293,33.691,0
1579019277.667,25.879,32.227,31.250,40.039,-8.789,0
1579019277.671,21.484,31.738,34.668,29.785,-12.695,0
1579019277.675,26.855,32.227,34.668,34.180,-7.812,0
1579019277.679,31.250,28.320,32.227,44.922,18.555,0
1579019277.682,30.273,28.320,32.715,42.480,106.445,0
1579019277.686,23.438,27.344,34.180,29.785,81.543,0
1579019277.690,23.926,23.926,32.715,31.250,6.348,0
1579019277.694,33.203,30.273,32.715,39.062,-85.938,0
1579019277.698,35.156,36.133,30.273,31.738,-4.883,0
1579019277.695,31.738,35.156,25.391,18.066,69.336,0
1579019277.699,38.086,36.133,25.391,21.973,20.020,0
1579019277.703,46.875,38.574,26.855,39.062,83.008,0
1579019277.707,44.434,36.621,23.926,40.039,99.609,0
1579019277.711,37.598,35.645,22.949,30.273,16.602,0
1579019277.715,36.133,37.109,25.391,22.949,0.000,0
1579019277.719,35.645,37.109,23.926,27.344,44.922,0
1579019277.722,33.691,36.621,24.902,33.691,56.641,0
1579019277.726,31.738,37.109,25.879,24.902,55.664,0
1579019277.730,24.902,37.598,27.832,14.160,51.270,0
1579019277.734,23.926,37.598,28.809,19.531,51.270,0
1579019277.738,34.668,38.086,25.879,28.809,23.438,0
1579019277.734,37.598,38.574,24.414,26.855,15.137,0
1579019277.738,27.832,35.156,24.902,19.043,42.969,0
1579019277.742,22.949,31.250,22.949,21.973,9.766,0
1579019277.746,29.297,33.203,23.926,37.598,21.973,0
1579019277.750,36.621,34.180,31.250,49.805,45.410,0
1579019277.754,34.180,31.250,32.227,41.504,41.016,0
1579019277.758,33.691,32.227,29.785,37.598,35.645,0
1579019277.761,39.062,35.156,33.691,46.875,27.344,0
1579019277.765,46.387,34.180,34.180,45.898,34.180,0
1579019277.769,35.645,31.738,33.203,36.133,39.062,0
1579019277.773,25.879,32.715,33.691,28.320,72.266,0
1579019277.777,32.227,36.621,30.273,35.645,89.355,0
1579019277.794,34.668,40.527,29.785,40.527,54.199,0
1579019277.798,32.715,40.039,28.809,29.297,58.105,0
1579019277.802,23.926,38.086,23.926,20.020,78.613,0
1579019277.806,24.414,38.574,25.391,26.855,44.434,0
1579019277.810,32.227,38.574,28.320,35.156,12.207,0
1579019277.814,29.297,37.109,26.367,27.344,13.672,0
1579019277.818,22.949,34.180,28.809,19.531,33.203,0
1579019277.821,21.484,32.715,31.250,19.043,59.570,0
1579019277.825,26.855,38.086,30.762,24.414,37.109,0
1579019277.829,28.320,41.504,31.250,27.832,22.949,0
1579019277.833,20.508,39.551,33.203,16.113,84.473,0
1579019277.837,19.531,37.109,33.691,9.766,64.453,0
1579019277.836,23.438,36.621,34.180,25.391,41.992,0
1579019277.840,21.484,36.621,36.133,36.133,-15.625,0
1579019277.844,20.508,34.668,38.086,33.203,-47.363,0
1579019277.848,24.902,34.180,36.133,29.297,37.598,0
1579019277.852,28.809,35.645,33.691,32.715,25.879,0
1579019277.856,31.738,36.133,32.227,38.086,-15.625,0
1579019277.860,32.715,38.574,32.227,32.715,26.855,0
1579019277.863,25.879,40.039,33.203,28.320,29.297,0
1579019277.867,21.484,35.645,29.785,29.297,39.062,0
1579019277.871,26.855,32.227,31.738,32.715,29.297,0
1579019277.875,27.344,29.785,35.645,34.668,13.672,0
1579019277.879,22.949,30.762,38.086,32.715,20.996,0
1579019277.874,26.367,31.738,39.551,39.062,7.324,0
1579019277.878,33.203,31.738,35.645,51.270,62.500,0
1579019277.882,35.156,32.227,32.227,45.410,100.586,0
1579019277.886,32.715,33.203,33.203,35.156,-3.906,0
1579019277.890,31.738,33.691,34.668,36.621,-20.020,0
1579019277.894,31.738,33.691,33.691,41.992,40.527,0
1579019277.898,36.621,36.133,31.738,43.457,10.254,0
1579019277.901,35.645,36.621,31.738,26.367,17.090,0
1579019277.905,31.250,37.598,30.273,14.160,47.363,0
1579019277.909,35.156,37.598,28.809,25.879,-3.418,0
1579019277.913,37.598,38.086,30.273,30.762,-45.898,0
1579019277.917,38.086,39.551,29.785,19.531,22.949,0
1579019277.935,30.273,38.574,25.879,7.812,41.016,0
1579019277.939,27.344,34.668,24.902,13.184,40.039,0
1579019277.943,27.832,33.203,26.367,21.973,56.641,0
1579019277.947,23.438,32.715,26.855,20.020,5.859,0
1579019277.951,21.484,31.250,27.832,15.137,47.363,0
1579019277.955,23.438,35.645,30.273,18.555,117.188,0
1579019277.959,30.762,39.551,34.180,34.668,114.258,0
1579019277.962,37.598,40.527,36.133,41.504,59.570,0
1579019277.966,37.598,41.016,37.109,34.180,32.715,0
1579019277.970,37.598,37.598,36.133,34.180,21.973,0
1579019277.974,37.109,35.156,35.156,42.480,45.898,0
1579019277.978,38.086,34.180,37.109,48.340,35.645,0
1579019277.975,37.598,31.738,35.645,43.945,-0.488,0
1579019277.979,29.785,30.762,37.598,38.574,53.223,0
1579019277.983,26.367,30.762,35.645,41.992,72.754,0
1579019277.987,30.273,32.715,34.668,49.805,78.125,0
1579019277.991,33.203,34.180,35.156,42.480,30.762,0
1579019277.995,36.621,35.156,36.133,30.762,20.508,0
1579019277.999,41.504,34.180,37.109,30.762,24.414,0
1579019278.002,31.738,33.203,29.297,33.691,19.531,0
1579019278.006,24.902,33.203,28.809,30.273,32.227,0
1579019278.010,23.926,33.203,33.691,19.531,29.297,0
1579019278.014,21.973,36.133,30.762,18.066,2.930,0
1579019278.018,29.297,39.062,31.250,30.762,-11.719,0
1579019278.015,36.621,39.551,34.668,36.133,22.949,0
1579019278.019,38.086,41.504,33.203,30.273,29.297,0
1579019278.023,36.133,43.457,31.738,24.414,-11.719,0
1579019278.027,38.574,42.480,27.832,28.809,6.348,0
1579019278.031,46.387,42.480,26.855,34.668,41.504,0
1579019278.035,41.016,42.969,27.832,30.273,56.641,0
1579019278.039,28.809,42.969,27.344,18.555,22.949,0
1579019278.042,28.809,40.527,30.273,20.508,-47.852,4
1579019278.046,33.691,39.062,30.273,34.668,-17.090,0
1579019278.050,28.809,36.133,27.832,35.156,44.434,0
1579019278.054,25.391,34.668,29.785,22.949,13.184,0
1579019278.058,28.809,36.621,28.320,23.438,16.113,0
1579019278.075,33.691,38.574,29.297,34.668,25.391,0
1579019278.079,35.156,41.016,34.180,37.598,28.320,0
1579019278.083,30.762,41.016,34.180,32.715,19.043,0
1579019278.087,26.367,38.574,34.668,27.344,18.555,0
1579019278.091,29.297,36.133,36.133,37.109,-6.348,0
1579019278.095,34.668,35.645,32.227,41.016,-9.277,0
1579019278.099,31.250,34.180,28.320,32.715,35.156,0
1579019278.102,27.832,33.691,27.832,31.250,61.523,0
1579019278.106,31.738,36.621,29.297,44.434,27.832,0
1579019278.110,34.180,37.109,31.250,51.270,16.602,0
1579019278.114,28.809,37.109,34.668,38.574,61.523,0
1579019278.118,20.508,37.598,34.668,27.832,55.664,0
1579019278.114,16.113,36.621,32.715,32.227,68.359,0
1579019278.118,24.414,36.621,33.203,48.828,37.598,0
1579019278.122,30.273,36.621,32.715,49.316,18.066,0
1579019278.126,24.902,33.203,28.320,34.180,37.598,0
1579019278.130,29.785,32.227,25.879,33.691,-6.348,0
1579019278.134,41.504,35.645,29.297,49.805,-0.488,0
1579019278.138,40.527,34.668,30.762,52.734,47.852,0
1579019278.141,34.180,35.645,31.738,41.992,56.641,0
1579019278.145,33.691,40.039,34.668,34.668,62.500,0
1579019278.149,41.016,40.527,33.691,40.039,94.238,0
1579019278.153,43.945,38.574,31.738,45.410,65.430,0
1579019278.157,38.086,38.086,32.227,33.691,32.715,0
1579019278.174,35.156,40.527,30.762,24.902,48.340,0
1579019278.178,33.691,42.480,28.809,32.227,80.078,0
1579019278.182,31.738,41.504,24.414,35.645,69.336,0
1579019278.186,29.785,40.039,23.438,22.949,48.828,0
1579019278.190,30.273,40.527,28.320,16.602,42.969,0
1579019278.194,30.273,40.527,27.832,20.996,38.086,0
1579019278.198,30.273,36.621,26.367,31.738,93.750,0
1579019278.201,32.715,38.086,28.320,33.203,59.082,0
1579019278.205,27.832,41.992,25.391,18.066,-0.977,0
1579019278.209,27.832,40.527,21.973,20.020,19.531,0
1579019278.213,35.645,39.551,23.438,36.621,43.945,0
1579019278.217,38.086,40.527,25.879,40.039,30.273,0
1579019278.215,33.691,41.016,27.832,28.320,36.621,0
1579019278.219,26.367,40.527,27.344,20.996,58.105,0
1579019278.223,25.391,37.598,24.902,27.832,-14.648,0
1579019278.227,31.250,35.156,24.902,31.738,9.766,0
1579019278.231,32.227,35.156,27.832,22.949,44.434,0
1579019278.235,30.273,36.133,27.832,19.043,19.531,0
1579019278.239,32.715,35.645,30.762,28.320,57.617,0
1579019278.242,35.156,34.668,31.738,35.645,57.129,0
1579019278.246,35.645,34.668,27.344,33.203,-9.277,0
1579019278.250,29.297,30.762,27.832,25.879,-3.906,0
1579019278.254,26.367,27.832,34.180,27.832,26.855,0
1579019278.258,29.297,27.832,38.574,43.457,33.691,0
1579019278.254,26.367,29.785,40.039,48.828,51.758,0
1579019278.258,23.438,30.273,37.109,32.227,56.152,0
1579019278.262,22.949,30.273,35.156,28.320,44.922,0
1579019278.266,30.273,31.250,36.621,40.527,30.273,0
1579019278.270,35.156,31.250,34.180,46.875,20.020,0
1579019278.274,33.203,31.738,32.715,40.039,9.766,0
1579019278.278,32.715,31.738,32.715,29.785,-5.371,0
1579019278.281,37.109,31.738,30.762,41.992,-9.277,0
1579019278.285,38.574,33.691,29.297,47.852,0.977,0
1579019278.289,37.109,38.086,28.809,37.109,-20.996,0
1579019278.293,38.574,41.016,29.785,28.809,-1.465,0
1579019278.297,40.039,42.480,29.297,32.227,-39.551,0
1579019278.314,43.945,40.527,26.367,41.504,-49.316,0
1579019278.318,44.922,40.527,23.926,36.133,-2.441,0
1579019278.322,40.527,41.016,26.855,26.855,29.297,0
1579019278.326,42.480,41.016,30.273,33.203,94.727,0
1579019278.330,42.969,42.480,29.785,42.969,101.562,0
1579019278.334,43.945,40.527,29.297,44.922,98.633,0
1579019278.338,43.945,40.527,28.809,31.738,85.938,0
1579019278.341,39.062,40.039,28.320,25.391,61.523,0
1579019278.345,38.574,37.109,28.809,39.062,58.105,0
1579019278.349,39.062,37.598,30.273,45.410,84.473,0
1579019278.353,37.598,36.621,34.668,38.574,91.309,0
1579019278.357,34.180,35.156,33.203,30.273,62.500,0
1579019278.354,32.715,35.156,31.250,36.621,72.754,0
1579019278.358,34.668,32.715,36.133,47.852,62.012,0
1579019278.362,27.832,31.738,35.645,40.527,-5.371,0
1579019278.366,20.508,32.227,32.227,25.879,-0.977,0
1579019278.370,20.508,30.762,31.250,27.344,52.734,0
1579019278.374,28.809,32.227,31.250,41.504,53.223,0
1579019278.378,33.691,34.180,33.691,41.992,45.410,0
1579019278.381,27.832,37.109,34.180,28.809,30.273,0
1579019278.385,26.855,36.621,33.203,23.926,37.109,0
1579019278.389,31.250,33.203,30.762,32.715,48.828,0
1579019278.393,35.645,36.133,33.203,32.715,42.480,0
1579019278.397,32.227,39.551,31.738,19.043,93.262,0
1579019278.395,27.832,37.109,26.855,13.184,79.102,0
1579019278.399,33.203,35.156,25.879,24.414,6.348,0
1579019278.403,40.527,39.062,26.367,32.227,-7.324,0
1579019278.407,39.062,40.527,26.367,24.902,-7.812,0
1579019278.411,35.645,40.039,23.926,15.137,0.977,0
1579019278.415,41.992,39.062,24.902,25.391,-13.184,0
1579019278.419,46.387,36.621,26.367,38.574,-20.996,0
1579019278.422,42.969,35.156,23.926,32.715,9.766,0
1579019278.426,35.156,34.180,27.832,21.973,42.969,0
1579019278.430,27.344,33.691,34.180,28.809,104.492,0
1579019278.434,29.785,35.645,35.156,49.316,83.496,0
1579019278.438,31.250,37.598,38.086,48.828,67.383,0
1579019278.454,24.902,34.180,37.109,34.180,45.898,0
1579019278.458,20.020,30.762,33.203,28.809,-2.930,0
1579019278.462,23.926,29.785,32.715,33.203,18.066,0
1579019278.466,29.297,29.785,31.738,34.180,27.344,0
1579019278.470,23.926,28.809,32.715,21.484,29.297,0
1579019278.474,18.066,31.250,34.668,18.066,55.664,0
1579019278.478,22.461,34.180,36.621,26.367,42.969,0
1579019278.481,27.344,32.715,36.621,30.762,64.941,0
1579019278.485,23.438,29.297,35.156,28.809,31.738,0
1579019278.489,19.531,27.344,36.133,23.926,0.000,0
1579019278.493,26.367,28.809,33.203,29.297,24.414,0
1579019278.497,37.109,32.227,31.738,37.598,34.180,0
1579019278.494,39.062,30.273,35.156,34.668,28.320,0
1579019278.498,33.203,28.320,32.715,24.414,64.941,0
1579019278.502,23.926,30.762,30.273,24.414,50.781,0
1579019278.506,27.344,34.668,35.645,38.574,25.879,0
1579019278.510,33.203,38.086,37.598,42.480,42.480,0
1579019278.514,22.949,36.621,33.203,28.809,-7.812,0
1579019278.518,22.949,36.621,29.785,27.344,-49.316,0
1579019278.521,30.273,39.062,30.762,37.109,5.859,0
1579019278.525,31.250,38.574,33.691,43.945,12.207,0
1579019278.529,23.438,39.062,36.621,37.598,-12.695,0
1579019278.533,15.625,41.016,35.645,23.438,30.762,0
1579019278.537,21.973,41.016,33.691,31.738,52.246,0
1579019278.534,29.297,39.062,36.621,41.992,25.391,0
1579019278.538,27.344,38.086,36.133,33.203,10.742,0
1579019278.542,21.484,36.621,31.738,24.902,63.477,0
1579019278.546,19.531,36.133,31.250,25.391,48.828,0
1579019278.550,25.879,35.156,29.785,36.621,21.484,0
1579019278.554,26.855,32.227,29.297,36.621,-5.371,0
1579019278.558,20.996,36.133,33.691,29.297,-24.902,0
1579019278.561,21.484,35.156,35.645,32.227,40.039,0
1579019278.565,25.879,31.738,35.645,39.062,35.156,0
1579019278.569,25.879,36.133,38.574,41.504,-9.766,0
1579019278.573,24.902,39.062,33.691,31.738,-4.395,0
1579019278.577,25.391,36.621,28.320,28.320,16.113,0
1579019278.594,24.414,33.203,29.297,41.504,20.020,0
1579019278.598,30.273,30.273,34.180,48.828,51.270,0
1579019278.602,40.039,31.738,36.133,40.527,48.340,0
1579019278.606,41.504,33.691,36.133,34.180,37.598,0
1579019278.610,33.203,28.809,35.645,38.086,27.344,0
1579019278.614,32.227,26.367,33.203,44.922,12.207,0
1579019278.618,29.297,28.809,33.203,37.598,13.184,0
1579019278.621,24.414,31.738,35.156,28.809,48.828,0
1579019278.625,31.250,35.156,35.645,37.598,48.340,0
1579019278.629,44.434,37.598,32.227,41.992,5.859,0
1579019278.633,48.828,38.574,32.227,37.598,15.625,0
1579019278.637,46.875,39.551,36.133,27.344,39.062,0
1579019278.634,51.270,40.039,34.180,26.367,67.383,0
1579019278.638,52.246,38.086,31.738,35.645,87.402,0
1579019278.642,41.992,35.645,30.762,34.668,32.715,0
1579019278.646,38.086,37.109,31.250,23.926,6.348,0
1579019278.650,41.016,41.016,32.227,22.461,32.715,0
1579019278.654,45.898,44.434,30.273,35.156,42.969,0
1579019278.658,42.969,44.922,31.738,41.016,72.266,0
1579019278.661,41.016,42.480,33.203,26.367,8.789,0
1579019278.665,36.133,39.062,29.297,13.672,12.207,0
1579019278.669,33.691,41.016,28.809,19.531,71.777,0
1579019278.673,37.109,41.992,33.203,26.855,63.477,0
1579019278.677,33.691,37.109,27.832,22.949,29.785,0
1579019278.674,30.762,35.645,25.391,16.602,47.363,0
1579019278.678,34.668,39.551,25.879,20.996,59.082,0
1579019278.682,37.598,42.969,25.391,30.273,34.180,0
1579019278.686,34.180,41.504,27.344,27.344,13.184,0
1579019278.690,31.738,39.062,29.297,18.066,27.832,0
1579019278.694,34.668,41.016,34.180,21.484,16.113,0
1579019278.698,40.527,41.504,34.180,33.203,54.199,0
1579019278.701,46.387,38.574,33.691,41.016,107.910,0
1579019278.705,40.527,36.621,34.668,26.855,69.336,0
1579019278.709,34.668,38.086,29.297,18.555,89.355,0
1579019278.713,45.410,41.504,27.832,33.203,75.684,0
1579019278.717,47.852,41.016,30.273,38.574,59.570,0
1579019278.734,41.016,39.062,31.250,28.809,38.574,0
1579019278.738,37.109,39.551,30.762,19.531,12.695,0
1579019278.742,39.551,37.109,34.180,31.250,22.949,0
1579019278.746,41.504,34.668,40.039,46.387,27.832,0
1579019278.750,39.062,36.621,38.086,46.387,17.090,0
1579019278.754,33.691,37.598,35.645,41.016,0.977,0
1579019278.758,28.809,37.109,38.086,39.551,10.742,0
1579019278.761,32.227,37.109,40.039,48.828,7.324,0
1579019278.765,38.086,38.086,39.062,53.711,-4.883,0
1579019278.769,34.180,37.109,35.156,38.086,5.859,0
1579019278.773,29.785,35.156,31.738,30.762,23.926,0
1579019278.777,31.250,34.668,31.738,44.922,49.805,0
1579019278.774,33.203,36.621,31.738,49.805,84.473,0
1579019278.778,30.273,37.109,30.273,33.691,50.293,0
1579019278.782,23.926,34.668,34.180,25.879,-26.855,0
1579019278.786,27.832,36.621,37.109,36.621,6.836,0
1579019278.790,38.086,36.133,34.668,45.898,20.996,0
1579019278.794,37.109,33.203,33.203,38.086,40.527,0
1579019278.798,34.668,33.691,31.250,29.785,41.016,0
1579019278.801,41.992,35.645,29.297,36.133,27.832,0
1579019278.805,42.480,36.621,30.762,41.504,-30.273,0
1579019278.809,34.668,36.621,29.785,32.715,-56.641,0
1579019278.813,30.273,37.598,30.762,20.020,3.906,0
1579019278.817,34.668,35.645,32.227,25.879,48.828,0
1579019278.814,39.062,35.156,31.738,35.645,41.504,0
1579019278.818,32.715,36.133,32.715,33.203,21.973,0
1579019278.822,25.391,38.574,33.203,20.508,27.832,0
1579019278.826,23.438,39.551,31.738,15.625,10.742,0
1579019278.830,30.762,36.133,32.227,26.855,-14.648,0
1579019278.834,37.598,36.133,31.250,30.273,-20.020,0
1579019278.838,35.645,37.598,30.273,25.391,-10.254,0
1579019278.841,31.738,36.621,33.691,24.902,47.852,0
1579019278.845,36.621,36.621,35.645,32.715,76.660,0
1579019278.849,38.086,35.645,32.227,42.969,65.918,0
1579019278.853,34.668,35.645,31.738,38.574,31.738,0
1579019278.857,34.180,36.133,31.250,26.855,0.000,0
1579019278.874,34.668,34.668,25.391,30.762,-6.836,0
