timestamps,TP9,AF7,AF8,TP10,Right AUX,Marker0
1579018234.762,80.078,40.039,30.762,55.664,48.828,0
1579018234.766,79.102,40.527,29.297,49.805,30.273,0
1579018234.770,108.887,39.062,27.832,77.148,36.621,0
1579018234.774,102.539,40.039,34.180,74.707,26.855,0
1579018234.778,58.594,40.527,37.109,30.762,-18.555,0
1579018234.782,46.387,39.062,34.668,14.648,19.043,0
1579018234.786,68.848,40.527,34.668,36.133,23.438,0
1579018234.789,89.355,39.551,34.668,48.340,-5.859,0
1579018234.793,74.219,36.621,33.203,16.113,0.488,0
1579018234.797,44.922,34.180,32.715,-21.973,21.973,0
1579018234.801,55.176,34.180,37.109,-12.695,-4.395,0
1579018234.805,75.684,33.691,37.598,1.953,-2.930,0
1579018234.837,65.918,33.203,36.133,-18.066,49.805,0
1579018234.841,38.574,35.156,37.598,-50.293,60.547,0
1579018234.845,33.203,34.668,38.574,-48.828,-29.297,0
1579018234.849,51.270,31.250,41.992,-23.438,-43.945,0
1579018234.853,38.086,29.297,44.922,-28.320,-37.109,0
1579018234.857,-4.395,30.762,44.922,-56.152,-9.277,0
1579018234.861,-9.277,32.227,45.898,-50.781,19.531,0
1579018234.864,20.996,32.227,47.363,-21.484,38.086,0
1579018234.868,29.785,32.715,45.898,-14.160,61.523,0
1579018234.872,12.207,30.273,41.016,-30.762,62.500,0
1579018234.876,-3.906,29.785,37.109,-42.480,71.777,0
1579018234.880,0.488,32.715,40.039,-28.320,66.406,0
1579018234.857,28.809,32.715,41.992,2.930,35.156,0
1579018234.861,20.020,31.250,40.527,5.371,41.504,0
1579018234.865,-14.648,29.297,41.992,-9.766,16.602,0
1579018234.869,-6.836,32.227,41.992,12.207,3.906,0
1579018234.873,24.414,37.598,42.480,48.340,45.410,0
1579018234.877,29.297,39.062,44.922,47.363,35.645,0
1579018234.881,0.000,37.109,46.875,24.414,14.160,0
1579018234.884,-1.953,38.574,42.969,21.973,43.945,0
1579018234.888,36.621,40.527,38.086,45.410,32.715,0
1579018234.892,43.457,42.969,37.598,51.758,49.805,0
1579018234.896,2.441,41.016,35.156,20.020,42.969,0
1579018234.900,-13.184,39.062,32.227,2.930,-13.184,0
1579018234.898,14.160,42.969,32.227,26.855,33.691,0
1579018234.902,27.832,42.969,33.203,37.598,74.707,0
1579018234.906,7.812,41.992,31.738,12.695,78.125,0
1579018234.910,-10.742,42.969,30.762,-7.812,50.293,0
1579018234.914,10.254,37.598,28.809,2.930,59.570,0
1579018234.918,31.738,35.645,28.809,26.855,84.961,0
1579018234.922,19.043,40.039,30.762,11.719,18.066,0
1579018234.925,-7.812,42.969,27.832,-20.996,-38.574,0
1579018234.929,-1.953,42.969,27.832,-15.625,2.441,0
1579018234.933,29.785,42.480,28.809,7.812,-6.836,0
1579018234.937,33.691,43.457,27.832,2.441,7.812,0
1579018234.941,9.277,42.969,28.809,-23.438,22.949,0
1579018234.957,2.441,40.527,30.762,-18.555,-29.297,0
1579018234.961,31.250,41.016,32.227,18.066,-25.879,0
1579018234.965,48.340,41.992,33.691,29.297,5.859,0
1579018234.969,18.066,39.551,32.227,4.395,35.645,0
1579018234.973,1.465,39.062,30.273,-3.906,40.527,0
1579018234.977,31.738,38.574,31.250,33.691,33.691,0
1579018234.981,47.363,40.039,34.668,54.688,65.430,0
1579018234.984,34.668,38.574,32.715,27.832,76.172,0
1579018234.988,20.020,35.156,33.203,18.066,52.734,0
1579018234.992,35.645,34.668,37.109,48.828,28.809,0
1579018234.996,56.152,34.668,34.668,75.195,25.391,0
1579018235.000,33.691,34.668,32.227,64.453,79.590,0
1579018234.997,8.301,35.645,35.645,40.039,55.176,0
1579018235.001,18.066,37.109,35.645,45.898,12.207,0
1579018235.005,44.922,38.086,35.156,69.824,43.945,0
1579018235.009,43.945,40.039,36.621,65.918,36.133,0
1579018235.013,11.230,34.668,33.203,35.645,37.109,0
1579018235.017,1.953,29.297,30.762,21.484,8.301,0
1579018235.021,28.809,33.691,35.156,42.969,16.113,0
1579018235.024,35.645,36.621,34.180,44.434,115.723,0
1579018235.028,3.906,34.668,32.715,15.625,100.098,0
1579018235.032,-15.137,36.133,35.645,6.348,56.152,0
1579018235.036,4.883,36.133,36.621,23.438,104.492,0
1579018235.040,27.832,35.156,36.133,42.480,29.297,0
1579018235.037,9.766,36.621,35.156,27.344,-19.531,0
1579018235.041,11.230,36.133,35.156,3.418,2.930,0
1579018235.045,62.988,35.645,37.109,20.020,36.621,0
1579018235.049,90.332,35.645,35.156,42.969,22.949,0
1579018235.053,75.195,37.109,34.668,27.344,17.090,0
1579018235.057,39.062,38.086,35.156,-0.977,14.160,0
1579018235.061,44.434,39.062,35.645,10.742,-17.090,0
1579018235.064,78.125,39.062,38.574,44.922,23.438,0
1579018235.068,75.195,38.086,38.574,39.551,57.129,0
1579018235.072,45.410,35.645,39.062,16.113,47.363,0
1579018235.076,44.922,36.133,38.574,18.066,68.848,0
1579018235.080,72.754,38.574,37.598,44.434,59.570,0
1579018235.097,77.637,37.109,39.062,60.059,16.113,0
1579018235.101,58.594,38.086,40.039,37.598,53.711,0
1579018235.105,43.457,37.109,40.527,17.578,77.637,0
1579018235.109,59.570,33.691,41.504,34.668,58.105,0
1579018235.113,82.031,34.180,40.527,53.711,26.367,0
1579018235.117,57.129,34.668,40.527,38.086,25.391,0
1579018235.121,20.508,35.156,41.992,7.324,47.852,0
1579018235.124,31.738,35.645,40.039,14.160,46.875,0
1579018235.128,54.199,33.691,36.621,37.109,18.555,0
1579018235.132,42.480,33.203,35.645,25.879,-15.137,0
1579018235.136,15.625,34.668,36.621,-2.441,-22.461,0
1579018235.140,17.090,36.133,35.645,-0.977,-20.020,0
1579018235.158,65.918,35.645,29.297,42.480,-33.691,0
1579018235.162,72.754,35.156,29.785,42.480,-12.695,0
1579018235.166,7.812,34.668,34.180,-22.461,-5.371,0
1579018235.170,10.742,37.109,35.645,-20.508,0.000,0
1579018235.174,46.875,33.203,39.551,21.484,-3.906,0
1579018235.178,49.805,34.180,41.016,31.738,-21.484,0
1579018235.182,43.945,37.598,39.062,27.832,83.984,0
1579018235.185,22.949,35.645,41.992,17.578,109.375,0
1579018235.189,27.832,32.715,44.922,32.715,39.551,0
1579018235.193,54.199,29.785,43.457,53.711,39.062,0
1579018235.197,43.945,29.785,40.527,36.621,-20.996,0
1579018235.201,13.672,31.250,38.574,8.301,-4.395,0
1579018235.177,19.043,34.668,40.039,19.043,14.648,0
1579018235.181,54.199,36.621,38.574,52.246,-25.391,0
1579018235.185,59.570,35.156,38.086,46.875,1.465,0
1579018235.189,31.250,36.133,43.945,19.043,29.297,0
1579018235.193,32.715,36.133,48.340,34.180,81.055,0
1579018235.197,67.871,40.039,43.457,55.664,66.406,0
1579018235.201,70.801,38.574,39.551,48.828,27.344,0
1579018235.204,38.574,34.668,40.039,30.762,-6.348,0
1579018235.208,34.180,38.086,38.574,24.902,-18.555,0
1579018235.212,56.641,35.645,36.133,51.758,5.371,0
1579018235.216,70.312,33.203,37.598,64.453,0.000,0
1579018235.220,51.270,36.621,38.574,41.504,7.324,0
1579018235.258,28.320,36.621,39.551,20.996,-1.465,0
1579018235.262,42.969,38.574,38.086,29.297,20.020,0
1579018235.266,68.359,38.086,36.621,47.852,19.043,0
1579018235.270,56.641,36.133,37.109,38.086,-5.859,0
1579018235.274,30.273,35.645,34.180,17.090,25.879,0
1579018235.278,36.621,33.203,35.156,31.250,88.379,0
1579018235.282,69.336,37.109,32.715,54.199,50.293,0
1579018235.285,78.613,38.574,29.785,49.316,40.039,0
1579018235.289,53.223,36.621,30.762,23.926,69.824,0
1579018235.293,37.109,38.086,32.715,20.020,25.391,0
1579018235.297,56.152,38.574,34.668,49.805,37.598,0
1579018235.301,70.801,37.109,34.668,54.688,34.668,0
1579018235.297,52.734,36.133,33.691,22.949,40.039,0
1579018235.301,36.133,36.133,33.691,5.371,27.832,0
1579018235.305,62.012,37.598,34.180,31.250,-0.977,0
1579018235.309,78.125,36.133,34.180,49.805,-4.395,0
1579018235.313,53.711,36.621,32.715,22.949,3.418,0
1579018235.317,39.062,37.598,33.691,0.000,45.898,0
1579018235.321,61.523,38.574,32.715,15.625,69.824,0
1579018235.324,94.238,42.480,33.691,38.086,20.996,0
1579018235.328,81.055,42.969,35.156,25.391,27.832,0
1579018235.332,17.578,41.016,34.668,-6.348,47.852,0
1579018235.336,-10.254,37.598,36.621,4.395,55.176,0
1579018235.340,16.602,36.621,36.621,41.504,39.062,0
1579018235.317,22.949,35.156,36.133,41.992,68.359,0
1579018235.321,-2.441,33.691,34.180,11.230,61.035,0
1579018235.325,-12.695,34.180,34.668,5.371,-44.434,0
1579018235.329,11.719,33.691,36.621,30.762,8.301,0
1579018235.333,24.902,34.180,39.062,42.480,52.734,0
1579018235.337,2.441,33.691,41.016,19.043,11.230,0
1579018235.341,-16.113,34.668,40.527,3.418,37.598,0
1579018235.344,2.441,36.133,41.504,30.762,18.555,0
1579018235.348,23.926,34.180,39.062,49.316,21.973,0
1579018235.352,5.859,33.691,35.645,29.785,-4.395,0
1579018235.356,-18.066,32.227,34.668,6.836,9.766,0
1579018235.360,0.977,33.203,33.203,21.973,41.992,0
1579018235.377,35.645,34.668,32.715,53.223,24.414,0
1579018235.381,35.645,36.133,33.203,38.574,-7.324,0
1579018235.385,11.719,37.109,33.203,7.812,13.184,0
1579018235.389,16.602,33.203,31.250,9.277,58.594,0
1579018235.393,53.223,36.133,32.227,35.645,15.625,0
1579018235.397,67.383,38.574,35.156,41.016,51.758,0
1579018235.401,46.875,37.598,37.109,10.254,65.430,0
1579018235.404,41.504,38.574,33.203,0.000,43.457,0
1579018235.408,70.312,40.527,28.320,31.250,74.707,0
1579018235.412,78.125,41.504,29.297,48.340,48.340,0
1579018235.416,41.992,42.969,34.180,28.809,-5.371,0
1579018235.420,12.695,42.480,36.621,17.090,9.766,0
1579018235.417,31.250,41.016,36.621,40.039,40.039,0
1579018235.421,56.641,41.992,37.598,60.059,11.230,0
1579018235.425,39.551,37.598,35.156,41.016,21.973,0
1579018235.429,9.766,34.668,36.621,10.254,47.852,0
1579018235.433,21.973,33.691,39.551,22.949,28.320,0
1579018235.437,58.594,32.227,39.062,65.430,68.359,0
1579018235.441,50.293,34.668,39.062,53.223,68.848,0
1579018235.444,1.465,37.598,40.039,-4.395,18.555,0
1579018235.448,0.977,40.039,40.527,-4.883,60.059,0
1579018235.452,43.457,41.016,40.039,29.297,44.922,0
1579018235.456,51.758,40.527,38.574,29.297,25.879,0
1579018235.460,27.832,41.504,34.180,5.859,79.102,0
1579018235.457,17.090,39.062,34.668,-2.441,62.988,0
1579018235.461,40.527,35.645,36.621,22.949,1.465,0
1579018235.465,52.734,37.109,41.016,38.574,-25.391,0
1579018235.469,26.367,40.527,43.945,14.648,23.926,0
1579018235.473,0.977,41.992,39.062,-5.371,44.434,0
1579018235.477,16.113,42.480,34.668,13.184,25.879,0
1579018235.481,44.434,44.922,32.715,35.645,38.086,0
1579018235.484,35.156,43.945,33.691,17.090,53.223,0
1579018235.488,6.836,44.922,33.203,-17.090,13.672,0
1579018235.492,13.672,47.852,34.180,-8.789,3.418,0
1579018235.496,41.016,44.922,32.227,26.367,84.961,0
1579018235.500,43.945,43.457,27.832,21.973,104.492,0
1579018235.517,26.367,47.363,29.297,-1.465,62.012,0
1579018235.521,35.645,48.828,29.297,3.418,41.016,0
1579018235.525,77.148,45.410,29.785,34.668,35.645,0
1579018235.529,89.355,40.527,32.227,45.898,0.488,0
1579018235.533,48.828,40.527,33.691,20.996,13.672,0
1579018235.537,18.555,40.039,39.062,15.137,63.965,0
1579018235.541,29.785,41.504,39.062,44.922,-1.465,0
1579018235.544,47.363,39.551,35.645,59.570,-17.090,0
1579018235.548,29.785,36.621,38.086,39.062,17.090,0
1579018235.552,3.906,36.133,38.574,17.578,37.109,0
1579018235.556,22.461,33.203,40.527,28.320,84.961,0
1579018235.560,50.293,35.156,42.480,49.805,16.113,0
1579018235.557,45.410,37.109,42.480,38.086,-13.672,0
1579018235.561,17.578,37.598,42.480,11.230,36.133,0
1579018235.565,22.461,34.668,40.039,10.254,80.078,0
1579018235.569,56.152,36.133,39.062,35.156,21.484,0
1579018235.573,61.035,40.039,40.039,35.156,36.621,0
1579018235.577,36.133,37.598,40.527,6.836,46.387,0
1579018235.581,28.809,35.645,40.527,-1.953,-7.324,0
1579018235.584,52.734,38.086,37.598,23.438,16.602,0
1579018235.588,55.176,38.574,38.574,39.062,33.203,0
1579018235.592,20.020,39.551,38.574,10.742,109.863,0
1579018235.596,3.906,41.504,37.109,-4.883,85.938,0
1579018235.600,23.438,41.504,37.598,26.855,22.949,0
1579018235.597,36.621,39.062,37.109,46.387,11.230,0
1579018235.601,12.207,37.109,38.086,25.879,27.344,0
1579018235.605,-16.113,35.645,39.062,6.836,50.781,0
1579018235.609,-0.977,35.645,38.086,25.391,16.113,0
1579018235.613,22.949,36.133,34.180,52.246,24.414,0
1579018235.617,13.184,37.109,31.250,43.457,35.156,0
1579018235.621,-15.625,41.992,33.691,16.602,-43.457,0
1579018235.624,-16.602,45.898,34.668,17.090,-32.715,0
1579018235.628,11.719,43.457,31.738,42.480,23.438,0
1579018235.632,13.672,40.527,32.715,49.316,23.926,0
1579018235.636,-19.531,39.551,37.109,25.879,60.547,0
1579018235.640,-33.203,40.527,34.668,15.137,28.320,0
1579018235.657,-12.207,42.969,31.738,38.574,-39.062,0
1579018235.661,-0.488,43.457,32.715,49.805,-7.324,0
1579018235.665,-24.902,43.945,33.691,22.949,52.246,0
1579018235.669,-48.340,43.457,34.668,7.324,33.691,0
1579018235.673,-31.250,43.945,37.109,37.109,14.160,0
1579018235.677,-17.578,44.434,37.109,62.988,46.875,0
1579018235.681,-39.062,41.992,32.715,37.598,62.012,0
1579018235.684,-55.664,41.992,32.715,15.625,32.715,0
1579018235.688,-41.016,42.480,33.691,36.133,61.035,0
1579018235.692,-19.043,41.504,32.227,64.453,101.562,0
1579018235.696,-23.926,40.527,34.668,57.617,65.430,0
1579018235.700,-49.316,40.527,36.621,34.180,12.207,0
1579018235.697,-44.434,40.527,38.574,37.598,26.855,0
1579018235.701,-8.789,38.574,40.527,64.453,62.012,0
1579018235.705,0.488,38.086,39.551,77.148,31.250,0
1579018235.709,-19.043,38.574,40.527,48.340,-17.578,0
1579018235.713,-16.113,34.180,41.992,37.109,-61.035,0
1579018235.717,18.066,29.785,43.457,73.730,22.461,0
1579018235.721,36.133,31.738,44.434,87.891,67.383,0
1579018235.724,16.602,35.645,43.457,58.105,-13.672,0
1579018235.728,6.348,37.598,43.945,38.574,11.230,0
1579018235.732,29.297,35.156,47.852,59.082,48.828,0
1579018235.736,64.941,36.133,46.387,83.984,15.137,0
1579018235.740,59.082,38.574,41.992,66.406,-4.883,0
1579018235.738,35.645,37.598,41.992,33.203,-4.883,0
1579018235.742,48.828,36.133,39.551,41.504,0.977,0
1579018235.746,72.266,34.668,35.645,67.871,26.367,0
1579018235.750,70.312,35.645,33.691,59.570,60.547,0
1579018235.754,45.898,40.527,35.156,27.344,43.457,0
1579018235.758,36.133,43.457,38.086,26.367,51.758,0
1579018235.762,57.617,43.945,37.109,46.875,88.379,0
1579018235.765,64.453,44.922,32.715,42.969,77.148,0
1579018235.769,37.598,42.969,32.715,12.207,15.137,0
1579018235.773,20.996,40.039,32.715,-9.277,5.859,0
1579018235.777,38.086,41.504,29.785,13.184,61.523,0
1579018235.781,45.898,41.016,31.250,30.762,78.125,0
1579018235.798,19.043,42.480,29.297,-3.418,55.664,0
1579018235.802,-1.465,42.969,29.297,-30.273,26.855,0
1579018235.806,18.555,40.527,32.715,-4.883,50.293,0
1579018235.810,45.898,41.992,30.762,20.020,46.875,0
1579018235.814,40.527,43.457,30.273,4.395,-24.414,0
1579018235.818,14.160,39.551,33.203,-15.137,16.602,0
1579018235.822,18.555,37.598,32.227,-4.395,98.145,0
1579018235.825,49.316,37.598,33.691,21.973,56.641,0
1579018235.829,48.828,37.109,38.086,22.949,41.992,0
1579018235.833,26.855,35.156,39.551,3.418,53.223,0
1579018235.837,29.297,37.109,38.574,2.441,43.945,0
1579018235.841,52.734,41.016,41.016,12.695,7.324,0
1579018235.858,67.383,36.621,41.992,11.719,-18.066,0
1579018235.862,64.453,37.109,37.598,6.348,3.418,0
1579018235.866,42.969,42.480,37.109,-2.930,93.750,0
1579018235.870,44.434,41.504,38.574,9.766,128.906,0
1579018235.874,74.219,41.504,36.621,31.250,77.637,0
1579018235.878,62.500,41.992,34.668,8.789,60.059,0
1579018235.882,41.504,45.410,39.062,-11.719,11.719,0
1579018235.885,60.547,48.828,40.039,0.000,13.672,0
1579018235.889,79.102,46.875,36.621,21.484,41.504,0
1579018235.893,56.641,42.969,35.645,10.254,35.645,0
1579018235.897,26.855,41.504,34.668,-23.926,76.660,0
1579018235.901,37.109,42.969,36.133,-17.578,102.051,0
1579018235.897,70.801,42.969,32.715,11.719,67.871,0
1579018235.901,68.848,45.898,30.762,13.672,34.668,0
1579018235.905,41.992,48.828,32.227,-12.207,42.480,0
1579018235.909,35.156,45.410,31.738,-21.484,19.531,0
1579018235.913,52.734,43.945,32.227,9.277,11.230,0
1579018235.917,66.406,42.969,32.715,25.879,62.500,0
1579018235.921,47.852,42.969,35.156,1.465,50.293,0
1579018235.924,29.785,41.504,32.227,-15.625,-8.789,0
1579018235.928,50.293,37.598,30.273,11.230,16.602,0
1579018235.932,69.824,38.574,32.715,37.598,100.098,0
1579018235.936,49.805,40.527,34.668,22.949,62.012,0
1579018235.940,23.926,39.062,36.621,4.395,-23.926,0
1579018235.938,26.367,37.109,36.133,15.625,45.898,0
1579018235.942,47.852,32.227,31.250,43.457,76.172,0
1579018235.946,48.828,33.203,30.762,40.039,20.508,0
1579018235.950,22.461,37.109,33.691,12.695,-9.766,0
1579018235.954,20.508,35.645,35.156,17.578,2.441,0
1579018235.958,47.363,31.738,37.109,44.922,-25.391,0
1579018235.962,50.781,30.762,40.039,42.969,7.324,0
1579018235.965,20.996,32.715,41.016,13.672,54.199,0
1579018235.969,11.230,34.180,37.598,0.488,-1.953,0
1579018235.973,38.086,36.133,35.156,26.855,-37.598,0
1579018235.977,52.734,38.574,38.086,44.434,7.812,0
1579018235.981,31.250,37.598,39.551,17.090,45.410,0
1579018235.978,16.602,34.668,36.133,-3.906,32.227,0
1579018235.982,41.016,35.156,35.645,20.996,-9.277,0
1579018235.986,60.059,34.668,35.156,40.039,32.715,0
1579018235.990,46.875,36.133,32.715,15.625,76.172,0
1579018235.994,33.203,40.039,31.738,-8.301,32.227,0
1579018235.998,34.668,40.039,33.203,6.348,35.156,0
1579018236.002,50.293,39.062,33.203,35.645,27.344,0
1579018236.005,47.852,41.016,30.762,41.504,28.809,0
1579018236.009,11.230,44.434,33.203,12.695,51.758,0
1579018236.013,-1.953,45.898,34.180,6.348,-13.672,0
1579018236.017,34.180,46.875,33.203,47.852,-0.488,0
1579018236.021,44.922,47.363,33.691,60.059,84.473,0
1579018236.037,19.531,42.480,33.203,34.668,76.660,0
1579018236.041,16.113,38.086,33.691,25.391,35.645,0
1579018236.045,47.363,38.086,29.785,48.828,-8.789,0
1579018236.049,69.824,38.086,26.855,63.477,24.414,0
1579018236.053,51.270,40.527,29.785,35.645,53.711,0
1579018236.057,18.555,39.062,32.227,10.254,-14.648,0
1579018236.061,22.461,36.133,33.691,25.879,-23.926,0
1579018236.064,41.504,38.086,35.156,47.852,43.945,0
1579018236.068,35.645,35.156,35.645,36.133,63.477,0
1579018236.072,16.113,32.227,33.691,-2.441,83.984,0
1579018236.076,21.484,33.691,33.203,-3.418,42.969,0
1579018236.080,29.297,30.273,35.645,24.902,-20.020,0
1579018236.078,6.348,29.297,37.598,17.578,-23.926,0
1579018236.082,-20.020,31.250,37.598,-7.324,-3.906,0
1579018236.086,-21.973,30.762,36.133,-2.930,28.320,0
1579018236.090,0.488,32.715,36.133,35.156,14.160,0
1579018236.094,1.465,35.156,36.133,45.410,28.320,0
1579018236.098,-34.180,32.715,37.598,24.902,52.734,0
1579018236.102,-56.152,32.227,36.621,20.508,36.621,0
1579018236.105,-28.320,35.645,34.668,48.828,-20.020,0
1579018236.109,-0.977,35.156,33.203,74.219,-4.395,0
1579018236.113,-25.391,35.156,33.691,47.852,36.133,0
1579018236.117,-53.223,37.598,34.668,26.367,20.508,0
1579018236.121,-39.551,36.133,33.203,49.805,17.578,0
1579018236.137,-15.625,38.086,32.227,78.613,14.648,0
1579018236.141,-22.949,42.969,30.762,65.918,-0.977,0
1579018236.145,-50.293,41.504,30.762,36.621,35.645,0
1579018236.149,-40.039,40.527,31.250,45.898,46.387,0
1579018236.153,6.836,41.016,29.785,80.566,-4.395,0
1579018236.157,18.555,38.086,31.738,85.449,-19.043,0
1579018236.161,-2.441,34.180,32.227,65.430,23.438,0
1579018236.164,2.930,36.621,31.738,67.383,62.988,0
1579018236.168,22.949,41.504,33.691,81.543,62.988,0
1579018236.172,32.715,41.504,35.645,81.543,55.176,0
1579018236.176,23.438,39.551,35.645,57.617,108.887,0
1579018236.180,18.066,41.504,33.203,44.434,74.219,0
1579018236.177,46.875,42.969,31.738,62.012,5.371,0
1579018236.181,73.242,40.527,30.273,75.195,0.977,0
1579018236.185,63.477,41.016,29.785,59.082,28.809,0
1579018236.189,37.598,40.527,31.250,28.809,56.152,0
1579018236.193,45.410,40.527,33.203,36.133,64.941,0
1579018236.197,58.594,41.992,36.621,58.594,42.480,0
1579018236.201,35.156,41.992,36.133,41.504,50.293,0
1579018236.204,7.324,42.969,34.180,9.766,34.668,0
1579018236.208,9.766,40.527,32.227,8.301,54.199,0
1579018236.212,34.180,37.598,33.691,36.133,78.125,0
1579018236.216,40.039,37.598,33.203,37.109,65.430,0
1579018236.220,4.395,36.621,31.738,5.371,98.633,0
1579018236.219,-16.113,36.133,34.668,-5.371,85.938,0
1579018236.223,13.672,36.621,34.668,20.996,31.738,0
1579018236.227,32.715,36.133,35.645,36.621,-3.906,0
1579018236.231,15.137,38.086,38.086,6.836,72.266,0
1579018236.235,-4.395,38.574,38.574,-17.090,88.867,0
1579018236.239,12.207,38.086,37.598,4.395,46.387,0
1579018236.243,33.203,36.621,34.180,24.902,21.973,0
1579018236.246,23.926,35.156,32.227,0.977,-5.859,0
1579018236.250,7.324,38.086,33.203,-24.902,-0.977,0
1579018236.254,15.625,39.062,33.691,-5.371,-6.348,0
1579018236.258,32.715,36.133,34.180,20.996,-27.344,0
1579018236.262,26.367,35.156,32.227,10.742,37.598,0
1579018236.258,6.836,35.156,30.273,-16.113,71.777,0
1579018236.262,9.277,36.621,31.250,-11.719,33.203,0
1579018236.266,39.062,38.086,34.668,18.555,2.441,0
1579018236.270,54.688,41.016,34.180,21.973,32.715,0
1579018236.274,27.832,40.039,27.344,-7.324,49.316,0
1579018236.278,10.742,37.598,27.832,-16.113,-4.883,0
1579018236.282,42.480,36.621,34.180,14.160,56.641,0
1579018236.285,59.082,33.203,33.691,30.762,66.895,0
1579018236.289,36.133,32.715,33.203,1.953,56.641,0
1579018236.293,17.578,34.180,33.691,-24.414,16.113,0
1579018236.297,33.203,34.668,32.227,-3.418,-48.828,0
1579018236.301,56.641,34.180,34.668,27.344,-20.020,0
1579018236.317,42.969,30.273,31.738,15.625,42.969,0
1579018236.321,14.160,28.809,28.320,-10.742,83.984,0
1579018236.325,23.926,31.250,31.738,5.371,60.059,0
1579018236.329,51.758,34.180,35.156,38.086,61.523,0
1579018236.333,53.711,33.691,37.109,33.203,19.043,0
1579018236.337,22.949,31.738,39.551,10.254,31.738,0
1579018236.341,7.324,30.762,39.551,6.836,77.637,0
1579018236.344,38.086,30.762,36.133,31.738,80.078,0
1579018236.348,47.852,27.344,34.668,41.016,51.758,0
1579018236.352,26.367,30.273,35.645,12.695,62.012,0
1579018236.356,20.508,36.133,32.715,0.977,21.973,0
1579018236.360,42.969,36.133,32.227,21.973,-48.828,0
1579018236.357,62.988,35.156,33.203,40.527,3.906,0
1579018236.361,49.316,38.574,37.109,23.926,78.613,0
1579018236.365,24.414,41.016,37.598,-1.465,64.941,0
1579018236.369,37.109,36.621,34.668,15.137,47.852,0
1579018236.373,55.664,33.691,34.180,39.551,72.754,0
1579018236.377,40.527,33.691,33.691,26.855,72.754,0
1579018236.381,13.672,37.109,31.738,-3.418,66.406,0
1579018236.384,16.113,39.062,30.762,0.000,91.309,0
1579018236.388,44.922,38.574,33.691,26.855,56.641,0
1579018236.392,48.828,41.504,33.691,25.879,61.035,0
1579018236.396,16.602,43.457,30.762,-4.395,78.125,0
1579018236.400,10.254,43.945,30.762,-8.789,-1.953,0
1579018236.397,40.039,41.016,31.738,20.996,-40.039,0
1579018236.401,46.875,36.621,31.738,30.762,-46.387,0
1579018236.405,21.973,36.133,32.715,2.930,18.555,0
1579018236.409,5.371,38.086,37.109,-8.789,35.156,0
1579018236.413,26.367,41.504,35.156,17.578,23.926,0
1579018236.417,49.805,43.945,33.691,38.574,16.113,0
1579018236.421,39.062,42.969,36.133,21.973,26.367,0
1579018236.424,20.020,38.086,34.180,-6.348,30.273,0
1579018236.428,37.109,38.086,32.715,4.883,-10.254,0
1579018236.432,66.406,39.062,34.668,36.133,17.090,0
1579018236.436,62.500,39.062,36.133,29.785,45.898,0
1579018236.440,41.504,39.551,37.109,4.395,26.855,0
1579018236.458,44.434,38.574,38.086,11.719,43.945,0
1579018236.462,66.895,35.645,39.062,40.527,10.254,0
1579018236.466,63.965,31.250,37.109,33.691,-18.555,0
1579018236.470,26.855,32.227,38.086,0.977,26.367,0
1579018236.474,18.555,35.156,37.109,-1.953,41.016,0
1579018236.478,51.758,36.133,36.621,25.391,-6.348,0
1579018236.482,69.336,35.645,39.062,37.109,22.949,0
1579018236.485,52.246,36.621,37.109,11.230,43.457,0
1579018236.489,33.691,40.039,38.574,2.441,55.176,0
1579018236.493,51.270,41.504,39.551,34.180,43.457,0
1579018236.497,81.055,38.574,36.621,55.664,-11.230,0
1579018236.501,78.613,38.086,35.156,46.387,14.160,0
1579018236.498,59.570,37.598,35.645,27.832,93.750,0
1579018236.502,52.734,34.668,38.574,24.414,78.125,0
1579018236.506,63.965,33.203,39.551,47.363,8.301,0
1579018236.510,62.500,33.691,39.062,45.410,6.348,0
1579018236.514,26.855,34.180,36.133,9.766,7.324,0
1579018236.518,21.973,35.645,36.133,9.766,-37.109,0
1579018236.522,53.223,38.086,37.598,37.109,11.230,0
1579018236.525,57.617,36.621,37.598,35.156,-0.977,0
1579018236.529,35.156,34.668,36.621,3.906,-37.109,0
1579018236.533,25.391,36.621,36.621,-7.324,25.391,0
1579018236.537,43.457,36.133,35.645,15.137,76.172,0
1579018236.541,58.105,36.133,30.762,30.762,80.566,0
1579018236.537,37.598,37.598,32.715,18.066,47.852,0
1579018236.541,16.602,37.109,38.574,4.395,36.621,0
1579018236.545,34.180,38.574,37.109,27.344,33.691,0
1579018236.549,55.176,38.574,38.574,55.664,-24.414,0
1579018236.553,44.434,41.016,40.527,40.039,-45.410,0
1579018236.557,19.043,42.480,39.551,15.137,-25.391,0
1579018236.561,25.391,37.598,38.574,22.949,-56.641,0
1579018236.564,53.711,36.621,38.086,47.852,-41.992,0
1579018236.568,49.805,38.574,39.062,36.621,28.320,0
1579018236.572,18.555,38.086,38.574,3.418,41.992,0
1579018236.576,16.113,35.156,36.133,7.812,39.551,0
1579018236.580,43.945,32.227,36.621,34.668,28.320,0
1579018236.597,54.199,36.621,40.527,43.945,29.297,0
1579018236.601,31.250,43.457,41.016,11.719,29.785,0
1579018236.605,18.066,40.039,38.086,-1.465,2.930,0
1579018236.609,40.527,37.109,38.574,30.273,-25.879,0
1579018236.613,54.688,39.062,36.621,46.875,-25.879,0
1579018236.617,34.668,38.086,35.645,33.203,19.531,0
1579018236.621,13.184,36.133,36.133,14.648,53.711,0
1579018236.624,26.855,37.598,36.621,31.250,-34.180,0
1579018236.628,49.805,38.574,37.109,58.594,-28.320,0
1579018236.632,34.180,38.086,32.715,41.992,33.691,0
1579018236.636,8.789,40.527,30.273,14.160,-0.977,0
1579018236.640,18.066,41.016,33.691,16.113,49.805,0
1579018236.637,45.898,38.574,34.668,44.434,47.852,0
1579018236.641,50.781,39.551,35.156,48.828,48.340,0
1579018236.645,25.391,41.504,35.645,15.625,48.828,0
1579018236.649,20.996,41.992,36.621,14.648,-14.160,0
1579018236.653,49.805,44.434,34.180,42.480,-29.297,0
1579018236.657,54.688,41.992,32.227,44.922,4.883,0
1579018236.661,27.832,37.598,35.156,22.461,32.715,0
1579018236.664,14.648,39.551,37.598,11.230,19.531,0
1579018236.668,40.527,41.504,36.133,35.645,54.199,0
1579018236.672,61.523,41.016,36.621,58.594,111.328,0
1579018236.676,40.527,39.551,38.574,39.062,76.660,0
1579018236.680,12.695,36.133,38.086,17.090,4.395,0
1579018236.677,17.578,35.645,38.574,32.227,-54.199,0
1579018236.681,39.551,34.668,36.621,56.152,-32.715,0
1579018236.685,27.832,32.227,35.156,47.363,35.156,0
1579018236.689,0.488,31.250,38.086,24.414,11.230,0
1579018236.693,5.371,32.227,39.062,29.297,20.996,0
1579018236.697,30.762,34.668,36.133,55.664,38.086,0
1579018236.701,41.504,35.156,34.668,51.758,64.453,0
1579018236.704,16.113,33.691,36.621,19.531,107.422,0
1579018236.708,3.906,30.273,38.574,17.090,33.691,0
1579018236.712,34.668,30.762,35.645,49.316,7.324,0
1579018236.716,51.270,34.180,35.645,59.570,42.480,0
1579018236.720,27.832,35.645,34.180,29.297,20.508,0
1579018236.737,11.230,35.645,32.227,5.371,-48.340,0
1579018236.741,36.133,37.109,32.715,24.414,0.488,0
1579018236.745,60.547,39.062,34.180,43.457,81.055,0
1579018236.749,40.527,42.480,34.180,20.996,69.336,0
1579018236.753,10.742,44.434,31.250,-1.953,64.941,0
1579018236.757,17.578,41.016,32.715,14.160,72.754,0
1579018236.761,37.109,40.039,32.227,34.668,35.156,0
1579018236.764,29.785,39.551,26.855,20.996,33.203,0
1579018236.768,8.789,39.551,25.391,-3.418,73.242,0
1579018236.772,12.695,41.504,27.344,-0.488,77.637,0
1579018236.776,33.691,42.480,28.320,27.832,45.410,0
1579018236.780,40.039,42.480,32.227,33.691,40.039,0
1579018236.777,18.555,41.016,34.668,8.301,55.176,0
1579018236.781,11.230,37.598,36.621,7.812,9.766,0
1579018236.785,38.574,37.109,36.621,39.551,51.270,0
1579018236.789,54.199,36.621,37.598,49.805,98.145,0
1579018236.793,30.273,38.086,39.062,27.832,45.410,0
1579018236.797,9.766,40.527,40.527,13.184,12.207,0
1579018236.801,31.250,36.621,39.062,36.133,51.758,0
1579018236.804,56.641,35.156,36.621,63.477,80.566,0
1579018236.808,43.457,35.156,37.109,48.340,0.488,0
1579018236.812,10.254,33.691,41.504,23.926,-59.570,0
1579018236.816,9.766,31.250,43.457,32.227,-36.133,0
1579018236.820,31.738,27.344,41.016,55.176,30.762,0
1579018236.818,23.438,27.344,42.480,48.828,40.039,0
1579018236.822,-3.418,28.809,44.434,20.996,8.789,0
1579018236.826,-1.953,30.762,41.016,19.531,38.574,0
1579018236.830,24.414,30.762,41.016,50.781,76.660,0
1579018236.834,37.598,30.273,45.410,62.012,24.414,0
1579018236.838,17.090,32.227,42.969,32.715,-0.977,0
1579018236.842,10.254,32.715,41.016,21.484,64.941,0
1579018236.845,39.551,34.668,40.527,52.246,90.332,0
1579018236.849,51.270,34.668,37.109,66.895,63.965,0
1579018236.853,31.250,35.156,34.180,41.016,32.715,0
1579018236.857,16.602,37.109,33.691,20.020,10.742,0
1579018236.861,37.598,38.574,32.227,34.668,-4.883,0
1579018236.877,62.012,40.527,31.250,59.082,-12.695,0
1579018236.881,51.270,43.945,33.691,49.316,-13.672,0
1579018236.885,26.367,48.340,32.227,22.461,-10.742,0
1579018236.889,26.367,46.387,28.320,31.250,16.113,0
1579018236.893,44.922,44.434,29.297,60.547,45.898,0
1579018236.897,39.062,45.898,30.762,57.129,15.137,0
1579018236.901,4.395,42.480,31.738,23.438,9.766,0
1579018236.904,-0.977,40.039,31.250,22.461,45.410,0
1579018236.908,25.391,40.527,30.762,56.641,67.383,0
1579018236.912,28.809,39.551,32.227,64.941,34.668,0
1579018236.916,2.930,37.598,35.645,41.992,-1.953,0
1579018236.920,-13.184,36.621,35.645,27.832,24.902,0
1579018236.918,10.254,36.621,35.645,51.270,24.414,0
1579018236.922,34.180,36.621,38.574,73.730,6.836,0
1579018236.926,23.438,35.645,39.551,53.711,20.020,0
1579018236.930,6.348,36.621,38.086,32.715,33.691,0
1579018236.934,29.297,39.062,35.156,51.270,34.180,0
1579018236.938,63.477,35.156,35.156,70.312,11.230,0
1579018236.942,62.012,31.250,36.621,54.199,23.926,0
1579018236.945,38.086,34.180,33.203,21.973,87.891,0
1579018236.949,34.180,37.598,33.203,23.926,85.938,0
1579018236.953,57.129,37.109,38.574,53.711,29.785,0
1579018236.957,62.500,34.668,39.551,52.734,21.484,0
1579018236.961,31.738,34.668,37.598,20.020,49.316,0
1579018236.957,20.508,36.621,38.086,14.160,46.387,0
1579018236.961,51.270,39.551,38.086,45.410,26.367,0
1579018236.965,59.082,39.062,37.598,51.758,40.039,0
1579018236.969,32.227,39.551,36.621,24.902,51.270,0
1579018236.973,13.672,37.598,37.109,10.254,63.965,0
1579018236.977,32.715,34.668,34.180,27.832,88.867,0
1579018236.981,56.641,34.180,32.715,47.852,87.402,0
1579018236.984,38.574,35.645,35.156,25.391,51.758,0
1579018236.988,17.578,39.062,33.691,5.371,12.207,0
1579018236.992,42.969,39.551,34.180,35.156,-3.418,0
1579018236.996,59.082,40.039,36.133,52.246,18.066,0
1579018237.000,30.273,37.598,34.668,23.926,17.090,0
1579018237.018,14.160,36.621,36.133,2.930,-25.879,0
1579018237.022,27.344,36.621,41.016,14.648,-26.855,0
1579018237.026,59.082,38.574,37.598,45.898,63.965,0
1579018237.030,59.082,38.086,36.133,40.039,79.590,0
1579018237.034,26.367,34.668,41.992,8.789,48.340,0
1579018237.038,13.672,33.691,43.945,3.906,71.777,0
1579018237.042,41.504,34.668,41.016,27.832,74.707,0
1579018237.045,62.988,35.156,40.039,39.551,121.094,0
1579018237.049,41.016,34.668,41.992,15.625,126.465,0
1579018237.053,21.484,35.156,39.551,1.953,29.297,0
1579018237.057,38.086,35.156,36.133,25.879,15.625,0
1579018237.061,57.617,35.645,35.645,52.734,116.699,0
1579018237.057,41.504,32.227,34.180,41.016,110.352,0
1579018237.061,9.277,31.738,33.203,17.090,79.590,0
1579018237.065,15.137,34.180,37.109,35.156,78.613,0
1579018237.069,47.852,34.180,41.504,65.430,98.633,0
1579018237.073,47.363,36.133,38.574,54.199,71.777,0
1579018237.077,13.672,36.621,34.668,20.020,-19.043,0
1579018237.081,10.742,35.645,34.180,16.602,9.766,0
1579018237.084,42.480,35.645,35.645,45.898,30.762,0
1579018237.088,44.434,37.109,36.133,49.805,-28.809,0
1579018237.092,15.625,38.574,35.156,15.625,-25.879,0
1579018237.096,11.719,36.621,33.691,-0.488,15.137,0
1579018237.100,40.039,37.598,34.180,21.973,1.465,0
1579018237.097,58.594,37.598,35.156,36.621,24.414,0
1579018237.101,39.062,40.039,36.133,13.184,21.973,0
1579018237.105,16.602,41.016,35.645,-8.789,14.160,0
1579018237.109,33.691,35.645,35.645,3.906,49.805,0
1579018237.113,60.059,34.668,37.598,23.438,19.043,0
1579018237.117,50.781,38.086,39.551,11.719,37.109,0
1579018237.121,24.902,38.574,39.551,-18.066,68.848,0
1579018237.124,28.320,36.621,40.039,-13.184,-1.465,0
1579018237.128,52.246,36.133,38.086,13.672,-3.906,0
1579018237.132,53.711,38.574,34.668,11.230,54.199,0
1579018237.136,25.391,38.574,36.621,-14.160,58.594,0
1579018237.140,15.625,34.668,38.086,-16.602,6.836,0
1579018237.157,41.016,35.645,38.086,13.672,-5.859,0
1579018237.161,49.805,36.133,39.062,20.020,-8.789,0
1579018237.165,24.414,36.133,39.062,-2.441,13.184,0
1579018237.169,11.230,39.551,37.109,-5.371,54.199,0
1579018237.173,35.156,39.551,37.109,21.973,13.672,0
1579018237.177,52.734,38.086,39.551,46.875,-0.488,0
1579018237.181,28.809,38.574,37.109,25.391,5.859,0
1579018237.184,2.441,36.133,36.621,6.348,54.199,0
1579018237.188,18.555,37.598,40.527,30.273,82.520,0
1579018237.192,46.387,40.039,38.086,55.664,41.504,0
1579018237.196,36.133,40.039,36.133,44.434,0.488,0
1579018237.200,2.930,39.551,36.133,16.602,-15.137,0
1579018237.197,4.395,41.016,35.645,24.902,-10.254,0
1579018237.201,36.133,41.992,35.645,54.199,-29.785,0
1579018237.205,39.551,39.551,35.645,52.246,-5.371,0
1579018237.209,14.648,43.457,38.574,26.855,39.551,0
1579018237.213,10.742,44.922,38.086,17.578,66.406,0
1579018237.217,38.574,41.504,36.133,36.621,63.965,0
1579018237.221,51.758,42.480,34.668,45.898,71.289,0
1579018237.224,25.391,41.016,35.645,16.602,68.848,0
1579018237.228,7.324,37.598,38.574,-2.930,29.297,0
1579018237.232,28.809,36.621,39.062,16.602,42.480,0
1579018237.236,46.387,36.133,34.668,29.297,73.242,0
1579018237.240,29.297,37.109,35.156,15.625,34.668,0
1579018237.237,6.348,36.621,38.574,-7.812,-24.414,0
1579018237.241,12.207,37.598,37.598,3.906,-45.410,0
1579018237.245,30.762,41.504,37.598,29.785,38.574,0
1579018237.249,27.344,40.527,39.062,20.996,52.734,0
1579018237.253,1.465,35.156,37.109,0.000,-27.344,0
1579018237.257,1.465,31.250,32.715,10.742,25.879,0
1579018237.261,35.156,30.762,33.691,43.945,46.875,0
1579018237.264,37.598,33.691,37.109,37.598,15.625,0
1579018237.268,9.277,35.156,37.109,9.277,-19.043,0
1579018237.272,2.441,34.668,37.109,9.277,0.000,0
1579018237.276,25.391,36.621,36.621,33.691,-15.625,0
1579018237.280,46.387,35.645,36.133,49.805,12.207,0
1579018237.297,32.227,37.109,36.133,28.320,37.109,0
1579018237.301,17.090,41.504,37.109,13.184,-3.418,0
1579018237.305,37.109,38.574,38.086,33.691,87.891,0
1579018237.309,59.570,33.691,34.668,51.758,63.477,0
1579018237.313,47.363,35.156,33.691,37.109,21.484,0
1579018237.317,16.602,38.086,36.133,5.371,89.844,0
1579018237.321,21.973,39.062,34.668,15.137,57.129,0
1579018237.324,51.758,40.527,33.691,50.293,24.414,0
1579018237.328,46.875,38.574,33.203,36.133,40.039,0
1579018237.332,17.090,33.691,34.668,1.953,18.555,0
1579018237.336,11.719,36.133,36.133,1.465,32.227,0
1579018237.340,40.527,38.574,35.645,27.344,48.340,0
1579018237.338,51.758,36.133,36.133,34.668,-3.906,0
1579018237.342,27.344,38.086,36.133,4.395,27.344,0
1579018237.346,12.695,38.086,36.621,-5.371,125.977,0
1579018237.350,32.227,34.180,37.598,21.973,85.938,0
1579018237.354,46.875,32.715,38.086,34.668,54.199,0
1579018237.358,30.273,34.180,38.574,11.719,80.078,0
1579018237.362,10.254,36.133,36.621,-4.883,22.949,0
1579018237.365,28.320,34.668,38.574,17.090,12.695,0
1579018237.369,50.781,33.691,39.062,40.527,74.219,0
1579018237.373,41.992,36.133,33.691,22.949,-5.859,0
1579018237.377,24.414,39.062,32.715,4.395,-28.320,0
1579018237.381,22.949,35.156,32.715,12.207,18.555,0
1579018237.380,40.527,27.832,31.250,32.715,54.199,0
1579018237.384,38.086,29.297,35.156,33.691,50.293,0
1579018237.388,24.414,34.180,34.668,18.066,15.625,0
1579018237.392,21.484,34.180,32.715,17.090,48.828,0
1579018237.396,40.527,32.715,37.598,42.480,54.688,0
1579018237.400,50.781,34.668,38.086,52.734,41.992,0
1579018237.404,29.785,38.086,34.180,24.902,52.246,0
1579018237.407,20.020,41.016,33.203,13.672,31.738,0
1579018237.411,41.992,40.039,31.250,35.645,-17.578,0
1579018237.415,55.176,38.574,34.180,55.176,-35.645,0
1579018237.419,32.227,38.086,38.574,39.062,-0.488,0
1579018237.423,5.371,39.062,39.062,15.137,11.719,0
1579018237.437,17.090,38.086,38.574,32.715,7.324,0
1579018237.441,44.922,40.039,38.574,59.082,-31.250,0
1579018237.445,35.156,41.992,38.086,41.504,-27.344,0
1579018237.449,4.395,38.086,39.062,9.277,37.598,0
1579018237.453,3.906,37.109,38.574,17.090,52.246,0
1579018237.457,23.438,34.180,38.086,43.945,85.449,0
1579018237.461,23.438,34.180,39.551,37.109,54.199,0
1579018237.464,0.977,36.621,38.086,10.254,11.230,0
1579018237.468,-2.441,38.086,39.551,11.719,36.621,0
1579018237.472,28.320,38.574,40.527,42.480,52.734,0
1579018237.476,41.016,37.598,38.574,49.316,36.621,0
1579018237.480,14.648,39.062,40.039,25.879,-23.926,0
1579018237.477,-0.977,38.086,41.504,14.648,34.668,0
1579018237.481,20.020,37.598,40.039,36.133,80.078,0
1579018237.485,39.062,35.156,41.504,56.641,18.555,0
1579018237.489,24.902,34.668,41.992,34.180,3.418,0
1579018237.493,1.465,33.691,38.574,4.883,17.090,0
1579018237.497,7.812,34.180,37.109,20.020,23.926,0
1579018237.501,29.785,35.156,34.668,45.410,27.344,0
1579018237.504,24.414,33.691,34.180,31.738,6.836,0
1579018237.508,-2.441,34.180,35.645,0.977,28.809,0
1579018237.512,0.977,34.180,33.203,-0.977,40.039,0
1579018237.516,33.203,32.715,29.297,29.785,37.598,0
1579018237.520,39.062,38.086,30.273,36.621,75.684,0
1579018237.537,16.113,41.016,34.180,4.395,72.754,0
1579018237.541,11.230,38.574,34.180,-2.441,65.430,0
1579018237.545,30.273,37.598,32.227,25.879,21.484,0
1579018237.549,40.527,36.621,31.738,33.691,-19.531,0
1579018237.553,18.066,36.621,33.691,8.301,-3.906,0
1579018237.557,-1.953,39.062,34.668,-4.883,-0.488,0
1579018237.561,19.043,41.504,36.133,23.438,-15.625,0
1579018237.564,42.480,41.016,35.156,43.457,20.020,0
1579018237.568,30.762,41.016,30.762,25.391,31.738,0
1579018237.572,2.930,40.039,31.250,4.883,0.977,0
1579018237.576,8.301,39.062,33.691,17.578,20.996,0
1579018237.580,34.180,39.062,35.156,47.363,22.461,0
1579018237.577,27.832,35.645,36.133,39.062,-4.883,0
1579018237.581,-5.859,32.715,35.156,9.277,43.457,0
1579018237.585,-8.789,34.668,35.156,7.812,72.266,0
1579018237.589,18.066,35.645,35.645,32.715,50.781,0
1579018237.593,23.926,36.133,37.598,35.156,2.930,0
1579018237.597,-8.301,36.133,38.574,4.395,56.152,0
1579018237.601,-24.902,33.691,36.133,-8.789,70.312,0
1579018237.604,1.465,32.227,35.645,16.602,25.879,0
1579018237.608,23.438,30.273,39.062,32.227,62.012,0
1579018237.612,9.766,31.250,40.527,18.555,-7.324,0
1579018237.616,-13.184,33.203,41.016,-2.441,8.789,0
1579018237.620,0.488,36.133,38.086,4.395,37.598,0
1579018237.617,24.414,37.598,33.691,20.508,-10.742,0
1579018237.621,16.602,38.086,33.203,13.672,-32.227,0
1579018237.625,-0.977,41.992,31.250,-3.906,-19.043,0
1579018237.629,6.836,40.039,28.320,3.906,43.945,0
1579018237.633,35.156,38.086,27.832,35.156,58.594,0
1579018237.637,38.574,40.039,29.785,30.273,55.176,0
1579018237.641,12.207,39.551,29.297,-1.953,26.855,0
1579018237.644,7.812,40.527,26.855,2.930,20.996,0
1579018237.648,32.227,42.969,29.785,31.250,70.801,0
1579018237.652,37.598,44.922,31.250,33.691,74.219,0
1579018237.656,13.184,45.410,28.809,3.906,45.898,0
1579018237.660,-0.977,41.016,25.391,-13.672,72.266,0
1579018237.677,28.320,38.086,25.391,18.555,73.730,0
1579018237.681,45.410,42.969,29.785,39.551,24.902,0
1579018237.685,19.531,43.457,29.785,16.113,43.945,0
1579018237.689,-4.883,38.086,27.344,-5.859,99.609,0
1579018237.693,12.695,38.574,29.785,12.207,22.461,0
1579018237.697,40.039,38.574,31.738,38.086,-25.391,0
1579018237.701,30.762,39.062,30.762,24.902,17.578,0
1579018237.704,7.324,41.016,30.762,-3.418,6.836,0
1579018237.708,16.113,36.621,30.273,5.371,40.039,0
1579018237.712,41.016,33.203,30.273,34.668,34.668,0
1579018237.716,42.969,31.250,28.320,31.250,40.039,0
1579018237.720,22.949,31.738,27.344,1.953,101.074,0
1579018237.717,14.160,31.738,29.297,1.465,4.395,0
1579018237.721,38.086,32.715,31.250,34.180,-53.223,0
1579018237.725,44.922,31.738,31.250,45.410,0.000,0
1579018237.729,16.113,31.250,33.203,19.531,2.441,0
1579018237.733,-1.465,32.227,34.668,4.395,-15.137,0
1579018237.737,20.508,33.203,34.180,24.414,-7.324,0
1579018237.741,40.039,30.762,32.227,39.551,68.359,0
1579018237.744,19.043,28.809,31.738,16.113,32.715,0
1579018237.748,-1.465,31.250,31.250,-7.812,7.324,0
1579018237.752,16.602,34.180,30.273,12.695,38.574,0
1579018237.756,39.551,39.062,34.668,35.645,-6.348,0
1579018237.760,31.738,38.574,32.715,21.484,-22.461,0
1579018237.759,12.207,39.062,30.762,3.906,-20.996,0
1579018237.763,15.625,41.504,31.738,15.137,-7.812,0
1579018237.767,46.387,42.480,34.668,45.898,-14.160,0
1579018237.771,59.570,45.410,34.668,46.875,13.672,0
1579018237.775,34.180,42.969,29.785,8.301,34.180,0
1579018237.779,25.391,40.039,30.762,-1.953,35.156,0
1579018237.783,57.129,41.504,33.203,30.762,18.066,0
1579018237.786,73.730,45.898,34.180,42.969,24.902,0
1579018237.790,49.316,46.875,34.668,10.254,43.945,0
1579018237.794,36.133,41.016,32.715,-12.695,66.895,0
1579018237.798,63.965,41.016,34.668,13.184,56.641,0
1579018237.802,78.125,41.992,38.086,31.738,-16.602,0
1579018237.818,60.547,42.480,36.621,10.254,46.387,0
1579018237.822,34.668,41.992,35.156,-14.648,122.070,0
1579018237.826,41.992,39.551,33.691,-4.883,76.660,0
1579018237.830,69.824,39.551,33.203,22.949,30.273,0
1579018237.834,61.523,37.109,36.133,17.090,70.312,0
1579018237.838,29.785,36.133,35.156,-11.230,113.281,0
1579018237.842,24.902,35.645,31.738,-10.742,86.426,0
1579018237.845,49.805,36.133,34.668,11.230,50.781,0
1579018237.849,60.547,38.086,36.621,11.719,-33.691,0
1579018237.853,33.203,35.645,37.109,-13.184,-30.273,0
1579018237.857,16.602,31.738,38.086,-18.555,-6.348,0
1579018237.861,37.109,33.691,37.598,11.719,28.320,0
1579018237.857,48.340,33.203,36.621,24.902,51.758,0
1579018237.861,22.949,31.250,39.062,0.000,53.711,0
1579018237.865,-0.977,31.738,41.992,-13.184,86.426,0
1579018237.869,16.602,33.691,41.016,10.742,65.430,0
1579018237.873,39.062,33.203,38.574,32.715,47.363,0
1579018237.877,23.926,31.250,37.109,18.066,23.438,0
1579018237.881,-0.977,30.762,37.109,-0.977,8.301,0
1579018237.884,11.719,30.762,35.156,16.602,89.355,0
1579018237.888,43.457,30.273,36.621,48.828,95.703,0
1579018237.892,38.574,31.250,39.551,46.387,65.430,0
1579018237.896,12.695,35.645,37.598,14.648,54.199,0
1579018237.900,15.625,39.551,35.645,16.602,-21.484,0
1579018237.898,40.039,35.645,33.203,45.898,35.156,0
1579018237.902,50.293,34.668,31.738,46.387,35.645,0
1579018237.906,30.273,39.551,35.645,24.414,-26.367,0
1579018237.910,17.578,41.016,37.598,15.625,-19.043,0
1579018237.914,42.969,40.527,38.086,35.156,-16.602,0
1579018237.918,63.477,44.434,38.574,47.852,-30.762,0
1579018237.922,49.805,48.340,36.621,24.414,-33.203,0
1579018237.925,32.227,43.457,34.668,4.883,-0.488,0
1579018237.929,45.898,40.527,37.598,16.602,44.922,0
1579018237.933,66.895,41.016,36.621,31.250,36.621,0
1579018237.937,57.617,38.086,35.156,20.996,55.664,0
1579018237.941,32.715,40.039,37.598,-1.953,41.016,0
1579018237.957,36.621,41.992,38.086,3.906,-19.043,0
1579018237.961,65.918,42.480,38.086,30.273,-6.836,0
1579018237.965,67.383,42.969,35.156,28.809,41.016,0
1579018237.969,33.691,38.574,38.574,0.977,20.020,0
1579018237.973,23.438,40.039,44.434,2.441,-21.484,0
1579018237.977,47.852,41.016,43.457,34.668,25.879,0
1579018237.981,60.059,37.109,39.551,42.480,53.223,0
1579018237.984,37.109,32.715,40.527,15.625,57.617,0
1579018237.988,15.625,30.762,45.898,-4.883,73.730,0
1579018237.992,30.273,35.156,44.922,9.766,29.297,0
1579018237.996,42.969,33.691,44.434,31.250,42.969,0
1579018238.000,26.855,30.762,44.434,18.555,51.270,0
1579018237.997,6.348,31.250,42.969,3.906,35.156,0
1579018238.001,19.043,30.762,41.992,27.344,30.762,0
1579018238.005,46.387,30.762,41.016,59.082,19.531,0
1579018238.009,38.574,32.715,42.969,50.293,68.359,0
1579018238.013,8.789,34.668,43.457,19.531,79.102,0
1579018238.017,9.277,33.691,40.527,30.762,47.852,0
1579018238.021,33.691,30.273,37.598,64.941,62.988,0
1579018238.024,35.645,30.762,37.109,62.500,68.359,0
1579018238.028,7.324,34.180,34.180,30.273,30.273,0
1579018238.032,2.930,39.551,33.691,24.902,-21.973,0
1579018238.036,30.273,41.504,33.691,46.875,0.000,0
1579018238.040,45.410,40.527,33.203,53.711,65.918,0
1579018238.038,28.320,42.969,30.273,27.832,86.426,0
1579018238.042,15.137,39.551,28.320,8.789,43.457,0
1579018238.046,34.668,36.621,29.297,28.320,17.090,0
1579018238.050,55.176,40.527,29.785,47.363,31.738,0
1579018238.054,42.480,45.410,34.668,31.250,53.711,0
1579018238.058,19.043,44.922,36.133,10.742,-2.930,0
1579018238.062,30.273,39.551,34.180,28.809,-51.270,0
1579018238.065,55.664,40.527,35.645,53.223,35.156,0
1579018238.069,42.969,40.527,39.062,41.016,58.594,0
1579018238.073,10.254,36.621,40.527,16.113,-33.203,0
1579018238.077,5.371,35.156,39.551,25.391,16.602,0
1579018238.081,26.367,34.668,41.016,55.176,72.266,0
1579018238.117,26.367,32.715,40.527,54.688,18.555,0
1579018238.121,-2.441,35.156,41.016,27.832,-0.977,0
1579018238.125,-10.742,35.645,43.457,24.414,19.043,0
1579018238.129,7.324,35.645,43.945,54.199,46.875,0
1579018238.133,17.090,35.645,42.969,62.012,44.434,0
1579018238.137,-1.953,30.762,42.969,38.574,55.176,0
1579018238.141,-20.020,31.738,42.969,21.484,72.754,0
1579018238.144,5.859,37.109,41.016,39.551,57.129,0
1579018238.148,36.133,39.062,38.574,65.918,52.734,0
1579018238.152,28.320,40.527,40.039,47.852,56.641,0
1579018238.156,9.277,41.016,41.504,19.531,33.691,0
1579018238.160,20.020,39.551,41.504,31.250,9.766,0
1579018238.140,44.434,37.109,40.527,55.664,2.930,0
1579018238.144,41.504,36.133,39.551,49.316,18.555,0
1579018238.148,18.066,34.180,39.062,21.973,66.406,0
1579018238.152,22.461,36.133,39.551,27.344,-0.488,0
1579018238.156,51.270,38.086,37.598,58.105,-4.395,0
1579018238.160,59.570,38.086,36.133,57.129,92.285,0
1579018238.164,38.086,38.086,41.504,28.320,100.586,0
1579018238.167,24.902,37.598,43.945,15.137,11.719,0
1579018238.171,48.340,37.109,41.992,41.992,4.883,0
1579018238.175,57.129,37.598,42.969,54.688,33.203,0
1579018238.179,28.809,36.133,44.922,22.949,6.836,0
1579018238.183,11.230,37.109,41.504,1.465,44.434,0
1579018238.178,28.809,42.480,35.645,17.578,84.961,0
1579018238.182,48.340,41.016,35.156,35.156,50.293,0
1579018238.186,33.691,41.992,40.039,20.508,50.781,0
1579018238.190,9.277,44.434,39.062,-5.859,32.715,0
1579018238.194,18.066,40.527,34.668,1.465,15.137,0
1579018238.198,40.527,36.133,37.109,25.879,33.203,0
1579018238.202,41.504,37.109,38.574,20.020,-5.371,0
1579018238.205,22.461,36.133,37.109,-2.441,-35.156,0
1579018238.209,19.043,34.668,34.668,-4.395,-14.160,0
1579018238.213,46.875,35.645,29.297,19.531,43.945,0
1579018238.217,45.898,36.621,25.879,15.625,135.254,0
1579018238.221,22.461,39.062,26.855,-8.789,97.168,0
1579018238.257,24.902,42.969,29.297,-6.836,52.734,0
1579018238.261,48.340,46.875,31.250,16.602,32.715,0
1579018238.265,61.523,47.363,33.203,29.785,12.695,0
1579018238.269,40.527,47.363,31.250,2.441,-15.137,0
1579018238.273,18.555,44.922,30.273,-15.625,-68.359,0
1579018238.277,32.715,39.551,34.180,10.742,-25.391,0
1579018238.281,58.105,36.621,28.320,34.668,60.059,0
1579018238.284,57.129,36.621,25.391,31.250,8.789,0
1579018238.288,30.273,36.621,30.762,14.648,20.996,0
1579018238.292,33.203,38.574,34.180,26.855,12.695,0
1579018238.296,64.941,38.574,35.645,63.965,-24.902,0
1579018238.300,59.082,42.480,38.574,57.617,24.902,0
1579018238.277,19.043,43.457,38.086,20.508,6.348,0
1579018238.281,8.789,38.574,36.621,19.531,58.594,0
1579018238.285,39.551,36.621,36.621,47.363,94.727,0
1579018238.289,44.922,36.133,35.645,52.246,16.602,0
1579018238.293,17.090,38.086,35.645,24.902,14.160,0
1579018238.297,0.977,38.574,37.109,11.719,81.055,0
1579018238.301,25.391,40.527,36.621,35.645,109.863,0
1579018238.304,47.852,39.551,34.668,56.641,26.855,0
1579018238.308,29.785,32.715,35.645,38.086,8.789,0
1579018238.312,4.883,34.180,36.133,14.160,106.934,0
1579018238.316,20.508,37.598,34.668,27.344,97.168,0
1579018238.320,51.758,37.598,32.715,49.805,82.520,0
1579018238.318,44.434,41.016,33.203,37.598,50.781,0
1579018238.322,9.277,39.062,31.738,14.160,2.930,0
1579018238.326,2.441,32.715,30.762,22.949,5.371,0
1579018238.330,27.832,36.133,32.715,51.758,14.648,0
1579018238.334,34.180,40.039,35.156,57.129,34.668,0
1579018238.338,4.395,41.016,39.551,36.621,17.578,0
1579018238.342,-9.277,41.504,38.574,31.738,-9.766,0
1579018238.345,13.672,41.016,39.062,53.223,21.484,0
1579018238.349,25.391,38.574,40.039,57.617,-20.508,0
1579018238.353,0.977,39.062,36.621,25.391,12.695,0
1579018238.357,-11.230,39.551,36.621,17.090,16.113,0
1579018238.361,29.297,36.133,36.133,62.012,20.508,0
1579018238.377,35.156,35.156,40.039,71.777,13.672,0
1579018238.381,-3.906,35.645,42.480,30.273,-10.254,0
1579018238.385,-15.625,36.621,39.062,12.207,13.672,0
1579018238.389,5.859,37.598,40.039,41.992,19.531,0
1579018238.393,39.551,40.527,39.062,76.172,39.062,0
1579018238.397,39.062,41.992,40.039,68.848,38.086,0
1579018238.401,4.883,40.039,41.016,31.250,38.086,0
1579018238.404,7.324,39.062,40.527,32.227,11.719,0
1579018238.408,40.039,41.992,43.457,67.871,-5.859,0
1579018238.412,40.527,39.551,42.969,71.777,7.324,0
1579018238.416,12.207,36.621,40.527,41.992,48.828,0
1579018238.420,6.836,38.574,41.992,34.668,60.547,0
1579018238.417,35.156,35.156,40.039,57.617,3.906,0
1579018238.421,48.340,35.156,35.156,65.918,-35.156,0
1579018238.425,29.297,39.062,35.156,40.527,16.602,0
1579018238.429,13.184,42.969,35.645,19.531,16.602,0
1579018238.433,37.598,45.898,35.156,40.527,18.066,0
1579018238.437,62.988,46.875,33.691,63.477,14.160,0
1579018238.441,49.316,44.922,35.645,45.898,-35.645,0
1579018238.444,26.367,38.574,34.180,15.137,18.555,0
1579018238.448,38.574,38.086,34.180,24.414,17.090,0
1579018238.452,65.918,44.922,33.691,49.316,6.348,0
1579018238.456,57.617,45.410,31.738,40.527,56.152,0
1579018238.460,27.344,44.434,34.668,17.578,33.203,0
1579018238.458,22.949,43.945,33.203,13.184,68.848,0
1579018238.462,51.758,39.551,33.203,38.574,71.777,0
1579018238.466,58.105,38.086,36.133,47.852,25.879,0
1579018238.470,29.297,40.527,39.062,22.461,69.824,0
1579018238.474,2.441,43.457,41.504,14.648,55.176,0
1579018238.478,9.766,42.480,38.086,36.621,40.527,0
1579018238.482,28.320,39.551,36.621,52.246,27.344,0
1579018238.485,11.719,36.621,38.574,35.645,-2.930,0
1579018238.489,-15.625,35.156,38.574,16.113,21.973,0
1579018238.493,-2.930,35.645,38.574,34.668,21.973,0
1579018238.497,25.879,36.133,40.527,63.965,-39.062,0
1579018238.501,15.625,33.691,39.062,52.734,-23.438,0
1579018238.518,-15.625,34.668,39.062,20.020,61.523,0
1579018238.522,-15.625,35.645,40.527,22.461,52.734,0
1579018238.526,13.184,33.691,37.109,48.340,41.504,0
1579018238.530,15.137,32.715,38.086,41.016,40.527,0
1579018238.534,-9.766,31.250,42.969,12.207,25.391,0
1579018238.538,-12.695,33.691,42.969,8.789,71.777,0
1579018238.542,20.508,34.668,41.016,26.855,114.258,0
1579018238.545,44.922,34.180,39.551,33.691,53.223,0
1579018238.549,33.203,34.180,40.527,11.230,16.113,0
1579018238.553,28.320,36.133,38.086,-8.789,-12.695,0
1579018238.557,58.594,39.551,34.180,13.184,6.348,0
1579018238.561,83.496,39.551,34.180,30.273,66.406,0
1579018238.560,67.871,37.598,31.738,6.836,120.117,0
1579018238.564,43.457,39.551,32.227,-13.184,40.039,0
1579018238.568,56.641,44.434,32.715,6.836,11.230,0
1579018238.572,80.566,41.992,33.203,32.715,100.098,0
1579018238.576,75.195,42.969,30.762,23.438,96.191,0
1579018238.580,60.547,44.434,30.762,12.695,69.824,0
1579018238.584,47.363,36.621,38.574,6.836,27.344,0
1579018238.587,53.711,32.715,39.062,20.508,-1.953,0
1579018238.591,49.316,30.762,41.504,32.715,37.109,0
1579018238.595,9.277,26.855,41.504,2.441,34.668,0
1579018238.599,3.418,22.949,41.016,3.418,-9.277,0
1579018238.603,26.855,23.438,43.945,36.133,-6.348,0
1579018238.597,38.086,21.484,46.387,47.852,-16.113,0
1579018238.601,17.090,18.066,45.898,25.879,22.461,0
1579018238.605,-2.441,20.020,49.316,11.230,9.277,0
1579018238.609,22.949,18.555,48.340,35.645,-25.879,0
1579018238.613,46.875,19.043,42.969,55.176,-1.465,0
1579018238.617,30.273,25.391,43.945,29.297,40.039,0
1579018238.621,13.672,23.926,43.945,3.418,75.195,0
1579018238.624,32.227,21.484,43.457,17.090,35.156,0
1579018238.628,59.570,23.438,41.504,40.527,-41.016,0
1579018238.632,56.152,23.926,39.062,32.715,-0.488,0
1579018238.636,28.809,26.367,41.504,3.906,48.828,0
1579018238.640,27.832,31.738,44.922,7.812,53.223,0
1579018238.657,60.059,33.203,47.363,44.922,35.156,0
1579018238.661,63.965,32.715,43.945,48.340,13.184,0
1579018238.665,31.738,28.809,39.062,15.625,32.715,0
1579018238.669,22.461,25.879,38.574,10.254,57.617,0
1579018238.673,49.316,27.344,38.086,36.621,39.551,0
1579018238.677,64.453,31.250,40.527,48.828,5.859,0
1579018238.681,38.086,34.180,39.062,21.973,12.207,0
1579018238.684,13.672,33.203,37.109,2.930,15.625,0
1579018238.688,37.109,34.180,40.039,34.668,37.598,0
1579018238.692,67.383,33.691,39.062,64.941,14.648,0
1579018238.696,49.316,34.180,40.039,47.363,34.668,0
1579018238.700,20.508,32.227,38.086,24.414,100.586,0
1579018238.697,31.738,29.297,37.109,39.551,62.012,0
1579018238.701,55.664,32.227,41.016,67.383,18.066,0
1579018238.705,51.758,35.645,42.480,57.617,33.203,0
1579018238.709,28.320,36.133,47.363,28.809,39.551,0
1579018238.713,26.367,34.180,45.410,31.250,43.945,0
1579018238.717,50.781,33.691,40.527,59.570,40.527,0
1579018238.721,58.105,35.156,43.457,66.406,8.301,0
1579018238.724,30.273,36.133,42.969,35.156,-18.555,0
1579018238.728,19.531,38.574,39.551,20.996,34.180,0
1579018238.732,50.293,36.133,38.574,46.387,65.918,0
1579018238.736,72.266,35.156,41.016,59.570,26.367,0
1579018238.740,54.688,38.086,42.969,32.715,5.859,0
1579018238.737,36.133,39.551,40.039,6.348,36.133,0
1579018238.741,49.805,39.551,39.062,27.832,51.758,0
1579018238.745,65.430,38.086,40.527,52.734,51.270,0
1579018238.749,46.875,34.180,40.039,33.691,59.570,0
1579018238.753,19.531,36.133,38.086,8.789,71.289,0
1579018238.757,26.367,37.109,35.156,13.672,50.781,0
1579018238.761,56.152,32.715,35.645,39.551,37.109,0
1579018238.764,54.199,37.598,33.691,31.250,71.289,0
1579018238.768,24.902,41.504,32.715,0.488,51.758,0
1579018238.772,23.438,39.062,35.156,9.277,29.297,0
1579018238.776,44.434,38.086,35.156,38.574,68.848,0
1579018238.780,50.293,40.527,34.668,41.992,38.574,0
1579018238.797,20.020,40.527,34.180,16.113,13.672,0
1579018238.801,2.441,39.062,32.715,1.953,83.008,0
1579018238.805,27.832,37.598,34.180,25.879,37.109,0
1579018238.809,43.457,38.086,38.574,40.527,11.230,0
1579018238.813,18.066,40.039,38.086,14.648,23.438,0
1579018238.817,-17.578,36.621,36.133,-14.160,-22.461,0
1579018238.821,-11.230,32.227,38.086,-2.930,-7.812,0
1579018238.824,10.742,33.203,36.133,22.949,10.254,0
1579018238.828,-5.859,31.250,34.668,3.906,48.828,0
1579018238.832,-40.527,30.273,36.133,-28.320,96.680,0
1579018238.836,-33.203,33.203,34.180,-15.625,137.207,0
1579018238.840,7.812,35.156,33.691,16.602,120.117,0
1579018238.857,-0.977,36.133,37.109,3.906,44.434,0
1579018238.861,-45.898,38.574,38.086,-35.645,62.988,0
1579018238.865,-42.480,36.621,37.109,-30.273,138.184,0
1579018238.869,-6.348,31.250,38.086,4.883,115.723,0
1579018238.873,13.184,27.832,38.574,13.672,55.664,0
1579018238.877,2.930,26.367,41.016,-4.395,7.324,0
1579018238.881,-8.301,27.344,41.016,-15.625,15.625,0
1579018238.884,23.926,30.762,40.039,11.230,34.180,0
1579018238.888,61.035,32.715,42.480,36.621,29.297,0
1579018238.892,52.246,30.273,41.016,14.648,60.059,0
1579018238.896,35.645,27.344,39.551,-0.488,17.090,0
1579018238.900,47.363,31.738,38.574,20.996,-1.465,0
1579018238.898,61.035,34.668,35.156,52.734,23.438,0
1579018238.902,50.293,31.250,41.016,55.664,39.551,0
1579018238.906,19.043,31.250,40.039,31.250,0.977,0
1579018238.910,17.090,29.785,33.203,39.062,-17.090,0
1579018238.914,43.945,28.809,35.156,70.801,28.320,0
1579018238.918,52.734,31.250,34.668,73.730,8.301,0
1579018238.922,48.340,36.621,33.691,56.641,-7.324,0
1579018238.925,52.734,39.062,34.668,53.711,28.809,0
1579018238.929,76.660,37.598,35.156,82.031,68.848,0
1579018238.933,92.773,37.598,35.156,98.145,64.453,0
1579018238.937,80.078,38.086,35.645,83.496,12.207,0
1579018238.941,55.664,37.598,37.598,75.195,5.859,0
1579018238.957,75.195,38.086,36.133,98.633,19.531,0
1579018238.961,106.934,40.039,36.621,125.488,52.246,0
1579018238.965,90.332,41.504,39.551,108.887,62.988,0
1579018238.969,58.105,42.480,41.504,81.543,41.016,0
1579018238.973,60.547,41.504,41.992,91.797,62.988,0
1579018238.977,62.500,39.551,41.016,107.422,13.672,0
1579018238.981,74.219,38.574,38.086,92.773,-9.766,0
1579018238.984,72.266,38.574,38.574,62.988,20.020,0
1579018238.988,41.504,40.527,39.062,60.547,14.160,0
1579018238.992,47.363,43.457,37.598,90.820,16.113,0
1579018238.996,34.668,44.434,40.527,92.285,-18.555,0
1579018239.000,1.465,42.969,41.016,54.199,-29.297,0
1579018238.997,-1.953,40.527,38.574,37.598,25.879,0
1579018239.001,21.484,38.574,37.598,57.617,44.434,0
1579018239.005,38.574,36.621,36.621,64.941,52.246,0
1579018239.009,30.762,34.180,37.598,36.621,51.758,0
1579018239.013,23.926,36.133,39.062,11.719,14.648,0
1579018239.017,41.992,39.551,38.574,21.484,25.391,0
1579018239.021,65.918,38.574,39.551,37.109,53.711,0
1579018239.024,62.500,41.504,39.551,15.625,24.902,0
1579018239.028,47.852,39.551,38.574,-16.113,-21.484,0
1579018239.032,59.082,37.109,36.621,-14.160,26.855,0
1579018239.036,82.520,38.574,35.645,1.953,27.344,0
1579018239.040,77.148,34.180,37.109,-7.812,-20.996,0
1579018239.019,54.199,34.668,36.621,-41.504,-2.441,0
1579018239.023,56.152,38.086,37.598,-48.340,33.203,0
1579018239.027,80.566,35.645,38.574,-22.949,80.078,0
1579018239.031,90.820,32.227,36.621,-21.973,88.867,0
1579018239.035,73.242,36.621,39.062,-50.781,74.219,0
1579018239.039,59.570,39.551,40.039,-60.059,41.016,0
1579018239.043,70.801,35.156,36.621,-43.457,41.504,0
1579018239.046,80.078,32.227,30.762,-32.715,42.969,0
1579018239.050,66.406,34.180,32.227,-44.434,60.059,0
1579018239.054,46.387,33.203,32.715,-55.664,51.758,0
1579018239.058,65.430,31.738,27.832,-27.344,50.293,0
1579018239.062,90.332,34.180,30.762,11.230,50.293,0
1579018239.077,61.523,35.645,36.133,-10.254,16.602,0
1579018239.081,30.762,37.109,36.133,-42.480,0.488,0
1579018239.085,46.387,36.133,37.598,-16.602,-1.465,0
1579018239.089,77.148,32.227,40.039,22.461,-37.109,0
1579018239.093,77.637,30.273,40.039,31.738,4.883,0
1579018239.097,49.316,28.809,40.527,16.113,68.359,0
1579018239.101,27.832,28.320,41.016,15.137,44.434,0
1579018239.104,39.551,29.297,37.598,44.922,24.902,0
1579018239.108,55.176,30.273,38.086,57.129,73.730,0
1579018239.112,32.715,29.297,37.598,32.715,44.922,0
1579018239.116,11.719,30.273,36.621,17.578,-30.762,0
1579018239.120,26.367,29.297,37.598,39.062,15.137,0
1579018239.117,38.086,30.273,36.621,59.570,9.766,0
1579018239.121,14.160,28.320,36.621,39.062,-10.254,0
1579018239.125,-10.254,26.855,37.109,15.625,-41.992,0
1579018239.129,-1.953,31.738,38.086,30.273,-28.320,0
1579018239.133,12.207,32.227,35.156,54.199,36.133,0
1579018239.137,-5.371,30.273,33.691,50.781,51.758,0
1579018239.141,-33.203,30.762,37.598,31.250,24.414,0
1579018239.144,-29.297,30.273,38.086,41.992,10.742,0
1579018239.148,-3.418,33.691,37.109,71.289,34.180,0
1579018239.152,4.883,33.203,37.109,69.336,-20.996,0
1579018239.156,-3.906,30.762,35.645,52.734,-29.785,0
1579018239.160,-0.977,31.250,36.621,54.199,54.199,0
1579018239.178,25.391,30.762,36.621,78.613,37.598,0
1579018239.182,42.480,29.785,37.598,92.285,-9.277,0
1579018239.186,30.273,33.203,40.039,74.219,-4.883,0
1579018239.190,23.926,39.062,42.480,68.359,-5.859,0
1579018239.194,44.922,38.086,42.969,89.355,19.531,0
1579018239.198,62.988,35.645,39.551,102.539,17.090,0
1579018239.202,44.434,33.691,41.016,83.984,31.738,0
1579018239.205,16.602,34.668,41.016,57.617,63.477,0
1579018239.209,24.414,36.621,38.574,65.918,23.438,0
1579018239.213,46.387,35.156,37.598,82.031,-17.578,0
1579018239.217,40.039,34.180,38.086,68.848,-22.949,0
1579018239.221,15.625,37.598,40.527,36.133,-31.738,0
1579018239.218,6.836,40.039,41.016,30.273,15.137,0
1579018239.222,16.113,39.062,39.551,54.199,60.547,0
1579018239.226,17.090,35.645,37.109,54.688,90.820,0
1579018239.230,1.953,35.645,38.086,28.320,47.363,0
1579018239.234,-4.883,36.621,40.039,20.508,18.555,0
1579018239.238,13.672,35.156,38.574,48.340,16.602,0
1579018239.242,30.273,34.668,39.551,68.848,17.090,0
1579018239.245,18.066,36.133,41.992,48.828,34.180,0
1579018239.249,0.488,37.109,41.016,36.621,29.785,0
1579018239.253,10.742,36.621,40.039,60.547,69.336,0
1579018239.257,25.391,36.621,41.016,80.078,37.598,0
1579018239.261,13.184,36.133,41.016,61.523,27.344,0
1579018239.257,-12.695,37.598,38.574,29.785,47.363,0
1579018239.261,-12.207,36.133,38.086,33.203,49.316,0
1579018239.265,2.930,31.738,36.621,51.270,32.227,0
1579018239.269,-1.953,30.762,36.621,39.551,54.688,0
1579018239.273,-22.949,31.738,36.621,9.766,73.730,0
1579018239.277,-25.879,33.203,36.133,5.371,76.172,0
1579018239.281,0.977,34.180,39.062,26.855,107.422,0
1579018239.284,18.066,34.180,39.551,21.973,76.172,0
1579018239.288,4.883,37.598,38.574,-11.719,61.523,0
1579018239.292,1.465,41.016,41.992,-24.414,45.898,0
1579018239.296,27.344,40.527,39.062,-14.648,30.273,0
1579018239.300,41.992,38.574,37.598,-11.719,53.223,0
1579018239.317,29.297,38.086,40.527,-38.086,59.082,0
1579018239.321,19.531,41.504,38.574,-62.012,50.781,0
1579018239.325,39.551,44.434,35.645,-52.734,36.133,0
1579018239.329,57.617,41.504,37.598,-29.785,7.812,0
1579018239.333,45.410,37.598,39.551,-32.227,-30.273,0
1579018239.337,25.391,40.039,38.086,-57.129,17.090,0
1579018239.341,29.785,40.039,39.062,-49.805,41.016,0
1579018239.344,48.340,36.621,40.527,-17.578,9.766,0
1579018239.348,48.828,37.109,40.527,-16.602,50.293,0
1579018239.352,25.391,35.645,40.039,-40.527,45.898,0
1579018239.356,11.230,35.156,39.062,-36.133,17.578,0
1579018239.360,16.113,35.645,39.551,0.488,19.531,0
1579018239.357,15.137,35.645,40.039,19.043,-25.391,0
1579018239.361,-6.348,35.156,37.109,-3.418,-7.324,0
1579018239.365,-24.414,35.156,36.621,-3.906,9.277,0
1579018239.369,-14.160,35.645,38.086,30.762,41.016,0
1579018239.373,-6.348,35.645,36.133,59.082,31.738,0
1579018239.377,-24.414,35.156,38.574,58.594,-27.344,0
1579018239.381,-41.504,38.574,41.016,53.223,-9.277,0
1579018239.384,-24.414,39.551,35.645,73.242,11.719,0
1579018239.388,7.812,36.621,34.180,106.934,42.969,0
1579018239.392,14.160,38.086,38.086,108.887,52.734,0
1579018239.396,8.301,38.574,37.598,81.543,7.812,0
1579018239.400,32.227,39.062,33.203,86.914,7.812,0
1579018239.398,73.242,39.551,35.645,119.141,84.473,0
1579018239.402,79.590,41.504,35.645,118.652,120.117,0
1579018239.406,51.758,40.527,34.668,92.773,27.832,0
1579018239.410,34.180,36.621,35.645,84.961,-48.340,0
1579018239.414,42.969,36.133,35.156,101.562,21.484,0
1579018239.418,46.875,36.133,35.645,108.398,78.613,0
1579018239.422,30.762,37.109,38.574,80.566,40.527,0
1579018239.425,12.695,37.109,41.016,60.059,28.809,0
1579018239.429,30.762,36.133,39.551,72.754,25.391,0
1579018239.433,49.805,36.621,33.691,78.613,42.969,0
1579018239.437,31.250,37.109,35.156,49.316,4.395,0
1579018239.441,15.137,36.621,38.086,18.555,-43.457,0
1579018239.458,26.855,35.645,37.598,22.461,-10.742,0
1579018239.462,37.598,33.691,36.133,38.086,45.898,0
1579018239.466,31.738,35.645,36.133,25.391,20.508,0
1579018239.470,14.648,37.109,38.574,-5.859,-23.438,0
1579018239.474,12.695,35.156,37.598,-8.789,16.602,0
1579018239.478,32.715,33.203,35.156,13.672,4.883,0
1579018239.482,35.156,31.250,36.621,11.230,-5.371,0
1579018239.485,16.602,30.273,37.109,-20.508,8.789,0
1579018239.489,11.230,30.762,35.156,-30.273,41.504,0
1579018239.493,24.414,31.738,36.133,-9.277,45.898,0
1579018239.497,35.645,34.668,34.180,-2.441,68.848,0
1579018239.501,25.391,36.621,36.133,-27.344,68.848,0
1579018239.497,9.277,37.109,38.086,-44.922,20.020,0
1579018239.501,19.531,38.086,35.645,-26.367,24.902,0
1579018239.505,32.715,41.992,36.133,-7.324,-28.320,0
1579018239.509,18.555,38.574,36.133,-22.949,-7.812,0
1579018239.513,-0.977,33.203,36.133,-39.551,24.414,0
1579018239.517,8.301,33.691,35.645,-24.414,10.254,0
1579018239.521,28.320,34.668,34.668,5.859,19.043,0
1579018239.524,25.879,36.133,33.203,8.789,28.320,0
1579018239.528,14.160,36.133,34.180,-7.324,-2.930,0
1579018239.532,16.602,35.645,36.133,3.906,-30.762,0
1579018239.536,30.762,35.645,35.645,33.203,51.758,0
1579018239.540,37.598,33.691,34.668,43.945,108.398,0
1579018239.557,21.484,35.156,34.668,30.762,51.758,0
1579018239.561,5.371,35.645,35.156,26.855,-36.621,0
1579018239.565,26.367,36.621,35.156,55.664,11.719,0
1579018239.569,39.551,39.062,37.598,79.590,20.508,0
1579018239.573,11.719,36.133,37.598,63.965,20.996,0
1579018239.577,-7.324,34.180,36.133,46.387,42.480,0
1579018239.581,7.812,31.738,36.133,65.430,79.102,0
1579018239.584,21.973,28.809,34.668,88.867,93.750,0
1579018239.588,21.484,31.250,35.645,74.707,86.914,0
1579018239.592,10.254,35.156,38.086,46.387,65.918,0
1579018239.596,8.301,34.668,37.598,48.340,25.391,0
1579018239.600,25.391,33.203,35.156,71.289,32.227,0
1579018239.597,25.391,35.156,36.133,65.430,-17.090,0
1579018239.601,5.859,37.598,36.133,36.133,28.809,0
1579018239.605,11.230,38.574,34.180,30.762,104.492,0
1579018239.609,36.133,39.551,31.250,51.270,28.809,0
1579018239.613,41.992,38.574,31.738,55.176,-34.180,0
1579018239.617,30.762,42.969,32.715,33.691,11.719,0
1579018239.621,27.832,45.898,33.203,20.020,50.293,0
1579018239.624,48.828,39.062,33.203,34.668,63.965,0
1579018239.628,62.500,33.691,33.203,46.387,85.449,0
1579018239.632,46.875,32.715,32.715,24.414,80.078,0
1579018239.636,34.668,33.691,36.621,8.789,42.969,0
1579018239.640,41.504,34.668,39.062,21.973,75.195,0
1579018239.638,51.270,37.109,36.133,28.320,62.988,0
1579018239.642,47.363,38.574,37.598,13.184,37.109,0
1579018239.646,28.809,41.016,39.062,-6.836,27.344,0
1579018239.650,24.902,43.457,36.133,-5.859,19.043,0
1579018239.654,42.969,39.551,35.645,14.160,50.293,0
1579018239.658,48.340,36.133,38.086,20.020,23.438,0
1579018239.662,31.250,35.156,35.645,-2.441,20.996,0
1579018239.665,32.715,35.156,36.133,-6.348,29.785,0
1579018239.669,51.270,37.598,37.598,14.160,38.574,0
1579018239.673,54.688,38.086,38.086,16.113,41.504,0
1579018239.677,42.969,38.086,37.109,-8.789,32.715,0
1579018239.681,39.062,41.992,39.551,-20.996,8.301,0
1579018239.697,53.223,42.480,41.016,-1.465,5.859,0
1579018239.701,67.871,42.969,38.574,15.137,58.105,0
1579018239.705,59.082,44.434,35.156,-1.465,76.172,0
1579018239.709,48.828,41.992,30.762,-23.438,46.387,0
1579018239.713,60.547,39.551,32.227,-10.254,21.973,0
1579018239.717,67.871,39.062,36.621,16.602,14.648,0
1579018239.721,63.477,41.016,36.133,11.230,-24.902,0
1579018239.724,58.105,44.434,35.156,-4.883,-51.758,0
1579018239.728,55.664,41.016,34.668,-2.441,-16.602,0
1579018239.732,64.453,35.645,32.715,14.648,14.648,0
1579018239.736,67.871,38.574,32.227,18.555,55.176,0
1579018239.740,56.641,38.086,34.668,-4.395,88.379,0
1579018239.738,44.434,37.109,35.645,-13.184,43.457,0
1579018239.742,51.758,37.598,35.645,4.395,28.320,0
1579018239.746,61.035,35.645,37.598,11.230,8.301,0
1579018239.750,46.387,35.645,37.109,-9.277,-33.203,0
1579018239.754,34.180,34.668,35.645,-19.531,-20.508,0
1579018239.758,38.086,31.738,37.109,1.465,22.949,0
1579018239.762,46.387,31.738,40.039,17.090,45.410,0
1579018239.765,46.875,35.645,41.504,7.324,22.949,0
1579018239.769,35.156,36.621,40.039,-6.836,64.941,0
1579018239.773,36.621,37.598,39.551,0.977,104.980,0
1579018239.777,52.734,39.062,42.480,24.902,46.387,0
1579018239.781,51.758,37.109,42.969,21.484,-3.906,0
1579018239.777,37.598,36.621,40.527,-1.465,22.461,0
1579018239.781,34.180,38.086,40.039,3.418,52.246,0
1579018239.785,41.992,34.180,40.527,22.949,43.457,0
1579018239.789,47.363,32.227,41.016,23.438,1.953,0
1579018239.793,41.504,33.203,40.039,5.371,6.348,0
1579018239.797,49.805,34.668,41.016,13.184,-10.254,0
1579018239.801,57.129,38.574,40.039,34.668,-25.879,0
1579018239.804,51.270,39.551,38.086,25.391,17.578,0
1579018239.808,45.410,38.574,35.156,0.488,51.270,0
1579018239.812,26.367,41.992,31.738,-19.531,34.668,0
1579018239.816,27.344,43.945,29.297,-7.324,33.691,0
1579018239.820,38.086,43.457,25.879,22.461,69.824,0
1579018239.817,26.367,43.457,25.391,10.742,67.383,0
1579018239.821,19.531,44.434,24.902,-10.254,60.059,0
1579018239.825,22.949,42.969,24.902,-0.977,24.414,0
1579018239.829,27.344,42.480,24.414,18.555,15.625,0
1579018239.833,25.391,44.922,27.344,22.949,17.578,0
1579018239.837,15.625,43.457,30.762,9.277,52.734,0
1579018239.841,12.695,41.504,30.273,12.695,85.449,0
1579018239.844,22.461,40.527,29.297,37.598,69.824,0
1579018239.848,21.973,38.574,29.785,42.969,72.266,0
1579018239.852,3.418,34.668,28.809,23.438,21.973,0
1579018239.856,-7.812,34.180,30.762,18.555,-12.695,0
1579018239.860,4.883,35.645,31.250,42.480,42.969,0
1579018239.879,11.719,33.203,31.250,58.594,65.430,0
1579018239.883,0.488,33.203,32.227,43.457,10.742,0
1579018239.887,-12.207,33.691,33.203,26.855,-14.648,0
1579018239.891,-7.812,32.715,34.180,41.504,44.922,0
1579018239.895,2.930,32.715,35.156,58.594,51.270,0
1579018239.899,-1.953,35.645,36.621,42.480,52.246,0
1579018239.903,-9.766,36.133,35.156,14.648,53.711,0
1579018239.906,-3.906,33.691,30.762,16.602,28.320,0
1579018239.910,11.719,33.203,32.715,39.062,9.766,0
1579018239.914,15.625,32.227,36.621,37.109,-33.203,0
1579018239.918,6.348,33.203,35.645,10.742,-27.344,0
1579018239.922,10.254,36.133,31.738,4.395,10.742,0
1579018239.917,33.203,37.109,30.762,25.391,24.414,0
1579018239.921,42.969,36.133,27.832,28.809,36.621,0
1579018239.925,34.180,38.086,24.902,14.648,89.355,0
1579018239.929,25.879,41.016,29.297,9.766,71.289,0
1579018239.933,33.203,42.480,31.250,31.250,2.441,0
1579018239.937,40.039,43.457,30.762,49.805,1.465,0
1579018239.941,31.738,42.480,34.180,38.086,35.156,0
1579018239.944,20.508,40.039,34.668,24.902,42.969,0
1579018239.948,24.902,39.551,33.691,31.738,18.555,0
1579018239.952,32.227,40.527,35.645,51.758,28.809,0
1579018239.956,23.926,39.062,32.715,40.527,36.621,0
1579018239.960,7.812,36.621,30.762,14.648,43.945,0
1579018239.957,1.953,33.691,32.715,20.508,15.625,0
1579018239.961,5.859,31.738,29.297,34.180,-0.977,0
1579018239.965,6.836,31.738,28.320,33.691,32.715,0
1579018239.969,-0.977,34.668,32.227,18.066,77.148,0
1579018239.973,-4.883,38.574,36.133,18.066,62.500,0
1579018239.977,6.836,41.016,37.109,41.992,20.508,0
1579018239.981,13.672,37.598,37.109,49.316,61.035,0
1579018239.984,4.395,31.738,39.551,27.344,83.008,0
1579018239.988,-0.488,32.227,37.598,8.789,27.832,0
1579018239.992,12.207,31.738,33.203,22.461,-26.367,0
1579018239.996,20.996,29.785,34.180,38.086,38.086,0
1579018240.000,11.230,32.227,37.109,25.391,49.316,0
1579018240.017,-0.488,35.156,37.598,14.648,22.949,0
1579018240.021,15.137,37.598,38.086,29.297,79.590,0
1579018240.025,29.297,39.551,36.621,48.340,72.266,0
1579018240.029,20.996,40.527,33.691,43.945,61.523,0
1579018240.033,10.742,40.527,36.133,28.809,65.918,0
1579018240.037,9.766,40.039,37.598,33.691,30.273,0
1579018240.041,27.832,42.969,36.133,53.223,59.570,0
1579018240.044,37.109,42.969,35.645,58.594,-6.836,0
1579018240.048,24.902,42.480,34.668,42.969,-36.133,0
1579018240.052,14.648,41.016,35.156,36.133,-8.789,0
1579018240.056,18.555,41.504,34.180,57.129,47.852,0
1579018240.060,23.438,43.945,33.203,66.406,41.504,0
1579018240.057,15.137,41.992,35.645,49.316,-6.348,0
1579018240.061,5.859,38.574,34.668,35.645,84.961,0
1579018240.065,17.578,38.086,32.227,46.875,94.238,0
1579018240.069,41.016,39.062,32.715,67.383,41.992,0
1579018240.073,57.617,36.621,33.691,65.918,9.766,0
1579018240.077,51.758,41.504,34.668,44.922,1.953,0
1579018240.081,33.203,46.875,33.203,24.414,-19.531,0
1579018240.084,41.016,39.062,34.668,33.203,-21.484,0
1579018240.088,56.152,37.598,34.180,36.621,-9.277,0
1579018240.092,42.480,43.945,32.715,5.859,42.480,0
1579018240.096,36.621,41.504,33.203,-6.836,62.500,0
1579018240.100,56.641,41.016,29.785,18.555,10.254,0
1579018240.098,58.594,44.922,30.273,17.090,-4.395,0
1579018240.102,43.457,46.387,32.715,-9.277,3.418,0
1579018240.106,35.645,43.457,29.297,-18.555,-12.207,0
1579018240.110,44.434,42.480,25.391,1.953,-16.113,0
1579018240.114,50.781,42.480,26.367,15.137,18.555,0
1579018240.118,45.410,41.992,28.809,-3.906,28.809,0
1579018240.122,37.598,43.945,29.297,-14.160,57.617,0
1579018240.125,38.574,44.922,29.297,3.906,81.543,0
1579018240.129,49.805,45.410,28.320,20.508,20.996,0
1579018240.133,49.805,47.363,30.273,14.648,-6.348,0
1579018240.137,32.715,47.363,33.203,-1.465,69.336,0
1579018240.141,26.855,45.898,30.762,5.859,70.801,0
1579018240.157,31.738,41.504,32.715,27.832,45.898,0
1579018240.161,27.832,39.062,34.668,24.902,26.855,0
1579018240.165,18.555,41.016,31.250,5.859,33.203,0
1579018240.169,20.020,42.480,29.297,3.906,69.336,0
1579018240.173,33.203,43.945,30.273,27.344,15.137,0
1579018240.177,34.180,43.457,32.715,35.645,0.000,0
1579018240.181,28.320,40.039,34.180,15.137,39.551,0
1579018240.184,30.273,40.039,35.156,11.719,50.781,0
1579018240.188,39.551,40.527,36.133,33.691,56.641,0
1579018240.192,45.898,39.551,32.227,48.828,6.836,0
1579018240.196,34.180,38.086,32.227,36.133,30.273,0
1579018240.200,20.020,38.086,33.691,21.973,42.480,0
1579018240.197,24.414,39.062,32.715,37.109,-3.906,0
1579018240.201,33.203,37.598,34.180,58.105,-23.438,0
1579018240.205,30.273,41.504,34.668,53.223,-0.977,0
1579018240.209,19.043,42.480,37.109,37.598,62.012,0
1579018240.213,19.043,37.109,39.062,47.363,83.496,0
1579018240.217,32.715,37.598,38.574,73.730,42.480,0
1579018240.221,36.621,41.016,38.086,78.125,71.777,0
1579018240.224,32.227,39.062,36.621,60.059,74.219,0
1579018240.228,31.738,36.621,38.086,59.570,22.461,0
1579018240.232,37.109,34.180,37.109,74.219,25.391,0
1579018240.236,41.016,36.133,33.691,71.289,56.641,0
1579018240.240,30.273,37.109,35.156,53.711,51.758,0
1579018240.237,20.996,33.691,33.203,41.016,30.273,0
1579018240.241,29.297,35.156,32.227,46.875,49.316,0
1579018240.245,37.109,37.109,32.715,55.664,15.137,0
1579018240.249,37.598,36.133,32.715,40.527,61.035,0
1579018240.253,31.738,38.086,32.715,20.020,102.539,0
1579018240.257,35.156,40.039,31.250,28.320,11.230,0
1579018240.261,42.480,37.598,32.227,43.457,7.324,0
1579018240.264,31.250,34.668,33.203,30.273,14.648,0
1579018240.268,25.879,33.691,38.574,10.742,41.016,0
1579018240.272,34.668,37.109,37.109,16.113,95.703,0
1579018240.276,43.457,40.039,36.133,34.668,25.879,0
1579018240.280,42.480,39.551,40.039,33.691,-1.953,0
1579018240.297,31.738,37.109,40.527,8.301,39.551,0
1579018240.301,31.250,36.133,39.551,0.000,46.387,0
1579018240.305,36.621,34.180,38.086,21.484,10.742,0
1579018240.309,35.645,31.738,38.574,35.645,3.906,0
1579018240.313,22.949,33.203,37.109,21.973,8.301,0
1579018240.317,9.766,34.180,36.621,9.766,16.113,0
1579018240.321,13.184,33.203,39.551,25.879,66.406,0
1579018240.324,16.602,32.227,36.621,43.945,79.590,0
1579018240.328,8.301,32.715,31.738,28.809,31.738,0
1579018240.332,2.930,29.785,33.203,9.277,-44.434,0
1579018240.336,3.906,29.297,36.133,17.090,-1.465,0
1579018240.340,6.836,32.715,38.574,38.086,63.477,0
1579018240.338,5.859,32.227,40.039,38.086,36.133,0
1579018240.342,0.488,27.832,36.621,22.949,41.504,0
1579018240.346,7.324,28.320,35.156,25.879,64.453,0
1579018240.350,21.484,30.762,36.621,47.363,76.172,0
1579018240.354,27.344,32.227,35.645,50.293,59.082,0
1579018240.358,27.832,36.621,34.668,24.902,-5.371,0
1579018240.362,29.785,35.645,34.180,19.531,-16.113,0
1579018240.365,47.363,34.668,34.180,43.945,19.531,0
1579018240.369,44.922,38.574,32.715,38.574,36.621,0
1579018240.373,27.344,40.527,31.738,-0.488,45.898,0
1579018240.377,22.461,40.527,30.273,-22.461,57.129,0
1579018240.381,38.574,44.922,26.855,1.465,87.402,0
1579018240.377,55.664,48.828,24.414,22.949,22.949,0
1579018240.381,49.316,50.781,27.832,10.254,-11.719,0
1579018240.385,40.527,52.734,29.297,-7.812,26.855,0
1579018240.389,44.922,51.270,26.855,-1.465,34.180,0
1579018240.393,50.781,48.340,26.855,25.879,25.879,0
1579018240.397,44.434,45.898,28.809,25.879,23.926,0
1579018240.401,33.203,44.434,30.762,1.465,41.016,0
1579018240.404,27.832,45.898,31.738,-2.930,41.992,0
1579018240.408,37.109,46.875,30.273,19.531,-4.395,0
1579018240.412,41.992,43.945,28.809,30.762,-34.668,0
1579018240.416,25.391,41.992,30.273,14.160,32.227,0
1579018240.420,17.090,42.480,31.250,10.742,63.477,0
1579018240.437,25.879,42.480,34.180,32.227,104.492,0
1579018240.441,32.227,42.969,37.109,47.852,79.590,0
1579018240.445,28.320,43.945,36.621,35.645,4.883,0
1579018240.449,29.785,45.898,35.645,20.996,27.832,0
1579018240.453,40.527,44.922,36.621,38.086,51.270,0
1579018240.457,48.828,42.480,38.086,59.570,47.852,0
1579018240.461,50.293,42.480,37.598,50.781,20.020,0
1579018240.464,47.852,41.992,34.180,25.391,-0.488,0
1579018240.468,49.316,41.016,34.668,28.320,-9.277,0
1579018240.472,56.641,42.480,37.109,52.734,32.227,0
1579018240.476,56.152,45.898,38.574,43.945,68.359,0
1579018240.480,47.363,46.875,38.574,13.184,74.219,0
1579018240.478,41.504,44.922,36.133,9.766,56.641,0
1579018240.482,47.852,45.898,34.668,25.879,0.977,0
1579018240.486,55.664,46.875,35.645,27.344,-42.480,0
1579018240.490,45.898,49.805,34.668,10.742,-4.883,0
1579018240.494,34.180,52.246,32.715,6.348,-5.371,0
1579018240.498,39.062,48.828,34.668,24.902,27.832,0
1579018240.502,36.621,46.875,35.156,36.133,61.035,0
1579018240.505,30.273,48.828,34.180,24.902,66.406,0
1579018240.509,24.414,51.758,37.109,13.672,70.312,0
1579018240.513,26.367,48.340,42.480,29.297,34.668,0
1579018240.517,34.668,41.992,39.062,50.293,46.387,0
1579018240.521,25.391,38.574,37.598,42.480,20.996,0
1579018240.538,13.672,39.062,39.551,22.461,1.953,0
1579018240.542,11.719,38.086,37.598,21.484,44.922,0
1579018240.546,20.508,36.133,40.039,40.527,38.086,0
1579018240.550,29.785,34.668,42.969,44.434,-5.859,0
1579018240.554,21.973,33.691,42.969,19.531,-7.324,0
1579018240.558,11.230,34.668,40.527,8.789,12.207,0
1579018240.562,16.602,34.668,38.086,29.297,15.137,0
1579018240.565,21.973,32.227,38.574,35.645,39.551,0
1579018240.569,16.602,32.227,37.598,14.648,59.082,0
1579018240.573,11.719,28.809,38.574,3.906,84.961,0
1579018240.577,15.137,24.902,41.504,20.996,45.410,0
1579018240.581,19.531,27.344,42.969,36.133,12.207,0
1579018240.578,10.742,29.297,43.457,24.902,28.320,0
1579018240.582,-1.465,31.250,42.969,10.254,28.809,0
1579018240.586,3.418,34.668,40.527,18.555,37.598,0
1579018240.590,7.324,37.109,37.109,41.016,32.715,0
1579018240.594,-2.441,39.551,37.109,42.969,32.227,0
1579018240.598,-12.207,40.039,40.527,28.320,36.133,0
1579018240.602,-7.324,41.504,39.062,36.133,46.387,0
1579018240.605,4.395,43.457,37.598,62.012,45.410,0
1579018240.609,7.812,43.457,36.133,62.988,3.906,0
1579018240.613,-1.953,41.992,33.203,42.480,-49.805,0
1579018240.617,-8.301,40.527,32.227,41.016,-14.160,0
1579018240.621,-2.441,36.621,30.762,62.012,-5.371,0
1579018240.617,6.348,35.645,29.297,70.312,-4.395,0
1579018240.621,1.465,38.574,28.809,46.875,33.203,0
1579018240.625,-10.742,36.621,29.297,27.344,66.406,0
1579018240.629,-2.441,36.133,30.762,43.457,46.387,0
1579018240.633,21.973,38.574,30.762,64.941,10.254,0
1579018240.637,20.996,38.086,33.203,50.781,17.578,0
1579018240.641,6.348,34.180,33.691,25.391,56.152,0
1579018240.644,15.625,29.785,32.715,31.738,43.457,0
1579018240.648,31.738,30.273,34.668,51.758,25.879,0
1579018240.652,31.738,32.227,36.133,44.922,25.391,0
1579018240.656,24.902,32.715,37.109,23.438,-16.602,0
1579018240.660,26.367,32.715,36.133,25.391,24.902,0
1579018240.677,44.922,34.180,37.109,47.363,72.266,0
1579018240.681,50.781,35.645,36.621,48.340,92.773,0
1579018240.685,41.016,36.133,36.133,24.902,40.039,0
1579018240.689,43.457,33.203,38.086,13.184,6.348,0
1579018240.693,62.988,31.250,38.574,34.668,12.695,0
1579018240.697,78.125,29.785,36.621,59.570,56.641,0
1579018240.701,68.359,34.180,34.668,43.457,79.590,0
1579018240.704,50.293,39.551,36.133,10.254,78.125,0
1579018240.708,48.340,40.527,34.668,6.836,104.004,0
1579018240.712,65.918,41.992,33.203,35.645,41.992,0
1579018240.716,71.777,44.922,29.785,37.598,25.391,0
1579018240.720,49.316,47.363,31.250,10.742,28.320,0
1579018240.717,54.199,47.852,32.715,18.066,-5.859,0
1579018240.721,73.242,47.363,30.762,43.945,7.812,0
1579018240.725,70.312,45.898,31.738,40.527,-7.812,0
1579018240.729,59.082,46.387,31.250,15.625,3.906,0
1579018240.733,55.664,48.340,32.227,13.672,18.555,0
1579018240.737,65.430,48.828,31.738,34.180,4.395,0
1579018240.741,70.312,46.387,28.809,41.504,54.199,0
1579018240.744,63.477,43.945,26.367,15.625,93.262,0
1579018240.748,58.594,43.945,26.855,-2.441,81.543,0
1579018240.752,68.359,43.457,31.250,16.113,50.293,0
1579018240.756,75.195,41.992,32.715,24.414,41.992,0
1579018240.760,67.383,42.480,32.227,3.906,73.242,0
1579018240.759,56.641,42.969,35.645,-16.602,21.484,0
1579018240.763,63.477,42.969,38.574,-3.906,12.207,0
1579018240.767,79.102,41.504,35.645,22.949,27.832,0
1579018240.771,77.637,38.574,36.133,6.836,-10.742,0
1579018240.775,67.383,41.992,39.551,-17.578,1.465,0
1579018240.779,65.430,41.992,37.109,-14.160,25.879,0
1579018240.783,78.125,36.133,32.715,1.953,-50.293,0
1579018240.786,80.566,35.156,32.227,4.883,0.488,0
1579018240.790,61.035,39.551,34.668,-18.066,88.379,0
1579018240.794,54.199,38.574,37.109,-27.344,59.082,0
1579018240.798,70.801,38.574,34.180,-2.930,77.637,0
1579018240.802,74.707,38.574,32.227,10.742,69.336,0
1579018240.817,53.711,35.156,35.156,-4.395,34.668,0
1579018240.821,32.227,34.668,35.645,-13.672,26.367,0
1579018240.825,43.945,35.156,35.156,10.254,16.602,0
1579018240.829,59.082,33.691,34.668,32.227,83.008,0
1579018240.833,40.039,30.762,33.691,21.484,66.406,0
1579018240.837,19.043,34.668,35.156,6.836,-4.883,0
1579018240.841,20.020,41.992,37.109,14.648,60.547,0
1579018240.844,32.715,42.480,39.062,39.062,30.273,0
1579018240.848,28.320,42.480,39.551,41.504,-16.113,0
1579018240.852,1.465,44.922,36.133,22.461,15.625,0
1579018240.856,-0.977,41.992,33.203,36.133,-4.395,0
1579018240.860,0.977,36.621,33.691,53.223,35.156,0
1579018240.857,-16.113,36.621,36.133,34.668,27.344,0
1579018240.861,-24.902,37.598,39.551,17.578,15.137,0
1579018240.865,-23.438,38.086,39.551,28.809,54.688,0
1579018240.869,-11.719,38.574,39.062,57.129,33.203,0
1579018240.873,1.953,39.551,38.574,68.359,132.324,0
1579018240.877,-6.836,40.039,39.062,51.270,133.789,0
1579018240.881,-14.160,39.062,37.109,35.645,-1.953,0
1579018240.884,-0.977,39.551,37.598,53.223,-3.418,0
1579018240.888,6.348,39.062,38.574,73.242,13.672,0
1579018240.892,8.301,39.062,37.109,62.012,17.090,0
1579018240.896,6.836,43.945,36.133,40.527,10.742,0
1579018240.900,13.184,43.457,36.621,42.480,17.090,0
1579018240.898,31.738,40.039,41.016,64.941,59.570,0
1579018240.902,34.668,40.039,37.109,60.059,68.848,0
1579018240.906,22.461,41.504,33.691,31.250,86.426,0
1579018240.910,24.414,42.480,36.621,24.414,54.688,0
1579018240.914,37.598,40.527,38.574,40.527,13.184,0
1579018240.918,34.668,39.551,37.109,44.434,45.410,0
1579018240.922,16.113,40.039,35.156,25.879,59.082,0
1579018240.925,7.324,39.551,34.180,16.113,35.156,0
1579018240.929,13.672,41.992,35.645,35.645,28.320,0
1579018240.933,17.578,41.504,35.645,42.969,26.367,0
1579018240.937,12.207,39.062,35.645,22.949,34.180,0
1579018240.941,5.371,38.574,37.598,9.766,107.910,0
1579018240.957,11.230,38.574,37.109,23.438,55.176,0
1579018240.961,24.902,40.527,37.598,41.504,-29.785,0
1579018240.965,28.320,41.992,36.621,24.902,-19.043,0
1579018240.969,21.973,41.504,38.086,1.953,-28.809,0
1579018240.973,29.297,38.574,39.551,13.672,-31.738,0
1579018240.977,43.945,39.062,36.133,35.645,5.371,0
1579018240.981,41.992,41.016,37.109,30.762,56.152,0
1579018240.984,27.832,38.086,39.062,4.395,41.504,0
1579018240.988,27.344,40.039,38.086,3.906,47.852,0
1579018240.992,45.410,42.969,36.621,21.484,5.859,0
1579018240.996,56.641,40.527,35.156,22.949,-38.574,0
1579018241.000,44.434,37.109,35.645,4.395,53.711,0
1579018240.997,32.715,35.645,38.574,-7.324,56.152,0
1579018241.001,40.039,38.574,38.086,12.695,25.879,0
1579018241.005,49.316,40.527,38.574,31.250,48.828,0
1579018241.009,40.039,38.574,39.551,16.602,3.906,0
1579018241.013,21.973,36.621,36.621,-1.465,-29.785,0
1579018241.017,29.297,37.109,37.598,11.230,-10.254,0
1579018241.021,45.898,39.551,34.668,33.691,25.879,0
1579018241.024,39.062,41.016,32.715,25.391,41.016,0
1579018241.028,22.949,35.645,36.133,7.324,11.230,0
1579018241.032,27.344,34.180,37.598,16.602,46.387,0
1579018241.036,43.457,36.133,39.062,35.645,96.680,0
1579018241.040,39.551,33.203,40.039,35.156,72.754,0
1579018241.039,23.438,33.691,43.945,19.531,41.504,0
1579018241.043,19.531,34.668,43.945,18.066,51.758,0
1579018241.047,32.715,32.715,38.574,39.062,63.477,0
1579018241.051,41.504,30.762,39.062,44.922,12.207,0
1579018241.055,27.832,28.809,38.086,19.531,-4.395,0
1579018241.059,18.066,31.250,36.621,4.883,36.621,0
1579018241.063,33.691,35.156,39.551,22.949,4.883,0
1579018241.066,46.387,36.621,42.480,37.109,1.465,0
1579018241.070,35.156,36.621,40.039,15.137,16.113,0
1579018241.074,17.578,35.156,39.062,-3.906,30.273,0
1579018241.078,21.484,34.180,42.480,9.277,47.363,0
1579018241.082,37.598,33.203,40.527,25.879,45.410,0
1579018241.097,40.527,32.715,38.574,16.113,34.180,0
1579018241.101,28.809,35.645,41.016,-4.395,41.016,0
1579018241.105,32.227,37.109,40.039,-3.906,29.297,0
1579018241.109,43.457,38.574,36.133,13.184,15.137,0
1579018241.113,35.645,39.062,35.645,14.160,-23.438,0
1579018241.117,21.484,43.945,38.086,-4.883,27.344,0
1579018241.121,14.648,45.898,39.062,-11.719,59.082,0
1579018241.124,22.949,41.504,38.086,9.766,-17.090,0
1579018241.128,30.273,40.039,37.598,25.879,5.371,0
1579018241.132,17.090,38.086,35.645,8.789,75.195,0
1579018241.136,6.348,37.598,34.180,-7.324,41.504,0
1579018241.140,10.742,39.062,32.715,8.789,-18.555,0
1579018241.137,16.113,39.062,34.180,28.320,44.434,0
1579018241.141,8.301,38.574,35.645,18.555,86.914,0
1579018241.145,0.488,40.039,34.668,-0.977,20.508,0
1579018241.149,9.277,37.598,37.598,11.719,40.039,0
1579018241.153,26.367,33.691,39.062,34.668,60.547,0
1579018241.157,30.762,37.598,39.551,32.227,86.914,0
1579018241.161,21.973,41.504,40.527,13.672,108.398,0
1579018241.164,19.043,39.551,39.062,4.883,54.688,0
1579018241.168,38.574,36.621,40.527,23.438,19.531,0
1579018241.172,45.898,40.527,42.969,27.832,4.395,0
1579018241.176,29.297,41.992,46.387,6.348,-1.953,0
1579018241.180,23.438,37.598,45.410,7.324,10.742,0
1579018241.177,31.250,33.691,41.992,29.785,21.484,0
1579018241.181,35.645,33.691,41.504,41.504,24.902,0
1579018241.185,27.832,36.133,41.992,22.949,-40.527,0
1579018241.189,25.391,38.574,40.039,4.395,3.906,0
1579018241.193,38.086,38.574,39.062,20.508,49.316,0
1579018241.197,56.641,40.039,41.504,38.574,1.465,0
1579018241.201,54.688,41.016,38.574,26.855,26.367,0
1579018241.204,34.180,40.039,37.598,8.789,24.414,0
1579018241.208,40.039,43.457,37.109,5.859,0.488,0
1579018241.212,61.523,39.551,36.133,20.996,11.719,0
1579018241.216,63.965,40.527,39.551,23.926,31.250,0
1579018241.220,51.758,45.898,41.016,0.488,-10.254,0
1579018241.238,48.828,41.992,40.039,-3.906,12.207,0
1579018241.242,58.594,37.109,38.086,17.090,113.770,0
1579018241.246,57.617,39.062,36.133,21.973,91.797,0
1579018241.250,43.945,43.457,38.574,3.906,-0.977,0
1579018241.254,37.109,41.504,41.992,-2.930,8.301,0
1579018241.258,47.363,39.551,41.992,16.602,62.500,0
1579018241.262,53.711,40.527,44.922,30.762,22.949,0
1579018241.265,41.992,41.504,45.410,11.719,-57.129,0
1579018241.269,23.438,40.527,43.945,-5.371,-21.484,0
1579018241.273,18.066,40.527,43.457,9.277,54.688,0
1579018241.277,20.996,40.527,40.527,33.203,31.738,0
1579018241.281,7.324,40.039,41.992,25.879,-36.621,0
1579018241.278,-15.625,39.062,44.434,1.465,-7.324,0
1579018241.282,-18.066,38.086,41.016,15.625,63.965,0
1579018241.286,-8.789,34.180,38.086,44.922,68.359,0
1579018241.290,-8.789,32.715,37.598,50.781,77.148,0
1579018241.294,-22.461,37.109,38.574,40.039,43.945,0
1579018241.298,-27.832,40.527,36.133,31.250,-20.508,0
1579018241.302,-7.812,37.598,33.203,52.734,24.414,0
1579018241.305,2.441,37.109,33.691,63.965,38.086,0
1579018241.309,-6.348,38.086,36.133,41.992,6.836,0
1579018241.313,-14.648,37.598,39.062,29.297,45.898,0
1579018241.317,-2.930,40.039,36.621,44.922,87.891,0
1579018241.321,20.996,43.457,34.668,66.406,24.902,0
1579018241.317,15.137,38.574,36.621,54.199,-1.465,0
1579018241.321,-1.953,38.574,36.621,39.062,34.668,0
1579018241.325,4.883,43.457,38.086,63.477,45.410,0
1579018241.329,23.438,40.527,34.180,86.914,27.832,0
1579018241.333,26.367,39.551,33.203,80.078,-16.602,0
1579018241.337,5.859,40.527,38.574,68.359,82.520,0
1579018241.341,-0.488,40.527,39.551,79.590,102.051,0
1579018241.344,17.578,40.039,39.062,103.027,14.648,0
1579018241.348,19.531,40.039,38.574,98.633,49.316,0
1579018241.352,1.465,37.109,37.109,79.102,29.297,0
1579018241.356,-5.859,34.180,39.551,76.172,44.922,0
1579018241.360,11.230,30.273,41.016,95.703,23.438,0
1579018241.377,21.484,29.297,40.039,102.051,-9.277,0
1579018241.381,9.277,31.738,40.527,74.707,0.000,0
1579018241.385,-1.953,30.273,38.086,50.781,17.090,0
1579018241.389,20.020,33.203,39.062,63.965,54.688,0
1579018241.393,39.551,37.598,39.551,75.195,43.457,0
1579018241.397,32.715,36.133,40.527,51.758,20.020,0
1579018241.401,27.832,31.738,42.969,27.344,-4.395,0
1579018241.404,40.039,28.809,40.039,28.809,0.000,0
1579018241.408,60.059,29.785,37.598,43.457,55.176,0
1579018241.412,57.129,33.203,36.133,34.180,35.645,0
1579018241.416,32.715,35.645,34.180,6.836,-3.906,0
1579018241.420,28.320,37.598,34.668,0.977,41.016,0
1579018241.417,54.688,38.574,37.598,18.555,50.781,0
1579018241.421,70.312,39.551,39.062,14.160,36.133,0
1579018241.425,64.453,38.086,35.156,-15.137,20.996,0
1579018241.429,59.570,37.109,33.691,-26.367,26.855,0
1579018241.433,66.406,35.645,33.203,-12.695,49.805,0
1579018241.437,61.523,37.109,32.227,-7.324,27.832,0
1579018241.441,36.621,40.039,34.180,-32.715,12.695,0
1579018241.444,22.461,41.504,35.156,-53.223,-53.711,0
1579018241.448,31.250,39.062,31.738,-38.086,-9.766,0
1579018241.452,36.133,37.109,34.180,-24.902,53.711,0
1579018241.456,24.902,37.109,37.109,-30.762,-0.488,0
1579018241.460,10.742,38.574,36.133,-37.109,9.277,0
1579018241.457,4.883,35.645,36.621,-29.785,37.598,0
1579018241.461,16.113,33.691,34.668,-1.953,26.367,0
1579018241.465,16.602,39.062,36.621,0.488,-6.836,0
1579018241.469,-12.207,38.574,37.598,-24.902,47.852,0
1579018241.473,-21.973,35.645,34.668,-25.879,135.254,0
1579018241.477,0.488,35.156,34.668,8.789,67.383,0
1579018241.481,12.207,35.645,35.156,36.133,-6.836,0
1579018241.484,-16.113,37.109,36.133,0.488,33.691,0
1579018241.488,-41.016,34.180,36.621,-27.344,39.551,0
1579018241.492,-28.809,31.250,35.645,6.348,20.020,0
1579018241.496,-24.414,33.203,33.691,28.809,-5.859,0
1579018241.500,-37.109,31.250,33.203,12.695,19.043,0
1579018241.517,-47.852,29.297,37.598,1.953,27.344,0
1579018241.521,-41.016,30.762,38.574,21.973,20.508,0
1579018241.525,-21.973,32.715,36.621,49.805,70.801,0
1579018241.529,-17.578,31.250,41.016,51.270,68.359,0
1579018241.533,-22.949,31.738,42.969,38.086,45.410,0
1579018241.537,-11.230,34.180,42.480,47.852,-17.578,0
1579018241.541,8.301,36.621,41.504,70.312,-1.953,0
1579018241.544,21.973,38.574,41.504,75.195,57.617,0
1579018241.548,14.160,37.109,38.086,54.199,42.480,0
1579018241.552,11.230,35.645,35.645,47.852,10.742,0
1579018241.556,35.156,41.504,38.086,76.660,25.879,0
1579018241.560,53.223,43.945,36.621,83.984,39.062,0
1579018241.557,42.480,42.480,39.062,55.664,43.945,0
1579018241.561,28.809,43.945,37.598,43.457,43.945,0
1579018241.565,35.645,41.992,33.203,61.523,21.484,0
1579018241.569,28.809,39.551,35.156,77.637,77.148,0
1579018241.573,8.789,41.504,38.086,63.477,120.117,0
1579018241.577,-3.906,40.527,36.133,44.434,69.336,0
1579018241.581,-0.977,40.527,35.645,61.035,51.758,0
1579018241.584,9.766,39.551,36.133,79.590,22.461,0
1579018241.588,2.441,37.598,35.156,68.359,-42.480,0
1579018241.592,-17.090,37.598,36.621,45.898,10.742,0
1579018241.596,-8.301,35.645,39.062,45.898,68.848,0
1579018241.600,17.090,35.645,36.621,64.941,36.621,0
1579018241.597,19.531,37.109,34.668,55.664,52.246,0
1579018241.601,2.441,37.598,36.133,23.438,-19.531,0
1579018241.605,0.977,38.086,40.039,13.184,-4.883,0
1579018241.609,25.391,39.551,41.016,28.320,102.539,0
1579018241.613,34.668,37.109,38.086,30.762,94.238,0
1579018241.617,20.508,34.668,41.016,2.930,67.383,0
1579018241.621,16.113,35.156,42.969,-14.648,35.156,0
1579018241.624,27.832,32.715,42.480,1.465,13.184,0
1579018241.628,34.180,31.738,44.434,14.648,-19.043,0
1579018241.632,27.832,30.762,42.480,3.418,-16.113,0
1579018241.636,13.672,31.250,42.480,-16.602,8.301,0
1579018241.640,10.742,34.180,42.969,-11.230,8.789,0
1579018241.657,20.020,33.691,42.969,8.789,55.664,0
1579018241.661,22.461,34.668,46.387,3.418,-5.859,0
1579018241.665,5.859,39.062,45.410,-19.531,2.441,0
1579018241.669,-0.977,35.645,40.527,-18.066,37.109,0
1579018241.673,16.113,30.273,39.551,8.301,28.809,0
1579018241.677,23.926,33.691,39.551,13.184,42.969,0
1579018241.681,18.066,39.062,37.598,-10.742,11.230,0
1579018241.684,16.602,39.551,35.156,-19.531,58.105,0
1579018241.688,31.250,40.039,34.180,-0.977,70.312,0
1579018241.692,47.852,41.992,31.738,12.695,45.410,0
1579018241.696,45.410,44.434,31.738,-2.441,60.547,0
1579018241.700,37.598,42.969,34.180,-21.484,55.664,0
1579018241.697,42.480,39.551,36.133,-3.418,41.992,0
1579018241.701,50.781,39.551,31.738,19.531,58.105,0
1579018241.705,54.199,41.992,34.668,7.324,12.695,0
1579018241.709,43.457,42.969,38.574,-12.207,22.949,0
1579018241.713,42.480,40.527,32.715,-3.418,35.156,0
1579018241.717,53.223,38.086,31.738,15.137,23.438,0
1579018241.721,48.340,34.668,33.203,6.348,13.184,0
1579018241.724,33.203,35.645,32.715,-18.066,7.324,0
1579018241.728,27.832,36.133,34.668,-11.230,71.289,0
1579018241.732,35.645,34.668,39.062,8.789,24.414,0
1579018241.736,39.062,35.645,38.574,10.254,-9.277,0
1579018241.740,21.973,34.668,35.156,-3.906,70.312,0
1579018241.739,6.836,33.203,36.621,-11.719,39.551,0
1579018241.743,19.043,33.691,38.574,4.883,31.738,0
1579018241.747,30.273,34.180,38.574,16.113,45.898,0
1579018241.751,20.020,32.227,36.133,-2.441,-4.395,0
1579018241.755,7.324,29.297,36.621,-23.438,10.254,0
1579018241.759,13.672,30.273,38.086,-3.906,74.219,0
1579018241.763,30.273,35.156,40.527,25.391,70.801,0
1579018241.766,23.438,35.645,42.969,14.160,14.160,0
1579018241.770,17.578,35.156,40.527,-6.348,20.020,0
1579018241.774,41.992,36.133,37.598,18.555,44.922,0
1579018241.778,52.734,31.738,41.504,45.898,71.777,0
1579018241.782,36.133,31.738,43.457,29.297,55.176,0
1579018241.797,20.996,38.086,41.992,0.977,19.043,0
1579018241.801,30.273,40.039,42.480,7.324,-3.906,0
1579018241.805,53.223,41.016,41.504,41.016,5.859,0
1579018241.809,58.105,41.992,40.527,50.781,21.484,0
1579018241.813,45.410,40.527,42.480,24.902,23.926,0
1579018241.817,35.645,41.016,45.410,8.789,47.363,0
1579018241.821,44.922,41.016,42.969,25.391,14.648,0
1579018241.824,58.594,39.062,40.039,41.016,17.578,0
1579018241.828,56.152,39.551,39.062,22.461,2.441,0
1579018241.832,41.504,41.504,37.598,0.488,39.062,0
1579018241.836,38.574,43.945,36.621,11.719,67.383,0
1579018241.840,50.293,43.457,35.156,33.691,44.434,0
1579018241.840,51.270,42.969,37.109,27.344,94.727,0
1579018241.844,41.504,41.504,37.109,4.395,42.480,0
1579018241.848,43.945,41.504,35.156,6.836,-11.719,0
1579018241.852,54.688,44.434,33.691,30.273,15.625,0
1579018241.856,55.664,39.551,32.715,33.691,29.785,0
1579018241.860,43.457,39.551,31.738,10.742,32.715,0
1579018241.864,38.574,39.062,31.738,6.348,25.391,0
1579018241.867,52.734,36.133,32.715,30.273,36.133,0
1579018241.871,62.012,37.598,33.203,40.039,48.828,0
1579018241.875,46.875,38.086,33.691,14.160,39.551,0
1579018241.879,38.086,37.598,36.621,1.465,-11.719,0
1579018241.883,54.199,38.574,37.109,22.461,-38.086,0
1579018241.877,68.359,39.062,32.715,32.227,1.465,0
1579018241.881,60.547,35.645,34.668,14.648,37.109,0
1579018241.885,43.945,35.156,36.621,-5.371,71.289,0
1579018241.889,44.434,36.133,33.203,2.441,106.934,0
1579018241.893,55.176,35.156,34.180,26.367,39.062,0
1579018241.897,58.594,35.645,35.645,21.484,34.668,0
1579018241.901,45.410,39.551,38.086,-0.977,39.551,0
1579018241.904,37.109,38.086,42.480,4.395,14.160,0
1579018241.908,49.805,35.645,40.039,29.297,36.621,0
1579018241.912,57.129,37.598,40.039,34.180,19.531,0
1579018241.916,46.875,35.156,42.480,14.648,14.648,0
1579018241.920,37.109,32.227,41.992,11.230,8.301,0
1579018241.937,49.805,36.133,41.504,37.598,1.953,0
1579018241.941,65.430,37.109,40.527,48.828,29.785,0
1579018241.945,58.594,36.133,41.992,31.738,72.754,0
1579018241.949,48.340,38.574,41.992,19.043,71.777,0
1579018241.953,59.082,39.062,38.086,36.621,37.598,0
1579018241.957,73.242,38.574,41.016,55.176,100.098,0
1579018241.961,70.801,40.527,41.992,39.062,77.637,0
1579018241.964,55.664,41.016,36.133,10.742,29.785,0
1579018241.968,54.688,39.062,35.156,16.602,-33.691,0
1579018241.972,68.848,40.527,36.133,41.992,-63.965,0
1579018241.976,66.895,41.016,38.574,35.156,-1.465,0
1579018241.980,48.340,41.992,38.086,9.766,24.414,0
1579018241.978,41.992,41.992,35.645,7.812,4.395,0
1579018241.982,49.316,38.086,38.086,27.832,11.230,0
1579018241.986,40.039,37.598,40.039,30.762,14.160,0
1579018241.990,23.926,41.504,40.039,8.789,45.410,0
1579018241.994,14.160,41.504,40.527,-2.441,47.852,0
1579018241.998,16.602,41.504,42.969,18.555,27.344,0
1579018242.002,16.602,40.527,40.039,29.785,48.828,0
1579018242.005,4.883,41.016,36.133,7.812,7.324,0
1579018242.009,-2.441,41.016,38.574,-8.301,14.648,0
1579018242.013,5.859,38.574,39.062,4.395,46.387,0
1579018242.017,18.555,38.574,38.086,27.832,48.340,0
1579018242.021,11.230,36.133,41.992,20.508,68.848,0
1579018242.038,-2.441,37.109,46.387,5.371,67.871,0
1579018242.042,-0.977,39.062,47.852,20.020,24.414,0
1579018242.046,7.812,37.109,46.875,44.434,0.977,0
1579018242.050,5.859,34.180,47.363,45.410,66.895,0
1579018242.054,-9.766,31.738,44.922,23.926,62.988,0
1579018242.058,-13.184,30.273,38.086,27.832,-2.930,0
1579018242.062,0.977,30.762,36.621,55.176,-5.859,0
1579018242.065,3.418,34.668,40.039,62.012,-0.977,0
1579018242.069,-4.395,35.645,41.504,49.805,14.160,0
1579018242.073,-11.230,30.762,40.039,45.410,72.754,0
1579018242.077,-0.488,29.785,38.574,65.430,53.223,0
1579018242.081,13.184,32.715,39.062,82.520,30.762,0
1579018242.097,4.395,35.645,40.527,66.406,42.480,0
1579018242.101,-0.977,36.621,39.062,49.805,41.016,0
1579018242.105,8.301,33.691,36.621,60.547,1.465,0
1579018242.109,17.578,36.133,35.645,77.637,-9.766,0
1579018242.113,18.066,39.551,37.109,68.359,53.711,0
1579018242.117,7.812,36.621,37.598,43.945,62.012,0
1579018242.121,10.254,33.691,34.180,39.062,13.672,0
1579018242.124,32.715,36.621,36.133,56.641,84.961,0
1579018242.128,41.504,42.969,40.527,51.758,62.012,0
1579018242.132,31.738,43.457,35.645,20.508,-30.762,0
1579018242.136,30.273,38.574,33.203,8.789,-6.836,0
1579018242.140,48.828,35.645,35.156,26.855,18.555,0
1579018242.117,62.500,35.156,35.645,34.180,23.438,0
1579018242.121,47.852,30.762,37.598,6.348,-5.371,0
1579018242.125,34.668,29.785,37.109,-14.160,5.859,0
1579018242.129,47.852,32.715,37.109,0.000,27.344,0
1579018242.133,62.500,33.691,35.645,9.277,41.992,0
1579018242.137,62.012,36.133,35.645,-11.230,64.453,0
1579018242.141,48.828,36.621,36.133,-30.273,68.359,0
1579018242.144,50.781,36.133,35.156,-17.578,50.781,0
1579018242.148,65.918,38.086,38.086,5.859,63.477,0
1579018242.152,63.477,38.086,39.062,-5.371,52.734,0
1579018242.156,47.852,35.645,43.457,-23.438,44.434,0
1579018242.160,41.016,34.668,42.969,-13.184,27.344,0
1579018242.177,48.340,34.180,40.039,9.277,18.066,0
1579018242.181,46.387,35.645,45.410,12.207,70.312,0
1579018242.185,28.809,37.598,46.387,-7.324,74.219,0
1579018242.189,24.414,37.109,45.898,-7.324,49.316,0
1579018242.193,35.645,36.621,44.434,19.531,67.383,0
1579018242.197,38.086,38.574,38.086,28.809,20.996,0
1579018242.201,30.273,39.062,37.598,19.531,-16.113,0
1579018242.204,31.738,38.086,38.086,21.484,-8.301,0
1579018242.208,28.809,38.574,37.109,25.879,44.434,0
1579018242.212,23.926,40.039,37.109,35.156,103.027,0
1579018242.216,26.855,43.457,35.645,28.809,90.332,0
1579018242.220,29.297,45.898,34.668,20.508,92.773,0
1579018242.238,45.410,44.922,33.203,38.086,59.082,0
1579018242.242,58.594,42.480,31.250,57.129,11.230,0
1579018242.246,51.270,44.434,31.250,48.828,-0.977,0
1579018242.250,37.598,42.480,32.715,24.902,-21.484,0
1579018242.254,30.273,39.062,33.691,28.809,-17.578,0
1579018242.258,34.668,39.551,35.156,45.410,-18.555,0
1579018242.262,30.762,39.062,35.156,44.434,-20.508,0
1579018242.265,16.113,38.086,33.203,29.297,21.484,0
1579018242.269,9.277,36.621,33.691,24.414,75.684,0
1579018242.273,20.508,38.574,32.715,51.270,68.848,0
1579018242.277,25.391,40.039,32.715,69.336,37.109,0
1579018242.281,12.695,36.621,34.668,50.781,56.641,0
1579018242.257,0.977,34.180,36.621,39.551,50.293,0
1579018242.261,2.930,32.227,36.621,56.641,33.203,0
1579018242.265,15.137,33.203,40.039,78.125,53.223,0
1579018242.269,16.602,34.668,43.945,67.871,65.430,0
1579018242.273,0.000,35.645,42.969,40.527,55.664,0
1579018242.277,0.488,34.180,41.504,46.875,25.879,0
1579018242.281,24.414,32.715,39.551,69.824,15.137,0
1579018242.284,26.367,34.180,39.551,66.895,52.734,0
1579018242.288,12.207,36.133,41.016,41.992,62.988,0
1579018242.292,20.020,38.086,37.598,38.574,73.730,0
1579018242.296,37.109,38.574,37.598,63.477,49.805,0
1579018242.300,38.574,39.062,39.551,67.383,38.574,0
1579018242.317,27.832,38.086,39.062,44.434,44.434,0
1579018242.321,12.207,39.062,37.598,27.832,51.270,0
1579018242.325,18.066,42.480,36.133,40.039,30.273,0
1579018242.329,31.250,39.062,37.109,55.176,35.156,0
1579018242.333,27.344,37.598,38.086,35.645,68.848,0
1579018242.337,16.113,40.039,35.645,23.438,20.020,0
1579018242.341,15.625,41.504,36.133,35.156,13.672,0
1579018242.344,25.879,39.551,36.621,43.945,-17.090,0
1579018242.348,24.902,38.574,33.203,33.691,-31.738,0
1579018242.352,12.207,40.527,29.785,14.160,6.836,0
1579018242.356,11.719,40.527,34.180,25.879,4.883,0
1579018242.360,20.996,40.527,35.645,50.293,6.836,0
1579018242.358,22.949,40.527,38.086,42.969,-12.695,0
1579018242.362,11.719,38.574,41.504,19.531,4.395,0
1579018242.366,13.672,38.574,39.551,14.648,56.152,0
1579018242.370,29.297,38.574,41.016,36.133,85.938,0
1579018242.374,31.250,37.109,44.922,38.574,58.105,0
1579018242.378,12.695,34.180,44.922,13.184,6.836,0
1579018242.382,-0.488,32.715,43.945,0.488,51.758,0
1579018242.385,17.578,32.227,41.992,20.508,59.570,0
1579018242.389,35.156,33.691,39.551,37.109,2.930,0
1579018242.393,22.949,35.645,39.551,13.184,52.246,0
1579018242.397,2.930,34.180,43.457,-8.301,72.754,0
1579018242.401,6.348,32.715,44.434,3.418,35.645,0
1579018242.397,20.020,31.738,41.016,23.438,29.297,0
1579018242.401,17.090,30.762,36.621,16.602,-16.602,0
1579018242.405,4.883,32.227,35.156,-8.301,-8.789,0
1579018242.409,8.789,36.621,38.574,-2.441,44.922,0
1579018242.413,29.297,39.062,39.062,29.785,63.477,0
1579018242.417,33.691,39.551,34.668,34.180,81.055,0
1579018242.421,18.066,41.016,34.668,10.254,12.207,0
1579018242.424,11.230,43.945,35.156,2.441,-30.273,0
1579018242.428,22.949,47.363,35.156,20.996,27.832,0
1579018242.432,34.668,46.387,36.621,33.691,51.758,0
1579018242.436,27.832,43.457,36.133,9.766,31.250,0
1579018242.440,19.531,44.922,32.715,-10.742,18.066,0
1579018242.457,26.855,45.410,32.715,5.859,-0.488,0
1579018242.461,36.621,46.387,36.133,22.461,20.020,0
1579018242.465,34.668,47.852,37.598,14.160,0.000,0
1579018242.469,25.391,45.410,36.621,-4.883,-42.969,0
1579018242.473,32.715,41.992,33.691,-3.418,39.551,0
1579018242.477,52.734,40.039,35.156,18.066,68.848,0
1579018242.481,54.199,39.551,37.109,11.230,17.090,0
1579018242.484,40.527,39.062,36.133,-20.996,32.715,0
1579018242.488,47.852,35.156,35.156,-22.461,43.945,0
1579018242.492,62.988,35.156,39.062,4.395,15.137,0
1579018242.496,75.684,37.109,34.668,21.484,32.227,0
1579018242.500,70.801,30.273,33.203,10.254,51.758,0
1579018242.517,41.992,26.367,39.551,-10.742,32.715,0
1579018242.521,39.551,28.320,42.969,3.418,20.996,0
1579018242.525,54.688,25.391,42.969,24.902,4.883,0
1579018242.529,54.199,23.438,41.992,18.066,4.883,0
1579018242.533,27.832,24.414,46.875,-2.930,0.488,0
1579018242.537,21.484,24.902,46.875,10.742,29.297,0
1579018242.541,37.109,19.043,45.410,39.062,61.523,0
1579018242.544,22.949,14.648,44.922,17.090,65.918,0
1579018242.548,11.230,13.672,44.434,-3.906,34.180,0
1579018242.552,15.625,14.160,49.316,7.324,-17.578,0
1579018242.556,27.344,16.602,50.781,29.297,-4.395,0
1579018242.560,29.297,17.090,46.387,33.691,7.324,0
1579018242.537,13.672,17.578,44.434,15.137,55.664,0
1579018242.541,13.672,20.508,45.410,13.672,50.293,0
1579018242.545,33.203,24.902,48.340,41.992,34.180,0
1579018242.549,38.574,24.902,46.387,47.363,27.344,0
1579018242.553,28.809,25.391,42.480,21.973,19.043,0
1579018242.557,20.508,27.832,42.480,11.719,20.508,0
1579018242.561,32.227,33.203,44.434,28.320,14.648,0
1579018242.564,48.340,36.133,41.016,39.551,-7.812,0
1579018242.568,44.922,33.203,37.598,23.926,26.855,0
1579018242.572,38.086,33.203,37.598,8.301,34.668,0
1579018242.576,43.945,35.645,38.086,22.949,-11.230,0
1579018242.580,52.246,35.645,42.480,44.434,5.371,0
1579018242.597,45.410,33.203,42.969,35.156,60.059,0
1579018242.601,26.367,31.250,40.527,10.254,37.109,0
1579018242.605,29.297,32.227,37.598,13.184,27.832,0
1579018242.609,43.945,32.227,35.156,34.668,69.336,0
1579018242.613,43.457,30.762,36.621,30.762,53.223,0
1579018242.617,28.809,28.809,37.109,10.742,-10.742,0
1579018242.621,16.113,28.809,38.086,8.301,1.465,0
1579018242.624,27.344,29.785,39.062,30.762,74.707,0
1579018242.628,33.203,30.273,40.527,39.062,90.332,0
1579018242.632,19.043,30.273,41.504,15.625,63.965,0
1579018242.636,11.230,28.809,39.062,3.418,83.008,0
1579018242.640,19.531,32.227,40.039,22.461,17.578,0
1579018242.637,30.762,34.668,41.504,39.062,-23.438,0
1579018242.641,32.715,33.203,39.062,22.461,50.293,0
1579018242.645,25.391,36.133,39.062,2.930,49.316,0
1579018242.649,22.461,38.086,37.109,10.254,4.395,0
1579018242.653,28.809,39.062,35.645,26.855,-12.207,0
1579018242.657,27.344,38.574,36.621,18.066,-23.438,0
1579018242.661,10.254,35.645,36.133,-5.859,-41.016,0
1579018242.664,6.348,35.156,35.156,0.977,-0.488,0
1579018242.668,21.973,35.156,36.133,28.320,-4.883,0
1579018242.672,22.949,37.109,37.598,28.809,0.000,0
1579018242.676,5.859,40.527,40.039,11.230,30.273,0
1579018242.680,4.395,41.504,42.480,16.602,30.762,0
1579018242.697,20.020,42.480,46.387,46.875,30.762,0
1579018242.701,22.461,40.527,44.434,61.035,78.613,0
1579018242.705,4.883,38.574,38.086,42.969,17.090,0
1579018242.709,-10.254,35.156,37.109,34.668,-15.137,0
1579018242.713,-5.859,32.715,38.086,56.152,54.688,0
1579018242.717,3.906,34.668,37.109,73.730,68.359,0
1579018242.721,0.000,37.598,40.527,63.965,49.316,0
1579018242.724,-15.625,35.645,41.504,42.480,55.176,0
1579018242.728,-9.766,36.133,38.574,51.758,53.711,0
1579018242.732,1.465,37.598,39.551,74.219,29.785,0
1579018242.736,-3.418,36.133,41.504,69.824,20.996,0
1579018242.740,-15.137,34.668,40.039,52.246,-0.488,0
1579018242.737,-13.184,36.133,42.480,55.176,22.461,0
1579018242.741,2.441,34.180,42.969,78.613,53.711,0
1579018242.745,12.207,33.691,40.039,80.078,14.160,0
1579018242.749,4.395,34.668,38.086,57.129,15.625,0
1579018242.753,8.301,36.621,38.574,58.105,80.078,0
1579018242.757,18.555,38.574,41.504,71.777,55.664,0
1579018242.761,22.461,38.086,44.434,62.500,28.809,0
1579018242.764,28.809,37.109,44.922,45.898,27.344,0
1579018242.768,28.809,37.598,41.504,39.062,29.785,0
1579018242.772,36.621,38.574,37.109,50.781,46.875,0
1579018242.776,49.805,36.621,36.133,67.383,33.203,0
1579018242.780,47.363,39.062,38.574,47.852,33.691,0
1579018242.777,35.645,41.016,36.133,17.578,-8.301,0
1579018242.781,36.621,36.133,30.762,23.438,17.578,0
1579018242.785,47.852,35.156,32.715,48.340,57.129,0
1579018242.789,50.293,38.086,37.109,46.875,17.578,0
1579018242.793,28.809,38.086,38.086,22.461,-3.906,0
1579018242.797,21.484,38.086,39.551,25.879,27.832,0
1579018242.801,37.598,37.109,40.527,49.316,38.086,0
1579018242.804,40.527,36.133,38.574,53.223,31.250,0
1579018242.808,35.156,37.109,40.039,30.762,73.730,0
1579018242.812,29.297,35.156,40.039,17.578,77.148,0
1579018242.816,41.992,37.598,39.062,33.203,43.945,0
1579018242.820,57.129,43.457,40.527,47.852,8.789,0
1579018242.837,48.340,43.457,40.527,35.156,8.301,0
1579018242.841,37.598,39.062,39.062,14.160,59.570,0
1579018242.845,42.969,37.598,40.039,22.949,69.824,0
1579018242.849,59.082,39.062,40.527,38.086,80.078,0
1579018242.853,59.570,39.551,40.527,24.902,55.664,0
1579018242.857,45.410,40.039,40.527,3.418,5.371,0
1579018242.861,49.805,38.574,41.016,4.883,0.488,0
1579018242.864,69.824,40.039,41.016,24.902,-11.230,0
1579018242.868,73.730,41.992,38.574,18.066,22.949,0
1579018242.872,63.477,42.480,38.574,-9.766,66.895,0
1579018242.876,63.477,45.898,41.016,-7.324,19.043,0
1579018242.880,75.684,48.828,39.062,15.625,-43.945,0
1579018242.877,71.777,44.434,35.645,20.508,-37.109,0
1579018242.881,53.223,41.504,35.156,-3.418,38.086,0
1579018242.885,45.410,41.016,36.621,-12.695,67.871,0
1579018242.889,50.781,41.016,37.109,12.695,22.949,0
1579018242.893,56.641,42.480,36.133,27.344,-0.488,0
1579018242.897,46.875,42.969,36.133,11.719,23.438,0
1579018242.901,34.180,41.992,37.109,-8.301,20.020,0
1579018242.904,44.434,40.039,36.133,5.371,31.738,0
1579018242.908,60.059,38.086,34.668,30.762,48.340,0
1579018242.912,51.758,35.645,33.691,20.996,38.574,0
1579018242.916,34.180,37.109,36.133,3.906,27.344,0
1579018242.920,41.016,36.133,37.598,9.277,50.293,0
1579018242.917,61.035,33.691,37.598,35.156,44.434,0
1579018242.921,62.500,34.180,36.621,44.434,-0.977,0
1579018242.925,47.363,34.668,36.133,18.555,-10.254,0
1579018242.929,55.176,35.645,32.227,22.461,35.645,0
1579018242.933,83.496,38.574,30.762,63.965,67.383,0
1579018242.937,61.523,35.645,38.086,50.293,76.660,0
1579018242.941,20.508,32.715,42.969,13.672,54.199,0
1579018242.944,29.297,33.203,43.457,22.949,52.246,0
1579018242.948,44.922,30.762,41.016,49.316,59.570,0
1579018242.952,55.176,29.785,41.016,66.895,53.223,0
1579018242.956,52.734,28.320,46.875,52.246,11.719,0
1579018242.960,40.527,26.855,46.875,39.551,-13.184,0
1579018242.977,58.594,26.855,45.410,68.848,35.156,0
1579018242.981,71.777,28.809,43.457,91.797,31.250,0
1579018242.985,55.664,30.762,44.434,73.242,0.977,0
1579018242.989,43.945,29.785,43.945,48.340,14.160,0
1579018242.993,51.270,30.762,40.527,53.711,23.438,0
1579018242.997,58.105,30.273,41.992,72.754,-4.395,0
1579018243.001,57.617,31.250,40.039,74.707,53.223,0
1579018243.004,38.086,33.691,36.133,46.875,114.746,0
1579018243.008,20.996,34.180,35.156,32.715,66.895,0
1579018243.012,41.504,34.668,37.598,66.406,-7.812,0
1579018243.016,54.688,37.598,37.598,81.543,13.672,0
1579018243.020,45.410,38.574,36.621,54.199,49.805,0
1579018243.017,36.133,37.598,37.598,37.598,36.621,0
1579018243.021,37.109,36.621,38.574,57.617,18.555,0
1579018243.025,47.363,36.133,41.504,80.566,-3.906,0
1579018243.029,41.016,32.715,41.504,67.871,37.598,0
1579018243.033,22.949,31.738,40.039,46.875,101.074,0
1579018243.037,23.438,33.691,39.551,53.711,77.148,0
1579018243.041,39.062,32.715,38.086,71.289,56.641,0
1579018243.044,42.969,31.250,39.551,68.848,19.531,0
1579018243.048,32.227,34.180,41.992,49.316,0.488,0
1579018243.052,32.715,35.645,41.504,51.270,16.602,0
1579018243.056,49.316,35.156,40.527,70.312,40.039,0
1579018243.060,55.664,34.180,41.504,66.406,76.172,0
1579018243.058,40.039,33.691,37.598,39.551,15.625,0
1579018243.062,36.621,37.598,34.668,28.809,9.277,0
1579018243.066,50.293,41.504,34.180,48.340,42.969,0
1579018243.070,58.105,40.039,33.203,59.082,36.621,0
1579018243.074,51.758,38.574,33.203,41.504,7.324,0
1579018243.078,40.527,39.551,31.738,21.484,26.855,0
1579018243.082,50.293,39.062,33.691,34.668,55.176,0
1579018243.085,69.336,38.086,33.203,51.270,33.203,0
1579018243.089,67.383,37.109,31.250,28.809,67.383,0
1579018243.093,62.012,34.668,31.738,18.066,69.824,0
1579018243.097,65.430,37.109,28.809,24.902,11.230,0
1579018243.101,50.293,40.039,29.297,9.766,23.926,0
1579018243.097,45.410,41.504,28.320,0.977,35.156,0
1579018243.101,23.438,44.434,30.273,-32.715,12.695,0
1579018243.105,2.930,41.504,35.156,-52.246,22.461,0
1579018243.109,24.902,42.480,32.227,-24.902,-36.621,0
1579018243.113,19.043,43.457,28.320,-29.785,-18.555,0
1579018243.117,-1.953,41.504,28.809,-52.734,41.504,0
1579018243.121,-9.766,40.527,30.273,-52.734,58.105,0
1579018243.124,-9.277,40.039,30.762,-27.832,72.266,0
1579018243.128,-4.883,38.086,31.738,-8.301,66.895,0
1579018243.132,-8.301,38.574,32.227,-14.648,59.570,0
1579018243.136,-18.066,38.086,34.668,-24.414,27.344,0
1579018243.140,-8.789,37.109,35.645,-2.441,37.109,0
1579018243.157,11.719,40.527,33.203,28.320,67.383,0
1579018243.161,13.184,41.992,32.227,23.926,31.738,0
1579018243.165,2.930,40.527,32.715,5.371,-15.137,0
1579018243.169,7.812,43.457,31.738,13.672,-10.742,0
1579018243.173,15.137,40.527,32.715,39.062,14.160,0
1579018243.177,5.371,38.086,33.691,38.574,61.035,0
1579018243.181,-7.812,41.992,30.762,10.254,78.125,0
1579018243.184,-9.277,41.504,29.785,7.812,32.227,0
1579018243.188,1.953,40.039,28.809,28.320,30.762,0
1579018243.192,15.137,40.527,29.297,30.762,28.809,0
1579018243.196,6.348,39.062,31.250,11.230,-5.859,0
1579018243.200,-7.324,37.598,30.273,-8.301,0.977,0
1579018243.197,9.277,38.086,27.344,4.883,-21.484,0
1579018243.201,26.367,37.109,24.414,22.461,-13.672,0
1579018243.205,20.020,38.086,27.344,4.883,27.832,0
1579018243.209,8.301,40.039,29.785,-12.695,34.668,0
1579018243.213,17.090,39.551,30.762,-0.977,50.781,0
1579018243.217,33.691,40.039,32.715,18.555,68.848,0
1579018243.221,31.250,39.062,30.762,9.766,29.785,0
1579018243.224,17.578,39.062,30.273,-20.508,-0.488,0
1579018243.228,19.531,38.574,32.227,-19.043,30.762,0
1579018243.232,36.621,39.551,30.762,9.277,49.316,0
1579018243.236,41.016,39.551,29.785,11.230,55.664,0
1579018243.240,21.973,38.086,30.762,-8.789,43.457,0
1579018243.237,8.301,38.086,31.738,-14.160,11.719,0
1579018243.241,22.949,37.109,33.203,13.184,4.395,0
1579018243.245,28.809,36.133,33.691,26.367,0.488,0
1579018243.249,16.113,36.621,33.203,4.883,-2.441,0
1579018243.253,11.719,36.621,34.668,-0.977,27.832,0
1579018243.257,20.996,40.039,37.598,19.043,40.527,0
1579018243.261,28.809,40.039,36.621,34.668,57.617,0
1579018243.264,21.973,41.016,35.156,19.531,64.453,0
1579018243.268,7.812,45.898,34.180,-2.441,59.082,0
1579018243.272,10.742,41.992,33.691,11.719,86.914,0
1579018243.276,33.691,36.133,34.180,44.922,107.910,0
1579018243.280,37.598,41.504,33.691,47.363,57.129,0
1579018243.297,-0.488,47.363,35.156,0.977,22.461,0
1579018243.301,-20.508,46.387,34.180,-17.578,36.621,0
1579018243.305,-1.953,42.969,28.320,16.602,54.199,0
1579018243.309,4.395,42.480,26.855,24.902,33.691,0
1579018243.313,-7.324,43.457,26.855,4.883,40.039,0
1579018243.317,-17.578,43.457,29.297,-0.488,43.457,0
1579018243.321,-4.883,43.945,31.738,23.438,13.672,0
1579018243.324,11.230,45.898,32.227,44.434,-11.230,0
1579018243.328,3.906,45.410,35.156,30.273,-10.742,0
1579018243.332,-6.836,43.457,35.645,21.973,33.691,0
1579018243.336,0.977,37.598,35.645,38.574,70.801,0
1579018243.340,20.020,36.133,35.645,55.664,51.270,0
1579018243.337,21.973,38.086,34.668,46.875,56.641,0
1579018243.341,11.719,35.645,37.598,27.832,29.297,0
1579018243.345,18.555,37.109,40.527,38.574,-31.250,0
1579018243.349,36.133,38.574,40.039,66.406,-26.855,0
1579018243.353,32.227,36.133,37.109,63.965,26.855,0
1579018243.357,9.766,38.086,35.156,36.133,57.617,0
1579018243.361,6.836,39.551,37.109,30.762,-6.348,0
1579018243.364,26.367,34.668,38.086,55.664,-17.578,0
1579018243.368,36.133,32.715,36.133,65.430,-39.551,0
1579018243.372,23.438,35.156,37.109,40.527,-34.668,0
1579018243.376,20.508,32.715,36.621,25.391,57.129,0
1579018243.380,33.691,31.738,34.668,44.434,45.898,0
1579018243.397,36.133,31.250,33.691,48.828,17.578,0
1579018243.401,29.785,31.250,37.109,25.391,68.359,0
1579018243.405,26.855,33.691,41.504,6.836,75.195,0
1579018243.409,39.062,31.738,36.621,7.812,9.766,0
1579018243.413,51.758,34.180,33.691,18.555,29.297,0
1579018243.417,49.805,37.109,31.738,5.371,81.543,0
1579018243.421,38.086,36.133,28.809,-20.996,36.621,0
1579018243.424,38.086,38.574,30.762,-19.043,20.508,0
1579018243.428,51.270,41.504,33.203,6.348,0.488,0
1579018243.432,46.387,40.527,35.645,5.859,8.301,0
1579018243.436,28.320,39.062,35.156,-14.648,19.043,0
1579018243.440,22.461,39.551,32.227,-11.230,-4.395,0
1579018243.437,34.668,40.527,33.203,16.602,17.090,0
1579018243.441,43.945,40.039,38.086,30.273,79.102,0
1579018243.445,28.809,39.551,37.109,7.324,34.668,0
1579018243.449,18.555,40.039,35.156,-2.441,-11.719,0
1579018243.453,28.809,38.086,39.551,27.344,10.254,0
1579018243.457,29.785,37.109,38.086,45.898,50.293,0
1579018243.461,19.043,38.086,37.598,27.832,48.828,0
1579018243.464,7.812,40.039,38.574,12.207,19.531,0
1579018243.468,11.719,40.039,34.668,19.043,13.184,0
1579018243.472,24.414,39.062,31.738,37.109,16.602,0
1579018243.476,24.414,37.598,32.715,33.691,41.992,0
1579018243.480,17.578,35.156,35.156,9.277,13.184,0
1579018243.477,26.855,32.227,34.668,15.137,28.320,0
1579018243.481,41.504,30.762,34.668,43.457,38.086,0
1579018243.485,39.062,31.738,32.715,36.133,22.949,0
1579018243.489,24.902,34.668,33.691,6.836,45.410,0
1579018243.493,21.484,33.691,34.668,0.000,52.246,0
1579018243.497,26.367,29.785,32.715,19.043,58.594,0
1579018243.501,23.926,28.809,32.227,29.297,27.832,0
1579018243.504,18.066,29.297,32.227,17.090,5.859,0
1579018243.508,12.207,30.273,35.645,9.277,34.180,0
1579018243.512,20.508,30.762,39.551,25.879,27.832,0
1579018243.516,35.156,35.156,39.551,49.805,22.461,0
1579018243.520,21.484,39.062,38.086,37.598,15.625,0
1579018243.537,2.930,35.645,34.180,14.160,29.297,0
1579018243.541,10.742,32.715,34.668,30.762,32.227,0
1579018243.545,29.785,36.133,35.645,52.734,74.219,0
1579018243.549,32.715,38.574,34.668,49.316,111.816,0
1579018243.553,18.066,41.504,37.598,29.785,53.223,0
1579018243.557,13.184,42.480,36.621,30.762,43.457,0
1579018243.561,22.949,38.086,35.156,53.223,79.590,0
1579018243.564,29.785,41.016,35.156,53.223,76.660,0
1579018243.568,22.949,41.016,34.668,31.738,23.926,0
1579018243.572,20.996,37.109,36.133,28.809,21.973,0
1579018243.576,47.363,36.133,35.156,61.523,56.152,0
1579018243.580,49.805,38.574,34.668,64.453,45.898,0
1579018243.577,16.602,39.551,32.227,14.648,54.199,0
1579018243.581,8.789,40.527,28.809,-0.977,37.109,0
1579018243.585,25.879,42.480,32.715,23.438,10.742,0
1579018243.589,44.922,44.434,34.180,38.574,-11.230,0
1579018243.593,39.062,44.922,29.785,21.484,-5.859,0
1579018243.597,18.066,44.434,30.273,-7.812,35.645,0
1579018243.601,20.020,46.387,33.203,-1.953,30.273,0
1579018243.604,41.016,44.434,31.738,17.578,44.922,0
