timestamps,TP9,AF7,AF8,TP10,Right AUX,Marker0
1579270601.914,36.133,34.180,25.879,38.574,17.090,0
1579270601.918,34.180,33.691,22.461,36.133,54.688,0
1579270601.922,33.203,32.715,23.438,34.668,88.867,0
1579270601.926,29.297,32.715,26.367,37.598,59.082,0
1579270601.930,30.762,39.062,27.344,38.574,74.219,0
1579270601.934,27.344,38.574,23.926,33.691,53.223,0
1579270601.938,20.996,34.668,18.555,28.320,14.648,0
1579270601.941,18.066,34.180,18.555,22.461,26.367,0
1579270601.945,19.531,30.762,20.020,21.484,79.102,0
1579270601.949,21.484,31.738,21.484,20.996,30.273,0
1579270601.953,18.066,30.762,23.438,20.508,-64.453,0
1579270601.957,19.531,28.320,23.438,25.879,-13.672,0
1579270601.973,22.949,28.320,20.020,25.879,41.992,0
1579270601.977,20.508,29.785,20.508,23.438,5.371,0
1579270601.981,17.090,30.273,27.832,25.879,33.203,0
1579270601.985,18.066,29.297,30.273,24.902,47.363,0
1579270601.989,19.531,28.809,30.273,28.320,31.250,0
1579270601.993,23.438,32.227,34.180,29.785,49.316,0
1579270601.997,26.855,32.227,32.715,26.367,-16.113,0
1579270602.000,26.855,27.832,29.297,26.367,-11.719,0
1579270602.004,25.391,25.879,30.273,26.855,49.805,0
1579270602.008,23.926,24.902,31.738,26.367,1.953,0
1579270602.012,27.344,25.879,32.227,24.902,12.695,0
1579270602.016,25.879,23.926,30.762,24.902,69.336,0
1579270602.014,21.484,21.973,26.855,24.414,3.906,0
1579270602.018,20.508,21.973,25.391,21.973,12.207,0
1579270602.022,19.531,23.438,31.250,23.926,-0.488,0
1579270602.026,18.066,24.414,34.180,24.414,-58.594,0
1579270602.030,12.207,19.043,30.762,17.578,-0.977,0
1579270602.034,11.230,18.555,32.227,15.137,54.688,0
1579270602.038,11.230,20.020,32.227,16.113,48.828,0
1579270602.041,9.277,18.555,27.344,17.090,71.289,0
1579270602.045,12.207,21.973,31.738,21.484,54.199,0
1579270602.049,10.742,24.414,36.621,17.090,60.547,0
1579270602.053,9.766,24.902,31.738,16.602,62.012,0
1579270602.057,13.184,26.855,30.273,22.949,21.484,0
1579270602.074,14.160,23.438,30.762,24.902,9.766,0
1579270602.078,16.113,22.949,28.809,28.809,-0.977,0
1579270602.082,14.648,24.902,26.855,27.832,10.254,0
1579270602.086,12.207,22.461,26.855,22.461,16.602,0
1579270602.090,9.277,21.484,26.367,19.531,42.969,0
1579270602.094,6.348,22.461,26.367,17.090,37.109,0
1579270602.098,8.789,23.926,29.785,16.113,-5.859,0
1579270602.101,5.859,25.391,33.203,9.766,-25.879,0
1579270602.105,7.812,26.367,35.645,11.230,-7.324,0
1579270602.109,14.648,25.391,35.645,19.043,24.414,0
1579270602.113,14.160,26.367,32.227,18.555,-5.371,0
1579270602.117,17.090,33.203,34.180,21.484,-39.062,0
1579270602.114,23.438,36.621,39.551,25.391,20.508,0
1579270602.118,17.090,38.086,38.574,23.438,52.734,0
1579270602.122,9.766,38.574,38.086,20.996,29.297,0
1579270602.126,8.789,40.039,39.551,15.625,18.066,0
1579270602.130,6.836,47.363,40.527,10.254,71.289,0
1579270602.134,-0.977,52.734,44.434,1.953,135.254,0
1579270602.138,-14.648,57.129,44.434,-8.301,86.426,0
1579270602.141,-24.414,59.570,41.992,-18.555,-7.812,0
1579270602.145,-30.762,60.547,39.062,-28.320,-2.930,0
1579270602.149,-47.363,60.547,42.480,-38.086,58.594,0
1579270602.153,-67.383,62.988,49.316,-54.199,60.547,0
1579270602.157,-77.148,61.035,48.340,-69.824,37.109,0
1579270602.153,-82.031,57.617,43.457,-75.684,75.684,0
1579270602.157,-95.215,73.242,41.016,-89.844,55.664,0
1579270602.161,-112.793,83.496,37.598,-111.328,49.316,0
1579270602.165,-114.258,79.590,39.551,-120.117,54.688,0
1579270602.169,-124.023,82.031,38.574,-133.301,27.832,0
1579270602.173,-137.207,83.496,41.992,-139.160,69.336,0
1579270602.177,-140.625,82.031,46.387,-136.230,13.672,0
1579270602.180,-141.113,76.660,40.039,-135.742,-77.637,0
1579270602.184,-139.648,79.102,41.016,-138.184,0.488,0
1579270602.188,-148.926,83.496,41.992,-149.414,73.730,0
1579270602.192,-150.391,84.961,33.203,-149.902,38.086,0
1579270602.196,-139.648,89.844,31.738,-140.137,14.648,0
1579270602.213,-139.160,89.355,36.621,-139.160,42.480,0
1579270602.217,-139.648,88.379,41.504,-139.648,42.969,0
1579270602.221,-129.883,84.961,42.480,-128.906,49.805,0
1579270602.225,-127.441,81.543,41.992,-122.070,20.020,0
1579270602.229,-123.047,80.078,40.527,-120.117,-22.461,0
1579270602.233,-109.863,79.590,36.133,-111.328,-4.395,0
1579270602.237,-98.145,78.125,36.621,-104.004,80.078,0
1579270602.240,-94.238,70.801,41.016,-102.051,1.953,0
1579270602.244,-87.402,59.570,39.551,-85.938,-14.160,0
1579270602.248,-66.406,53.223,40.527,-65.430,18.555,0
1579270602.252,-51.758,48.340,35.156,-56.641,-26.855,0
1579270602.256,-35.645,44.922,28.320,-37.598,-39.551,0
1579270602.253,-13.672,38.086,23.926,-14.648,-13.184,0
1579270602.257,-2.441,31.250,22.461,-2.930,-18.555,0
1579270602.261,4.395,22.461,23.926,8.789,-17.090,0
1579270602.265,17.578,17.090,23.926,24.414,53.223,0
1579270602.269,33.203,15.625,20.996,39.551,35.645,0
1579270602.273,42.480,8.301,22.949,49.316,30.273,0
1579270602.277,52.246,3.906,22.949,56.641,14.648,0
1579270602.280,64.453,-1.465,18.066,64.941,5.371,0
1579270602.284,72.266,-5.859,14.160,73.242,17.578,0
1579270602.288,78.125,-5.371,16.113,83.496,5.859,0
1579270602.292,87.402,-8.789,21.973,89.844,-3.418,0
1579270602.296,91.797,-11.719,21.484,91.797,-9.766,0
1579270602.293,97.168,-12.695,19.531,102.051,47.363,0
1579270602.297,107.910,-16.602,23.438,116.699,42.969,0
1579270602.301,110.840,-15.625,21.973,116.211,28.809,0
1579270602.305,103.027,-8.789,14.160,108.398,45.898,0
1579270602.309,96.191,-5.859,2.930,108.398,97.656,0
1579270602.313,96.680,-3.418,5.859,112.793,59.570,0
1579270602.317,95.215,-2.930,13.672,108.398,11.719,0
1579270602.320,94.727,-6.348,15.625,103.516,44.922,0
1579270602.324,93.750,-9.766,18.555,104.004,28.320,0
1579270602.328,90.820,-8.789,19.043,106.934,42.969,0
1579270602.332,94.238,-6.836,18.555,110.352,89.844,0
1579270602.336,99.121,-4.395,19.531,109.863,72.266,0
1579270602.353,100.098,-3.906,22.949,110.840,64.453,0
1579270602.357,95.703,-5.371,25.879,107.910,-15.137,0
1579270602.361,89.844,-4.883,23.438,102.051,-9.766,0
1579270602.365,86.426,-7.812,21.484,97.656,71.289,0
1579270602.369,87.402,-11.230,21.973,99.121,59.082,0
1579270602.373,89.355,-8.789,22.949,104.492,112.793,0
1579270602.377,92.773,-3.418,26.367,104.004,81.055,0
1579270602.380,91.309,-3.906,26.367,100.586,18.066,0
1579270602.384,87.402,-6.348,23.438,98.145,-23.438,0
1579270602.388,88.867,-2.930,21.973,94.727,-2.441,0
1579270602.392,87.891,-1.465,19.043,95.703,48.340,0
1579270602.396,86.914,-0.488,22.949,94.727,17.090,0
1579270602.394,83.008,-0.488,24.414,86.426,-6.836,0
1579270602.398,78.613,0.000,21.973,85.449,22.461,0
1579270602.402,77.637,4.395,23.438,89.844,76.660,0
1579270602.406,73.242,3.418,24.414,86.914,65.430,0
1579270602.410,70.312,3.418,21.484,83.008,61.035,0
1579270602.414,66.895,5.859,18.066,81.055,29.785,0
1579270602.418,58.594,2.441,19.531,76.660,66.895,0
1579270602.421,55.664,0.977,22.461,71.289,84.961,0
1579270602.425,58.594,6.348,24.902,67.383,6.836,0
1579270602.429,59.082,8.789,27.344,67.383,-28.320,0
1579270602.433,54.688,8.301,26.367,66.406,-6.836,0
1579270602.437,47.363,4.883,18.066,59.082,54.688,0
1579270602.434,44.922,3.418,15.137,57.129,34.180,0
1579270602.438,41.504,2.441,16.602,56.641,-21.973,0
1579270602.442,41.992,1.953,17.578,56.641,-19.043,0
1579270602.446,42.480,3.418,15.625,55.664,11.719,0
1579270602.450,40.527,3.906,12.695,53.223,42.480,0
1579270602.454,40.527,1.953,12.207,55.664,25.391,0
1579270602.458,35.645,0.000,9.766,49.316,35.645,0
1579270602.461,37.598,4.883,11.230,47.852,20.508,0
1579270602.465,42.969,6.836,11.719,50.293,-4.883,0
1579270602.469,41.992,7.812,13.672,46.875,0.488,0
1579270602.473,38.574,8.789,17.090,44.922,-25.879,0
1579270602.477,38.086,8.789,19.043,45.898,28.320,0
1579270602.494,36.621,11.719,21.973,50.781,40.527,0
1579270602.498,38.086,14.648,25.879,48.340,18.555,0
1579270602.502,39.551,17.090,25.391,43.945,0.977,0
1579270602.506,38.574,18.555,25.391,47.852,-17.090,0
1579270602.510,40.527,20.508,28.809,51.758,-7.324,0
1579270602.514,38.574,19.043,26.367,49.805,34.180,0
1579270602.518,36.133,19.531,24.414,45.898,19.043,0
1579270602.521,33.203,19.043,24.414,41.992,-20.508,0
1579270602.525,30.273,17.090,26.855,43.945,35.156,0
1579270602.529,30.762,19.043,30.762,48.828,38.574,0
1579270602.533,29.785,17.090,32.227,49.805,4.395,0
1579270602.537,28.320,16.602,33.691,46.875,46.875,0
1579270602.533,32.227,18.066,32.715,43.945,28.320,0
1579270602.537,30.762,15.137,27.344,41.016,52.734,0
1579270602.541,24.414,16.113,25.391,36.133,47.852,0
1579270602.545,24.414,15.137,25.879,34.180,1.953,0
1579270602.549,25.879,13.672,27.832,36.133,-25.879,0
1579270602.553,21.484,12.207,28.809,34.668,13.672,0
1579270602.557,20.508,14.160,24.414,34.180,13.184,0
1579270602.560,21.484,16.602,19.531,34.180,-17.578,0
1579270602.564,20.020,12.695,16.602,28.809,20.996,0
1579270602.568,18.555,11.230,13.672,28.809,5.859,0
1579270602.572,18.555,10.742,8.789,20.020,20.508,0
1579270602.576,16.602,8.301,7.324,18.555,13.184,0
1579270602.573,13.184,7.812,1.465,23.926,46.875,0
1579270602.577,13.672,9.277,1.953,28.809,23.438,0
1579270602.581,14.160,10.254,11.230,30.273,1.953,0
1579270602.585,9.766,9.766,20.508,23.438,50.781,0
1579270602.589,6.836,12.207,28.320,23.926,34.668,0
1579270602.593,6.348,16.113,27.832,26.367,42.969,0
1579270602.597,0.977,12.695,30.273,20.508,-4.883,0
1579270602.600,-1.953,8.301,31.738,12.695,-5.859,0
1579270602.604,-1.465,12.207,33.691,5.371,58.594,0
1579270602.608,-3.418,12.207,32.227,2.441,66.406,0
1579270602.612,-0.977,12.207,29.785,9.277,73.730,0
1579270602.616,-0.977,12.207,24.414,10.254,75.684,0
1579270602.633,-0.977,10.742,18.555,10.254,112.793,0
1579270602.637,3.418,11.230,15.625,12.207,68.359,0
1579270602.641,3.418,11.230,10.742,11.719,25.879,0
1579270602.645,7.812,13.672,13.672,13.184,41.504,0
1579270602.649,11.230,15.625,22.461,16.602,17.090,0
1579270602.653,11.230,16.113,27.832,20.020,-45.898,0
1579270602.657,17.578,16.602,28.320,17.578,-25.879,0
1579270602.660,20.996,17.578,27.344,20.508,-26.855,0
1579270602.664,22.461,20.020,29.785,23.926,-35.645,0
1579270602.668,27.344,24.902,31.738,26.367,21.973,0
1579270602.672,25.879,25.391,27.832,31.738,67.871,0
1579270602.676,25.879,23.926,24.902,33.203,36.621,0
1579270602.673,30.762,27.344,27.344,32.715,44.922,0
1579270602.677,33.203,29.297,33.203,32.227,25.879,0
1579270602.681,29.785,28.320,33.203,33.691,-24.414,0
1579270602.685,24.414,26.855,30.762,34.668,-7.324,0
1579270602.689,27.344,27.832,35.156,39.062,-50.293,0
1579270602.693,29.297,27.344,36.133,38.086,1.953,0
1579270602.697,25.879,24.902,35.156,33.691,63.965,0
1579270602.700,23.926,23.926,33.203,31.250,56.641,0
1579270602.704,21.484,22.949,31.250,28.809,3.418,0
1579270602.708,18.555,26.367,34.180,24.414,-8.301,0
1579270602.712,16.602,29.297,35.645,18.555,8.789,0
1579270602.716,17.090,25.879,26.855,21.484,-11.230,0
1579270602.713,19.531,28.320,24.902,25.879,47.363,0
1579270602.717,17.578,28.809,32.227,23.926,62.012,0
1579270602.721,14.648,26.367,35.645,24.902,-26.367,0
1579270602.725,12.207,23.926,32.227,24.902,-7.812,0
1579270602.729,10.742,22.461,29.297,23.438,93.262,0
1579270602.733,14.160,21.973,29.297,23.438,68.359,0
1579270602.737,12.695,20.996,28.809,19.531,38.574,0
1579270602.740,13.184,22.949,31.250,21.484,45.898,0
1579270602.744,16.113,24.414,34.180,19.531,31.738,0
1579270602.748,17.578,22.461,31.250,21.484,47.363,0
1579270602.752,21.973,23.438,28.320,25.879,76.660,0
1579270602.756,28.320,25.879,29.297,28.809,75.684,0
1579270602.773,33.203,28.320,32.227,38.574,38.574,0
1579270602.777,31.250,30.273,34.180,35.645,7.812,0
1579270602.781,29.785,29.785,36.133,27.344,12.695,0
1579270602.785,31.738,30.762,38.086,28.809,28.320,0
1579270602.789,35.156,33.691,38.574,30.762,49.805,0
1579270602.793,39.551,36.621,43.457,33.691,67.383,0
1579270602.797,39.551,37.598,43.457,29.785,34.180,0
1579270602.800,34.180,36.621,38.574,28.809,43.945,0
1579270602.804,31.738,37.109,36.133,35.156,12.207,0
1579270602.808,30.762,36.133,34.668,36.621,41.016,0
1579270602.812,33.203,35.156,40.527,36.133,61.523,0
1579270602.816,32.227,36.133,45.410,33.691,43.457,0
1579270602.813,28.320,36.133,42.969,32.715,27.344,0
1579270602.817,32.227,37.109,42.480,39.551,13.672,0
1579270602.821,33.691,38.086,43.457,39.551,25.391,0
1579270602.825,29.785,38.574,42.480,39.551,1.465,0
1579270602.829,28.320,37.109,42.480,42.480,0.488,0
1579270602.833,27.832,35.156,40.039,41.016,8.301,0
1579270602.837,22.949,31.738,31.738,35.156,40.039,0
1579270602.840,19.531,30.762,29.297,32.227,45.898,0
1579270602.844,20.020,31.250,28.809,32.227,42.969,0
1579270602.848,20.508,32.715,29.297,28.320,55.176,0
1579270602.852,20.508,34.180,32.715,26.855,19.043,0
1579270602.856,19.531,31.250,31.738,25.391,5.371,0
1579270602.854,17.090,30.762,31.738,23.438,28.809,0
1579270602.858,20.996,28.809,30.273,25.391,32.715,0
1579270602.862,26.855,27.832,32.715,26.855,51.270,0
1579270602.866,23.926,32.227,34.180,25.391,16.602,0
1579270602.870,21.484,32.227,31.250,24.902,31.738,0
1579270602.874,22.461,31.250,31.250,28.320,41.992,0
1579270602.878,20.508,30.762,30.273,29.785,-12.207,0
1579270602.881,21.484,29.785,31.738,28.320,6.348,0
1579270602.885,20.020,30.762,32.715,25.391,39.062,0
1579270602.889,18.066,28.809,32.715,25.879,14.160,0
1579270602.893,20.020,28.809,32.227,31.250,-52.246,0
1579270602.897,19.531,27.832,29.297,30.762,-23.926,0
1579270602.913,22.949,29.297,34.180,27.832,9.766,0
1579270602.917,21.973,30.273,34.668,27.832,12.207,0
1579270602.921,18.066,26.855,29.297,29.785,0.488,0
1579270602.925,24.902,25.879,32.227,33.691,-2.441,0
1579270602.929,30.273,26.855,35.156,39.062,32.227,0
1579270602.933,28.320,27.344,35.156,38.086,66.406,0
1579270602.937,27.832,27.832,34.180,30.273,58.594,0
1579270602.940,27.344,24.414,29.297,28.809,-7.324,0
1579270602.944,25.391,23.438,28.809,32.227,-4.395,0
1579270602.948,23.438,23.926,32.715,28.809,45.410,0
1579270602.952,25.879,24.414,34.668,32.227,-16.113,0
1579270602.956,25.391,26.855,34.668,31.738,-3.418,0
1579270602.953,22.949,26.367,33.691,28.809,51.758,0
1579270602.957,21.973,26.367,33.203,27.832,-12.207,0
1579270602.961,17.578,23.926,29.297,24.902,-11.719,0
1579270602.965,21.484,23.438,30.762,29.785,-2.930,0
1579270602.969,24.902,27.832,32.715,32.715,45.898,0
1579270602.973,22.949,30.762,30.273,34.668,75.684,0
1579270602.977,21.484,29.297,28.320,35.645,56.641,0
1579270602.980,19.531,25.879,29.297,31.738,10.254,0
1579270602.984,18.066,22.949,28.320,24.902,-4.883,0
1579270602.988,13.184,20.508,28.809,18.555,54.688,0
1579270602.992,8.789,18.066,24.902,14.160,43.945,0
1579270602.996,10.254,17.090,20.508,16.113,27.832,0
1579270602.994,10.254,14.648,19.531,19.043,8.301,0
1579270602.998,11.230,15.137,18.555,22.949,67.871,0
1579270603.002,12.695,20.996,20.996,19.043,84.473,0
1579270603.006,12.695,20.508,18.066,12.695,57.617,0
1579270603.010,14.648,18.066,14.648,18.066,35.156,0
1579270603.014,14.160,19.531,14.160,19.531,21.973,0
1579270603.018,11.230,19.531,13.672,14.648,37.598,0
1579270603.021,10.742,20.996,13.672,15.137,-4.395,0
1579270603.025,8.789,19.531,9.277,9.277,2.930,0
1579270603.029,6.348,15.625,7.812,3.418,34.668,0
1579270603.033,5.859,16.113,11.719,5.371,5.371,0
1579270603.037,6.348,15.625,14.160,10.254,2.441,0
1579270603.053,6.348,15.137,16.602,12.695,15.137,0
1579270603.057,3.906,15.137,13.184,11.719,39.551,0
1579270603.061,4.395,15.137,11.230,14.160,34.668,0
1579270603.065,6.348,16.113,15.137,11.719,39.062,0
1579270603.069,0.977,16.113,17.090,8.301,63.477,0
1579270603.073,0.488,15.625,17.090,11.719,20.508,0
1579270603.077,-0.977,14.648,14.648,5.371,14.160,0
1579270603.080,-7.812,10.742,8.789,-1.465,10.254,0
1579270603.084,-7.324,7.812,2.930,1.953,62.500,0
1579270603.088,-3.906,9.277,2.930,3.906,35.156,0
1579270603.092,-3.906,10.254,6.348,5.859,-22.949,0
1579270603.096,-3.906,9.277,5.371,3.906,8.301,0
1579270603.093,-3.906,9.766,6.348,2.441,2.930,0
1579270603.097,-5.371,12.207,8.789,3.906,-18.555,0
1579270603.101,0.488,15.137,11.719,5.859,8.301,0
1579270603.105,9.277,21.973,15.625,11.719,67.871,0
1579270603.109,9.766,26.367,16.113,16.113,77.637,0
1579270603.113,9.766,27.344,19.531,19.043,8.789,0
1579270603.117,12.207,28.320,23.926,22.461,-11.719,0
1579270603.120,17.578,32.227,26.367,24.902,17.090,0
1579270603.124,21.973,36.621,30.762,27.344,28.809,0
1579270603.128,26.855,42.480,35.156,26.367,-9.766,0
1579270603.132,24.414,43.945,33.691,24.414,19.043,0
1579270603.136,24.414,43.457,34.180,28.320,19.043,0
1579270603.133,30.762,45.898,35.645,31.250,-39.062,0
1579270603.137,28.320,45.898,35.645,34.668,13.184,0
1579270603.141,23.438,43.945,32.715,35.156,34.668,0
1579270603.145,26.855,46.875,32.227,37.109,40.527,0
1579270603.149,31.250,48.828,37.109,40.039,51.270,0
1579270603.153,30.762,49.316,38.574,41.992,33.691,0
1579270603.157,29.297,49.805,36.133,41.992,19.043,0
1579270603.160,27.344,49.805,36.621,35.645,36.133,0
1579270603.164,29.785,50.781,38.086,30.273,68.359,0
1579270603.168,25.879,48.340,33.691,30.273,72.754,0
1579270603.172,22.461,46.875,30.273,32.715,5.859,0
1579270603.176,27.344,50.293,33.691,36.621,-38.086,0
1579270603.194,32.227,54.688,41.016,41.016,-4.883,0
1579270603.198,36.133,56.152,42.969,44.434,9.277,0
1579270603.202,35.156,55.176,41.504,45.410,74.707,0
1579270603.206,39.062,56.641,44.434,47.363,76.172,0
1579270603.210,41.992,53.711,48.828,50.293,50.781,0
1579270603.214,45.410,55.664,53.711,53.711,38.574,0
1579270603.218,47.852,59.570,52.246,48.828,28.320,0
1579270603.221,42.969,56.641,46.875,48.828,-18.555,0
1579270603.225,41.504,54.199,46.875,50.781,-6.836,0
1579270603.229,41.016,53.223,48.340,46.875,14.160,0
1579270603.233,41.992,53.223,48.340,50.781,27.832,0
1579270603.237,43.945,50.293,47.363,53.223,46.387,0
1579270603.234,44.922,47.363,44.434,48.828,-3.906,0
1579270603.238,42.969,48.340,43.945,46.875,11.230,0
1579270603.242,37.109,45.898,41.504,42.480,47.363,0
1579270603.246,35.156,44.434,41.992,43.457,4.395,0
1579270603.250,37.598,43.945,42.969,47.363,-43.945,0
1579270603.254,34.668,42.969,42.480,41.504,38.086,0
1579270603.258,31.738,44.434,42.969,38.086,87.402,0
1579270603.261,31.250,42.480,37.109,42.969,63.965,0
1579270603.265,32.227,41.504,35.645,47.852,49.316,0
1579270603.269,31.738,42.969,42.969,42.480,24.414,0
1579270603.273,29.297,41.992,45.410,37.109,27.832,0
1579270603.277,30.273,40.527,45.898,41.504,27.344,0
1579270603.275,28.809,36.621,48.828,42.969,-46.387,0
1579270603.279,30.762,39.062,46.387,40.527,-14.648,0
1579270603.283,31.738,39.062,41.504,38.574,23.438,0
1579270603.287,28.320,36.133,41.016,36.621,-27.832,0
1579270603.291,31.250,36.621,41.016,40.527,33.203,0
1579270603.295,33.691,39.551,38.574,42.969,65.430,0
1579270603.299,31.738,36.621,39.062,41.016,25.879,0
1579270603.302,31.250,34.668,41.504,37.598,-15.137,0
1579270603.306,28.809,36.621,39.062,35.645,8.789,0
1579270603.310,30.762,36.621,40.039,39.062,52.734,0
1579270603.314,32.227,40.039,42.480,38.086,48.340,0
1579270603.318,30.273,39.062,41.992,32.715,55.176,0
1579270603.333,32.227,38.086,44.434,34.668,74.219,0
1579270603.337,32.715,38.086,44.434,33.691,77.148,0
1579270603.341,33.203,35.645,42.969,33.203,44.434,0
1579270603.345,35.156,37.109,45.898,39.062,-14.648,0
1579270603.349,33.203,37.598,45.410,39.062,11.230,0
1579270603.353,35.645,37.109,44.434,37.109,59.570,0
1579270603.357,36.133,36.621,45.898,34.668,35.645,0
1579270603.360,35.156,33.691,45.898,35.645,7.324,0
1579270603.364,37.109,34.180,47.852,41.016,24.902,0
1579270603.368,35.645,34.180,46.387,40.527,7.324,0
1579270603.372,35.156,34.180,43.945,37.109,-7.812,0
1579270603.376,33.691,34.180,46.875,37.109,76.660,0
1579270603.373,32.227,35.156,51.270,38.574,89.844,0
1579270603.377,28.320,36.621,51.758,35.645,67.871,0
1579270603.381,31.250,34.668,53.711,36.621,77.148,0
1579270603.385,32.715,35.645,57.129,38.086,6.348,0
1579270603.389,24.902,37.109,54.199,33.203,25.391,0
1579270603.393,29.297,37.109,51.270,38.086,48.828,0
1579270603.397,32.715,38.574,51.270,44.922,54.688,0
1579270603.400,30.273,41.992,49.805,41.504,70.801,0
1579270603.404,32.227,42.480,50.293,42.480,26.855,0
1579270603.408,30.273,37.598,48.340,41.504,7.324,0
1579270603.412,26.855,32.715,41.016,38.086,33.691,0
1579270603.416,29.785,34.668,41.504,38.574,48.340,0
1579270603.413,30.273,36.621,41.016,38.574,0.000,0
1579270603.417,31.738,40.039,40.527,41.016,-23.926,0
1579270603.421,34.180,41.504,42.969,38.086,7.812,0
1579270603.425,31.738,37.598,41.016,39.062,41.504,0
1579270603.429,28.809,38.574,39.551,40.527,31.738,0
1579270603.433,25.879,37.598,38.574,35.156,60.059,0
1579270603.437,30.273,37.109,33.691,40.039,38.086,0
1579270603.440,32.715,39.062,32.227,35.645,-19.043,0
1579270603.444,26.855,37.109,33.691,28.809,46.387,0
1579270603.448,24.414,34.668,32.227,35.156,33.691,0
1579270603.452,20.996,33.203,28.320,33.691,46.387,0
1579270603.456,19.531,31.738,22.949,32.227,50.293,0
1579270603.473,20.996,31.250,23.926,32.715,41.504,0
1579270603.477,18.555,29.785,25.391,29.297,46.875,0
1579270603.481,20.020,33.203,29.297,33.203,6.348,0
1579270603.485,18.066,33.203,27.344,34.668,0.977,0
1579270603.489,10.254,26.855,19.531,25.879,21.484,0
1579270603.493,12.695,25.879,22.949,25.391,49.316,0
1579270603.497,17.090,26.367,25.391,30.273,13.672,0
1579270603.500,13.184,26.367,21.484,31.250,-1.953,0
1579270603.504,11.230,27.832,20.508,31.250,-2.441,0
1579270603.508,12.207,28.809,21.484,31.738,-2.930,0
1579270603.512,16.602,30.273,21.484,28.320,1.465,0
1579270603.516,17.578,28.320,19.531,23.438,-11.719,0
1579270603.513,15.137,26.855,16.113,21.484,-28.809,0
1579270603.517,19.043,26.855,20.020,22.949,-21.973,0
1579270603.521,19.043,26.367,25.391,24.902,16.113,0
1579270603.525,17.578,32.715,28.320,25.391,31.250,0
1579270603.529,16.113,33.203,23.926,23.926,-3.418,0
1579270603.533,15.137,33.203,19.531,27.832,-0.488,0
1579270603.537,15.625,36.133,18.555,29.785,44.434,0
1579270603.540,16.113,34.180,19.043,28.809,33.203,0
1579270603.544,19.531,40.039,25.879,28.809,51.270,0
1579270603.548,20.996,41.016,26.855,25.391,56.641,0
1579270603.552,14.160,37.109,21.973,21.484,14.648,0
1579270603.556,17.578,40.039,22.461,27.344,3.906,0
1579270603.573,24.414,41.504,20.996,30.762,47.852,0
1579270603.577,22.461,39.062,15.625,28.320,46.387,0
1579270603.581,20.020,37.109,16.113,28.809,27.832,0
1579270603.585,20.996,39.062,21.484,30.273,67.383,0
1579270603.589,25.879,40.527,25.879,34.668,56.152,0
1579270603.593,28.320,41.016,26.367,36.133,25.879,0
1579270603.597,30.273,41.504,27.344,37.109,-1.465,0
1579270603.600,31.250,42.480,27.832,35.156,-3.418,0
1579270603.604,24.902,40.039,24.414,26.855,12.695,0
1579270603.608,22.461,38.086,24.414,23.438,53.711,0
1579270603.612,19.531,37.598,21.973,25.879,110.352,0
1579270603.616,13.672,34.668,17.578,21.973,101.074,0
1579270603.614,6.836,29.785,13.672,14.160,36.133,0
1579270603.618,-1.465,23.438,7.324,8.301,-39.551,0
1579270603.622,-7.812,18.066,2.930,4.883,-51.758,0
1579270603.626,-12.695,16.113,-2.441,2.441,-24.414,0
1579270603.630,-3.418,21.973,-3.906,9.277,29.785,0
1579270603.634,8.789,31.738,4.395,20.020,79.102,0
1579270603.638,10.742,32.715,10.254,20.020,29.785,0
1579270603.641,15.137,34.668,10.742,23.926,-7.812,0
1579270603.645,18.066,40.527,18.066,27.344,40.527,0
1579270603.649,20.996,40.039,25.391,31.250,59.082,0
1579270603.653,25.879,45.898,31.250,32.227,49.316,0
1579270603.657,26.855,49.316,34.180,26.855,16.113,0
1579270603.653,26.855,48.828,31.738,29.297,-29.297,0
1579270603.657,25.879,51.758,30.762,34.668,-26.855,0
1579270603.661,29.297,56.641,36.133,40.039,1.953,0
1579270603.665,30.273,60.547,36.621,39.062,32.715,0
1579270603.669,24.902,61.523,32.715,35.645,64.453,0
1579270603.673,26.367,67.871,33.691,38.086,26.367,0
1579270603.677,26.855,70.801,31.250,38.086,-5.371,0
1579270603.680,23.438,67.871,32.227,35.156,28.320,0
1579270603.684,24.902,70.312,36.133,35.156,22.461,0
1579270603.688,29.785,71.777,35.645,32.227,23.926,0
1579270603.692,32.715,73.242,35.156,34.668,41.992,0
1579270603.696,34.668,79.102,35.645,40.527,22.461,0
1579270603.714,34.668,78.125,35.156,41.016,44.434,0
1579270603.718,34.668,79.590,34.180,39.062,65.918,0
1579270603.722,34.668,81.543,33.203,35.645,54.688,0
1579270603.726,32.227,83.984,32.715,38.574,37.598,0
1579270603.730,34.668,83.008,34.180,39.551,51.758,0
1579270603.734,37.598,79.590,36.133,38.574,98.633,0
1579270603.738,48.340,81.055,37.109,39.062,60.059,0
1579270603.741,49.316,82.031,37.109,40.039,2.930,0
1579270603.745,40.039,81.055,35.156,40.527,-4.883,0
1579270603.749,37.598,78.613,35.645,41.504,-2.930,0
1579270603.753,29.785,74.707,34.668,38.086,21.973,0
1579270603.757,29.297,75.684,37.598,38.086,40.039,0
1579270603.754,34.668,76.660,36.621,39.062,58.105,0
1579270603.758,35.645,71.777,31.250,36.621,27.344,0
1579270603.762,27.832,62.988,30.762,33.691,-10.254,0
1579270603.766,19.531,52.246,29.297,33.203,0.977,0
1579270603.770,17.578,44.922,25.391,34.668,4.883,0
1579270603.774,23.438,40.039,28.320,35.645,45.898,0
1579270603.778,27.832,36.133,31.250,36.133,68.848,0
1579270603.781,26.855,34.668,33.691,33.691,-19.043,0
1579270603.785,26.855,29.297,34.668,34.180,-21.484,0
1579270603.789,25.879,25.879,32.715,38.086,22.461,0
1579270603.793,22.949,27.344,31.738,31.250,-27.344,0
1579270603.797,18.066,24.414,28.809,23.438,30.273,0
1579270603.793,20.996,21.484,23.926,28.809,46.387,0
1579270603.797,25.391,23.438,24.414,27.832,-7.324,0
1579270603.801,25.879,24.414,24.414,28.320,20.996,0
1579270603.805,31.738,24.902,24.902,29.297,23.438,0
1579270603.809,30.762,24.902,28.320,22.949,-10.742,0
1579270603.813,26.855,23.926,31.250,28.320,17.578,0
1579270603.817,26.855,23.438,31.738,35.156,11.230,0
1579270603.820,23.438,26.855,30.273,33.203,-8.301,0
1579270603.824,24.902,29.785,34.668,31.250,60.059,0
1579270603.828,25.391,26.855,36.133,26.855,31.250,0
1579270603.832,26.855,25.879,31.738,32.227,39.551,0
1579270603.836,27.344,27.832,31.738,36.133,53.223,0
1579270603.853,23.438,27.344,29.297,28.809,-30.762,0
1579270603.857,24.414,28.809,28.809,28.320,-41.504,0
1579270603.861,26.367,27.832,28.809,29.785,6.348,0
1579270603.865,22.461,27.344,27.344,26.855,17.578,0
1579270603.869,23.438,27.832,27.832,26.855,14.648,0
1579270603.873,24.902,26.855,29.785,32.715,11.230,0
1579270603.877,20.996,29.785,32.715,33.203,54.199,0
1579270603.880,19.531,33.203,32.715,26.855,78.613,0
1579270603.884,21.973,33.203,31.738,27.344,68.848,0
1579270603.888,21.973,30.762,34.180,31.738,56.641,0
1579270603.892,20.020,30.273,32.227,32.715,3.906,0
1579270603.896,20.020,33.203,29.297,30.762,-8.301,0
1579270603.894,20.020,32.715,30.273,29.785,-1.465,0
1579270603.898,20.020,34.180,31.738,26.367,16.602,0
1579270603.902,18.066,33.691,33.203,23.438,0.488,0
1579270603.906,18.555,30.762,33.691,24.414,-15.625,0
1579270603.910,20.020,32.227,31.250,25.879,16.113,0
1579270603.914,16.602,32.715,28.320,27.344,72.266,0
1579270603.918,18.066,31.250,27.832,27.832,70.312,0
1579270603.921,20.508,32.227,30.273,29.297,13.184,0
1579270603.925,24.902,32.227,32.227,34.668,38.086,0
1579270603.929,28.809,32.715,27.344,37.109,24.414,0
1579270603.933,25.879,32.227,22.949,25.879,12.695,0
1579270603.937,19.043,28.809,20.020,14.648,28.809,0
1579270603.934,20.508,29.785,20.020,20.020,4.395,0
1579270603.938,22.949,30.273,22.949,23.438,15.625,0
1579270603.942,25.879,33.691,24.902,26.855,61.523,0
1579270603.946,29.785,38.574,28.809,27.832,62.012,0
1579270603.950,28.320,36.621,27.344,27.832,11.719,0
1579270603.954,29.297,35.645,24.902,19.043,34.668,0
1579270603.958,29.297,36.133,26.367,18.555,21.484,0
1579270603.961,28.809,38.574,24.414,33.691,0.488,0
1579270603.965,26.855,38.574,22.949,27.832,50.293,0
1579270603.969,24.414,34.180,23.438,22.949,38.574,0
1579270603.973,29.297,35.645,26.367,31.738,15.625,0
1579270603.977,29.297,37.109,27.832,35.645,31.250,0
1579270603.994,24.414,35.645,27.344,33.203,29.297,0
1579270603.998,29.297,39.062,28.320,32.227,10.254,0
1579270604.002,33.203,39.551,27.832,33.691,72.266,0
1579270604.006,35.156,36.621,29.785,39.551,76.172,0
1579270604.010,39.551,37.598,33.691,40.527,19.043,0
1579270604.014,38.086,39.062,33.691,40.527,27.344,0
1579270604.018,35.645,39.062,33.691,38.574,12.695,0
1579270604.021,34.668,37.598,32.715,34.180,18.066,0
1579270604.025,30.762,32.227,27.344,36.621,10.742,0
1579270604.029,27.832,30.273,25.879,39.062,17.090,0
1579270604.033,29.297,33.203,26.367,40.527,20.508,0
1579270604.037,32.715,35.156,27.344,40.527,23.926,0
1579270604.034,30.273,36.133,24.902,37.598,70.801,0
1579270604.038,29.297,34.180,25.391,37.598,103.027,0
1579270604.042,32.227,34.668,28.809,38.574,53.711,0
1579270604.046,34.180,35.645,29.785,40.527,-12.207,0
1579270604.050,32.715,37.109,31.250,42.480,-11.230,0
1579270604.054,30.273,39.551,31.738,45.898,28.809,0
1579270604.058,28.320,37.598,33.203,45.898,58.594,0
1579270604.061,31.250,38.086,39.062,45.898,15.137,0
1579270604.065,33.203,36.621,35.645,44.922,-7.812,0
1579270604.069,33.203,35.645,29.785,41.016,45.410,0
1579270604.073,40.039,39.551,32.227,42.969,33.691,0
1579270604.077,37.109,35.645,29.785,42.969,25.879,0
1579270604.074,29.297,33.203,25.879,32.227,15.625,0
1579270604.078,29.297,34.668,24.414,28.320,-17.090,0
1579270604.082,36.133,34.668,26.367,44.434,42.969,0
1579270604.086,36.621,33.691,24.902,41.504,69.336,0
1579270604.090,32.715,33.203,23.926,38.574,50.293,0
1579270604.094,35.645,37.598,26.367,46.387,44.434,0
1579270604.098,35.645,37.598,23.926,44.922,3.906,0
1579270604.101,31.250,34.180,23.926,41.504,-6.348,0
1579270604.105,33.691,35.645,28.809,37.598,0.488,0
1579270604.109,42.969,34.180,28.809,43.457,-23.438,0
1579270604.113,41.504,34.180,27.344,51.270,8.301,0
1579270604.117,25.391,35.156,26.855,32.715,36.621,0
1579270604.134,16.602,36.133,25.391,20.996,27.344,0
1579270604.138,20.020,38.574,30.273,26.855,36.621,0
1579270604.142,20.508,41.016,27.344,16.113,19.531,0
1579270604.146,16.113,42.480,18.555,10.254,9.277,0
1579270604.150,18.066,42.969,17.090,16.113,83.984,0
1579270604.154,21.973,46.387,17.578,12.207,76.172,0
1579270604.158,24.902,48.828,16.602,19.043,23.926,0
1579270604.161,22.949,46.387,12.695,20.996,12.207,0
1579270604.165,21.484,45.410,11.719,18.555,31.250,0
1579270604.169,24.414,42.480,14.648,24.414,24.902,0
1579270604.173,26.367,38.574,12.695,25.391,58.594,0
1579270604.177,29.785,43.945,14.648,25.391,73.730,0
1579270604.174,32.715,43.945,21.973,28.809,13.672,0
1579270604.178,35.156,41.016,25.391,31.738,-34.180,0
1579270604.182,34.668,43.945,24.902,30.762,-3.418,0
1579270604.186,32.227,44.922,25.879,32.715,50.781,0
1579270604.190,33.691,42.969,28.320,35.645,23.926,0
1579270604.194,36.621,42.969,27.344,39.062,-20.996,0
1579270604.198,37.598,42.480,28.320,41.992,20.508,0
1579270604.201,34.668,40.527,30.762,42.969,32.715,0
1579270604.205,36.621,38.574,31.250,39.062,18.066,0
1579270604.209,41.992,41.016,34.180,32.715,50.781,0
1579270604.213,39.551,41.016,38.086,38.086,36.133,0
1579270604.217,34.668,38.086,36.133,42.969,-26.367,0
1579270604.214,36.133,40.039,34.180,42.480,8.301,0
1579270604.218,38.574,41.016,35.645,43.457,17.578,0
1579270604.222,41.016,41.992,37.598,31.738,42.969,0
1579270604.226,38.574,40.527,35.645,29.297,61.035,0
1579270604.230,34.668,38.086,34.180,42.480,53.223,0
1579270604.234,40.039,41.992,40.527,46.875,43.945,0
1579270604.238,39.062,41.504,41.504,47.363,-2.441,0
1579270604.241,34.668,39.551,39.551,48.340,43.945,0
1579270604.245,33.691,42.480,43.945,41.992,37.598,0
1579270604.249,29.785,40.527,41.992,35.645,28.320,0
1579270604.253,28.320,37.598,39.551,41.504,-12.207,0
1579270604.257,29.785,42.969,41.016,41.504,-7.324,0
1579270604.274,30.762,47.852,38.574,40.039,82.031,0
1579270604.278,30.273,48.828,38.574,40.039,50.293,0
1579270604.282,30.762,47.363,34.668,35.645,83.984,0
1579270604.286,34.668,44.434,30.762,32.715,72.266,0
1579270604.290,31.250,42.969,32.227,33.691,53.223,0
1579270604.294,28.809,45.410,33.691,32.715,33.203,0
1579270604.298,29.785,46.875,35.645,24.902,52.734,0
1579270604.301,26.367,44.434,32.227,19.043,24.902,0
1579270604.305,21.973,42.969,26.855,22.949,-3.906,0
1579270604.309,21.484,44.434,31.250,25.879,32.715,0
1579270604.313,24.414,43.457,36.621,30.762,0.000,0
1579270604.317,21.484,40.039,34.668,26.855,57.129,0
1579270604.314,22.949,39.062,32.715,26.367,69.824,0
1579270604.318,23.438,39.062,36.133,32.715,9.766,0
1579270604.322,20.020,40.039,32.227,28.809,52.734,0
1579270604.326,20.508,41.992,28.809,24.414,61.523,0
1579270604.330,20.020,43.457,29.297,26.855,64.453,0
1579270604.334,20.020,42.480,26.855,33.691,34.180,0
1579270604.338,21.484,38.086,27.344,29.785,21.973,0
1579270604.341,19.043,35.156,27.344,12.695,58.594,0
1579270604.345,21.973,35.645,23.926,28.320,28.320,0
1579270604.349,34.668,39.062,23.438,46.875,21.484,0
1579270604.353,41.992,41.016,26.855,41.504,40.039,0
1579270604.357,31.738,40.527,27.344,30.273,45.898,0
1579270604.354,24.414,40.039,30.762,26.367,-14.160,0
1579270604.358,31.738,41.016,30.762,38.086,-7.324,0
1579270604.362,29.785,41.016,36.621,36.621,29.297,0
1579270604.366,13.184,35.645,45.898,24.414,57.617,0
1579270604.370,12.695,31.250,46.875,27.344,49.805,0
1579270604.374,18.555,27.344,49.316,35.156,12.207,0
1579270604.378,9.766,20.996,53.711,31.250,0.977,0
1579270604.381,4.883,18.066,61.035,26.855,-19.043,0
1579270604.385,4.883,16.602,65.430,21.973,21.484,0
1579270604.389,-2.930,8.789,62.012,19.531,43.945,0
1579270604.393,-1.953,4.395,60.059,24.902,42.969,0
1579270604.397,6.348,10.742,57.617,33.203,8.301,0
1579270604.414,9.277,16.113,55.664,36.133,-6.836,0
1579270604.418,11.230,15.625,54.688,37.109,13.672,0
1579270604.422,16.113,15.625,52.246,38.574,-20.996,0
1579270604.426,18.066,17.090,52.246,38.574,16.602,0
1579270604.430,18.555,18.066,52.734,32.227,19.043,0
1579270604.434,19.531,18.555,52.734,30.762,-19.531,0
1579270604.438,20.508,20.020,52.734,39.551,35.156,0
1579270604.441,18.066,19.531,47.363,41.504,31.738,0
1579270604.445,21.973,18.555,47.852,44.434,30.273,0
1579270604.449,30.273,23.926,51.270,49.805,26.855,0
1579270604.453,31.250,26.855,45.898,50.293,-12.207,0
1579270604.457,35.156,26.855,43.945,51.758,-16.113,0
1579270604.454,40.039,27.344,45.410,55.176,8.301,0
1579270604.458,33.691,27.344,42.480,47.852,59.082,0
1579270604.462,33.691,29.297,41.504,42.969,17.578,0
1579270604.466,37.109,30.762,40.039,43.457,-6.348,0
1579270604.470,33.691,33.691,41.016,41.016,6.348,0
1579270604.474,36.621,36.133,44.434,48.828,2.441,0
1579270604.478,40.039,36.621,41.016,42.969,14.160,0
1579270604.481,37.598,38.086,39.062,41.016,4.395,0
1579270604.485,35.156,38.086,41.016,56.152,30.273,0
1579270604.489,39.062,41.016,41.992,50.781,40.527,0
1579270604.493,41.992,42.969,39.062,45.898,23.438,0
1579270604.497,39.062,38.574,37.109,43.457,29.785,0
1579270604.494,41.016,40.039,39.062,45.410,22.461,0
1579270604.498,43.457,40.527,36.621,50.781,69.824,0
1579270604.502,41.504,38.574,36.133,47.363,53.223,0
1579270604.506,38.574,39.062,39.062,53.223,-7.812,0
1579270604.510,39.551,37.598,39.062,59.082,26.367,0
1579270604.514,41.504,37.598,37.598,44.434,31.738,0
1579270604.518,39.551,37.598,38.086,31.250,1.953,0
1579270604.521,40.039,38.086,39.062,52.246,15.137,0
1579270604.525,37.109,42.969,40.527,50.781,20.020,0
1579270604.529,35.645,43.457,39.551,46.875,12.207,0
1579270604.533,35.156,40.527,41.504,50.781,-11.719,0
1579270604.537,26.367,37.598,38.574,34.180,10.742,0
1579270604.554,24.902,39.062,38.086,35.645,20.996,0
1579270604.558,27.344,39.062,38.086,42.480,-17.090,0
1579270604.562,28.809,39.062,35.156,39.062,-22.949,0
1579270604.566,31.250,40.527,34.180,35.645,12.207,0
1579270604.570,29.785,40.527,35.645,40.039,-3.906,0
1579270604.574,29.297,40.527,40.527,43.457,-44.922,0
1579270604.578,31.738,39.551,38.574,30.273,-62.988,0
1579270604.581,32.227,39.062,33.691,27.344,-19.043,0
1579270604.585,31.738,42.480,40.039,34.668,52.246,0
1579270604.589,33.203,42.480,39.062,39.551,7.812,0
1579270604.593,33.691,41.504,36.621,44.922,31.738,0
1579270604.597,33.691,42.480,37.598,36.133,76.172,0
1579270604.594,34.180,41.504,34.668,35.645,21.973,0
1579270604.598,30.762,39.551,38.086,36.621,28.809,0
1579270604.602,30.273,39.551,39.062,31.738,83.008,0
1579270604.606,35.156,42.480,41.992,38.574,75.684,0
1579270604.610,36.621,40.527,47.363,41.992,62.500,0
1579270604.614,38.086,37.598,45.898,37.598,61.523,0
1579270604.618,38.574,41.016,43.457,47.363,91.797,0
1579270604.621,37.598,40.039,41.992,41.504,43.945,0
1579270604.625,36.621,38.086,39.551,46.387,-31.738,0
1579270604.629,38.086,42.480,40.527,40.527,-4.395,0
1579270604.633,38.086,44.434,40.527,31.738,-22.949,0
1579270604.637,39.062,42.969,39.551,54.688,-31.738,0
1579270604.634,40.039,42.969,37.109,46.875,16.602,0
1579270604.638,45.898,41.016,34.668,50.781,-26.855,0
1579270604.642,54.199,42.480,35.156,68.359,-12.207,0
1579270604.646,45.898,49.316,32.715,51.270,51.270,0
1579270604.650,35.645,51.758,33.691,33.203,51.758,0
1579270604.654,36.133,53.223,32.715,28.809,73.730,0
1579270604.658,41.016,53.711,26.367,29.785,27.344,0
1579270604.661,36.133,56.641,27.832,31.250,38.086,0
1579270604.665,28.320,57.129,26.367,12.695,80.078,0
1579270604.669,30.273,55.176,18.066,-2.930,39.062,0
1579270604.673,26.367,55.176,17.578,19.531,20.508,0
1579270604.677,28.320,54.199,23.926,35.645,21.973,0
1579270604.694,37.109,54.199,27.344,20.020,28.320,0
1579270604.698,36.621,52.734,29.297,28.320,35.645,0
1579270604.702,38.086,49.805,32.715,41.016,14.648,0
1579270604.706,36.133,48.340,32.227,37.598,11.719,0
1579270604.710,31.738,45.410,31.250,36.133,57.617,0
1579270604.714,34.668,43.945,35.156,33.203,41.016,0
1579270604.718,30.762,41.504,34.668,26.855,37.109,0
1579270604.721,25.879,38.574,29.297,30.762,60.547,0
1579270604.725,26.367,40.039,29.297,35.645,55.664,0
1579270604.729,24.902,39.062,30.273,32.227,43.457,0
1579270604.733,24.902,38.086,30.762,32.227,28.809,0
1579270604.737,25.879,37.598,29.785,32.715,39.551,0
1579270604.734,23.438,34.668,28.809,29.297,29.297,0
1579270604.738,26.855,35.645,26.855,29.297,75.195,0
1579270604.742,25.879,35.645,26.855,21.484,125.977,0
1579270604.746,26.367,34.668,30.273,29.785,60.547,0
1579270604.750,27.344,33.691,26.855,40.527,39.551,0
1579270604.754,24.414,30.273,24.414,35.156,23.438,0
1579270604.758,28.809,31.738,25.391,32.715,-17.578,0
1579270604.761,27.832,33.203,23.438,29.297,4.883,0
1579270604.765,26.855,32.715,24.414,34.668,35.156,0
1579270604.769,31.738,34.668,26.855,32.227,26.367,0
1579270604.773,27.344,31.738,23.926,26.855,27.832,0
1579270604.777,26.367,31.250,20.508,31.738,57.129,0
1579270604.774,24.414,28.320,20.508,30.273,38.086,0
1579270604.778,21.973,24.414,18.555,28.320,16.113,0
1579270604.782,22.461,28.809,17.090,32.227,-25.391,0
1579270604.786,21.973,31.738,17.090,33.203,-2.441,0
1579270604.790,25.391,32.227,16.113,35.156,30.273,0
1579270604.794,22.949,33.203,15.625,32.715,7.324,0
1579270604.798,25.391,32.715,21.484,33.691,21.973,0
1579270604.801,31.250,31.738,26.367,23.438,-2.930,0
1579270604.805,33.203,31.250,19.531,21.484,14.648,0
1579270604.809,36.621,34.180,20.020,35.156,29.785,0
1579270604.813,34.668,33.203,22.949,34.668,11.230,0
1579270604.817,34.180,28.809,20.508,33.691,28.809,0
1579270604.834,41.992,28.809,20.508,29.785,-11.719,0
1579270604.838,42.969,29.297,15.625,34.668,-39.062,0
1579270604.842,29.297,32.715,12.207,31.250,-13.184,0
1579270604.846,20.020,35.645,13.672,15.137,-15.625,0
1579270604.850,24.414,38.086,13.672,21.484,19.043,0
1579270604.854,24.414,43.457,16.602,22.461,15.137,0
1579270604.858,16.113,42.480,18.555,5.859,-29.785,0
1579270604.861,12.207,39.551,14.648,6.348,-31.250,0
1579270604.865,8.789,40.527,13.184,11.230,51.270,0
1579270604.869,9.766,42.480,12.695,9.766,50.781,0
1579270604.873,19.043,45.898,20.020,15.625,26.367,0
1579270604.877,21.484,47.852,22.949,20.020,47.852,0
1579270604.874,24.414,45.410,20.020,21.973,24.902,0
1579270604.878,29.297,42.969,22.461,28.320,20.508,0
1579270604.882,29.297,42.969,23.926,29.297,39.551,0
1579270604.886,25.879,43.457,24.902,26.367,0.488,0
1579270604.890,25.391,42.480,25.879,31.250,-14.648,0
1579270604.894,29.785,42.969,23.926,26.855,5.371,0
1579270604.898,32.227,42.480,20.508,23.438,11.230,0
1579270604.901,33.203,38.086,19.043,37.109,30.762,0
1579270604.905,34.180,36.621,18.555,35.645,17.090,0
1579270604.909,31.250,37.598,17.090,30.273,9.766,0
1579270604.913,31.738,38.086,20.020,32.227,21.973,0
1579270604.917,35.156,38.086,24.902,35.645,31.738,0
1579270604.914,33.691,39.062,26.367,34.668,90.820,0
1579270604.918,34.668,42.480,26.855,36.621,60.547,0
1579270604.922,37.109,44.434,25.879,36.133,40.039,0
1579270604.926,37.598,43.945,25.391,36.133,64.453,0
1579270604.930,36.621,43.457,23.926,36.621,65.430,0
1579270604.934,34.180,41.504,23.926,32.715,29.785,0
1579270604.938,35.156,45.898,23.438,33.691,-18.555,0
1579270604.941,35.156,47.852,20.508,31.738,-25.391,0
1579270604.945,32.227,43.457,19.043,28.809,-8.789,0
1579270604.949,33.691,41.504,22.461,32.715,-11.719,0
1579270604.953,37.598,45.898,30.273,36.621,31.250,0
1579270604.957,38.086,49.316,33.203,41.992,46.387,0
1579270604.974,37.598,49.316,31.250,39.062,0.000,0
1579270604.978,36.621,48.828,30.762,36.621,-7.812,0
1579270604.982,38.574,48.340,30.762,46.387,24.414,0
1579270604.986,41.016,49.805,31.250,47.852,72.754,0
1579270604.990,40.527,48.340,32.227,45.410,82.031,0
1579270604.994,43.457,48.828,31.738,46.387,49.316,0
1579270604.998,43.457,47.363,28.320,45.410,-3.906,0
1579270605.001,41.992,43.457,25.391,44.434,50.293,0
1579270605.005,42.969,47.363,28.320,48.340,58.594,0
1579270605.009,41.016,51.270,30.762,46.875,-25.391,0
1579270605.013,38.574,51.270,33.691,43.945,-7.812,0
1579270605.017,31.738,48.340,30.762,43.457,-4.395,0
1579270605.014,31.250,47.852,25.391,42.969,33.691,0
1579270605.018,34.668,47.363,27.344,39.551,76.172,0
1579270605.022,37.109,40.527,28.320,43.945,79.590,0
1579270605.026,48.828,43.457,28.320,56.152,41.016,0
1579270605.030,48.828,53.223,24.902,50.781,-2.930,0
1579270605.034,32.715,58.594,23.926,35.645,24.414,0
1579270605.038,26.855,57.129,21.973,30.273,10.742,0
1579270605.041,31.738,55.176,20.996,34.668,-10.742,0
1579270605.045,26.855,57.129,23.926,34.668,-5.371,0
1579270605.049,20.508,59.082,22.949,22.461,0.000,0
1579270605.053,18.066,53.711,20.508,17.578,-0.977,0
1579270605.057,23.438,52.734,21.973,23.926,30.273,0
1579270605.074,29.785,54.199,19.531,27.832,8.789,0
1579270605.078,33.203,53.711,20.020,30.762,26.367,0
1579270605.082,35.645,52.734,24.902,34.180,85.449,0
1579270605.086,34.180,47.852,26.367,35.156,37.109,0
1579270605.090,34.668,45.898,26.367,37.109,55.176,0
1579270605.094,36.621,46.387,26.855,40.527,59.570,0
1579270605.098,37.598,50.293,26.855,46.875,41.992,0
1579270605.101,37.109,50.781,27.344,43.945,20.020,0
1579270605.105,35.645,45.898,26.367,39.551,41.504,0
1579270605.109,39.062,45.410,25.879,42.969,75.195,0
1579270605.113,40.039,49.805,23.926,45.410,41.504,0
1579270605.117,36.133,47.852,22.949,44.922,44.434,0
1579270605.115,36.621,45.898,24.414,43.945,61.035,0
1579270605.119,37.598,45.898,25.391,44.922,19.531,0
1579270605.123,36.133,42.480,25.879,43.945,46.875,0
1579270605.127,35.156,40.527,24.902,41.016,44.434,0
1579270605.131,32.715,42.969,25.391,37.598,-3.418,0
1579270605.135,32.715,44.922,25.879,38.574,-22.461,0
1579270605.139,36.133,44.434,25.391,41.504,-23.926,0
1579270605.142,36.621,43.457,21.973,38.574,34.180,0
1579270605.146,35.645,41.992,17.578,37.598,58.594,0
1579270605.150,35.645,39.551,19.043,39.062,67.871,0
1579270605.154,33.691,40.039,22.949,38.574,71.777,0
1579270605.158,29.785,40.039,22.949,41.504,53.223,0
1579270605.154,29.297,40.527,20.996,39.551,92.285,0
1579270605.158,32.227,42.969,18.555,38.086,55.176,0
1579270605.162,35.156,43.945,20.508,42.480,25.879,0
1579270605.166,40.039,42.969,28.320,45.410,42.480,0
1579270605.170,35.645,41.992,27.832,42.480,52.246,0
1579270605.174,33.691,39.062,27.344,47.363,6.836,0
1579270605.178,38.086,37.598,30.273,48.828,-25.879,0
1579270605.181,31.738,36.133,24.902,42.969,20.996,0
1579270605.185,29.785,37.109,24.902,39.551,57.617,0
1579270605.189,28.809,39.062,28.320,33.691,34.180,0
1579270605.193,25.879,35.645,25.391,31.738,3.418,0
1579270605.197,27.832,36.133,23.438,36.133,31.738,0
1579270605.214,26.855,40.039,22.949,38.574,4.395,0
1579270605.218,28.320,42.480,21.973,40.039,-53.223,0
1579270605.222,32.715,41.504,22.949,42.969,-28.809,0
1579270605.226,41.504,40.527,21.973,49.316,2.441,0
1579270605.230,57.129,44.434,21.973,58.594,12.695,0
1579270605.234,43.945,40.527,30.762,53.711,37.109,0
1579270605.238,19.043,29.785,37.109,39.062,54.199,0
1579270605.241,16.602,26.367,35.645,26.367,65.918,0
1579270605.245,12.207,20.508,31.738,25.879,55.176,0
1579270605.249,12.695,20.020,35.645,34.668,1.953,0
1579270605.253,15.137,20.508,36.621,31.738,-20.996,0
1579270605.257,10.742,19.043,36.133,28.809,35.156,0
1579270605.254,8.301,18.555,38.574,29.297,59.082,0
1579270605.258,10.254,18.555,34.180,30.273,3.906,0
1579270605.262,8.301,20.508,28.320,26.855,-26.855,0
1579270605.266,8.789,23.438,25.879,24.902,14.160,0
1579270605.270,14.160,25.391,25.391,30.273,25.879,0
1579270605.274,16.113,24.902,25.879,30.762,2.441,0
1579270605.278,19.531,23.438,26.855,32.715,23.438,0
1579270605.281,22.949,24.902,24.902,35.645,77.148,0
1579270605.285,20.508,27.344,23.926,33.691,41.504,0
1579270605.289,17.090,27.344,27.344,34.668,36.621,0
1579270605.293,20.996,29.785,28.320,29.297,0.977,0
1579270605.297,20.996,29.785,23.926,25.391,-4.395,0
1579270605.294,18.555,26.855,22.949,29.785,42.480,0
1579270605.298,17.578,23.926,22.461,26.855,43.945,0
1579270605.302,18.066,23.438,21.484,27.832,28.809,0
1579270605.306,21.484,25.879,22.949,27.832,37.598,0
1579270605.310,22.461,24.902,21.484,28.809,43.945,0
1579270605.314,25.879,23.438,19.531,32.715,18.555,0
1579270605.318,25.879,25.879,19.043,35.156,30.273,0
1579270605.321,22.461,29.297,17.578,26.855,51.758,0
1579270605.325,22.461,30.273,19.043,23.438,44.434,0
1579270605.329,17.578,25.879,17.578,26.855,45.898,0
1579270605.333,16.113,22.949,15.625,25.879,21.973,0
1579270605.337,20.020,26.855,17.090,31.250,-21.973,0
1579270605.354,20.020,29.297,12.695,30.762,-0.977,0
1579270605.358,25.879,32.227,14.160,34.180,-5.371,0
1579270605.362,25.391,33.203,20.508,37.109,33.691,0
1579270605.366,22.949,29.297,20.996,34.180,33.203,0
1579270605.370,26.367,34.180,22.461,34.668,39.551,0
1579270605.374,21.973,37.598,21.973,31.738,35.156,0
1579270605.378,22.949,36.133,22.949,29.297,-28.320,0
1579270605.381,21.973,35.645,24.902,21.973,20.508,0
1579270605.385,18.066,33.691,22.949,20.996,39.062,0
1579270605.389,20.020,34.180,25.391,29.785,-11.230,0
1579270605.393,21.484,32.227,24.414,29.785,32.227,0
1579270605.397,24.414,35.156,20.508,28.320,53.223,0
1579270605.394,19.043,34.668,17.578,25.879,90.820,0
1579270605.398,15.625,31.250,18.555,27.832,62.012,0
1579270605.402,16.113,33.691,21.484,28.809,3.906,0
1579270605.406,11.719,28.320,20.020,26.367,11.230,0
1579270605.410,13.672,28.809,18.555,26.367,17.578,0
1579270605.414,14.160,32.715,16.602,27.344,-5.859,0
1579270605.418,15.137,31.738,18.066,28.320,-46.875,0
1579270605.421,19.043,35.156,22.949,29.297,16.113,0
1579270605.425,16.113,35.645,20.020,27.344,53.711,0
1579270605.429,16.113,35.156,14.160,25.879,62.988,0
1579270605.433,17.578,40.527,14.160,23.438,81.543,0
1579270605.437,16.602,41.992,14.160,21.973,39.062,0
1579270605.434,20.020,42.969,15.625,26.855,72.266,0
1579270605.438,21.484,44.434,15.625,22.461,104.980,0
1579270605.442,18.066,42.969,14.160,19.043,69.824,0
1579270605.446,14.160,42.480,16.602,20.996,61.035,0
1579270605.450,15.625,43.457,20.508,22.949,61.523,0
1579270605.454,16.113,45.898,21.484,23.926,17.578,0
1579270605.458,12.207,46.387,17.578,20.508,3.906,0
1579270605.461,16.113,45.410,14.648,20.508,1.465,0
1579270605.465,18.066,45.898,9.277,18.066,12.695,0
1579270605.469,10.742,42.969,4.395,11.230,-31.738,0
1579270605.473,11.719,42.480,11.230,17.578,-40.527,0
1579270605.477,18.555,47.363,17.090,25.879,46.875,0
1579270605.494,20.020,48.340,15.137,26.367,39.551,0
1579270605.498,17.578,46.875,11.719,21.484,-19.043,0
1579270605.502,17.090,44.922,10.254,20.020,-41.992,0
1579270605.506,20.020,43.945,15.137,24.902,-22.461,0
1579270605.510,22.461,46.875,18.066,26.367,-4.883,0
1579270605.514,17.090,47.852,18.555,24.414,24.414,0
1579270605.518,16.602,47.363,19.043,22.949,19.043,0
1579270605.521,23.926,47.852,16.602,24.414,-8.789,0
1579270605.525,26.855,49.805,16.113,26.367,-6.348,0
1579270605.529,23.926,53.223,15.625,23.926,11.230,0
1579270605.533,20.508,57.617,16.113,22.461,72.266,0
1579270605.537,23.438,62.500,21.484,24.902,77.148,0
1579270605.534,27.344,63.965,13.672,26.367,9.766,0
1579270605.538,31.250,63.965,9.277,33.203,-16.602,0
1579270605.542,23.926,58.594,21.973,32.227,19.531,0
1579270605.546,5.371,52.246,25.879,17.578,33.691,0
1579270605.550,0.977,51.758,29.297,16.602,-23.438,0
1579270605.554,3.906,49.316,31.738,21.484,18.066,0
1579270605.558,0.488,44.434,28.320,19.043,67.383,0
1579270605.561,2.930,42.969,30.762,20.996,-21.973,0
1579270605.565,7.324,42.969,29.785,21.484,-39.551,0
1579270605.569,9.277,47.363,28.320,20.508,-4.395,0
1579270605.573,12.207,49.805,25.879,17.578,-14.648,0
1579270605.577,14.648,48.828,19.531,20.020,17.578,0
1579270605.574,17.090,49.805,19.043,25.391,0.488,0
1579270605.578,13.672,44.922,20.020,24.902,12.695,0
1579270605.582,16.113,41.992,24.902,26.367,61.523,0
1579270605.586,17.578,42.969,22.949,26.367,24.902,0
1579270605.590,11.230,43.457,17.090,21.973,-36.133,0
1579270605.594,15.137,45.898,21.973,26.367,12.207,0
1579270605.598,18.555,45.898,26.367,29.297,103.027,0
1579270605.601,18.066,46.387,25.391,31.250,45.410,0
1579270605.605,19.043,47.852,27.344,28.809,45.898,0
1579270605.609,16.113,43.945,22.461,21.973,42.480,0
1579270605.613,16.602,42.480,20.508,28.809,50.781,0
1579270605.617,18.555,45.898,28.320,28.809,65.918,0
1579270605.634,19.043,44.434,32.227,24.902,36.621,0
1579270605.638,19.531,41.992,32.227,22.461,24.414,0
1579270605.642,15.625,43.457,31.738,19.531,9.766,0
1579270605.646,11.719,43.945,31.250,21.973,26.855,0
1579270605.650,11.719,44.434,31.738,20.508,-8.301,0
1579270605.654,13.184,47.852,36.133,22.461,21.484,0
1579270605.658,14.160,46.387,39.551,25.391,50.781,0
1579270605.661,10.254,40.039,36.133,21.973,25.391,0
1579270605.665,6.348,38.574,34.668,20.020,26.855,0
1579270605.669,7.812,39.062,38.574,22.461,-6.836,0
1579270605.673,10.254,36.133,36.133,22.949,42.969,0
1579270605.677,12.695,36.133,36.621,21.484,93.262,0
1579270605.674,12.207,34.668,32.715,21.973,62.012,0
1579270605.678,14.160,30.762,27.832,24.414,47.363,0
1579270605.682,12.695,29.785,26.855,26.855,63.477,0
1579270605.686,6.836,25.879,29.297,25.391,64.941,0
1579270605.690,7.324,27.832,34.668,23.438,35.645,0
1579270605.694,7.324,30.762,35.156,25.879,60.059,0
1579270605.698,6.348,30.762,30.273,22.949,55.664,0
1579270605.701,15.137,32.715,28.320,25.391,29.297,0
1579270605.705,22.461,32.227,27.832,36.621,0.488,0
1579270605.709,19.531,32.227,29.297,33.691,-47.363,0
1579270605.713,7.812,29.297,34.180,18.555,0.000,0
1579270605.717,-1.465,19.531,32.227,16.602,41.504,0
1579270605.714,0.977,18.066,32.715,25.391,23.438,0
1579270605.718,5.859,20.996,32.715,27.832,50.293,0
1579270605.722,4.395,20.996,30.762,21.484,57.617,0
1579270605.726,3.418,22.461,31.250,18.066,-1.953,0
1579270605.730,5.371,21.484,31.250,21.973,-23.438,0
1579270605.734,12.695,22.461,28.320,23.438,28.320,0
1579270605.738,15.625,22.461,26.367,24.414,25.879,0
1579270605.741,15.137,21.973,25.879,26.855,22.461,0
1579270605.745,18.555,23.438,23.926,24.902,64.453,0
1579270605.749,22.461,21.484,22.461,26.367,39.062,0
1579270605.753,28.809,22.949,23.926,32.227,18.066,0
1579270605.757,29.785,21.973,25.391,32.227,9.766,0
1579270605.774,30.762,19.531,26.855,31.738,-20.020,0
1579270605.778,31.250,17.578,24.902,29.297,40.039,0
1579270605.782,27.344,14.648,20.996,29.297,50.293,0
1579270605.786,24.414,11.719,19.043,30.762,2.930,0
1579270605.790,20.508,7.812,17.578,28.809,-37.598,0
1579270605.794,20.508,11.230,20.996,33.691,2.441,0
1579270605.798,23.438,16.113,27.832,34.668,36.621,0
1579270605.801,20.508,14.160,23.926,31.738,3.418,0
1579270605.805,17.578,9.277,14.160,30.762,21.973,0
1579270605.809,17.578,7.812,13.184,25.879,60.059,0
1579270605.813,16.113,7.324,15.625,24.414,45.898,0
1579270605.817,17.578,7.324,18.066,26.855,6.836,0
1579270605.814,19.531,7.812,14.648,27.832,20.508,0
1579270605.818,19.043,6.348,11.719,30.273,-13.184,0
1579270605.822,17.090,3.418,10.742,29.785,-20.996,0
1579270605.826,18.555,1.953,10.742,28.809,6.836,0
1579270605.830,19.043,4.883,13.184,28.320,-18.555,0
1579270605.834,14.160,2.930,12.207,27.344,35.156,0
1579270605.838,14.160,1.465,13.184,27.344,14.648,0
1579270605.841,11.230,0.488,8.789,17.578,-57.129,0
1579270605.845,5.859,-2.930,1.953,11.719,1.465,0
1579270605.849,11.719,0.977,4.395,18.555,46.875,0
1579270605.853,7.812,-1.465,6.348,17.578,46.875,0
1579270605.857,0.488,-7.812,2.441,14.160,38.086,0
1579270605.854,3.906,-6.348,-2.930,18.066,59.082,0
1579270605.858,3.418,-7.812,-3.906,16.113,100.098,0
1579270605.862,3.906,-5.371,1.953,16.602,76.172,0
1579270605.866,4.883,-0.488,1.953,17.090,45.410,0
1579270605.870,5.859,1.953,0.000,16.602,20.508,0
1579270605.874,6.348,4.395,3.418,20.508,6.836,0
1579270605.878,4.883,-0.977,0.000,20.508,-11.719,0
1579270605.881,13.672,1.465,2.441,26.855,7.812,0
1579270605.885,15.137,9.277,2.930,18.066,31.738,0
1579270605.889,1.953,10.742,-2.930,2.930,30.273,0
1579270605.893,-0.488,13.672,-1.953,7.812,30.273,0
1579270605.897,2.441,12.695,-4.395,6.836,-12.695,0
1579270605.914,1.953,11.230,-4.395,6.836,33.691,0
1579270605.918,1.953,12.695,-1.953,11.230,50.781,0
1579270605.922,4.883,15.137,0.977,14.648,22.461,0
1579270605.926,6.348,19.043,7.812,16.602,52.734,0
1579270605.930,6.836,21.973,12.695,18.066,75.195,0
1579270605.934,7.324,22.461,16.113,25.391,31.738,0
1579270605.938,7.324,21.484,12.695,17.090,24.414,0
1579270605.941,4.395,19.043,7.812,8.789,68.848,0
1579270605.945,5.371,18.555,7.324,12.207,30.273,0
1579270605.949,13.184,21.973,10.742,15.625,6.348,0
1579270605.953,15.625,23.438,14.160,19.043,26.855,0
1579270605.957,13.672,23.438,18.555,20.020,33.203,0
1579270605.954,9.766,19.531,19.043,19.043,-2.930,0
1579270605.958,11.719,20.020,16.113,20.020,-15.625,0
1579270605.962,17.090,24.902,16.113,23.438,26.855,0
1579270605.966,16.602,23.926,17.578,25.879,13.672,0
1579270605.970,15.625,22.949,19.531,23.438,-6.836,0
1579270605.974,14.160,21.973,21.973,20.020,-60.547,0
1579270605.978,13.184,19.043,21.484,20.020,-71.289,0
1579270605.981,10.254,17.090,18.066,19.531,-11.230,0
1579270605.985,10.742,18.555,17.578,21.973,-9.766,0
1579270605.989,16.602,22.949,20.020,23.926,2.930,0
1579270605.993,20.020,22.949,19.531,24.902,23.926,0
1579270605.997,22.461,25.391,18.066,28.809,58.105,0
1579270605.994,20.508,23.926,16.602,31.738,75.684,0
1579270605.998,14.648,16.113,14.160,32.227,41.016,0
1579270606.002,17.578,19.531,16.602,26.855,5.371,0
1579270606.006,23.438,22.949,19.043,26.367,-1.953,0
1579270606.010,28.809,22.949,20.508,34.180,3.418,0
1579270606.014,33.691,25.879,23.438,38.086,49.316,0
1579270606.018,31.738,24.414,20.020,37.109,45.898,0
1579270606.021,36.621,27.344,21.484,37.598,49.805,0
1579270606.025,33.203,30.273,21.973,30.762,48.340,0
1579270606.029,28.809,26.367,17.578,23.438,21.973,0
1579270606.033,31.738,26.855,21.973,26.855,38.086,0
1579270606.037,30.762,27.344,23.438,30.762,30.762,0
1579270606.054,30.273,27.832,26.367,37.109,62.500,0
1579270606.058,25.391,26.367,27.344,34.668,102.539,0
1579270606.062,25.879,24.902,25.391,27.832,45.898,0
1579270606.066,24.414,23.438,26.855,26.367,-11.230,0
1579270606.070,19.531,23.926,25.391,25.879,-20.020,0
1579270606.074,20.020,26.855,26.855,26.855,-47.363,0
1579270606.078,20.508,27.832,25.879,21.484,-29.785,0
1579270606.081,20.996,24.902,22.949,17.090,-21.484,0
1579270606.085,23.438,23.438,24.414,18.066,-29.297,0
1579270606.089,24.902,25.879,27.832,19.531,15.625,0
1579270606.093,23.926,26.855,31.250,27.344,73.242,0
1579270606.097,24.902,26.855,34.668,34.180,16.113,0
1579270606.094,30.273,29.297,34.180,35.156,-29.785,0
1579270606.098,32.227,27.832,34.180,34.668,54.199,0
1579270606.102,29.785,22.949,33.203,30.273,48.340,0
1579270606.106,28.809,23.438,30.273,32.227,32.715,0
1579270606.110,25.879,23.438,29.297,36.621,68.848,0
1579270606.114,20.508,21.484,24.414,28.320,38.086,0
1579270606.118,17.090,20.996,22.461,22.461,-59.082,0
1579270606.121,14.160,17.090,23.926,23.926,-50.781,0
1579270606.125,18.066,17.578,26.367,23.438,51.270,0
1579270606.129,21.484,23.438,29.297,26.367,82.520,0
1579270606.133,17.090,23.926,27.832,25.879,54.199,0
1579270606.137,16.113,20.020,24.902,23.438,49.805,0
1579270606.134,17.578,19.043,23.438,22.461,40.039,0
1579270606.138,14.160,15.137,20.996,19.043,35.156,0
1579270606.142,12.207,13.672,20.996,18.066,61.035,0
1579270606.146,17.090,11.719,18.066,20.020,86.914,0
1579270606.150,19.043,13.184,18.555,26.855,99.121,0
1579270606.154,12.207,13.672,20.996,26.367,101.562,0
1579270606.158,7.324,9.766,17.090,22.949,83.008,0
1579270606.161,9.766,17.090,17.578,25.391,47.363,0
1579270606.165,8.301,18.555,19.531,20.508,-19.043,0
1579270606.169,2.930,12.695,19.043,19.043,-15.625,0
1579270606.173,1.465,12.207,16.602,22.949,13.672,0
1579270606.177,3.418,13.184,18.555,25.391,35.156,0
1579270606.194,14.648,17.090,25.879,24.414,42.969,0
1579270606.198,16.113,19.531,23.926,23.438,24.902,0
1579270606.202,11.230,20.996,21.973,25.391,30.273,0
1579270606.206,16.602,19.531,20.508,28.809,41.992,0
1579270606.210,21.484,19.043,18.555,29.785,45.898,0
1579270606.214,27.344,23.926,23.926,35.156,20.508,0
1579270606.218,25.391,23.926,26.855,38.086,41.504,0
1579270606.221,23.926,20.996,22.949,38.574,50.781,0
1579270606.225,22.949,26.855,20.508,32.715,37.598,0
1579270606.229,23.926,31.250,22.949,30.273,27.344,0
1579270606.233,30.273,33.203,27.344,35.645,62.012,0
1579270606.237,28.809,35.156,25.879,33.691,58.594,0
1579270606.234,27.832,34.668,26.367,34.668,4.395,0
1579270606.238,28.320,33.691,31.250,36.133,18.555,0
1579270606.242,25.879,33.691,34.668,35.156,0.977,0
1579270606.246,28.320,35.156,36.133,40.527,15.625,0
1579270606.250,27.344,34.668,35.645,38.574,46.875,0
1579270606.254,27.344,34.668,33.203,35.156,-12.207,0
1579270606.258,25.391,37.598,34.180,35.645,4.395,0
1579270606.261,25.391,36.133,35.645,35.645,20.020,0
1579270606.265,30.273,35.645,31.738,37.109,34.180,0
1579270606.269,23.438,36.133,26.855,29.297,73.730,0
1579270606.273,16.602,31.738,24.902,25.391,0.000,0
1579270606.277,21.484,31.250,24.414,36.133,-9.277,0
1579270606.274,22.949,32.227,24.902,37.598,12.695,0
1579270606.278,20.508,31.738,21.973,32.715,19.531,0
1579270606.282,20.996,31.738,20.508,29.785,43.457,0
1579270606.286,20.508,30.273,20.996,26.855,-2.441,0
1579270606.290,20.508,28.320,19.531,30.273,-35.645,0
1579270606.294,16.602,23.926,18.066,33.203,0.977,0
1579270606.298,14.648,16.113,16.602,37.598,38.574,0
1579270606.301,26.855,20.996,15.625,38.086,-8.789,0
1579270606.305,23.926,28.809,10.742,19.531,-34.180,0
1579270606.309,10.742,27.344,0.488,9.766,55.664,0
1579270606.313,14.160,33.691,-0.488,11.230,41.016,0
1579270606.317,18.066,36.133,1.465,15.625,-2.441,0
1579270606.334,12.695,33.203,6.348,16.602,58.105,0
1579270606.338,1.465,32.715,9.766,6.348,99.609,0
1579270606.342,4.883,38.086,9.277,6.348,68.359,0
1579270606.346,14.648,42.480,13.184,15.625,34.180,0
1579270606.350,14.648,39.062,13.672,16.113,44.922,0
1579270606.354,19.043,38.574,10.742,15.625,36.621,0
1579270606.358,25.391,38.086,10.254,15.137,32.715,0
1579270606.361,23.438,33.203,10.254,14.160,55.176,0
1579270606.365,19.043,33.691,12.695,15.137,49.805,0
1579270606.369,14.648,32.715,10.742,15.625,94.727,0
1579270606.373,20.020,34.180,15.625,23.438,98.633,0
1579270606.377,23.438,40.527,20.508,23.926,-0.977,0
1579270606.374,20.996,41.504,18.555,19.531,13.672,0
1579270606.378,20.996,36.133,19.531,22.949,-9.277,0
1579270606.382,16.602,31.738,16.602,21.973,-37.598,0
1579270606.386,15.625,33.203,14.648,19.531,2.441,0
1579270606.390,15.625,33.691,17.090,21.973,56.641,0
1579270606.394,13.672,33.691,19.531,24.902,55.664,0
1579270606.398,22.949,38.574,21.973,31.738,17.578,0
1579270606.401,24.414,40.039,21.484,33.691,-12.695,0
1579270606.405,22.461,38.086,22.461,31.738,29.297,0
1579270606.409,29.297,40.039,25.391,28.809,13.672,0
1579270606.413,27.832,38.574,24.414,26.855,-21.484,0
1579270606.417,26.367,35.645,20.508,32.715,37.598,0
1579270606.414,25.879,34.668,18.555,33.691,77.637,0
1579270606.418,27.832,34.180,21.973,35.156,40.527,0
1579270606.422,28.809,35.645,21.973,33.203,-63.477,0
1579270606.426,29.785,34.180,23.926,35.156,-21.484,0
1579270606.430,31.250,31.738,26.367,36.621,45.898,0
1579270606.434,25.879,33.691,24.414,35.156,26.855,0
1579270606.438,22.461,34.668,23.926,38.086,43.457,0
1579270606.441,21.484,32.715,27.344,35.645,59.570,0
1579270606.445,20.508,32.227,23.438,29.785,67.383,0
1579270606.449,23.926,33.691,18.555,31.250,53.223,0
1579270606.453,21.973,31.250,20.508,30.273,29.297,0
1579270606.457,19.531,29.785,16.602,29.785,52.246,0
1579270606.474,20.508,33.203,14.648,25.391,-0.977,0
1579270606.478,20.020,33.691,16.113,18.555,7.324,0
1579270606.482,21.484,31.738,13.672,20.020,55.176,0
1579270606.486,22.949,31.250,14.160,24.414,-13.672,0
1579270606.490,22.461,30.273,19.043,25.879,-26.855,0
1579270606.494,20.508,25.879,19.531,19.531,17.578,0
1579270606.498,20.508,21.973,17.578,19.043,44.922,0
1579270606.501,18.066,22.949,17.578,22.949,60.059,0
1579270606.505,16.602,24.414,20.508,23.926,56.152,0
1579270606.509,22.949,26.855,20.996,28.320,26.367,0
1579270606.513,24.414,32.715,20.508,29.297,34.180,0
1579270606.517,16.113,33.203,21.484,20.996,20.020,0
1579270606.514,16.602,30.273,24.414,22.949,-29.297,0
1579270606.518,20.020,28.809,24.902,21.973,-14.160,0
1579270606.522,21.973,29.785,23.438,20.020,24.414,0
1579270606.526,25.391,32.227,23.438,24.902,59.082,0
1579270606.530,27.832,28.809,21.484,24.414,103.516,0
1579270606.534,39.062,29.785,19.043,35.156,36.621,0
1579270606.538,41.016,29.297,22.949,41.016,3.906,0
1579270606.541,26.855,23.438,30.762,33.203,45.410,0
1579270606.545,20.020,23.438,37.109,31.250,7.324,0
1579270606.549,5.859,19.043,43.945,18.066,-42.480,0
1579270606.553,3.418,14.648,46.875,14.160,-6.836,0
1579270606.557,6.348,15.137,46.875,19.531,57.617,0
1579270606.554,-8.301,6.348,48.828,17.578,54.688,0
1579270606.558,-8.301,1.465,55.176,21.484,51.758,0
1579270606.562,-5.859,5.371,55.664,18.066,54.688,0
1579270606.566,-6.348,6.836,51.758,13.672,33.691,0
1579270606.570,1.465,8.301,53.223,21.484,-1.953,0
1579270606.574,4.883,13.184,53.711,26.855,-4.395,0
1579270606.578,4.395,15.625,50.781,25.879,24.414,0
1579270606.581,7.324,15.137,48.828,23.926,30.762,0
1579270606.585,9.277,15.625,48.340,25.391,55.176,0
1579270606.589,6.836,17.090,46.387,28.809,49.805,0
1579270606.593,7.812,15.625,42.969,26.367,35.645,0
1579270606.597,12.695,14.160,42.969,29.785,37.598,0
1579270606.614,16.113,19.531,44.434,27.344,27.832,0
1579270606.618,12.695,23.438,40.527,24.414,10.254,0
1579270606.622,12.695,24.414,38.086,31.250,8.301,0
1579270606.626,13.672,24.902,38.086,30.762,48.828,0
1579270606.630,14.160,25.879,38.574,30.273,67.871,0
1579270606.634,20.020,30.762,41.016,33.691,52.246,0
1579270606.638,25.391,37.598,44.434,39.551,55.176,0
1579270606.641,31.738,41.016,44.922,43.945,19.043,0
1579270606.645,33.203,41.992,42.969,41.992,2.930,0
1579270606.649,33.203,43.945,44.434,46.387,16.113,0
1579270606.653,35.156,48.828,48.828,53.223,-18.066,0
1579270606.657,37.109,52.246,51.270,52.734,34.180,0
1579270606.654,38.086,54.199,48.828,51.758,88.867,0
1579270606.658,38.574,54.688,45.410,49.805,57.617,0
1579270606.662,37.598,55.664,43.457,49.316,47.363,0
1579270606.666,36.133,56.641,38.086,46.387,56.641,0
1579270606.670,35.645,54.199,33.203,46.387,22.949,0
1579270606.674,36.133,52.734,38.086,46.875,-6.836,0
1579270606.678,37.598,52.246,40.527,45.898,-79.590,0
1579270606.681,36.621,48.828,39.551,46.387,-56.152,0
1579270606.685,34.668,45.410,40.039,41.992,-7.324,0
1579270606.689,37.109,44.922,38.574,41.504,7.812,0
1579270606.693,39.551,47.852,42.969,46.875,-1.953,0
1579270606.697,35.645,45.410,46.387,44.922,12.207,0
1579270606.694,31.250,39.551,40.527,39.062,0.488,0
1579270606.698,36.621,43.457,41.992,40.039,-9.766,0
1579270606.702,35.156,43.945,45.898,39.551,62.500,0
1579270606.706,25.391,40.039,44.434,38.086,19.043,0
1579270606.710,26.367,38.574,40.527,41.016,13.672,0
1579270606.714,29.297,38.086,40.527,38.574,75.684,0
1579270606.718,27.832,39.551,41.016,38.574,14.160,0
1579270606.721,26.367,38.086,35.645,35.645,-39.551,0
1579270606.725,22.949,36.133,29.785,34.180,-35.645,0
1579270606.729,23.438,36.621,33.691,36.133,71.777,0
1579270606.733,26.367,35.645,36.133,35.156,127.930,0
1579270606.737,31.250,34.668,35.645,38.574,33.691,0
1579270606.754,27.832,34.668,36.133,36.621,-1.953,0
1579270606.758,27.344,36.133,34.668,35.156,3.906,0
1579270606.762,28.320,37.109,29.785,37.109,34.668,0
1579270606.766,25.879,36.621,26.367,35.645,53.711,0
1579270606.770,26.855,35.156,28.809,36.133,61.035,0
1579270606.774,29.785,36.133,31.250,34.668,48.340,0
1579270606.778,31.250,39.062,34.668,31.250,44.434,0
1579270606.781,36.133,42.480,38.574,38.574,44.434,0
1579270606.785,37.109,40.039,40.039,44.434,-2.930,0
1579270606.789,34.668,36.621,40.039,43.457,12.695,0
1579270606.793,34.180,37.109,40.039,39.062,49.805,0
1579270606.797,31.738,35.645,37.598,26.367,47.852,0
1579270606.794,26.367,33.691,33.203,33.203,30.762,0
1579270606.798,25.391,30.273,28.809,41.992,-8.789,0
1579270606.802,37.109,28.809,28.320,47.852,9.277,0
1579270606.806,31.738,28.809,33.691,48.340,24.414,0
1579270606.810,13.184,26.855,36.621,35.156,-2.930,0
1579270606.814,12.695,25.391,40.527,33.203,1.953,0
1579270606.818,14.648,21.973,43.457,35.645,41.504,0
1579270606.821,9.766,18.555,37.109,29.785,22.949,0
1579270606.825,9.766,20.996,42.480,25.879,20.508,0
1579270606.829,11.719,23.926,48.340,22.461,93.750,0
1579270606.833,13.184,23.926,42.480,22.949,84.961,0
1579270606.837,15.625,23.438,41.016,28.809,86.426,0
1579270606.854,20.508,25.879,41.016,35.156,83.984,0
1579270606.858,24.414,29.785,40.527,38.086,47.363,0
1579270606.862,22.461,29.785,40.527,38.086,-33.203,0
1579270606.866,23.926,27.832,41.016,36.621,-95.215,0
1579270606.870,26.855,28.809,40.527,32.227,-20.508,0
1579270606.874,29.785,29.297,41.016,37.109,32.715,0
1579270606.878,34.668,31.738,42.969,41.504,52.246,0
1579270606.881,38.086,32.227,41.504,36.621,69.336,0
1579270606.885,41.504,32.227,36.133,33.691,23.926,0
1579270606.889,48.340,38.086,33.203,35.645,-15.137,0
1579270606.893,45.898,39.062,36.621,35.645,-29.297,0
1579270606.897,40.039,35.156,42.480,36.133,64.941,0
1579270606.895,37.598,35.156,41.992,37.598,110.352,0
1579270606.899,35.645,36.621,39.062,26.367,-17.578,0
1579270606.903,30.273,34.668,35.645,27.344,-13.184,0
1579270606.907,22.461,31.250,32.227,34.180,44.922,0
1579270606.911,23.438,32.715,29.297,29.785,25.879,0
1579270606.915,20.996,33.203,28.809,28.809,22.949,0
1579270606.919,16.113,30.273,26.367,29.297,23.438,0
1579270606.922,19.043,28.809,19.043,30.762,81.055,0
1579270606.926,20.020,27.832,24.414,32.227,49.316,0
1579270606.930,19.531,31.250,32.227,39.062,-7.324,0
1579270606.934,22.949,33.691,33.203,37.109,56.641,0
1579270606.938,25.391,32.227,30.273,36.133,10.254,0
1579270606.934,26.855,32.227,25.391,38.574,17.578,0
1579270606.938,26.367,30.273,24.902,34.180,50.781,0
1579270606.942,29.297,28.320,24.902,35.645,41.504,0
1579270606.946,29.297,28.809,24.902,35.645,51.270,0
1579270606.950,28.320,28.809,26.367,33.203,2.930,0
1579270606.954,29.785,31.738,30.273,34.668,26.855,0
1579270606.958,31.250,29.785,31.250,34.668,39.062,0
1579270606.961,29.785,27.832,27.832,37.109,29.785,0
1579270606.965,28.320,30.762,29.297,35.156,35.156,0
1579270606.969,31.250,33.203,26.855,34.668,1.465,0
1579270606.973,30.762,34.180,28.809,35.156,15.625,0
1579270606.977,30.762,38.086,35.156,35.645,32.227,0
1579270606.994,31.738,35.645,36.133,40.039,60.547,0
1579270606.998,32.715,34.180,37.109,39.062,24.414,0
1579270607.002,27.832,31.738,32.715,36.133,-12.695,0
1579270607.006,24.414,29.297,26.855,33.203,0.977,0
1579270607.010,28.320,32.227,26.367,36.621,-11.719,0
1579270607.014,32.227,30.273,29.297,38.574,5.371,0
1579270607.018,31.250,30.273,35.156,32.227,21.484,0
1579270607.021,25.879,31.250,35.156,28.809,48.340,0
1579270607.025,19.531,26.855,26.855,30.273,93.262,0
1579270607.029,18.066,23.438,25.879,29.297,18.066,0
1579270607.033,19.043,23.926,27.344,31.738,17.090,0
1579270607.037,22.949,28.809,27.832,33.203,29.297,0
1579270607.034,20.996,30.273,25.879,31.250,15.625,0
1579270607.038,22.461,29.785,26.367,29.785,40.039,0
1579270607.042,27.344,29.785,29.785,28.320,18.555,0
1579270607.046,27.832,30.762,30.273,30.762,23.926,0
1579270607.050,29.297,33.691,32.715,39.062,37.109,0
1579270607.054,25.879,30.762,34.180,41.016,57.617,0
1579270607.058,30.273,24.414,37.109,42.480,62.012,0
1579270607.061,38.086,27.344,34.668,44.922,82.520,0
1579270607.065,30.273,36.133,28.809,34.180,64.941,0
1579270607.069,23.438,43.457,28.320,24.902,29.785,0
1579270607.073,24.902,44.434,30.762,21.484,6.836,0
1579270607.077,18.066,38.086,26.855,16.113,56.152,0
1579270607.074,19.043,40.039,25.391,20.996,42.969,0
1579270607.078,19.531,38.574,20.996,23.438,-11.230,0
1579270607.082,20.996,39.062,22.461,27.832,91.797,0
1579270607.086,26.367,41.504,31.250,31.250,90.820,0
1579270607.090,28.809,40.527,31.250,32.227,18.555,0
1579270607.094,26.367,40.527,31.250,35.645,33.203,0
1579270607.098,25.391,41.504,35.645,35.156,55.664,0
1579270607.101,32.227,43.945,36.133,35.156,72.754,0
1579270607.105,35.156,45.898,37.598,38.574,-10.742,0
1579270607.109,27.344,42.480,35.645,36.621,48.340,0
1579270607.113,27.344,38.086,27.832,35.645,75.195,0
1579270607.117,33.203,37.598,26.855,36.133,-15.137,0
1579270607.134,28.320,36.621,26.367,30.762,-12.695,0
1579270607.138,26.367,35.156,24.414,27.832,-1.465,0
1579270607.142,29.785,36.621,22.461,28.809,19.531,0
1579270607.146,27.344,32.715,21.484,29.297,43.457,0
1579270607.150,27.344,34.180,22.461,29.785,0.488,0
1579270607.154,31.250,38.086,23.926,31.738,6.836,0
1579270607.158,27.832,34.668,27.344,25.879,48.828,0
1579270607.161,20.996,30.762,23.438,16.602,63.965,0
1579270607.165,20.508,31.250,18.066,16.602,51.270,0
1579270607.169,21.484,29.785,17.090,23.926,17.578,0
1579270607.173,21.484,26.855,18.066,26.855,36.621,0
1579270607.177,24.414,28.809,18.555,26.855,-7.812,0
1579270607.174,22.461,30.762,17.090,28.809,16.113,0
1579270607.178,22.949,31.738,19.531,29.297,46.387,0
1579270607.182,28.320,31.738,20.508,33.203,-1.465,0
1579270607.186,25.879,30.273,20.508,31.250,-21.973,0
1579270607.190,21.484,28.320,19.043,27.832,-4.395,0
1579270607.194,22.949,29.297,18.066,32.227,15.137,0
1579270607.198,21.484,32.227,20.020,33.203,96.191,0
1579270607.201,20.996,31.738,23.438,32.227,79.590,0
1579270607.205,23.438,30.762,29.297,34.180,-1.465,0
1579270607.209,24.902,35.156,32.227,34.180,-23.926,0
1579270607.213,27.344,42.480,32.715,30.762,17.578,0
1579270607.217,23.926,40.039,28.809,27.344,38.574,0
1579270607.214,21.973,38.086,25.879,28.320,18.555,0
1579270607.218,26.367,43.457,31.250,35.645,21.973,0
1579270607.222,30.762,48.340,36.133,42.480,27.344,0
1579270607.226,34.180,49.805,38.086,43.457,28.809,0
1579270607.230,37.598,47.852,40.527,45.410,24.414,0
1579270607.234,39.551,48.828,42.969,48.828,35.156,0
1579270607.238,36.133,46.875,41.992,47.852,75.684,0
1579270607.241,33.691,45.898,45.410,50.293,67.871,0
1579270607.245,40.039,49.805,49.316,47.363,62.012,0
1579270607.249,42.480,51.270,42.969,41.992,18.555,0
1579270607.253,42.480,52.734,40.039,42.480,-24.902,0
1579270607.257,45.898,51.270,41.992,42.969,36.133,0
1579270607.274,47.852,48.828,42.969,46.387,56.641,0
1579270607.278,47.852,52.246,44.922,50.293,18.555,0
1579270607.282,45.410,49.805,45.410,49.805,38.574,0
1579270607.286,40.527,45.898,40.039,40.527,22.461,0
1579270607.290,36.133,44.434,38.086,34.668,12.207,0
1579270607.294,35.156,41.992,41.504,37.598,76.660,0
1579270607.298,31.738,41.016,41.504,37.598,80.566,0
1579270607.301,23.926,39.062,35.156,30.762,6.836,0
1579270607.305,25.879,37.598,35.645,28.320,-4.395,0
1579270607.309,29.785,38.574,39.551,31.250,1.465,0
1579270607.313,27.832,35.156,38.574,30.762,31.250,0
1579270607.317,28.320,33.691,41.992,29.785,12.695,0
1579270607.314,24.902,34.180,43.945,30.273,-74.219,0
1579270607.318,22.949,31.738,39.062,32.715,-38.086,0
1579270607.322,24.902,30.762,35.156,31.738,5.859,0
1579270607.326,27.344,35.156,32.227,27.832,41.992,0
1579270607.330,41.992,42.480,36.133,41.992,40.527,0
1579270607.334,46.387,40.039,41.016,50.781,35.645,0
1579270607.338,31.250,31.738,41.504,37.598,13.672,0
1579270607.341,21.973,30.762,41.504,26.367,25.879,0
1579270607.345,21.973,25.879,44.922,31.738,105.469,0
1579270607.349,24.902,23.926,45.898,39.551,98.145,0
1579270607.353,19.043,24.414,41.992,17.090,62.012,0
1579270607.357,13.184,22.461,40.527,15.137,53.223,0
1579270607.354,10.254,24.902,41.504,25.391,27.344,0
1579270607.358,8.301,22.949,35.156,19.531,28.809,0
1579270607.362,16.113,24.414,32.715,25.879,0.977,0
1579270607.366,20.020,23.438,32.227,25.879,-10.742,0
1579270607.370,23.438,25.879,33.691,22.461,23.926,0
1579270607.374,27.344,30.762,36.621,28.809,41.504,0
1579270607.378,25.879,30.762,35.645,32.715,19.043,0
1579270607.381,27.832,34.180,36.133,29.785,20.508,0
1579270607.385,28.320,36.133,34.180,24.902,82.520,0
1579270607.389,23.926,35.156,32.715,26.367,96.191,0
1579270607.393,22.461,36.133,34.180,32.715,5.371,0
1579270607.397,22.461,36.133,39.062,31.738,13.672,0
1579270607.414,28.320,38.574,41.016,31.738,63.965,0
1579270607.418,28.809,39.062,37.598,30.762,26.855,0
1579270607.422,21.484,34.668,32.715,31.250,-22.949,0
1579270607.426,20.996,31.738,26.855,33.203,-40.039,0
1579270607.430,24.414,33.203,22.949,27.832,46.387,0
1579270607.434,22.461,34.668,22.949,28.320,57.129,0
1579270607.438,20.020,31.738,23.926,34.668,0.977,0
1579270607.441,28.320,34.668,26.855,37.109,21.973,0
1579270607.445,27.344,36.133,24.902,39.551,36.133,0
1579270607.449,21.484,32.715,23.926,35.156,15.625,0
1579270607.453,30.762,37.598,28.809,29.297,19.531,0
1579270607.457,33.691,38.086,28.809,30.273,30.762,0
1579270607.454,31.250,34.180,23.926,38.086,34.668,0
1579270607.458,34.668,34.668,25.391,38.574,39.551,0
1579270607.462,34.180,35.156,28.320,37.109,43.945,0
1579270607.466,35.645,34.668,29.297,38.086,24.414,0
1579270607.470,34.180,33.203,31.250,36.621,-42.480,0
1579270607.474,30.762,33.691,29.297,34.180,-44.922,0
1579270607.478,30.762,33.203,27.344,31.738,-4.395,0
1579270607.481,26.367,31.738,27.832,31.738,68.359,0
1579270607.485,22.949,30.762,28.809,31.250,101.562,0
1579270607.489,24.902,33.203,28.320,29.785,99.121,0
1579270607.493,22.949,32.715,25.391,25.391,105.469,0
1579270607.497,20.020,24.902,24.414,28.809,77.148,0
1579270607.494,21.973,24.414,25.391,33.691,53.711,0
1579270607.498,19.531,24.902,24.902,23.926,11.230,0
1579270607.502,11.719,24.414,26.367,20.020,10.254,0
1579270607.506,10.254,24.902,26.367,10.742,51.758,0
1579270607.510,17.090,28.320,24.414,15.625,23.926,0
1579270607.514,17.578,31.738,26.367,31.250,-13.672,0
1579270607.518,15.625,29.785,27.344,22.461,42.969,0
1579270607.521,17.578,34.668,25.879,19.043,73.730,0
1579270607.525,19.531,36.133,27.344,20.020,56.152,0
1579270607.529,26.855,38.574,32.715,26.367,-0.977,0
1579270607.533,31.738,42.480,34.668,19.531,-3.906,0
1579270607.537,24.902,36.621,28.320,13.184,60.547,0
1579270607.554,21.484,36.133,30.273,19.043,45.898,0
1579270607.558,20.020,36.621,35.645,17.578,75.684,0
1579270607.562,17.578,35.156,33.691,20.508,49.805,0
1579270607.566,16.113,35.156,32.227,17.578,-4.395,0
1579270607.570,16.113,32.715,29.297,14.160,14.648,0
1579270607.574,23.926,34.668,31.738,20.996,-34.668,0
1579270607.578,23.926,38.574,32.227,16.602,-37.109,0
1579270607.581,14.160,34.180,26.855,11.230,1.953,0
1579270607.585,9.766,26.855,26.855,12.695,25.879,0
1579270607.589,12.207,26.367,24.414,16.113,-24.902,0
1579270607.593,16.113,28.320,21.973,25.391,-37.598,0
1579270607.597,18.555,26.855,25.391,20.996,49.805,0
1579270607.594,16.602,25.879,28.809,18.555,26.367,0
1579270607.598,12.695,27.832,28.320,23.926,-2.441,0
1579270607.602,14.648,30.762,23.926,21.973,20.508,0
1579270607.606,15.137,31.250,25.391,20.020,56.641,0
1579270607.610,13.672,27.832,28.320,10.742,47.852,0
1579270607.614,14.648,29.297,30.273,18.066,-15.625,0
1579270607.618,12.695,29.297,29.785,26.367,13.672,0
1579270607.621,9.766,25.391,27.344,15.625,38.574,0
1579270607.625,10.254,26.367,28.320,12.207,31.250,0
1579270607.629,12.207,30.273,29.785,18.066,3.418,0
1579270607.633,13.184,25.879,26.855,19.531,3.906,0
1579270607.637,14.648,22.461,23.438,21.484,61.035,0
1579270607.634,17.090,24.902,26.367,19.043,8.789,0
1579270607.638,15.137,25.879,24.902,17.578,-10.254,0
1579270607.642,16.602,29.297,22.461,20.020,-21.484,0
1579270607.646,16.602,27.832,19.531,21.484,-6.836,0
1579270607.650,14.648,24.414,17.090,18.066,22.949,0
1579270607.654,9.277,22.949,18.066,10.254,16.602,0
1579270607.658,3.906,20.508,18.066,19.043,24.902,0
1579270607.661,5.859,20.996,19.043,16.113,5.859,0
1579270607.665,7.812,22.949,21.484,4.395,65.918,0
1579270607.669,9.277,22.949,17.578,10.742,56.152,0
1579270607.673,11.719,25.391,13.184,14.160,-5.371,0
1579270607.677,12.695,25.391,15.625,16.602,8.301,0
1579270607.694,12.695,26.367,21.484,15.137,43.945,0
1579270607.698,14.160,29.297,25.879,10.254,39.062,0
1579270607.702,15.137,30.273,25.879,19.531,5.859,0
1579270607.706,17.578,31.738,26.367,25.879,8.789,0
1579270607.710,17.578,31.738,24.902,26.367,63.477,0
1579270607.714,19.531,34.668,27.832,27.832,18.066,0
1579270607.718,23.438,36.621,28.809,22.949,24.902,0
1579270607.721,22.461,36.133,22.949,20.508,58.594,0
1579270607.725,22.461,38.574,21.484,28.320,63.477,0
1579270607.729,22.949,38.086,21.484,28.320,84.961,0
1579270607.733,28.809,39.062,27.832,29.785,40.039,0
1579270607.737,29.785,39.062,32.715,30.762,48.828,0
1579270607.733,24.414,34.668,30.273,26.855,27.344,0
1579270607.737,22.949,31.250,28.809,24.414,37.109,0
1579270607.741,25.879,30.273,33.691,26.367,31.738,0
1579270607.745,34.668,35.156,39.062,32.715,-49.805,0
1579270607.749,38.574,39.551,39.062,35.645,8.301,0
1579270607.753,31.738,41.016,40.527,37.109,18.066,0
1579270607.757,27.832,39.551,40.527,34.180,-13.672,0
1579270607.760,30.273,38.574,38.574,34.180,14.160,0
1579270607.764,31.250,38.574,39.062,27.344,20.508,0
1579270607.768,30.273,39.062,37.109,25.391,66.895,0
1579270607.772,29.785,38.086,36.621,32.715,62.988,0
1579270607.776,32.227,39.062,38.574,30.273,7.812,0
1579270607.773,34.668,41.504,37.598,36.133,50.293,0
1579270607.777,32.715,42.480,39.551,39.062,56.152,0
1579270607.781,31.250,42.480,43.945,29.785,35.156,0
1579270607.785,34.180,40.527,42.480,33.203,98.633,0
1579270607.789,30.273,39.062,36.621,46.387,44.922,0
1579270607.793,26.855,38.086,32.715,42.969,0.977,0
1579270607.797,34.180,39.062,34.668,42.480,41.016,0
1579270607.800,35.645,45.410,42.480,37.598,58.594,0
1579270607.804,29.297,42.480,41.504,34.180,40.039,0
1579270607.808,27.344,35.645,35.156,26.367,-2.441,0
1579270607.812,28.809,39.551,34.668,24.414,36.133,0
1579270607.816,27.832,38.574,34.668,37.109,40.039,0
1579270607.833,29.785,36.621,33.203,36.621,3.418,0
1579270607.837,28.809,39.062,29.785,32.715,-38.086,0
1579270607.841,26.367,38.086,30.273,35.645,12.207,0
1579270607.845,26.367,34.180,30.273,39.551,31.738,0
1579270607.849,26.367,31.738,28.320,36.133,-62.500,0
1579270607.853,27.344,34.180,33.203,35.156,-22.461,0
1579270607.857,30.762,36.133,37.109,35.645,29.785,0
1579270607.860,28.809,32.715,35.156,33.691,-1.953,0
1579270607.864,25.879,30.762,32.715,34.668,48.340,0
1579270607.868,33.203,30.762,26.855,41.992,70.312,0
1579270607.872,38.086,34.180,23.438,47.363,17.090,0
1579270607.876,26.367,32.715,24.414,33.203,53.223,0
1579270607.874,14.160,32.715,25.391,21.484,88.379,0
1579270607.878,9.277,35.156,23.438,17.090,11.719,0
1579270607.882,11.230,28.809,22.949,19.531,-10.742,0
1579270607.886,14.648,29.297,25.391,24.414,69.824,0
1579270607.890,15.625,34.668,25.879,26.367,50.781,0
1579270607.894,20.996,33.691,27.832,33.203,-9.766,0
1579270607.898,21.484,31.250,26.855,34.668,-0.488,0
1579270607.901,15.137,30.273,21.973,16.113,-34.180,0
1579270607.905,17.090,34.180,26.855,10.254,-20.020,0
1579270607.909,20.996,35.156,29.785,26.855,35.156,0
1579270607.913,19.043,31.250,24.414,17.578,35.645,0
1579270607.917,23.438,33.203,24.902,25.391,29.297,0
1579270607.914,25.391,34.180,25.391,37.109,8.789,0
1579270607.918,24.414,33.203,26.367,31.250,13.184,0
1579270607.922,35.156,38.086,33.203,33.203,24.414,0
1579270607.926,38.574,39.062,29.297,36.621,87.402,0
1579270607.930,34.180,35.645,26.367,33.691,75.195,0
1579270607.934,30.273,33.691,28.320,26.367,15.625,0
1579270607.938,27.832,32.715,23.926,22.949,31.738,0
1579270607.941,29.785,37.109,26.855,26.367,67.871,0
1579270607.945,24.414,33.203,26.855,21.484,17.090,0
1579270607.949,19.043,25.391,22.461,20.996,-18.555,0
1579270607.953,20.020,30.273,22.949,23.926,47.852,0
1579270607.957,19.531,35.645,24.902,28.320,24.414,0
1579270607.974,19.531,37.109,29.297,29.297,-21.973,0
1579270607.978,18.066,33.691,27.832,13.184,42.480,0
1579270607.982,17.090,31.250,26.855,24.902,71.289,0
1579270607.986,19.531,31.738,25.391,41.992,-2.930,0
1579270607.990,20.508,29.297,24.414,23.438,40.039,0
1579270607.994,20.996,30.273,28.809,19.531,44.922,0
1579270607.998,20.020,31.738,26.367,33.691,37.598,0
1579270608.001,14.648,28.809,23.438,31.250,48.828,0
1579270608.005,13.184,28.809,24.902,29.785,43.457,0
1579270608.009,12.695,28.809,27.832,28.320,62.500,0
1579270608.013,13.184,29.785,33.203,26.855,13.672,0
1579270608.017,14.160,30.762,30.762,22.949,-19.531,0
1579270608.014,9.277,27.344,23.926,19.531,-23.438,0
1579270608.018,7.324,24.902,21.484,19.531,-33.691,0
1579270608.022,9.766,28.320,25.879,15.137,20.508,0
1579270608.026,13.184,31.250,32.715,19.043,33.203,0
1579270608.030,11.719,29.785,29.297,26.367,-5.371,0
1579270608.034,14.648,28.809,24.902,24.414,20.020,0
1579270608.038,14.648,28.809,24.902,22.949,57.129,0
1579270608.041,11.719,30.762,22.461,21.973,54.199,0
1579270608.045,19.043,33.203,25.879,26.855,70.312,0
1579270608.049,21.484,30.762,31.250,28.320,45.410,0
1579270608.053,19.531,28.809,29.785,27.832,26.367,0
1579270608.057,20.996,32.715,30.273,32.227,48.340,0
1579270608.054,24.902,33.203,31.738,35.156,43.457,0
1579270608.058,30.273,36.621,35.156,40.039,32.227,0
1579270608.062,28.320,37.598,35.645,40.527,43.945,0
1579270608.066,22.949,34.180,31.738,38.086,37.598,0
1579270608.070,23.926,34.180,32.715,37.109,1.465,0
1579270608.074,22.949,34.180,31.738,31.738,27.344,0
1579270608.078,23.926,31.738,28.809,31.250,73.242,0
1579270608.081,23.926,30.273,26.367,27.832,30.762,0
1579270608.085,21.484,31.250,24.414,22.461,5.371,0
1579270608.089,23.438,30.273,22.461,26.855,54.199,0
1579270608.093,20.020,29.785,20.996,30.762,26.367,0
1579270608.097,18.555,29.297,21.973,27.344,-30.273,0
1579270608.115,19.043,24.414,20.508,23.926,6.836,0
1579270608.119,19.531,22.949,18.555,25.391,12.695,0
1579270608.123,20.996,27.344,19.531,23.438,20.508,0
1579270608.127,23.926,31.738,20.508,24.902,62.012,0
1579270608.131,24.902,36.133,23.438,30.762,41.992,0
1579270608.135,27.344,34.180,27.344,35.156,-20.020,0
1579270608.139,40.039,27.832,30.762,46.387,-3.906,0
1579270608.142,43.457,36.621,28.320,45.410,30.273,0
1579270608.146,26.367,45.410,24.902,26.855,37.109,0
1579270608.150,20.996,51.270,20.996,20.508,41.016,0
1579270608.154,23.926,56.152,13.672,14.648,31.250,0
1579270608.158,16.113,53.223,10.742,1.465,14.648,0
1579270608.154,15.137,52.734,5.371,-1.953,-34.668,0
1579270608.158,17.090,55.664,-0.977,-1.953,36.621,0
1579270608.162,16.113,56.152,-0.488,-3.906,11.719,0
1579270608.166,20.508,53.711,0.488,1.465,-13.672,0
1579270608.170,23.926,51.758,-1.465,5.859,84.961,0
1579270608.174,23.438,48.340,4.395,6.348,65.918,0
1579270608.178,22.461,45.410,12.207,7.324,64.941,0
1579270608.181,20.508,43.945,12.695,9.766,37.109,0
1579270608.185,26.367,46.875,17.090,11.719,20.508,0
1579270608.189,30.273,47.852,17.578,11.230,39.551,0
1579270608.193,28.320,41.992,9.766,12.207,85.938,0
1579270608.197,30.273,41.016,13.672,19.043,32.715,0
1579270608.214,30.762,45.410,19.531,26.367,-6.348,0
1579270608.218,39.551,51.270,22.949,34.180,4.395,0
1579270608.222,44.434,46.875,22.949,32.227,-39.551,0
1579270608.226,40.527,42.480,19.043,31.738,3.906,0
1579270608.230,36.621,45.410,18.066,35.645,59.570,0
1579270608.234,36.621,44.434,19.043,37.109,14.160,0
1579270608.238,35.645,41.504,20.996,36.621,36.621,0
1579270608.241,34.180,42.480,20.508,33.203,39.062,0
1579270608.245,32.227,40.527,18.555,30.762,-12.695,0
1579270608.249,27.344,36.621,21.484,30.273,-23.438,0
1579270608.253,21.484,34.668,21.484,28.809,-12.207,0
1579270608.257,22.949,35.156,20.508,29.297,47.363,0
1579270608.254,23.438,34.180,21.973,26.855,68.848,0
1579270608.258,25.391,33.691,20.020,29.297,39.062,0
1579270608.262,31.738,36.621,21.973,36.133,39.062,0
1579270608.266,34.668,38.574,26.855,36.621,28.320,0
1579270608.270,31.250,39.551,24.414,40.039,26.367,0
1579270608.274,25.879,38.574,24.902,38.086,13.672,0
1579270608.278,26.855,37.109,26.855,34.180,20.996,0
1579270608.281,33.203,35.645,22.949,39.551,10.254,0
1579270608.285,32.715,33.691,21.973,43.945,2.441,0
1579270608.289,25.391,31.738,22.461,42.969,28.809,0
1579270608.293,26.855,35.156,25.879,41.016,30.273,0
1579270608.297,22.461,32.227,23.926,37.109,84.961,0
1579270608.294,20.508,27.344,18.066,36.621,83.008,0
1579270608.298,28.320,29.297,21.484,40.039,35.645,0
1579270608.302,27.832,30.762,20.508,40.527,-17.578,0
1579270608.306,23.926,27.832,18.066,36.621,-54.199,0
1579270608.310,22.461,23.438,17.578,32.227,37.598,0
1579270608.314,23.926,26.367,23.438,35.645,56.152,0
1579270608.318,22.949,27.832,25.391,29.297,-36.621,0
1579270608.321,16.602,24.414,19.043,21.973,6.836,0
1579270608.325,21.484,25.879,18.066,20.996,69.824,0
1579270608.329,22.461,26.367,20.508,16.602,53.711,0
1579270608.333,17.090,24.414,19.043,22.461,30.762,0
1579270608.337,21.484,26.855,22.461,30.273,17.578,0
1579270608.354,24.902,27.344,27.832,31.738,26.855,0
1579270608.358,27.832,26.855,30.273,37.598,56.152,0
1579270608.362,23.438,25.391,28.320,36.133,33.203,0
1579270608.366,20.020,24.414,23.926,27.832,15.625,0
1579270608.370,23.438,26.367,24.414,27.344,70.312,0
1579270608.374,21.973,25.391,28.809,32.715,53.711,0
1579270608.378,23.438,26.855,28.320,36.133,9.766,0
1579270608.381,20.996,27.832,24.414,30.273,6.836,0
1579270608.385,20.020,24.902,23.926,29.297,-18.066,0
1579270608.389,21.973,25.879,25.879,27.832,33.691,0
1579270608.393,23.438,28.809,29.785,26.855,62.012,0
1579270608.397,25.879,27.344,33.203,29.785,28.320,0
1579270608.394,22.461,25.391,31.738,25.879,38.086,0
1579270608.398,22.461,22.949,29.297,27.344,20.508,0
1579270608.402,28.809,24.902,26.367,35.645,67.383,0
1579270608.406,28.320,30.762,21.484,31.738,35.645,0
1579270608.410,20.020,31.738,22.461,21.973,9.277,0
1579270608.414,13.672,32.715,26.367,21.484,83.008,0
1579270608.418,8.789,33.203,24.902,18.066,84.473,0
1579270608.421,4.883,32.715,21.973,7.324,-3.418,0
1579270608.425,10.254,32.227,17.578,6.836,-37.598,0
1579270608.429,15.137,32.227,18.066,17.578,-30.762,0
1579270608.433,15.625,29.785,20.996,21.484,2.930,0
1579270608.437,20.020,24.414,20.996,20.020,17.578,0
1579270608.435,14.160,23.438,18.555,20.996,35.645,0
1579270608.439,13.672,24.414,18.555,25.879,4.395,0
1579270608.443,19.531,25.879,18.066,32.715,21.484,0
1579270608.447,20.020,27.832,14.160,31.738,109.375,0
1579270608.451,27.344,31.250,18.066,33.203,53.711,0
1579270608.455,29.785,30.762,25.879,36.133,36.133,0
1579270608.459,25.879,29.297,24.902,36.133,40.039,0
1579270608.462,30.762,33.691,24.902,39.551,-10.742,0
1579270608.466,31.250,34.180,28.809,39.062,-35.156,0
1579270608.470,23.926,30.273,26.367,32.227,-17.578,0
1579270608.474,23.926,34.180,24.902,36.621,-17.090,0
1579270608.478,25.879,34.668,26.367,42.969,11.230,0
1579270608.494,25.879,32.715,23.926,34.668,33.691,0
1579270608.498,25.879,31.738,23.438,23.926,34.180,0
1579270608.502,25.391,28.809,20.508,25.391,45.410,0
1579270608.506,24.414,29.785,16.602,30.762,63.965,0
1579270608.510,23.438,31.250,19.531,32.227,83.496,0
1579270608.514,32.715,28.809,20.508,40.039,26.855,0
1579270608.518,39.551,32.715,20.508,41.016,-11.719,0
1579270608.521,36.133,37.109,23.438,39.551,-2.930,0
1579270608.525,33.203,35.156,22.949,40.039,38.574,0
1579270608.529,37.109,36.621,23.438,41.504,40.039,0
1579270608.533,34.180,37.109,23.438,39.062,-3.418,0
1579270608.537,31.250,36.133,24.414,38.574,35.645,0
1579270608.534,32.715,37.109,27.344,40.039,13.184,0
1579270608.538,29.785,38.086,26.855,34.180,-22.461,0
1579270608.542,28.320,39.551,28.809,32.227,14.648,0
1579270608.546,32.227,36.133,29.297,34.180,76.172,0
1579270608.550,34.668,34.668,26.367,36.133,73.242,0
1579270608.554,32.227,35.645,22.461,35.645,-4.395,0
1579270608.558,30.273,34.668,24.414,35.156,-7.324,0
1579270608.561,32.227,37.598,26.855,39.062,27.832,0
1579270608.565,31.250,37.598,26.367,40.527,35.645,0
1579270608.569,30.762,36.133,28.809,40.527,56.641,0
1579270608.573,29.785,35.645,26.367,32.715,85.449,0
1579270608.577,22.461,33.691,16.602,26.367,65.430,0
1579270608.573,21.484,29.785,15.625,31.250,27.344,0
1579270608.577,23.438,30.273,21.484,35.645,14.648,0
1579270608.581,25.879,35.156,20.996,35.645,59.570,0
1579270608.585,24.902,37.109,20.508,32.715,83.008,0
1579270608.589,23.926,37.598,21.484,35.156,-0.488,0
1579270608.593,25.391,37.109,22.461,38.086,-17.578,0
1579270608.597,23.438,35.156,21.484,34.668,20.020,0
1579270608.600,21.484,35.645,18.555,30.762,44.434,0
1579270608.604,20.996,36.621,21.973,27.344,76.172,0
1579270608.608,16.113,34.668,20.020,18.066,110.352,0
1579270608.612,13.672,32.227,16.602,17.578,81.543,0
1579270608.616,18.066,34.668,20.508,22.461,23.926,0
1579270608.633,18.066,37.109,20.508,22.461,84.473,0
1579270608.637,21.484,41.016,19.043,25.879,78.125,0
1579270608.641,27.344,41.992,20.996,32.715,3.418,0
1579270608.645,28.809,39.551,24.414,34.668,2.930,0
1579270608.649,29.297,42.969,30.762,37.109,18.066,0
1579270608.653,22.461,41.016,27.344,35.645,81.543,0
1579270608.657,18.066,38.086,21.484,28.320,115.234,0
1579270608.660,19.531,38.574,24.902,25.391,80.078,0
1579270608.664,15.625,33.691,21.484,22.949,53.711,0
1579270608.668,10.254,28.809,17.578,23.438,40.527,0
1579270608.672,17.090,27.832,18.066,32.227,30.762,0
1579270608.676,27.832,28.809,16.113,36.621,24.414,0
1579270608.674,18.066,27.832,19.531,27.344,-2.441,0
1579270608.678,5.859,26.367,29.297,20.020,7.812,0
1579270608.682,7.324,26.855,36.133,21.484,-10.254,0
1579270608.686,8.789,27.344,35.156,24.414,20.996,0
1579270608.690,7.324,25.879,31.250,24.414,78.125,0
1579270608.694,4.883,22.949,27.832,17.090,80.566,0
1579270608.698,2.441,19.043,23.438,12.695,72.266,0
1579270608.701,5.371,22.461,24.414,20.508,-5.859,0
1579270608.705,10.254,22.949,25.391,26.367,2.441,0
1579270608.709,15.625,28.320,26.855,27.344,32.227,0
1579270608.713,19.043,34.668,29.785,27.344,-18.555,0
1579270608.717,17.578,33.203,29.297,27.832,10.254,0
1579270608.713,22.461,35.645,27.344,25.879,40.039,0
1579270608.717,19.531,34.668,25.391,19.043,41.016,0
1579270608.721,15.625,28.809,28.809,21.973,23.926,0
1579270608.725,17.578,27.344,29.297,27.832,22.461,0
1579270608.729,20.996,28.809,26.855,32.227,38.086,0
1579270608.733,24.902,29.297,31.250,35.645,10.254,0
1579270608.737,23.926,27.344,32.715,30.762,-20.996,0
1579270608.740,24.902,27.344,35.645,35.645,-14.648,0
1579270608.744,28.320,34.668,41.992,37.109,0.977,0
1579270608.748,24.902,33.203,38.574,30.273,-50.293,0
1579270608.752,20.508,26.855,34.180,31.250,-33.691,1
1579270608.756,20.996,24.414,33.203,33.691,6.836,0
1579270608.773,21.973,23.438,31.250,37.109,-6.836,0
1579270608.777,21.973,24.902,28.809,36.133,41.504,0
1579270608.781,22.949,24.902,24.414,29.785,64.941,0
1579270608.785,29.297,24.902,20.020,26.855,17.090,0
1579270608.789,25.391,25.391,20.020,28.320,-17.090,0
1579270608.793,22.949,28.809,27.832,37.109,6.836,0
1579270608.797,28.320,34.180,32.227,36.621,3.418,0
1579270608.800,23.926,32.227,27.344,30.762,-21.973,0
1579270608.804,20.020,27.832,25.879,31.738,13.672,0
1579270608.808,20.020,28.809,24.902,31.250,4.395,0
1579270608.812,20.996,31.250,22.949,28.809,27.832,0
1579270608.816,22.949,33.203,26.367,31.250,87.402,0
1579270608.813,24.414,33.691,24.902,33.203,73.730,0
1579270608.817,21.973,34.668,20.020,32.227,49.805,0
1579270608.821,21.484,34.668,20.020,28.809,15.625,0
1579270608.825,23.926,35.645,21.973,28.809,17.090,0
1579270608.829,22.461,34.180,24.414,27.832,37.598,0
1579270608.833,20.996,32.227,25.879,25.391,26.367,0
1579270608.837,13.672,30.762,23.926,21.484,3.418,0
1579270608.840,7.324,28.809,21.484,18.066,0.977,0
1579270608.844,10.742,31.250,20.020,20.508,-15.137,0
1579270608.848,16.602,33.203,25.879,24.414,20.508,0
1579270608.852,15.137,31.250,28.809,22.949,53.223,0
1579270608.856,13.184,27.832,23.926,21.973,73.242,0
1579270608.853,17.578,32.715,24.902,25.879,25.879,0
1579270608.857,18.555,36.133,26.855,24.902,7.812,0
1579270608.861,22.461,36.621,29.297,24.902,45.898,0
1579270608.865,19.531,34.668,27.344,24.414,8.789,0
1579270608.869,18.066,36.133,21.973,19.531,40.527,0
1579270608.873,18.066,35.156,23.438,18.555,28.809,0
1579270608.877,12.207,29.785,22.461,17.578,1.953,0
1579270608.880,12.695,30.273,19.531,18.555,9.277,0
1579270608.884,15.625,29.785,18.066,13.184,20.508,0
1579270608.888,17.578,28.320,16.602,13.184,12.695,0
1579270608.892,21.973,31.738,18.066,23.926,-10.254,0
1579270608.896,24.902,32.227,21.484,24.414,15.625,0
1579270608.913,30.762,29.785,24.902,24.902,54.688,0
1579270608.917,34.668,31.738,26.855,27.832,57.617,0
1579270608.921,27.832,34.180,22.949,29.297,74.219,0
1579270608.925,24.414,34.180,18.555,27.344,47.852,0
1579270608.929,21.973,36.133,20.020,23.926,-30.762,0
1579270608.933,22.461,39.062,24.902,27.832,-59.082,0
1579270608.937,24.414,36.133,22.949,29.785,15.625,0
1579270608.940,24.902,34.668,21.973,31.250,77.637,0
1579270608.944,25.391,33.203,21.484,33.691,56.641,0
1579270608.948,24.902,34.180,19.043,33.203,56.152,0
1579270608.952,24.414,35.156,24.414,34.668,81.543,0
1579270608.956,20.020,30.273,27.344,30.273,70.312,0
1579270608.954,17.090,25.391,24.414,25.879,28.320,0
1579270608.958,21.973,27.832,20.996,27.344,-7.324,0
1579270608.962,24.414,31.738,20.996,27.344,-3.906,0
1579270608.966,21.484,26.855,19.043,26.367,45.898,0
1579270608.970,17.090,26.855,17.578,20.996,-0.977,0
1579270608.974,10.742,25.391,17.090,13.672,20.508,0
1579270608.978,9.766,21.484,17.090,16.113,100.098,0
1579270608.981,5.859,20.508,15.137,15.137,12.695,0
1579270608.985,3.418,22.461,12.695,12.695,13.184,0
1579270608.989,10.254,26.855,15.137,13.672,71.289,0
1579270608.993,6.836,26.367,15.625,7.324,32.227,0
1579270608.997,4.883,24.902,14.160,8.789,16.113,0
1579270608.994,7.812,22.949,15.625,15.625,26.855,0
1579270608.998,7.324,23.926,14.160,18.555,73.730,0
1579270609.002,11.719,25.879,14.160,20.020,70.801,0
1579270609.006,11.719,21.484,16.602,15.625,26.367,0
1579270609.010,12.695,22.949,21.973,20.020,40.039,0
1579270609.014,16.113,26.855,24.902,24.414,4.395,0
1579270609.018,16.113,21.973,21.484,18.066,57.617,0
1579270609.021,21.484,25.879,23.438,23.438,21.484,0
1579270609.025,20.508,30.762,26.367,22.949,-40.039,0
1579270609.029,17.578,23.926,23.926,21.973,9.277,0
1579270609.033,19.043,22.949,26.367,26.855,-34.180,0
1579270609.037,18.555,25.879,25.879,24.414,-50.781,0
1579270609.054,19.531,27.344,26.367,28.320,0.977,0
1579270609.058,15.625,26.367,22.949,25.391,46.387,0
1579270609.062,13.184,22.461,20.020,19.043,21.484,0
1579270609.066,16.602,23.926,18.555,19.043,-22.949,0
1579270609.070,20.020,26.367,14.160,22.461,11.719,0
1579270609.074,20.996,29.297,18.555,28.320,49.805,0
1579270609.078,22.461,35.156,26.367,26.367,40.039,0
1579270609.081,23.438,32.715,25.879,26.367,29.297,0
1579270609.085,25.391,29.785,23.438,31.738,44.434,0
1579270609.089,25.879,34.180,26.855,35.645,20.508,0
1579270609.093,28.809,36.621,25.879,39.062,-57.617,0
1579270609.097,32.715,37.598,27.832,36.621,-20.020,0
1579270609.094,30.762,38.086,29.785,32.715,97.656,0
1579270609.098,34.180,39.062,28.809,35.156,49.805,0
1579270609.102,38.086,37.598,27.832,39.062,-11.230,0
1579270609.106,33.691,33.203,27.832,37.598,-14.648,0
1579270609.110,31.738,29.785,26.855,35.156,0.977,0
1579270609.114,30.273,27.344,23.926,37.109,22.461,0
1579270609.118,24.902,30.273,24.902,34.180,9.766,0
1579270609.121,26.367,37.109,28.809,34.180,28.320,0
1579270609.125,28.809,36.621,25.391,34.668,19.043,0
1579270609.129,24.414,39.062,28.320,28.809,9.766,0
1579270609.133,24.414,43.457,35.156,31.738,20.996,0
1579270609.137,24.902,41.016,34.180,34.180,13.672,0
1579270609.135,24.414,39.551,34.180,34.180,-22.461,0
1579270609.139,22.949,38.086,29.297,32.715,19.531,0
1579270609.143,24.902,38.086,29.297,35.645,-15.137,0
1579270609.147,28.809,38.086,30.273,35.156,-34.180,0
1579270609.151,30.762,37.109,27.344,31.250,0.000,0
1579270609.155,31.250,36.621,28.320,35.156,-12.695,0
1579270609.159,27.344,34.180,27.832,35.156,47.363,0
1579270609.162,26.367,34.180,26.855,29.297,27.344,0
1579270609.166,25.879,36.133,23.438,26.855,14.648,0
1579270609.170,27.832,38.574,22.461,26.855,37.598,0
1579270609.174,28.809,38.574,26.855,27.344,-27.344,0
1579270609.178,27.832,38.086,27.344,29.785,-5.371,0
1579270609.194,32.715,40.527,27.832,29.785,30.273,0
1579270609.198,31.738,38.574,25.879,27.832,71.777,0
1579270609.202,26.367,34.180,21.484,28.809,100.586,0
1579270609.206,26.855,34.668,23.926,33.691,14.160,0
1579270609.210,26.855,34.180,25.879,35.156,9.277,0
1579270609.214,26.367,36.621,28.320,33.691,66.406,0
1579270609.218,30.273,41.992,29.297,32.227,34.668,0
1579270609.221,29.785,41.016,27.832,32.715,17.090,0
1579270609.225,28.320,40.039,26.367,40.527,18.066,0
1579270609.229,29.297,40.039,24.414,43.457,34.668,0
1579270609.233,26.855,40.039,26.855,41.016,23.438,0
1579270609.237,23.926,40.039,25.391,36.133,17.090,0
1579270609.234,21.484,38.574,21.973,33.691,83.984,0
1579270609.238,21.973,36.133,22.949,37.598,126.465,0
1579270609.242,28.320,39.551,20.508,40.527,26.367,0
1579270609.246,29.297,44.922,20.020,37.109,-28.320,0
1579270609.250,20.996,43.457,17.578,29.297,-14.160,0
1579270609.254,13.672,42.480,17.090,22.949,-0.977,0
1579270609.258,11.230,39.551,19.531,20.020,46.387,0
1579270609.261,13.672,38.574,18.066,20.996,20.020,0
1579270609.265,16.113,36.621,16.602,26.855,12.207,0
1579270609.269,17.090,35.156,19.531,24.414,-7.812,0
1579270609.273,20.020,34.668,20.508,20.020,0.977,0
1579270609.277,21.973,33.203,20.020,26.367,56.641,0
1579270609.274,20.508,34.668,20.996,26.367,37.109,0
1579270609.278,19.531,34.180,21.973,28.809,43.457,0
1579270609.282,21.973,34.180,23.438,30.762,38.086,0
1579270609.286,20.508,33.691,20.508,28.809,26.367,0
1579270609.290,24.414,32.227,18.555,33.203,25.879,0
1579270609.294,26.367,31.250,20.508,36.133,8.789,0
1579270609.298,20.996,31.738,21.484,33.203,33.203,0
1579270609.301,20.508,34.180,21.484,28.809,54.199,0
1579270609.305,20.020,35.645,19.531,25.879,61.035,0
1579270609.309,19.043,33.691,14.648,33.203,28.320,0
1579270609.313,21.973,33.203,16.602,28.809,37.598,0
1579270609.317,19.531,31.738,16.113,20.996,43.457,0
1579270609.334,15.625,27.832,13.184,21.484,17.090,0
1579270609.338,13.672,25.879,13.184,19.531,31.738,0
1579270609.342,14.648,25.391,15.137,20.508,65.430,0
1579270609.346,14.648,25.879,17.578,20.508,89.844,0
1579270609.350,17.578,26.367,19.531,22.461,46.875,0
1579270609.354,24.902,26.855,24.902,26.367,68.848,0
1579270609.358,22.461,26.855,23.926,22.949,44.922,0
1579270609.361,20.020,25.879,19.531,23.926,-26.855,0
1579270609.365,21.484,26.367,19.531,29.297,6.348,0
1579270609.369,21.973,26.367,19.531,30.273,37.598,0
1579270609.373,26.367,27.832,19.043,31.738,7.324,0
1579270609.377,25.879,24.902,16.113,27.344,20.996,0
1579270609.374,18.555,19.043,10.254,24.902,59.082,0
1579270609.378,19.531,21.484,7.812,28.809,53.223,0
1579270609.382,24.414,23.438,15.625,29.785,47.363,0
1579270609.386,24.414,23.926,22.461,32.227,40.039,0
1579270609.390,20.996,26.367,20.996,31.250,-8.301,0
1579270609.394,20.020,24.414,19.043,29.297,-8.789,0
1579270609.398,19.043,23.926,21.484,34.668,21.484,0
1579270609.401,18.066,23.926,21.973,31.250,-10.742,0
1579270609.405,19.531,26.367,22.461,24.414,-21.484,0
1579270609.409,20.020,27.832,22.949,25.391,-38.086,0
1579270609.413,18.555,25.391,19.043,26.855,17.578,0
1579270609.417,17.090,24.414,19.531,21.973,118.652,0
1579270609.414,18.555,25.391,20.996,19.531,51.270,0
1579270609.418,20.996,27.832,20.508,28.320,-13.184,0
1579270609.422,20.996,29.785,21.484,28.320,33.691,0
1579270609.426,20.508,27.832,20.508,24.902,63.965,0
1579270609.430,22.949,26.367,19.043,21.973,15.625,0
1579270609.434,26.367,28.320,20.020,21.973,12.695,0
1579270609.438,25.391,28.809,17.578,26.855,34.668,0
1579270609.441,26.855,28.320,16.113,26.367,1.465,0
1579270609.445,25.391,25.879,15.625,20.996,-1.465,0
1579270609.449,22.949,24.902,13.672,24.902,36.133,0
1579270609.453,27.344,26.367,18.066,32.227,-11.230,0
1579270609.457,27.832,27.344,20.508,31.250,17.578,0
1579270609.474,25.391,29.785,21.484,30.762,63.965,0
1579270609.478,20.996,25.879,21.973,29.785,50.781,0
1579270609.482,19.043,22.949,18.555,25.879,73.242,0
1579270609.486,21.973,24.902,20.508,28.320,104.004,0
1579270609.490,20.020,22.949,22.461,31.250,68.359,0
1579270609.494,19.043,22.949,22.461,27.832,25.391,0
1579270609.498,16.113,23.926,20.508,22.949,25.391,0
1579270609.501,12.695,22.461,20.996,24.414,31.250,0
1579270609.505,15.137,23.438,24.902,25.879,44.434,0
1579270609.509,14.160,22.949,20.996,25.391,36.133,0
1579270609.513,14.160,23.438,20.508,20.508,-13.184,0
1579270609.517,12.207,21.484,19.043,13.672,25.879,0
1579270609.514,11.719,20.020,13.184,14.648,52.734,0
1579270609.518,15.137,23.438,13.184,17.090,53.223,0
1579270609.522,17.578,24.414,16.602,20.508,54.199,0
1579270609.526,22.949,26.855,17.578,26.855,8.789,0
1579270609.530,28.320,29.785,17.578,30.273,-46.387,0
1579270609.534,30.273,30.762,23.438,34.180,-20.508,0
1579270609.538,31.250,29.297,27.344,35.645,10.742,0
1579270609.541,29.785,28.809,28.320,35.156,-20.508,0
1579270609.545,29.785,28.809,26.855,36.133,3.418,0
1579270609.549,29.785,28.320,23.438,31.738,-4.883,0
1579270609.553,23.438,27.344,20.996,26.855,-9.277,0
1579270609.557,18.555,27.832,20.020,27.344,55.664,0
1579270609.554,19.531,27.344,21.973,26.367,31.250,0
1579270609.558,19.043,30.762,23.438,26.367,-1.953,0
1579270609.562,20.020,32.227,18.555,26.367,8.789,0
1579270609.566,19.531,30.273,17.090,22.949,27.832,0
1579270609.570,15.625,29.785,19.531,22.461,21.973,0
1579270609.574,12.695,27.344,21.484,24.902,28.320,0
1579270609.578,10.254,25.391,24.414,24.414,30.762,0
1579270609.581,8.301,27.344,25.879,13.672,-24.902,0
1579270609.585,10.254,28.320,23.438,8.789,-27.832,0
1579270609.589,13.184,28.809,22.949,14.648,30.273,0
1579270609.593,10.742,28.320,19.043,15.137,24.902,0
1579270609.597,6.836,23.438,14.160,12.207,38.086,0
1579270609.614,8.789,24.902,18.555,18.555,23.926,0
1579270609.618,19.043,26.367,21.484,28.809,18.555,0
1579270609.622,23.438,29.297,20.020,29.785,1.465,0
1579270609.626,16.602,32.227,20.996,20.508,-47.363,0
1579270609.630,14.160,34.180,24.902,16.113,-17.090,0
1579270609.634,14.648,37.109,25.391,17.090,-18.555,0
1579270609.638,12.207,33.691,21.484,13.672,-25.879,0
1579270609.641,9.277,30.273,17.090,12.207,45.898,0
1579270609.645,11.230,28.809,19.531,17.578,53.223,0
1579270609.649,13.184,25.879,16.113,20.508,100.586,0
1579270609.653,14.160,26.367,12.695,18.555,98.633,0
1579270609.657,10.742,22.949,17.090,18.555,55.176,0
1579270609.653,10.742,24.414,22.949,20.996,-21.484,0
1579270609.657,15.625,27.832,23.438,19.531,-33.691,0
1579270609.661,17.090,30.273,23.926,23.926,97.656,0
1579270609.665,22.461,35.156,30.273,29.297,69.824,0
1579270609.669,24.414,34.668,30.273,27.344,-11.719,0
1579270609.673,19.531,32.227,26.367,26.855,-33.203,0
1579270609.677,19.531,33.203,26.855,25.391,-21.973,0
1579270609.680,20.508,31.250,22.949,29.297,35.156,0
1579270609.684,23.438,32.715,27.832,33.203,43.457,0
1579270609.688,23.438,32.227,32.715,27.832,11.719,0
1579270609.692,16.602,28.809,25.879,24.414,30.273,0
1579270609.696,16.602,25.391,23.926,27.832,37.598,0
1579270609.713,18.066,21.484,21.973,26.367,72.266,0
1579270609.717,15.625,23.926,20.508,25.879,87.891,0
1579270609.721,15.137,25.391,20.508,25.391,73.242,0
1579270609.725,12.695,25.879,21.484,25.879,39.551,0
1579270609.729,11.719,25.879,20.020,30.273,16.602,0
1579270609.733,17.090,28.320,21.484,33.203,-11.719,0
1579270609.737,19.531,29.297,22.461,32.227,18.066,0
1579270609.740,16.602,27.344,24.414,25.879,70.801,0
1579270609.744,13.672,27.344,27.832,26.855,69.336,0
1579270609.748,19.043,30.762,28.809,36.133,54.199,0
1579270609.752,23.438,34.668,29.297,36.621,-7.324,0
1579270609.756,21.973,35.156,29.297,37.598,-0.488,0
1579270609.753,22.949,35.156,27.832,39.551,54.199,0
1579270609.757,21.484,34.668,27.832,36.621,49.316,0
1579270609.761,21.484,35.645,32.227,32.715,39.062,0
1579270609.765,23.926,35.645,35.645,30.762,51.270,0
1579270609.769,22.461,35.156,36.133,30.762,39.062,0
1579270609.773,22.461,35.645,38.574,32.715,29.785,0
1579270609.777,23.926,37.109,40.527,35.156,-13.184,4
1579270609.780,25.879,37.598,40.039,34.180,33.691,0
1579270609.784,26.367,36.621,39.062,32.715,69.336,0
1579270609.788,23.926,32.715,36.621,33.203,48.828,0
1579270609.792,25.391,35.645,34.180,27.344,9.766,0
1579270609.796,23.926,33.691,31.738,23.438,14.648,0
1579270609.793,23.438,30.273,33.691,32.715,17.578,0
1579270609.797,22.461,31.250,35.645,33.691,-13.184,0
1579270609.801,21.484,28.809,34.668,32.227,-2.441,0
1579270609.805,25.879,28.809,32.227,37.109,-9.766,0
1579270609.809,25.879,29.297,35.645,37.598,-30.762,0
1579270609.813,24.414,27.832,39.551,37.598,60.059,0
1579270609.817,27.344,27.832,37.109,34.180,65.918,0
1579270609.820,23.926,29.785,34.668,30.273,-28.809,0
1579270609.824,26.855,31.250,31.738,34.668,10.742,0
1579270609.828,32.715,34.180,30.273,34.668,19.531,0
1579270609.832,24.902,33.691,27.344,30.762,-24.902,0
1579270609.836,26.855,31.250,24.902,30.273,5.371,0
1579270609.853,32.227,32.227,26.855,33.203,30.273,0
1579270609.857,29.297,32.715,29.785,35.645,9.766,0
1579270609.861,27.832,30.273,29.297,29.297,40.527,0
1579270609.865,29.785,31.250,28.320,25.879,74.219,0
1579270609.869,26.855,34.668,28.320,28.809,41.504,0
1579270609.873,23.438,34.668,31.738,33.691,2.930,0
1579270609.877,20.508,35.645,32.715,32.227,-26.367,0
1579270609.880,20.996,34.668,29.297,19.043,-0.977,0
1579270609.884,24.902,35.645,29.785,19.531,34.668,0
1579270609.888,21.973,37.598,30.273,26.855,16.113,0
1579270609.892,19.531,35.156,27.832,26.367,0.977,0
1579270609.896,18.555,33.691,30.273,27.832,69.824,0
1579270609.893,22.949,30.273,29.785,30.762,53.223,0
1579270609.897,21.484,28.809,25.879,31.738,-3.418,0
1579270609.901,11.719,29.297,25.879,26.855,39.062,0
1579270609.905,14.160,29.297,25.879,27.832,27.832,0
1579270609.909,17.578,29.785,25.391,28.320,30.762,0
1579270609.913,10.254,26.367,26.855,26.367,56.641,0
1579270609.917,8.301,26.367,27.344,26.367,31.738,0
1579270609.920,14.160,26.855,27.832,25.391,36.621,0
1579270609.924,14.160,26.367,26.855,25.391,40.527,0
1579270609.928,20.508,26.367,26.367,29.785,32.715,0
1579270609.932,26.367,29.297,28.809,28.809,8.301,0
1579270609.936,24.902,27.832,30.273,22.461,33.691,0
1579270609.933,20.996,28.320,29.785,26.367,35.156,0
1579270609.937,15.137,29.297,26.367,23.926,32.227,0
1579270609.941,9.766,28.809,22.949,22.949,42.969,0
1579270609.945,5.859,29.297,20.996,28.320,-4.883,0
1579270609.949,10.254,29.297,22.461,26.367,-27.832,0
1579270609.953,13.672,31.250,27.344,21.973,11.719,0
1579270609.957,9.766,31.250,26.855,17.578,9.277,0
1579270609.960,8.301,30.273,23.926,19.531,-35.156,0
1579270609.964,9.766,32.227,26.855,19.043,50.781,0
1579270609.968,13.184,33.203,25.391,17.578,81.055,0
1579270609.972,19.531,33.691,20.996,23.438,25.879,0
1579270609.976,20.020,32.715,25.879,24.902,10.742,0
1579270609.993,24.414,33.691,24.902,24.414,37.598,0
1579270609.997,30.762,36.133,24.414,23.926,44.434,0
1579270610.001,26.367,34.668,26.367,24.414,33.203,0
1579270610.005,22.949,34.180,28.320,30.273,55.176,0
1579270610.009,22.461,33.691,29.785,31.250,35.156,0
1579270610.013,19.043,28.809,25.391,28.320,16.602,0
1579270610.017,15.137,30.762,25.391,25.879,-16.602,0
1579270610.020,19.043,31.738,28.320,21.973,-6.348,0
1579270610.024,19.531,27.832,23.926,28.320,21.973,0
1579270610.028,18.555,28.809,19.531,28.809,24.902,0
1579270610.032,14.160,25.391,22.949,23.926,47.852,0
1579270610.036,14.648,27.344,27.832,28.320,67.871,0
1579270610.034,21.973,30.273,28.809,27.344,8.789,0
1579270610.038,18.066,27.344,27.832,30.762,-62.988,0
1579270610.042,15.625,25.391,26.367,32.715,4.883,0
1579270610.046,16.113,24.414,22.949,29.297,56.641,0
1579270610.050,20.996,24.902,23.926,30.273,7.324,0
1579270610.054,23.438,26.855,23.438,30.762,36.133,0
1579270610.058,23.926,27.344,17.090,28.320,88.867,0
1579270610.061,20.996,25.391,19.531,21.484,64.941,0
1579270610.065,18.555,20.996,24.414,16.113,44.434,0
1579270610.069,20.996,19.531,24.902,20.508,77.637,0
1579270610.073,19.531,22.461,26.367,23.438,83.008,0
1579270610.077,20.020,22.461,22.461,22.949,21.973,0
1579270610.074,26.367,24.414,20.020,30.273,9.277,0
1579270610.078,25.879,26.367,21.973,30.273,50.781,0
1579270610.082,22.949,25.879,22.461,30.273,56.152,0
1579270610.086,17.578,24.902,23.438,27.832,38.086,0
1579270610.090,18.066,23.926,23.438,24.414,55.176,0
1579270610.094,23.438,23.926,24.414,33.691,32.715,0
1579270610.098,21.484,22.949,22.949,32.715,-25.391,0
1579270610.101,20.020,20.020,20.020,29.297,3.906,0
1579270610.105,20.020,21.484,23.438,33.203,46.875,0
1579270610.109,15.625,24.414,19.043,25.879,2.930,0
1579270610.113,18.555,22.461,14.160,17.578,7.812,0
1579270610.117,21.484,24.414,17.578,22.461,58.594,0
1579270610.134,22.461,26.855,18.555,25.391,4.395,0
1579270610.138,26.855,27.344,21.484,26.855,-13.672,0
1579270610.142,23.926,25.879,21.484,26.855,69.824,0
1579270610.146,23.926,24.902,19.531,25.391,75.684,0
1579270610.150,28.809,28.320,22.461,27.344,44.434,0
1579270610.154,30.273,31.250,26.855,34.180,-13.184,0
1579270610.158,28.809,33.203,29.785,34.180,-13.184,0
1579270610.161,26.855,30.273,28.809,28.320,0.977,0
1579270610.165,27.832,28.809,27.832,31.250,33.691,0
1579270610.169,28.320,33.203,31.250,37.598,35.645,0
1579270610.173,26.367,30.762,33.691,38.574,-4.395,0
1579270610.177,28.320,29.297,29.297,37.598,21.484,0
1579270610.174,25.879,30.273,22.461,32.715,12.207,0
1579270610.178,21.973,28.809,23.926,29.297,47.852,0
1579270610.182,23.438,26.855,29.785,34.668,52.246,0
1579270610.186,23.926,26.855,29.297,34.668,-9.277,0
1579270610.190,23.438,27.832,28.320,32.227,-6.836,0
1579270610.194,21.484,26.855,30.273,29.785,-4.883,0
1579270610.198,23.438,26.855,29.297,31.250,-14.648,0
1579270610.201,26.855,27.832,25.879,36.133,33.203,0
1579270610.205,25.391,27.832,23.926,31.250,50.781,0
1579270610.209,26.367,32.715,27.832,30.273,18.066,0
1579270610.213,26.855,35.156,28.809,33.203,56.641,0
1579270610.217,23.926,30.273,23.926,29.297,71.777,0
1579270610.214,26.367,32.715,25.879,34.180,4.883,0
1579270610.218,32.715,36.621,27.832,35.645,-42.480,0
1579270610.222,31.738,34.668,26.855,32.227,9.277,0
1579270610.226,25.391,34.668,28.320,35.156,29.785,0
1579270610.230,25.391,37.598,28.320,37.598,28.809,0
1579270610.234,29.785,38.574,30.273,39.551,18.066,0
1579270610.238,23.926,37.598,31.250,37.109,31.738,0
1579270610.241,24.902,38.574,34.668,39.062,35.156,0
1579270610.245,31.250,36.133,36.133,36.621,-5.371,0
1579270610.249,25.879,30.762,29.785,29.297,31.738,0
1579270610.253,25.391,31.250,30.273,33.691,57.617,0
1579270610.257,25.391,32.715,33.691,34.668,77.148,0
1579270610.274,23.926,33.691,33.691,36.621,30.273,0
1579270610.278,26.855,34.668,30.273,33.203,-17.578,0
1579270610.282,25.391,36.133,27.832,30.762,29.297,0
1579270610.286,26.367,33.691,29.785,31.738,86.914,0
1579270610.290,29.297,31.738,31.738,33.691,11.230,0
1579270610.294,30.273,34.668,31.250,40.039,-37.109,0
1579270610.298,27.832,35.645,34.180,37.109,23.438,0
1579270610.301,26.367,32.227,34.668,30.273,13.672,0
1579270610.305,22.461,27.832,29.785,32.227,63.965,0
1579270610.309,19.043,30.762,25.391,29.297,108.887,0
1579270610.313,22.949,34.180,24.902,25.391,-16.602,0
1579270610.317,21.484,31.738,27.832,25.879,-41.016,0
1579270610.314,18.066,27.344,24.902,22.461,49.805,0
1579270610.318,18.555,28.809,22.949,22.461,59.570,0
1579270610.322,19.043,33.203,27.344,21.973,77.637,0
1579270610.326,17.090,33.203,24.414,20.508,65.918,0
1579270610.330,14.648,31.738,25.391,21.973,-3.418,0
1579270610.334,9.766,28.809,28.320,21.973,25.391,0
1579270610.338,9.766,29.785,23.926,17.578,48.828,0
1579270610.341,14.648,31.738,23.438,8.789,7.812,0
1579270610.345,16.602,30.762,27.832,20.996,18.066,0
1579270610.349,20.508,29.297,30.762,29.297,71.289,0
1579270610.353,20.020,27.344,28.809,24.902,6.348,0
1579270610.357,18.555,26.855,25.879,27.344,-43.945,0
1579270610.354,17.578,25.879,24.902,27.344,-10.742,0
1579270610.358,15.625,25.879,22.949,24.902,-43.457,0
1579270610.362,18.555,30.273,26.855,29.297,0.977,0
1579270610.366,23.438,32.227,29.785,29.297,50.293,0
1579270610.370,27.832,32.715,24.414,24.414,42.969,0
1579270610.374,35.156,35.156,26.855,29.785,21.484,0
1579270610.378,29.785,35.156,27.344,36.621,37.109,0
1579270610.381,28.320,35.645,26.367,37.109,41.016,0
1579270610.385,28.809,33.691,29.297,31.250,3.418,0
1579270610.389,18.066,28.809,24.902,26.367,56.641,0
1579270610.393,16.602,29.297,22.949,26.855,84.473,0
1579270610.397,22.949,31.250,26.855,24.414,56.641,0
1579270610.414,25.391,31.738,26.855,24.902,41.992,0
1579270610.418,22.949,31.738,23.438,25.879,32.715,0
1579270610.422,19.043,29.297,20.020,26.855,42.480,0
1579270610.426,21.484,30.273,21.973,25.879,19.531,0
1579270610.430,20.508,32.227,26.367,25.879,-9.277,0
1579270610.434,16.113,31.250,25.879,28.320,20.996,0
1579270610.438,16.602,33.691,29.297,27.344,36.621,0
1579270610.441,17.090,31.250,25.879,25.391,30.762,0
1579270610.445,16.602,27.344,18.555,29.297,3.418,0
1579270610.449,16.602,26.367,21.484,30.273,5.859,0
1579270610.453,18.066,25.879,20.508,30.273,14.160,0
1579270610.457,19.531,26.367,17.090,29.297,64.941,0
1579270610.454,19.043,27.344,18.555,29.785,69.824,0
1579270610.458,18.555,29.297,20.508,29.785,-18.066,0
1579270610.462,20.020,31.738,21.973,30.273,0.488,0
1579270610.466,22.461,30.762,23.438,33.691,84.473,0
1579270610.470,22.461,29.297,20.508,31.250,61.035,0
1579270610.474,22.949,31.250,18.555,26.367,-41.504,0
1579270610.478,22.949,33.203,21.484,27.344,-16.113,0
1579270610.481,21.484,30.762,21.973,27.344,15.625,0
1579270610.485,20.020,26.855,22.949,24.414,18.555,0
1579270610.489,16.113,28.320,26.367,25.879,78.613,0
1579270610.493,12.207,27.344,25.391,20.020,81.055,0
1579270610.497,17.090,26.367,21.484,17.578,45.410,0
1579270610.494,23.438,31.250,25.879,25.391,51.270,0
1579270610.498,26.855,37.109,31.250,19.043,51.270,0
1579270610.502,28.809,37.598,32.227,20.020,1.465,0
1579270610.506,24.902,31.738,29.785,30.273,-39.551,0
1579270610.510,29.785,33.203,28.320,29.297,6.836,0
1579270610.514,33.203,39.062,30.762,30.762,24.414,0
1579270610.518,27.344,36.133,30.762,35.645,-5.859,0
1579270610.521,29.297,32.227,30.762,40.039,-6.836,0
1579270610.525,29.297,30.273,29.297,33.691,22.949,0
1579270610.529,25.391,26.367,26.855,30.762,11.230,0
1579270610.533,27.344,30.273,30.273,34.180,18.066,0
1579270610.537,24.414,31.250,28.809,29.785,5.371,0
1579270610.554,20.020,25.879,29.785,26.855,35.645,0
1579270610.558,20.996,25.391,29.297,23.926,30.762,0
1579270610.562,18.066,26.367,23.926,21.484,18.066,0
1579270610.566,12.695,26.855,28.320,24.414,72.266,0
1579270610.570,12.207,24.902,28.809,18.555,43.945,0
1579270610.574,17.578,24.902,26.367,18.555,23.926,0
1579270610.578,18.555,24.414,29.297,18.555,-5.859,0
1579270610.581,19.531,24.414,27.344,14.160,-52.246,0
1579270610.585,18.555,24.414,25.879,19.043,35.156,0
1579270610.589,15.137,23.438,25.879,17.578,65.918,0
1579270610.593,20.996,30.762,27.344,17.578,-51.270,0
1579270610.597,20.020,31.250,23.926,16.602,-4.395,0
1579270610.594,16.602,25.879,17.578,9.277,50.293,0
1579270610.598,21.484,26.367,22.461,10.254,61.523,0
1579270610.602,26.855,26.855,26.367,14.648,17.578,0
1579270610.606,28.320,25.391,24.902,26.367,5.371,0
1579270610.610,29.297,25.879,22.949,24.902,20.020,0
1579270610.614,23.438,23.438,21.973,21.973,-0.977,0
1579270610.618,22.949,24.902,21.484,26.367,16.113,0
1579270610.621,19.531,25.391,21.973,23.438,78.613,0
1579270610.625,20.020,24.414,20.020,21.484,63.477,0
1579270610.629,27.832,27.344,18.066,23.926,-20.996,0
1579270610.633,19.043,25.879,20.020,19.531,31.738,0
1579270610.637,9.277,21.484,18.555,14.160,72.266,0
1579270610.634,11.230,20.508,19.043,18.555,53.223,0
1579270610.638,16.602,20.996,20.996,20.508,-13.672,0
1579270610.642,14.648,23.438,20.020,20.996,2.930,0
1579270610.646,9.277,24.414,18.555,20.508,27.832,0
1579270610.650,13.672,27.344,17.578,19.531,-17.578,0
1579270610.654,12.207,30.762,20.996,14.648,26.855,0
1579270610.658,9.766,27.832,25.391,22.461,23.926,0
1579270610.661,13.184,28.809,27.832,21.973,9.766,0
1579270610.665,11.719,30.273,26.855,12.695,-0.488,0
1579270610.669,9.766,28.809,24.414,24.902,-19.531,0
1579270610.673,11.230,30.273,22.949,26.855,32.227,0
1579270610.677,16.113,28.809,20.996,23.926,-3.906,0
1579270610.694,22.949,29.785,22.461,28.320,-4.883,0
1579270610.698,25.879,28.809,20.508,26.367,24.414,0
1579270610.702,24.902,27.344,19.531,28.320,39.551,0
1579270610.706,22.949,27.344,20.508,29.297,81.055,0
1579270610.710,23.438,28.809,22.949,28.320,61.523,0
1579270610.714,27.832,33.203,26.855,29.785,70.312,0
1579270610.718,23.438,32.715,24.414,20.020,81.543,0
1579270610.721,18.066,28.320,24.414,17.090,38.574,0
1579270610.725,18.555,27.832,27.832,28.809,41.992,0
1579270610.729,19.531,29.785,27.344,25.879,69.336,0
1579270610.733,19.531,34.668,29.297,25.879,16.113,0
1579270610.737,10.254,34.668,28.320,24.414,15.137,0
1579270610.734,6.348,30.273,23.438,15.137,64.453,0
1579270610.738,11.719,31.250,22.461,12.695,37.598,0
1579270610.742,14.648,33.691,21.484,10.742,22.949,0
1579270610.746,11.719,33.203,20.020,8.789,38.574,0
1579270610.750,9.277,33.691,21.484,15.137,74.707,0
1579270610.754,12.695,36.133,21.973,11.230,49.316,0
1579270610.758,13.672,36.133,21.973,4.883,53.223,0
1579270610.761,12.207,35.156,22.461,17.090,59.082,0
