timestamps,TP9,AF7,AF8,TP10,Right AUX,Marker0
1579019611.554,81.055,55.664,47.852,90.820,47.852,0
1579019611.558,80.078,53.711,50.293,77.148,36.133,0
1579019611.562,82.520,52.734,50.293,77.148,69.824,0
1579019611.566,82.520,51.758,48.828,83.496,85.938,0
1579019611.570,76.172,50.293,48.340,76.660,33.691,0
1579019611.574,70.801,49.805,48.340,67.871,25.391,0
1579019611.578,72.266,50.293,48.828,69.824,17.090,0
1579019611.581,75.195,52.246,48.340,74.219,-1.953,0
1579019611.585,74.219,49.316,49.805,69.336,6.836,0
1579019611.589,73.242,47.363,51.758,64.453,16.602,0
1579019611.593,68.359,44.434,49.805,68.359,18.555,0
1579019611.597,65.430,42.969,50.293,73.242,25.391,0
1579019611.614,66.895,42.969,51.270,65.918,32.715,0
1579019611.618,63.965,42.480,51.270,54.688,35.156,0
1579019611.622,57.617,43.457,52.246,50.293,48.340,0
1579019611.626,55.664,41.992,50.293,54.688,58.594,0
1579019611.630,55.176,40.527,44.922,54.688,26.367,0
1579019611.634,53.711,41.016,45.410,45.898,17.090,0
1579019611.638,53.711,40.527,47.363,37.598,10.742,0
1579019611.641,52.734,40.527,46.387,41.992,-3.418,0
1579019611.645,58.105,40.527,46.387,51.758,20.020,0
1579019611.649,55.664,40.527,45.410,43.945,23.438,0
1579019611.653,49.805,39.062,41.992,31.738,54.688,0
1579019611.657,49.316,39.062,43.457,36.621,23.926,0
1579019611.634,51.270,40.527,44.922,47.363,-11.230,0
1579019611.638,55.176,39.551,43.945,46.387,99.121,0
1579019611.642,58.594,40.039,42.480,34.668,98.633,0
1579019611.646,60.059,44.434,42.969,34.180,24.902,0
1579019611.650,57.617,45.410,43.457,41.992,27.832,0
1579019611.654,64.941,41.016,38.086,51.758,12.207,0
1579019611.658,81.543,40.039,38.574,60.059,-6.836,0
1579019611.661,71.289,43.457,40.039,45.410,31.250,0
1579019611.665,44.922,37.109,42.480,28.809,10.254,0
1579019611.669,20.508,27.832,43.945,12.207,16.602,0
1579019611.673,6.836,21.973,39.551,-4.883,53.711,0
1579019611.677,-14.648,19.043,42.480,-23.438,73.242,0
1579019611.694,-36.621,15.625,43.457,-44.922,83.008,0
1579019611.698,-52.246,11.230,39.551,-63.477,44.922,0
1579019611.702,-66.895,10.742,38.086,-74.707,35.645,0
1579019611.706,-83.496,3.418,38.574,-81.543,104.004,0
1579019611.710,-100.098,-3.418,38.086,-92.285,83.496,0
1579019611.714,-97.656,0.000,38.086,-83.496,36.621,0
1579019611.718,-110.840,-0.488,35.156,-97.168,43.457,0
1579019611.721,-117.188,-5.371,37.109,-111.816,41.992,0
1579019611.725,-112.793,-3.906,40.039,-104.980,61.523,0
1579019611.729,-114.258,-2.930,37.598,-92.285,80.566,0
1579019611.733,-106.445,-2.441,37.598,-77.148,58.594,0
1579019611.737,-100.586,2.441,38.574,-76.172,5.859,0
1579019611.734,-89.355,9.277,36.133,-69.336,14.648,0
1579019611.738,-74.707,10.742,37.598,-50.781,23.438,0
1579019611.742,-60.547,12.695,36.621,-41.992,-2.930,0
1579019611.746,-45.898,18.555,32.227,-46.387,29.297,0
1579019611.750,-40.039,20.508,31.738,-44.922,73.730,0
1579019611.754,-37.109,21.973,32.715,-31.250,61.035,0
1579019611.758,-27.344,26.367,31.738,-16.602,46.875,0
1579019611.761,-22.949,28.320,33.203,-12.695,11.719,0
1579019611.765,-22.461,26.855,36.133,-14.160,37.598,0
1579019611.769,-17.578,28.809,36.133,-7.324,46.875,0
1579019611.773,-15.137,28.320,36.621,3.906,26.367,0
1579019611.777,-13.672,26.855,37.598,11.230,14.648,0
1579019611.778,-10.742,27.832,39.062,7.324,-14.648,0
1579019611.782,-7.812,25.879,40.527,7.324,64.453,0
1579019611.786,-6.836,25.879,42.969,20.996,131.836,0
1579019611.790,-4.883,27.832,43.945,23.926,85.449,0
1579019611.794,-4.883,28.320,43.945,19.531,3.906,0
1579019611.798,-4.395,27.832,41.992,17.090,-29.785,0
1579019611.802,0.000,29.297,41.992,20.996,-8.789,0
1579019611.805,1.465,31.738,42.969,27.832,51.270,0
1579019611.809,0.977,31.738,42.480,24.414,15.137,0
1579019611.813,-1.465,31.738,43.457,20.508,-2.930,0
1579019611.817,-0.977,31.250,46.875,25.391,27.344,0
1579019611.821,3.906,32.227,44.434,27.832,41.992,0
1579019611.834,7.324,32.227,42.969,23.438,93.262,0
1579019611.838,8.301,30.273,44.434,17.578,36.621,0
1579019611.842,13.184,27.344,43.945,22.461,-35.156,0
1579019611.846,21.973,26.855,44.434,35.645,10.742,0
1579019611.850,26.367,28.809,43.945,37.109,39.062,0
1579019611.854,27.832,29.785,42.969,26.367,42.480,0
1579019611.858,28.809,33.691,43.945,21.484,26.855,0
1579019611.861,34.668,36.133,45.410,35.156,29.297,0
1579019611.865,39.551,37.109,44.434,44.922,18.066,0
1579019611.869,38.574,40.527,43.945,33.691,-4.883,0
1579019611.873,39.551,41.504,40.527,24.414,-2.930,0
1579019611.877,39.062,41.992,38.086,28.320,37.598,0
1579019611.874,34.180,41.992,41.016,33.691,24.902,0
1579019611.878,28.809,42.480,37.598,30.273,6.348,0
1579019611.882,24.414,41.992,35.156,22.461,41.504,0
1579019611.886,34.668,39.551,35.645,32.227,53.223,0
1579019611.890,54.199,41.504,34.668,60.547,-41.016,0
1579019611.894,30.762,41.504,38.086,39.551,-31.250,0
1579019611.898,8.789,40.527,39.551,10.254,40.527,0
1579019611.901,22.949,40.527,38.574,22.949,43.945,0
1579019611.905,44.434,38.574,40.039,49.316,17.090,0
1579019611.909,55.176,37.598,41.992,63.477,12.695,0
1579019611.913,48.340,36.621,41.504,47.852,41.992,0
1579019611.917,49.316,35.645,41.504,47.363,59.082,0
1579019611.934,41.992,31.738,41.504,53.223,52.246,0
1579019611.938,36.133,30.762,41.504,52.734,-12.695,0
1579019611.942,36.621,30.762,41.992,47.852,-22.949,0
1579019611.946,29.297,28.809,41.992,37.109,10.742,0
1579019611.950,29.785,28.809,44.434,39.551,32.227,0
1579019611.954,35.645,29.785,46.875,44.434,-11.230,0
1579019611.958,32.715,28.809,45.898,38.086,-6.836,0
1579019611.961,30.273,26.855,45.410,30.273,50.781,0
1579019611.965,34.668,28.809,42.969,25.879,57.617,0
1579019611.969,38.086,29.297,41.016,32.715,40.039,0
1579019611.973,41.016,29.785,41.016,34.180,40.527,0
1579019611.977,41.992,31.250,42.480,29.297,38.086,0
1579019611.974,39.551,31.738,42.969,34.180,-0.488,0
1579019611.978,39.062,30.762,41.992,43.457,39.062,0
1579019611.982,47.852,29.297,41.992,50.293,32.715,0
1579019611.986,50.781,31.250,42.969,49.805,13.672,0
1579019611.990,51.270,32.715,44.434,43.457,30.273,0
1579019611.994,59.570,34.180,45.410,51.270,-13.184,0
1579019611.998,64.941,37.598,44.922,61.035,-24.414,0
1579019612.001,65.430,37.598,42.480,48.340,26.855,0
1579019612.005,63.965,39.062,38.086,38.086,37.598,0
1579019612.009,61.523,43.457,35.156,41.992,25.391,0
1579019612.013,59.570,44.922,36.133,47.852,34.180,0
1579019612.017,53.711,43.457,38.574,41.016,39.062,0
1579019612.014,45.410,42.480,36.133,27.832,68.848,0
1579019612.018,40.527,42.969,36.621,31.250,88.379,0
1579019612.022,37.109,43.945,36.133,37.109,38.574,0
1579019612.026,36.621,42.480,35.156,30.273,-18.066,0
1579019612.030,33.691,41.992,37.109,18.066,14.648,0
1579019612.034,27.344,41.016,37.598,13.672,33.691,0
1579019612.038,28.320,40.527,38.086,19.043,34.668,0
1579019612.041,33.203,38.574,40.527,25.391,58.594,0
1579019612.045,34.668,38.086,43.457,20.996,-8.301,0
1579019612.049,33.691,40.527,41.992,18.066,19.531,0
1579019612.053,32.227,41.016,41.016,23.926,49.805,0
1579019612.057,35.156,38.574,37.598,28.809,28.809,0
1579019612.074,36.133,34.668,37.598,28.320,74.707,0
1579019612.078,32.715,36.621,38.574,24.414,68.359,0
1579019612.082,33.691,37.109,41.016,28.809,33.203,0
1579019612.086,31.250,35.645,42.480,38.574,55.664,0
1579019612.090,29.785,35.156,43.457,43.457,45.410,0
1579019612.094,35.156,35.156,45.410,43.457,0.977,0
1579019612.098,33.203,33.203,46.387,46.387,-2.930,0
1579019612.101,35.645,32.715,47.363,57.617,15.137,0
1579019612.105,42.480,36.133,50.293,62.988,17.578,0
1579019612.109,40.039,35.645,51.758,56.152,12.695,0
1579019612.113,36.133,35.156,52.246,53.711,6.348,0
1579019612.117,41.992,36.133,50.293,62.500,-31.738,0
1579019612.114,48.828,38.574,49.805,65.430,-0.488,0
1579019612.118,47.363,37.598,48.340,56.152,34.180,0
1579019612.122,43.945,35.645,47.363,52.246,66.406,0
1579019612.126,42.969,35.645,47.852,57.129,64.453,0
1579019612.130,47.852,34.668,47.852,61.035,34.180,0
1579019612.134,47.363,35.156,49.316,58.105,37.109,0
1579019612.138,38.574,34.668,48.828,45.410,2.441,0
1579019612.141,37.109,35.156,44.922,41.992,-0.488,0
1579019612.145,41.992,38.086,43.945,51.758,19.531,0
1579019612.149,40.527,42.480,43.945,45.898,13.672,0
1579019612.153,39.551,42.969,41.992,35.645,20.996,0
1579019612.157,41.016,42.969,40.527,29.297,-13.672,0
1579019612.154,41.016,43.945,37.109,34.180,-24.902,0
1579019612.158,47.363,46.875,39.551,44.922,28.809,0
1579019612.162,50.781,48.340,41.016,40.039,69.336,0
1579019612.166,49.805,48.828,36.621,29.297,57.129,0
1579019612.170,47.852,44.922,38.574,30.273,74.707,0
1579019612.174,50.781,43.945,39.062,37.598,58.105,0
1579019612.178,52.246,47.363,36.621,33.691,12.207,0
1579019612.181,46.387,44.434,38.574,26.855,33.203,0
1579019612.185,48.340,43.457,37.598,32.227,50.781,0
1579019612.189,52.246,44.434,36.133,39.062,76.660,0
1579019612.193,48.340,45.410,37.109,38.086,40.039,0
1579019612.197,41.016,43.945,36.621,33.203,-3.418,0
1579019612.214,41.504,41.504,36.621,32.227,41.992,0
1579019612.218,48.340,40.527,37.109,42.969,86.426,0
1579019612.222,44.922,40.039,35.645,45.410,2.930,0
1579019612.226,37.598,39.551,31.738,37.109,-18.555,0
1579019612.230,34.180,37.109,33.203,41.504,15.625,0
1579019612.234,34.180,35.156,35.645,51.758,15.137,0
1579019612.238,35.156,37.109,36.621,50.293,57.129,0
1579019612.241,35.156,41.504,39.062,43.945,43.945,0
1579019612.245,34.668,38.574,39.062,41.016,15.625,0
1579019612.249,38.574,36.621,39.062,47.852,12.695,0
1579019612.253,46.387,37.598,39.551,54.199,-2.930,0
1579019612.257,47.363,36.621,40.039,46.387,49.805,0
1579019612.256,39.551,37.109,39.062,34.180,95.215,0
1579019612.260,33.691,36.621,39.062,39.062,38.574,0
1579019612.264,34.180,35.645,38.086,48.828,35.156,0
1579019612.268,37.109,34.180,33.691,44.922,81.055,0
1579019612.272,34.668,34.668,35.156,40.527,52.734,0
1579019612.276,31.738,34.180,39.062,43.945,27.344,0
1579019612.280,35.645,34.668,41.504,54.688,38.574,0
1579019612.283,38.086,36.133,43.457,61.035,65.918,0
1579019612.287,36.621,34.668,39.551,45.898,84.473,0
1579019612.291,35.645,35.156,37.598,37.598,49.805,0
1579019612.295,39.551,40.039,40.527,52.734,-12.207,0
1579019612.299,46.875,43.945,37.598,49.805,-4.883,0
1579019612.295,49.805,44.434,31.738,41.016,45.410,0
1579019612.299,43.945,43.457,29.297,40.039,18.555,0
1579019612.303,40.039,43.457,27.832,41.992,0.000,0
1579019612.307,42.969,46.387,28.809,47.363,30.762,0
1579019612.311,39.551,46.387,28.809,41.992,35.156,0
1579019612.315,28.809,41.992,27.832,36.621,13.184,0
1579019612.319,26.367,40.527,26.367,38.574,43.945,0
1579019612.322,25.391,41.016,26.367,42.480,131.348,0
1579019612.326,16.602,40.527,28.320,41.016,98.145,0
1579019612.330,9.766,41.992,29.785,30.273,36.621,0
1579019612.334,11.230,42.480,30.273,30.273,46.387,0
1579019612.338,15.137,40.527,32.227,42.480,28.809,0
1579019612.354,16.602,38.086,32.227,43.945,41.504,0
1579019612.358,20.996,39.062,33.203,37.109,20.508,0
1579019612.362,24.902,38.574,36.133,37.598,-25.391,0
1579019612.366,29.297,39.551,34.180,47.852,36.133,0
1579019612.370,33.691,40.039,33.203,54.688,48.828,0
1579019612.374,33.691,37.109,33.691,45.410,-2.930,0
1579019612.378,31.738,38.086,29.785,39.062,-31.738,0
1579019612.381,28.809,39.551,30.273,43.457,-27.832,0
1579019612.385,29.297,35.645,32.227,51.270,26.855,0
1579019612.389,25.879,33.691,31.250,49.805,19.531,0
1579019612.393,19.531,35.156,31.738,38.086,11.230,0
1579019612.397,11.230,34.180,31.250,35.156,50.781,0
1579019612.394,9.277,33.203,31.250,37.598,26.367,0
1579019612.398,6.836,32.227,31.738,36.621,-14.648,0
1579019612.402,0.000,32.227,30.273,30.762,-12.207,0
1579019612.406,3.906,34.180,28.809,26.855,42.480,0
1579019612.410,11.719,35.156,27.344,35.645,56.641,0
1579019612.414,18.066,34.668,25.879,40.039,58.105,0
1579019612.418,20.996,33.691,25.391,33.691,125.000,0
1579019612.421,23.926,36.621,24.414,28.320,53.223,0
1579019612.425,31.250,39.551,24.902,33.691,13.672,0
1579019612.429,31.738,38.574,23.926,40.527,46.387,0
1579019612.433,26.855,41.504,24.414,32.715,5.371,0
1579019612.437,23.926,44.434,26.367,21.973,11.230,0
1579019612.434,25.391,42.480,22.949,32.715,44.434,0
1579019612.438,28.320,41.992,20.508,44.434,29.785,0
1579019612.442,29.785,41.992,21.484,40.527,18.555,0
1579019612.446,26.855,40.039,22.461,34.668,34.180,0
1579019612.450,26.855,39.062,26.855,40.527,68.359,0
1579019612.454,29.297,39.551,30.273,49.805,60.059,0
1579019612.458,28.809,39.062,29.297,49.316,43.457,0
1579019612.461,29.297,39.062,28.809,34.180,30.273,0
1579019612.465,27.832,38.086,30.273,26.855,22.949,0
1579019612.469,32.227,36.133,30.273,32.715,7.324,0
1579019612.473,37.109,36.133,29.785,36.621,-38.574,0
1579019612.477,37.109,37.598,29.297,31.738,-16.602,0
1579019612.494,37.598,37.109,28.320,26.855,20.996,0
1579019612.498,36.621,34.668,28.320,38.086,48.340,0
1579019612.502,34.668,34.668,29.785,43.457,32.227,0
1579019612.506,39.062,34.180,32.227,40.527,6.836,0
1579019612.510,35.645,31.250,32.715,40.039,0.000,0
1579019612.514,34.180,32.715,31.250,41.016,41.504,0
1579019612.518,41.016,36.621,33.203,50.781,37.598,0
1579019612.521,42.480,35.156,38.086,46.875,27.832,0
1579019612.525,38.086,31.250,35.156,34.668,72.266,0
1579019612.529,39.062,33.203,30.273,41.504,20.020,0
1579019612.533,41.992,33.203,29.297,49.805,-1.953,0
1579019612.537,42.969,32.715,29.297,46.875,37.598,0
1579019612.534,41.992,36.621,30.762,38.086,50.781,0
1579019612.538,40.527,39.551,28.320,31.738,51.270,0
1579019612.542,45.410,39.062,25.879,35.645,40.527,0
1579019612.546,46.875,37.598,24.902,36.621,40.039,0
1579019612.550,41.016,39.062,24.414,25.391,19.043,0
1579019612.554,35.156,41.504,28.809,11.719,11.230,0
1579019612.558,30.762,41.992,27.344,8.789,0.977,0
1579019612.561,33.691,44.922,27.832,16.602,1.465,0
1579019612.565,34.180,46.875,31.738,12.695,22.461,0
1579019612.569,30.273,44.922,31.250,2.930,37.598,0
1579019612.573,29.785,41.992,33.203,3.906,6.836,0
1579019612.577,30.273,41.504,35.156,10.742,1.465,0
1579019612.574,31.250,41.016,35.645,18.555,64.941,0
1579019612.578,27.832,39.551,39.062,14.648,72.266,0
1579019612.582,31.738,41.016,40.039,12.695,49.316,0
1579019612.586,35.645,39.551,39.062,20.508,48.828,0
1579019612.590,30.273,36.621,40.039,22.949,85.938,0
1579019612.594,30.762,40.039,40.039,15.137,39.551,0
1579019612.598,28.809,41.992,41.016,10.254,-27.344,0
1579019612.601,26.367,41.016,43.945,22.949,-0.977,0
1579019612.605,31.738,40.527,44.922,30.273,29.785,0
1579019612.609,33.691,40.039,45.898,22.949,29.297,0
1579019612.613,32.227,40.039,45.898,20.508,-20.020,0
1579019612.617,33.203,39.551,46.875,25.879,9.277,0
1579019612.634,39.062,36.621,49.316,31.738,2.441,0
1579019612.638,40.527,37.109,48.340,27.832,-6.836,0
1579019612.642,35.645,36.133,45.898,19.531,74.707,0
1579019612.646,30.762,35.645,45.898,17.578,100.586,0
1579019612.650,34.180,37.109,48.828,26.367,36.621,0
1579019612.654,37.109,35.156,52.734,28.809,-16.113,0
1579019612.658,29.297,30.762,53.223,20.020,52.734,0
1579019612.661,25.879,30.762,53.223,17.090,88.379,0
1579019612.665,25.879,32.715,50.781,26.855,54.688,0
1579019612.669,27.832,30.762,50.781,32.715,48.828,0
1579019612.673,26.367,31.738,50.781,23.926,24.414,0
1579019612.677,26.855,34.180,48.340,22.461,9.766,0
1579019612.675,34.180,34.180,45.410,30.762,19.531,0
1579019612.679,31.250,31.738,43.457,35.645,19.531,0
1579019612.683,28.809,33.203,42.480,30.273,81.055,0
1579019612.687,31.738,39.551,39.551,18.555,12.695,0
1579019612.691,34.180,41.504,39.062,19.531,-10.742,0
1579019612.695,36.133,39.551,41.016,27.832,94.727,0
1579019612.699,31.250,37.598,42.969,25.879,39.062,0
1579019612.702,28.809,39.062,43.945,20.508,34.668,0
1579019612.706,31.250,38.574,42.480,24.414,41.016,0
1579019612.710,31.738,35.645,40.527,35.156,5.859,0
1579019612.714,30.762,35.156,38.086,33.203,5.371,0
1579019612.718,26.367,33.203,39.062,20.508,17.578,0
1579019612.714,25.391,34.668,42.480,22.949,39.062,0
1579019612.718,30.273,36.621,41.504,32.715,47.852,0
1579019612.722,29.297,37.109,41.504,31.250,24.414,0
1579019612.726,29.785,38.086,43.945,25.879,40.039,0
1579019612.730,27.832,36.621,42.480,23.926,62.988,0
1579019612.734,30.273,36.133,40.527,26.367,46.875,0
1579019612.738,35.156,37.109,41.992,31.250,27.344,0
1579019612.741,32.715,34.668,41.504,25.879,53.711,0
1579019612.745,24.414,32.227,42.480,16.113,58.105,0
1579019612.749,24.902,29.785,43.457,21.973,47.852,0
1579019612.753,32.227,29.297,42.969,29.297,6.836,0
1579019612.757,34.180,31.250,43.457,28.320,5.371,0
1579019612.774,32.227,33.691,43.457,23.926,59.082,0
1579019612.778,34.668,34.668,43.457,25.879,52.734,0
1579019612.782,40.527,35.645,44.922,35.645,69.824,0
1579019612.786,43.945,36.621,43.457,38.574,91.309,0
1579019612.790,42.480,36.133,41.992,33.203,35.156,0
1579019612.794,41.504,40.039,42.969,34.668,9.277,0
1579019612.798,41.992,40.039,42.969,42.480,63.477,0
1579019612.801,42.480,39.062,42.480,40.039,39.551,0
1579019612.805,45.898,41.992,41.992,38.574,-40.527,0
1579019612.809,37.598,41.504,42.969,35.645,-19.531,0
1579019612.813,32.227,39.062,44.434,36.133,31.738,0
1579019612.817,33.691,40.039,45.410,51.270,32.227,0
1579019612.814,32.715,38.086,46.387,47.363,-2.441,0
1579019612.818,34.180,38.086,44.922,33.691,21.973,0
1579019612.822,33.691,40.039,44.434,36.133,-3.906,0
1579019612.826,34.180,38.574,44.434,45.410,-4.395,0
1579019612.830,36.133,37.598,44.434,48.340,36.133,0
1579019612.834,30.273,39.551,46.875,37.109,22.461,0
1579019612.838,28.809,40.527,47.363,35.645,11.230,0
1579019612.841,30.762,39.551,45.410,47.363,36.133,0
1579019612.845,29.785,39.551,45.410,50.781,16.113,0
1579019612.849,27.344,40.039,45.898,46.875,40.527,0
1579019612.853,22.461,39.062,48.340,39.551,66.895,0
1579019612.857,24.902,36.621,50.293,42.969,27.832,0
1579019612.854,22.461,34.180,47.852,48.340,38.086,0
1579019612.858,20.508,34.668,47.852,38.574,12.207,0
1579019612.862,22.461,35.156,45.410,26.855,36.133,0
1579019612.866,23.926,36.621,43.457,32.715,57.617,0
1579019612.870,25.391,41.504,46.875,42.480,41.992,0
1579019612.874,23.926,39.551,48.340,35.156,77.148,0
1579019612.878,22.949,37.109,47.852,28.320,78.125,0
1579019612.881,32.227,38.574,47.363,35.645,34.180,0
1579019612.885,33.203,36.621,46.387,44.434,15.625,0
1579019612.889,24.902,35.645,45.898,41.992,16.602,0
1579019612.893,22.949,34.180,45.898,41.016,-6.836,0
1579019612.897,26.367,31.738,45.898,46.875,25.879,0
1579019612.914,29.785,31.250,45.410,53.711,43.457,0
1579019612.918,32.715,34.668,45.410,52.246,-15.625,0
1579019612.922,32.227,38.086,44.434,45.898,-33.691,0
1579019612.926,30.762,39.062,41.016,43.457,56.641,0
1579019612.930,35.645,39.551,41.016,48.828,91.309,0
1579019612.934,34.180,39.062,41.016,51.270,66.406,0
1579019612.938,25.879,38.574,43.457,43.457,57.617,0
1579019612.941,25.879,38.086,43.457,35.645,24.902,0
1579019612.945,27.832,38.086,38.086,33.691,47.363,0
1579019612.949,26.855,38.086,36.133,36.133,3.906,0
1579019612.953,26.367,38.574,37.598,32.227,-40.527,0
1579019612.957,27.344,40.039,40.039,21.973,0.000,0
1579019612.954,26.855,39.551,39.551,21.484,14.160,0
1579019612.958,29.785,38.574,39.551,30.762,5.371,0
1579019612.962,30.762,38.574,42.969,29.785,3.906,0
1579019612.966,30.273,40.039,42.969,20.020,34.668,0
1579019612.970,30.762,39.551,42.480,19.043,60.059,0
1579019612.974,36.133,37.109,43.945,28.320,38.086,0
1579019612.978,43.457,34.668,44.434,38.086,36.621,0
1579019612.981,46.387,36.133,44.922,35.156,26.367,0
1579019612.985,49.316,35.156,46.875,33.691,24.414,0
1579019612.989,52.246,35.645,46.387,41.504,104.004,0
1579019612.993,53.711,39.551,46.875,42.480,97.168,0
1579019612.997,56.641,38.574,47.852,37.109,43.457,0
1579019612.994,54.199,37.109,47.363,35.645,43.945,0
1579019612.998,50.293,37.109,44.922,40.527,17.090,0
1579019613.002,49.805,35.645,46.387,47.363,-23.926,0
1579019613.006,42.480,37.109,47.852,41.016,2.930,0
1579019613.010,37.598,36.621,47.363,31.250,11.719,0
1579019613.014,44.434,35.645,47.852,36.133,15.137,0
1579019613.018,46.387,37.598,45.410,41.016,21.973,0
1579019613.021,40.527,38.086,43.457,35.156,8.789,0
1579019613.025,37.598,39.551,44.922,20.020,42.480,0
1579019613.029,34.668,40.527,43.457,13.184,57.617,0
1579019613.033,30.273,39.062,38.574,22.949,31.738,0
1579019613.037,30.273,41.016,36.621,27.832,12.695,0
1579019613.054,33.203,41.016,36.133,21.484,44.434,0
1579019613.058,36.133,35.156,37.109,23.438,29.297,0
1579019613.062,46.387,38.574,36.133,37.598,46.387,0
1579019613.066,39.551,43.457,37.598,32.715,18.555,0
1579019613.070,25.391,39.551,41.016,18.066,-14.160,0
1579019613.074,19.531,39.062,38.574,12.695,70.312,0
1579019613.078,21.484,41.504,38.574,20.020,78.613,0
1579019613.081,25.879,41.016,40.039,27.344,40.527,0
1579019613.085,25.879,41.992,39.551,25.391,52.246,0
1579019613.089,22.949,40.527,38.086,21.484,60.059,0
1579019613.093,24.902,38.086,37.598,23.438,48.340,0
1579019613.097,31.738,41.016,38.086,35.156,33.691,0
1579019613.094,27.344,41.504,38.574,33.691,0.977,0
1579019613.098,25.879,40.039,36.621,21.973,27.344,0
1579019613.102,31.250,40.527,35.156,22.949,34.668,0
1579019613.106,37.598,39.551,38.574,29.785,23.926,0
1579019613.110,44.434,37.598,40.527,36.133,36.133,0
1579019613.114,43.457,36.621,40.039,34.180,46.387,0
1579019613.118,43.945,38.574,41.016,21.973,63.477,0
1579019613.121,46.875,39.551,43.457,20.020,107.910,0
1579019613.125,44.922,41.016,44.922,26.367,83.984,0
1579019613.129,41.992,42.969,44.434,21.973,6.836,0
1579019613.133,41.016,41.504,45.410,9.766,4.395,0
1579019613.137,37.598,41.504,43.945,14.160,-12.207,0
1579019613.134,43.457,41.016,41.504,23.926,45.898,0
1579019613.138,46.387,40.527,39.551,20.508,72.754,0
1579019613.142,40.527,41.504,37.109,14.160,31.250,0
1579019613.146,40.039,42.480,39.062,16.602,38.574,0
1579019613.150,41.992,41.504,40.039,21.973,36.621,0
1579019613.154,43.457,40.039,39.062,17.090,-7.324,0
1579019613.158,40.527,40.039,39.062,5.859,6.836,0
1579019613.161,40.039,40.527,39.551,2.930,42.969,0
1579019613.165,40.527,41.504,41.504,10.742,37.598,0
1579019613.169,38.086,40.039,42.969,19.531,11.719,0
1579019613.173,39.062,39.062,41.016,20.020,56.641,0
1579019613.177,45.898,43.457,40.039,26.855,65.430,0
1579019613.194,41.992,41.016,41.504,35.156,-1.953,0
1579019613.198,27.344,35.156,45.410,30.273,-19.043,0
1579019613.202,18.066,34.180,43.457,15.137,28.320,0
1579019613.206,30.762,33.203,40.039,25.879,58.594,0
1579019613.210,40.527,30.762,42.969,41.504,7.324,0
1579019613.214,36.621,28.809,42.969,42.480,-27.344,0
1579019613.218,41.992,28.809,45.898,45.410,-2.930,0
1579019613.221,41.992,32.715,47.363,32.227,11.719,0
1579019613.225,42.969,32.715,47.852,27.832,61.035,0
1579019613.229,48.828,30.762,50.781,40.527,44.922,0
1579019613.233,49.805,31.250,50.781,41.992,-21.484,0
1579019613.237,45.898,32.715,47.852,24.902,82.520,0
1579019613.237,46.387,33.691,46.875,19.531,106.934,0
1579019613.241,46.387,35.645,45.898,31.738,20.508,0
1579019613.245,46.875,36.133,47.852,38.574,33.203,0
1579019613.249,44.434,33.203,48.340,36.621,27.344,0
1579019613.253,34.668,34.180,47.852,24.902,-34.180,0
1579019613.257,33.691,36.621,46.387,22.461,-21.484,0
1579019613.261,38.086,36.133,45.898,30.273,18.066,0
1579019613.264,37.109,35.645,44.922,27.344,20.996,0
1579019613.268,29.297,34.180,43.945,18.066,35.156,0
1579019613.272,26.367,34.668,44.434,18.555,62.012,0
1579019613.276,31.250,36.621,44.922,24.902,28.809,0
1579019613.280,37.109,36.133,43.457,34.668,11.719,0
1579019613.274,35.645,34.180,42.480,32.715,39.062,0
1579019613.278,32.227,32.227,46.387,36.621,15.137,0
1579019613.282,35.156,31.250,48.340,48.828,-41.992,0
1579019613.286,33.203,32.227,48.828,48.828,13.672,0
1579019613.290,33.691,33.691,52.734,45.898,59.570,0
1579019613.294,31.250,34.180,53.223,41.504,23.438,0
1579019613.298,28.809,33.691,47.852,40.527,80.078,0
1579019613.301,37.598,34.668,45.898,43.945,148.438,0
1579019613.305,41.992,38.086,47.363,36.621,71.289,0
1579019613.309,41.016,39.062,47.363,30.762,45.898,0
1579019613.313,43.457,38.086,45.410,35.156,73.242,0
1579019613.317,40.527,37.109,41.504,36.621,13.672,0
1579019613.334,35.645,36.133,40.527,32.227,39.062,0
1579019613.338,35.645,36.621,41.016,26.855,29.297,0
1579019613.342,38.086,38.574,41.504,31.738,-16.602,0
1579019613.346,39.551,40.039,40.527,43.457,5.859,0
1579019613.350,43.457,41.016,40.527,46.875,39.062,0
1579019613.354,43.457,41.016,42.480,41.504,6.836,0
1579019613.358,39.062,40.039,42.969,37.598,-0.488,0
1579019613.361,41.016,38.574,40.039,41.992,24.902,0
1579019613.365,42.969,37.109,42.480,48.340,-7.812,0
1579019613.369,41.504,36.621,46.875,43.945,-20.020,0
1579019613.373,40.039,36.133,44.434,35.156,56.641,0
1579019613.377,40.039,33.691,45.410,41.504,50.293,0
1579019613.376,47.852,31.250,45.410,59.570,-5.371,0
1579019613.380,44.922,30.273,41.016,55.664,-18.066,0
1579019613.384,37.109,34.180,41.016,38.086,-24.902,0
1579019613.388,31.250,37.109,41.016,31.250,7.324,0
1579019613.392,37.109,38.086,39.062,43.457,49.805,0
1579019613.396,57.129,36.133,40.527,59.570,36.621,0
1579019613.400,61.523,40.527,41.504,48.340,-29.785,0
1579019613.403,61.035,47.852,37.109,37.598,-49.805,0
1579019613.407,74.219,48.340,38.086,51.758,-47.852,0
1579019613.411,89.844,49.805,43.457,68.359,-11.719,0
1579019613.415,89.844,53.223,42.969,62.988,4.395,0
1579019613.419,89.844,55.176,41.504,60.059,-39.062,0
1579019613.414,102.539,54.688,41.504,75.684,-44.434,0
1579019613.418,114.746,53.223,41.504,89.355,31.250,0
1579019613.422,113.281,55.664,44.434,84.961,65.430,0
1579019613.426,111.816,58.594,42.969,76.172,32.227,0
1579019613.430,124.512,57.617,39.062,88.867,30.273,0
1579019613.434,125.488,55.176,42.969,108.887,67.383,0
1579019613.438,119.141,57.129,41.992,108.887,62.500,0
1579019613.441,122.070,62.012,39.062,104.004,56.152,0
1579019613.445,127.930,62.988,40.039,109.863,20.508,0
1579019613.449,126.465,62.988,40.527,122.070,21.484,0
1579019613.453,124.023,62.500,40.039,125.000,50.293,0
1579019613.457,121.582,62.988,40.527,117.676,5.859,0
1579019613.474,118.164,62.988,43.945,121.094,1.465,0
1579019613.478,118.164,61.035,44.922,129.883,50.781,0
1579019613.482,115.234,62.012,44.922,127.441,16.113,0
1579019613.486,112.305,62.500,44.434,114.258,19.531,0
1579019613.490,110.840,58.105,44.922,104.980,119.629,0
1579019613.494,107.422,55.664,48.340,104.004,72.754,0
1579019613.498,103.516,55.664,47.363,102.051,29.785,0
1579019613.501,97.168,54.688,46.387,95.215,29.785,0
1579019613.505,95.215,51.758,44.434,88.379,18.555,0
1579019613.509,104.492,53.711,43.945,84.961,0.488,0
1579019613.513,107.910,56.152,41.504,86.426,1.465,0
1579019613.517,98.145,54.688,40.527,80.078,23.438,0
1579019613.514,93.750,52.734,41.504,69.824,32.715,0
1579019613.518,96.680,51.758,37.598,69.824,8.301,0
1579019613.522,93.750,51.758,34.180,77.637,-0.488,0
1579019613.526,85.938,51.758,34.668,78.125,9.766,0
1579019613.530,83.008,50.293,36.621,72.266,16.602,0
1579019613.534,82.520,51.758,37.598,69.824,48.340,0
1579019613.538,75.195,50.781,37.598,75.684,32.715,0
1579019613.541,66.895,48.828,39.062,79.102,8.789,0
1579019613.545,62.012,48.828,40.527,74.707,56.152,0
1579019613.549,62.500,49.316,40.527,66.406,68.359,0
1579019613.553,59.570,49.316,38.574,62.012,55.664,0
1579019613.557,55.176,46.387,38.574,69.336,22.461,0
1579019613.554,55.664,45.410,41.016,64.941,16.113,0
1579019613.558,46.875,43.945,41.992,54.688,34.180,0
1579019613.562,43.457,41.992,41.992,52.734,-4.395,0
1579019613.566,45.410,41.992,39.062,56.641,14.648,0
1579019613.570,37.598,40.527,38.574,54.688,52.734,0
1579019613.574,36.133,40.527,41.504,41.992,-59.570,0
1579019613.578,40.039,38.086,43.457,42.480,-37.598,0
1579019613.581,40.527,37.109,45.898,51.758,87.402,0
1579019613.585,41.504,40.039,47.852,46.387,26.855,0
1579019613.589,40.039,38.086,44.922,40.527,-54.199,0
1579019613.593,38.574,38.086,42.969,46.387,-15.625,0
1579019613.597,39.062,38.086,40.039,56.641,52.734,0
1579019613.615,38.086,36.133,38.086,52.734,55.176,0
1579019613.619,31.250,35.156,37.598,40.039,46.387,0
1579019613.623,27.832,34.668,36.133,31.250,59.570,0
1579019613.627,30.762,35.645,37.109,37.109,71.289,0
1579019613.631,37.109,35.156,38.086,47.363,61.035,0
1579019613.635,39.551,34.668,38.086,45.410,0.977,0
1579019613.639,36.133,38.574,35.645,33.691,-4.883,0
1579019613.642,38.574,39.062,35.645,33.691,23.926,0
1579019613.646,44.434,37.109,34.668,47.852,93.750,0
1579019613.650,43.945,41.504,34.180,49.805,104.004,0
1579019613.654,35.645,42.480,34.180,39.062,63.477,0
1579019613.658,33.691,40.527,34.668,34.180,11.719,0
1579019613.654,36.621,41.016,36.621,43.945,-22.461,0
1579019613.658,35.645,42.480,34.668,50.293,5.859,0
1579019613.662,33.203,40.039,34.180,41.016,41.992,0
1579019613.666,28.320,35.156,34.180,37.598,68.359,0
1579019613.670,27.832,37.109,38.574,48.340,64.453,0
1579019613.674,32.715,38.574,38.086,50.781,60.547,0
1579019613.678,30.762,36.621,33.691,42.480,8.789,0
1579019613.681,26.855,36.621,35.156,41.992,2.930,0
1579019613.685,27.344,37.109,31.738,47.363,2.930,0
1579019613.689,33.691,37.598,29.297,52.734,-15.137,0
1579019613.693,38.086,40.039,33.691,51.270,-9.766,0
1579019613.697,31.738,37.598,32.227,39.551,24.414,0
1579019613.694,27.344,33.691,28.809,40.039,63.477,0
1579019613.698,34.668,36.133,30.273,56.641,94.727,0
1579019613.702,35.645,37.109,30.762,55.176,82.520,0
1579019613.706,28.320,37.598,29.297,37.598,36.133,0
1579019613.710,26.855,37.109,27.344,33.691,15.625,0
1579019613.714,34.180,36.133,29.297,42.969,51.270,0
1579019613.718,33.203,34.668,30.762,44.922,40.039,0
1579019613.721,30.273,33.691,29.785,34.668,-10.742,0
1579019613.725,29.785,35.645,31.250,30.762,-17.090,0
1579019613.729,28.809,37.109,32.715,40.039,47.363,0
1579019613.733,34.668,37.598,33.203,47.363,102.539,0
1579019613.737,36.621,38.574,29.785,37.109,67.383,0
1579019613.754,32.227,38.086,27.344,25.391,57.617,0
1579019613.758,29.785,38.574,25.879,26.855,41.016,0
1579019613.762,36.621,41.016,22.949,34.668,46.875,0
1579019613.766,39.551,41.016,23.438,34.668,23.926,0
1579019613.770,34.668,40.039,24.902,26.367,-5.371,0
1579019613.774,33.203,40.527,29.297,31.738,28.809,0
1579019613.778,31.250,40.039,31.738,46.875,59.570,0
1579019613.781,30.273,39.551,29.297,47.852,66.406,0
1579019613.785,28.320,38.574,30.273,35.645,36.133,0
1579019613.789,31.738,40.527,32.227,37.109,-9.766,0
1579019613.793,34.668,41.016,34.180,46.387,40.039,0
1579019613.797,33.203,39.551,33.203,46.387,49.805,0
1579019613.794,31.738,36.621,32.715,36.621,20.996,0
1579019613.798,24.414,36.133,34.668,29.297,62.012,0
1579019613.802,22.461,36.621,33.691,32.227,77.637,0
1579019613.806,29.297,37.109,32.227,41.016,82.520,0
1579019613.810,26.855,35.645,33.691,37.109,74.219,0
1579019613.814,20.508,31.738,34.668,21.973,39.062,0
1579019613.818,20.020,32.227,36.621,24.414,57.129,0
1579019613.821,23.926,34.668,36.621,33.691,58.594,0
1579019613.825,22.461,32.715,35.156,34.668,50.293,0
1579019613.829,20.996,33.691,35.645,25.391,40.527,0
1579019613.833,21.973,36.621,36.133,22.949,59.570,0
1579019613.837,22.461,35.156,36.133,34.668,92.285,0
1579019613.834,29.297,31.738,36.133,39.062,87.891,0
1579019613.838,32.227,31.738,35.156,35.645,80.566,0
1579019613.842,30.762,35.156,35.645,34.180,26.367,0
1579019613.846,39.062,37.598,36.133,37.598,25.879,0
1579019613.850,45.898,38.574,34.180,39.551,41.992,0
1579019613.854,42.480,39.551,34.668,36.133,-18.066,0
1579019613.858,43.457,42.480,37.598,32.715,-38.086,0
1579019613.861,45.410,41.504,37.109,29.785,-13.184,0
1579019613.865,46.387,39.551,32.715,36.621,-16.113,0
1579019613.869,43.457,37.598,31.250,41.016,-22.461,0
1579019613.873,44.434,35.645,29.785,43.945,16.113,0
1579019613.877,59.570,33.691,26.367,62.500,34.668,0
1579019613.894,58.594,34.180,28.809,65.918,20.996,0
1579019613.898,30.762,32.715,26.855,33.203,11.230,0
1579019613.902,10.742,24.414,23.926,5.371,-33.691,0
1579019613.906,-4.395,19.043,27.832,-2.441,24.902,0
1579019613.910,-33.203,14.648,26.855,-15.625,68.359,0
1579019613.914,-36.621,12.695,24.414,-19.531,13.184,0
1579019613.918,-51.758,8.301,24.902,-47.363,-8.789,0
1579019613.921,-78.613,0.000,29.297,-74.707,-8.301,0
1579019613.925,-81.055,-1.465,33.203,-63.477,47.363,0
1579019613.929,-87.891,0.488,31.250,-66.895,42.969,0
1579019613.933,-88.379,-0.977,31.250,-74.707,40.039,0
1579019613.937,-94.727,-2.441,34.180,-84.961,24.902,0
1579019613.934,-100.586,-2.930,35.645,-91.797,-6.348,0
1579019613.938,-90.820,-5.371,33.691,-80.566,25.391,0
1579019613.942,-92.285,-7.812,32.715,-81.543,33.203,0
1579019613.946,-89.355,-6.348,33.691,-83.984,46.387,0
1579019613.950,-74.219,-5.371,36.133,-67.871,113.281,0
1579019613.954,-63.477,-2.930,35.156,-54.688,50.293,0
1579019613.958,-48.340,2.441,31.250,-50.293,42.969,0
1579019613.961,-35.645,6.836,31.250,-41.016,45.898,0
1579019613.965,-33.203,9.766,31.250,-31.738,-12.207,0
1579019613.969,-20.996,15.625,30.273,-23.926,27.832,0
1579019613.973,-7.324,19.043,26.855,-13.184,68.359,0
1579019613.977,-6.836,18.555,22.949,-13.184,62.988,0
1579019613.974,-2.441,20.020,20.996,-9.766,26.855,0
1579019613.978,9.766,22.461,23.438,3.418,38.574,0
1579019613.982,13.184,24.414,26.367,13.184,55.664,0
1579019613.986,9.766,26.367,25.879,8.789,60.547,0
1579019613.990,12.207,32.715,27.344,6.836,27.344,0
1579019613.994,17.578,34.180,26.855,16.113,-10.254,0
1579019613.998,19.531,32.715,28.320,25.391,14.648,0
1579019614.001,18.555,34.180,30.273,27.344,21.484,0
1579019614.005,15.137,36.133,31.738,20.508,13.184,0
1579019614.009,15.625,35.645,36.133,24.902,15.625,0
1579019614.013,20.020,33.691,38.574,39.551,14.648,0
1579019614.017,17.090,31.738,38.086,43.457,14.160,0
1579019614.034,16.113,32.227,41.016,36.621,17.578,0
1579019614.038,14.648,33.203,44.434,35.156,27.344,0
1579019614.042,16.602,31.738,43.945,43.457,22.949,0
1579019614.046,22.461,31.250,43.945,49.805,44.434,0
1579019614.050,18.555,31.738,45.898,44.922,-8.301,0
1579019614.054,15.137,32.227,44.922,35.645,-33.203,0
1579019614.058,18.066,30.762,43.945,38.086,46.875,0
1579019614.061,19.043,29.297,42.480,43.945,30.273,0
1579019614.065,18.555,28.809,42.480,40.527,1.953,0
1579019614.069,21.484,30.273,42.969,36.133,6.836,0
1579019614.073,23.926,31.738,42.969,38.086,39.062,0
1579019614.077,23.926,29.785,42.480,44.434,47.363,0
1579019614.074,24.414,28.809,39.062,47.363,33.691,0
1579019614.078,24.902,31.738,37.598,39.062,67.871,0
1579019614.082,24.902,35.156,35.645,32.715,33.691,0
1579019614.086,26.367,36.621,35.156,37.109,-5.859,0
1579019614.090,30.273,38.086,36.133,39.062,28.809,0
1579019614.094,29.297,37.598,35.156,30.273,28.809,0
1579019614.098,23.926,37.109,34.668,28.320,11.230,0
1579019614.101,25.879,36.621,33.691,37.598,-0.977,0
1579019614.105,36.621,37.109,34.668,41.016,-22.949,0
1579019614.109,45.898,39.062,37.598,37.109,35.156,0
1579019614.113,48.340,38.086,39.551,38.574,69.824,0
1579019614.117,30.273,37.109,42.480,32.227,37.598,0
1579019614.135,16.602,36.133,45.410,28.320,37.598,0
1579019614.139,23.926,34.668,46.387,38.086,33.203,0
1579019614.143,21.973,33.691,46.875,32.715,0.488,0
1579019614.147,23.926,29.785,48.828,34.668,26.367,0
1579019614.151,30.273,31.250,50.293,46.875,87.891,0
1579019614.155,26.367,33.691,50.293,45.898,56.641,0
1579019614.159,19.531,32.227,45.898,36.133,62.988,0
1579019614.162,15.625,31.738,42.480,28.809,55.664,0
1579019614.166,19.043,30.762,40.039,35.645,-2.930,0
1579019614.170,25.879,33.203,39.062,40.039,9.766,0
1579019614.174,22.461,34.668,40.039,26.855,42.480,0
1579019614.178,17.578,31.738,38.086,20.020,92.773,0
1579019614.174,20.508,31.738,37.109,25.879,72.266,0
1579019614.178,24.414,31.250,37.598,29.785,42.969,0
1579019614.182,30.273,29.785,38.086,30.762,47.363,0
1579019614.186,22.949,30.762,40.527,20.996,35.645,0
1579019614.190,20.996,31.738,40.527,20.996,36.621,0
1579019614.194,25.391,31.250,41.504,31.738,-1.465,0
1579019614.198,23.438,32.715,40.039,30.273,4.883,0
1579019614.201,20.996,33.691,38.086,21.484,50.781,0
1579019614.205,21.973,35.156,37.598,21.484,9.766,0
1579019614.209,26.855,35.156,37.109,33.203,2.930,0
1579019614.213,25.391,33.691,40.039,33.691,80.078,0
1579019614.217,21.484,29.297,41.504,21.973,60.547,0
1579019614.214,25.879,30.273,42.480,27.344,50.781,0
1579019614.218,32.715,34.668,42.969,38.086,66.895,0
1579019614.222,33.691,32.227,43.457,38.086,-5.859,0
1579019614.226,30.762,35.156,45.410,30.273,33.691,0
1579019614.230,27.344,38.574,43.457,25.391,34.668,0
1579019614.234,26.367,36.621,41.504,29.785,-23.438,0
1579019614.238,25.879,35.156,40.527,32.227,-9.766,0
1579019614.241,24.414,34.668,41.016,25.879,18.066,0
1579019614.245,19.043,35.645,44.922,19.531,7.324,0
1579019614.249,18.066,36.133,45.410,24.414,-33.691,0
1579019614.253,20.020,36.133,44.922,32.715,20.508,0
1579019614.257,19.531,38.574,43.945,25.391,42.480,0
1579019614.274,18.555,36.621,44.922,19.531,7.812,0
1579019614.278,17.578,36.621,47.363,20.020,11.719,0
1579019614.282,17.090,38.574,44.434,20.996,14.160,0
1579019614.286,19.531,38.086,45.410,20.508,18.066,0
1579019614.290,16.113,37.109,51.270,15.137,34.180,0
1579019614.294,9.766,36.133,53.711,14.648,61.035,0
1579019614.298,13.184,35.645,54.688,21.973,52.734,0
1579019614.301,15.625,34.668,56.152,30.273,48.340,0
1579019614.305,13.184,33.691,53.223,26.855,40.039,0
1579019614.309,12.207,33.203,50.781,21.484,26.367,0
1579019614.313,9.766,34.180,51.758,26.367,33.203,0
1579019614.317,16.113,35.156,51.758,38.574,43.945,0
1579019614.314,23.438,36.621,49.805,34.180,51.270,0
1579019614.318,16.602,36.621,50.293,26.855,48.828,0
1579019614.322,18.066,35.156,52.246,35.156,60.547,0
1579019614.326,28.809,33.203,50.293,40.527,41.016,0
1579019614.330,29.785,32.715,50.781,35.156,67.871,0
1579019614.334,18.066,35.645,52.246,21.973,67.383,0
1579019614.338,14.160,34.668,52.734,14.160,17.578,0
1579019614.341,21.484,32.715,51.270,23.926,94.727,0
1579019614.345,28.809,33.203,51.270,30.273,35.645,0
1579019614.349,30.762,34.668,50.781,22.461,-22.949,0
1579019614.353,31.738,36.621,50.781,19.043,57.129,0
1579019614.357,32.715,37.109,49.805,25.391,29.785,0
1579019614.354,34.180,34.668,48.828,28.320,-16.602,0
1579019614.358,35.645,34.180,47.363,18.555,16.602,0
1579019614.362,37.598,32.715,43.945,10.742,-26.855,0
1579019614.366,44.434,33.691,45.410,15.625,-11.719,0
1579019614.370,50.293,36.133,45.410,24.902,16.113,0
1579019614.374,44.434,38.574,45.898,23.926,18.555,0
1579019614.378,36.133,41.504,48.828,15.137,22.949,0
1579019614.381,37.109,40.039,49.316,23.926,8.789,0
1579019614.385,36.621,38.086,49.316,33.203,44.922,0
1579019614.389,33.203,37.598,47.363,26.855,98.633,0
1579019614.393,34.180,36.133,44.922,25.391,81.055,0
1579019614.397,33.691,36.621,46.387,27.832,6.348,0
1579019614.415,36.133,35.156,47.363,36.133,-13.184,0
1579019614.419,44.922,34.668,46.875,41.016,34.180,0
1579019614.423,43.945,35.645,50.293,36.621,50.781,0
1579019614.427,37.598,33.691,50.293,31.738,-8.301,0
1579019614.431,39.551,36.621,46.387,35.645,-3.418,0
1579019614.435,40.527,41.992,47.852,40.039,0.488,0
1579019614.439,38.086,41.016,47.852,29.785,6.836,0
1579019614.442,36.621,40.527,46.387,20.508,28.809,0
1579019614.446,37.598,40.039,45.410,25.391,-2.930,0
1579019614.450,38.086,36.133,47.363,33.691,19.531,0
1579019614.454,35.156,37.598,46.875,29.785,8.301,0
1579019614.458,33.691,39.062,44.922,23.438,53.223,0
1579019614.454,32.227,39.551,45.898,25.391,117.188,0
1579019614.458,36.133,39.062,46.387,33.203,66.406,0
1579019614.462,38.574,38.086,47.363,34.668,89.355,0
1579019614.466,38.086,37.598,46.875,26.367,77.148,0
1579019614.470,36.133,36.621,46.387,26.367,83.984,0
1579019614.474,32.715,38.574,46.875,37.598,100.586,0
1579019614.478,31.250,39.062,47.852,41.504,-8.301,0
1579019614.481,29.297,36.133,46.875,33.203,11.230,0
1579019614.485,24.902,35.645,47.852,30.762,84.961,0
1579019614.489,17.578,35.156,46.875,38.574,35.645,0
1579019614.493,17.578,35.156,44.922,41.504,7.324,0
1579019614.497,20.996,33.691,45.898,35.156,81.543,0
1579019614.494,21.484,32.715,46.387,23.926,119.629,0
1579019614.498,22.461,35.156,48.340,26.367,114.746,0
1579019614.502,28.320,33.691,47.363,36.133,71.289,0
1579019614.506,24.414,33.691,47.363,26.367,20.508,0
1579019614.510,17.578,36.133,50.293,17.090,-11.230,0
1579019614.514,22.461,35.645,50.781,23.926,-9.766,0
1579019614.518,30.762,34.668,48.340,30.273,6.348,0
1579019614.521,32.227,32.227,48.828,30.273,17.578,0
1579019614.525,24.414,30.273,48.828,17.090,50.781,0
1579019614.529,21.484,32.227,44.922,13.184,42.480,0
1579019614.533,22.461,28.809,45.410,28.320,29.297,0
1579019614.537,23.438,28.320,45.898,32.227,-2.441,0
1579019614.535,27.344,30.273,44.434,28.809,67.871,0
1579019614.539,35.156,31.250,45.898,26.367,75.684,0
1579019614.543,40.039,32.715,45.898,31.738,-1.953,0
1579019614.547,45.898,34.180,45.410,42.480,-8.789,0
1579019614.551,45.898,33.691,45.410,39.551,-52.734,0
1579019614.555,38.086,31.250,46.387,33.203,-73.242,0
1579019614.559,42.480,31.250,47.852,33.203,-10.254,0
1579019614.562,44.434,31.738,48.828,42.480,2.930,0
1579019614.566,45.898,30.762,43.945,54.199,10.254,0
1579019614.570,49.316,31.250,40.039,49.316,48.828,0
1579019614.574,31.250,32.227,41.504,29.297,43.457,0
1579019614.578,19.043,32.715,42.480,22.461,51.270,0
1579019614.594,21.484,32.227,41.992,22.461,11.719,0
1579019614.598,20.508,27.344,41.992,16.602,16.113,0
1579019614.602,10.742,29.297,39.062,10.254,18.555,0
1579019614.606,9.766,29.785,39.062,19.531,4.395,0
1579019614.610,15.137,28.320,41.504,21.484,13.672,0
1579019614.614,17.578,30.762,38.574,11.230,-13.672,0
1579019614.618,17.578,34.180,37.598,12.695,6.348,0
1579019614.621,15.625,37.598,35.645,17.090,5.371,0
1579019614.625,16.602,34.180,31.738,18.066,17.090,0
1579019614.629,17.090,31.250,31.250,14.160,56.641,0
1579019614.633,19.043,36.621,29.785,10.742,41.016,0
1579019614.637,20.508,38.574,27.344,14.160,19.043,0
1579019614.637,21.484,38.086,28.320,22.461,-10.742,0
1579019614.641,24.902,39.551,27.344,27.832,-2.930,0
1579019614.645,21.484,40.039,24.414,24.902,73.242,0
1579019614.649,21.973,37.598,24.414,23.438,104.004,0
1579019614.653,23.438,36.621,23.926,29.785,41.992,0
1579019614.657,19.531,37.598,23.438,29.785,3.906,0
1579019614.661,14.160,37.598,22.949,19.531,15.625,0
1579019614.664,13.672,35.645,20.020,16.113,43.945,0
1579019614.668,13.672,34.668,20.508,23.438,31.738,0
1579019614.672,19.531,35.645,23.438,31.250,-0.488,0
1579019614.676,26.855,37.109,23.438,26.855,31.250,0
1579019614.680,25.879,37.598,21.973,19.531,30.762,0
1579019614.694,25.391,37.109,24.414,25.879,12.695,0
1579019614.698,29.785,36.621,24.414,36.133,28.320,0
1579019614.702,35.645,35.645,23.926,38.574,37.109,0
1579019614.706,35.645,36.621,25.391,32.227,18.555,0
1579019614.710,35.156,36.133,26.367,31.738,-18.066,0
1579019614.714,36.621,35.645,27.344,41.504,9.766,0
1579019614.718,35.645,40.527,25.879,37.109,36.133,0
1579019614.721,31.250,38.574,23.926,26.855,20.996,0
1579019614.725,29.297,36.133,22.949,28.320,19.043,0
1579019614.729,25.391,35.645,22.949,31.738,9.277,0
1579019614.733,23.926,34.180,21.973,29.297,0.000,0
1579019614.737,25.879,36.133,22.461,18.066,1.465,0
1579019614.735,25.391,34.668,24.414,15.137,20.020,0
1579019614.739,22.949,31.738,25.391,27.832,24.902,0
1579019614.743,25.391,31.738,27.344,36.133,4.395,0
1579019614.747,22.949,34.668,24.902,31.738,12.207,0
1579019614.751,18.066,36.133,22.949,25.391,52.246,0
1579019614.755,17.090,34.180,24.414,31.738,48.828,0
1579019614.759,19.531,34.668,23.926,38.574,58.105,0
1579019614.762,16.113,36.133,21.973,33.203,66.895,0
1579019614.766,12.207,34.668,22.461,26.855,46.875,0
1579019614.770,19.043,35.156,25.879,31.250,42.480,0
1579019614.774,23.926,36.133,26.367,38.086,10.742,0
1579019614.778,28.320,36.133,24.902,37.598,-43.945,0
1579019614.774,26.855,39.062,24.902,29.297,-51.758,0
1579019614.778,22.949,38.574,25.879,25.391,-1.953,0
1579019614.782,25.391,37.109,27.344,33.691,14.648,0
1579019614.786,21.484,38.574,26.367,37.109,5.371,0
1579019614.790,18.555,38.574,23.438,29.297,34.668,0
1579019614.794,18.555,39.062,23.926,24.902,58.105,0
1579019614.798,17.090,40.527,23.438,29.297,51.758,0
1579019614.801,21.973,39.551,20.508,34.668,100.586,0
1579019614.805,24.902,35.156,24.902,26.855,105.957,0
1579019614.809,26.367,36.621,27.344,19.531,2.930,0
1579019614.813,25.879,39.062,25.391,28.809,-10.742,0
1579019614.817,18.555,37.109,26.367,36.621,41.504,0
1579019614.835,21.973,35.156,27.344,40.039,82.520,0
1579019614.839,28.320,37.598,28.809,34.668,54.688,0
1579019614.843,27.344,41.504,29.297,30.762,1.953,0
1579019614.847,28.809,39.551,27.344,38.574,39.551,0
1579019614.851,28.320,37.109,26.367,39.062,-1.953,0
1579019614.855,25.391,37.109,25.879,30.762,2.930,0
1579019614.859,26.367,38.574,26.367,25.391,31.738,0
1579019614.862,30.762,39.062,26.855,33.203,-15.137,0
1579019614.866,32.715,38.574,25.391,42.480,-21.484,0
1579019614.870,29.297,36.621,27.344,37.109,-37.109,0
1579019614.874,22.949,38.574,26.855,28.320,24.902,0
1579019614.878,24.902,38.086,24.902,29.297,-7.812,0
1579019614.874,29.297,34.180,24.902,36.621,-60.547,0
1579019614.878,32.715,33.203,26.855,35.156,-1.465,0
1579019614.882,41.992,33.691,25.879,30.762,56.641,0
1579019614.886,41.016,36.133,26.367,33.203,72.754,0
1579019614.890,33.691,36.133,25.879,39.062,43.945,0
1579019614.894,40.039,34.180,23.926,40.039,41.016,0
1579019614.898,40.527,37.598,24.414,35.645,42.480,0
1579019614.901,38.574,41.504,24.414,35.156,5.371,0
1579019614.905,46.875,41.016,22.949,45.898,39.062,0
1579019614.909,49.805,38.086,21.484,47.363,49.805,0
1579019614.913,43.945,38.086,22.461,37.598,40.039,0
1579019614.917,40.527,37.598,20.996,33.203,19.043,0
1579019614.914,40.527,34.180,18.555,39.551,34.180,0
1579019614.918,40.039,33.203,21.973,46.387,37.109,0
1579019614.922,34.668,34.180,25.391,38.574,5.859,0
1579019614.926,29.785,35.645,27.832,28.320,53.711,0
1579019614.930,27.832,36.621,24.902,28.809,67.383,0
1579019614.934,24.414,34.180,24.414,37.109,54.688,0
1579019614.938,21.484,35.156,25.391,34.668,70.801,0
1579019614.941,19.043,36.621,23.926,26.367,54.199,0
1579019614.945,22.461,37.109,26.855,27.344,63.477,0
1579019614.949,27.832,37.598,25.879,37.109,44.434,0
1579019614.953,27.344,37.598,24.902,42.969,-12.695,0
1579019614.957,29.297,40.527,27.344,35.645,10.742,0
1579019614.974,31.738,40.527,24.902,33.203,42.480,0
1579019614.978,34.668,40.527,23.926,41.016,17.578,0
1579019614.982,33.691,41.504,27.344,43.457,28.809,0
1579019614.986,28.320,40.527,27.832,33.691,8.789,0
1579019614.990,28.809,39.062,24.902,28.809,28.809,0
1579019614.994,32.227,34.668,24.902,38.574,60.059,0
1579019614.998,34.668,35.645,24.902,40.039,28.320,0
1579019615.001,34.668,37.598,22.461,34.180,-1.953,0
1579019615.005,29.785,38.086,24.414,35.645,-32.227,0
1579019615.009,29.785,39.551,25.879,43.457,7.812,0
1579019615.013,33.203,39.551,23.438,52.246,46.875,0
1579019615.017,35.645,38.086,23.926,47.363,26.367,0
1579019615.014,34.668,39.062,24.902,38.574,33.691,0
1579019615.018,37.109,40.039,25.879,44.922,44.434,0
1579019615.022,38.086,37.109,25.879,53.223,26.855,0
1579019615.026,34.180,34.180,24.414,48.828,55.176,0
1579019615.030,30.762,34.668,22.949,38.574,80.078,0
1579019615.034,28.809,35.156,26.367,35.645,60.059,0
1579019615.038,22.949,33.203,26.855,37.598,-18.555,0
1579019615.041,21.484,31.738,26.855,33.691,-15.137,0
1579019615.045,22.949,33.203,26.855,28.320,59.082,0
1579019615.049,19.043,33.691,24.902,22.949,82.520,0
1579019615.053,23.926,32.227,22.949,26.367,68.359,0
1579019615.057,27.344,30.762,20.508,36.133,62.988,0
1579019615.054,24.902,30.273,23.438,32.715,69.336,0
1579019615.058,23.438,29.297,25.879,26.367,75.195,0
1579019615.062,24.414,29.785,22.949,32.715,45.898,0
1579019615.066,25.879,33.203,22.949,41.016,89.844,0
1579019615.070,25.391,36.133,25.391,38.574,133.301,0
1579019615.074,24.902,36.133,25.391,32.227,69.824,0
1579019615.078,25.879,34.180,22.949,32.227,60.547,0
1579019615.081,31.250,37.598,19.531,37.109,8.789,0
1579019615.085,33.691,39.551,20.996,41.016,-4.395,0
1579019615.089,30.273,37.109,22.949,32.227,-0.977,0
1579019615.093,32.227,40.039,23.926,29.785,50.781,0
1579019615.097,33.691,42.480,23.926,40.527,9.766,0
1579019615.114,33.203,40.039,25.879,44.922,-16.602,0
1579019615.118,33.691,36.621,28.320,37.598,41.016,0
1579019615.122,30.762,38.086,27.832,32.227,47.852,0
1579019615.126,29.297,36.133,26.855,37.598,23.438,0
1579019615.130,30.273,36.133,25.391,45.410,-34.180,0
1579019615.134,26.855,38.086,27.832,42.480,-21.484,0
1579019615.138,23.438,38.086,28.809,25.879,0.000,0
1579019615.141,26.367,37.598,26.855,21.973,4.883,0
1579019615.145,26.855,37.598,26.855,34.180,13.672,0
1579019615.149,25.391,36.133,29.297,35.156,27.344,0
1579019615.153,24.414,34.668,33.203,27.832,107.910,0
1579019615.157,23.926,34.180,30.762,23.926,111.328,0
1579019615.174,26.367,35.156,28.809,26.855,6.836,0
1579019615.178,31.738,36.621,32.227,30.762,58.594,0
1579019615.182,30.273,37.598,32.227,23.926,117.676,0
1579019615.186,27.344,35.645,29.785,17.090,76.660,0
1579019615.190,27.832,36.621,26.855,22.461,24.902,0
1579019615.194,28.320,36.621,25.391,30.273,9.766,0
1579019615.198,29.297,33.203,26.367,26.855,-6.836,0
1579019615.201,27.344,29.785,28.320,22.949,-27.832,0
1579019615.205,25.879,29.297,28.320,31.738,17.578,0
1579019615.209,28.809,30.273,28.320,39.551,113.281,0
1579019615.213,28.320,30.762,28.320,38.086,64.453,0
1579019615.217,25.879,30.762,28.320,37.598,-9.277,0
1579019615.194,25.391,29.297,28.320,37.598,32.227,0
1579019615.198,25.879,27.832,25.879,40.039,82.031,0
1579019615.202,30.762,26.855,27.344,36.133,32.715,0
1579019615.206,33.203,28.320,29.785,28.320,-13.672,0
1579019615.210,35.156,31.250,26.855,31.250,45.898,0
1579019615.214,42.969,34.180,29.297,46.875,-12.207,0
1579019615.218,51.758,39.062,32.227,53.223,-21.973,0
1579019615.221,48.828,39.551,29.785,46.387,45.410,0
1579019615.225,38.086,38.086,27.344,42.969,12.207,0
1579019615.229,39.551,40.527,26.855,50.293,21.973,0
1579019615.233,44.434,38.086,29.297,56.641,31.250,0
1579019615.237,37.109,35.156,28.809,44.922,-28.320,0
1579019615.254,27.344,37.109,25.879,29.785,3.906,0
1579019615.258,28.809,40.039,24.414,32.227,48.340,0
1579019615.262,34.668,38.574,23.926,42.480,33.203,0
1579019615.266,32.227,36.621,25.879,36.133,-5.859,0
1579019615.270,25.879,35.156,25.879,27.344,-27.832,0
1579019615.274,22.461,34.668,24.902,27.832,-19.531,0
1579019615.278,22.949,35.156,25.879,29.785,55.176,0
1579019615.281,24.414,34.668,25.391,28.809,59.082,0
1579019615.285,20.508,33.691,25.391,21.973,7.812,0
1579019615.289,21.484,32.715,26.367,19.531,-1.953,0
1579019615.293,31.738,34.180,27.344,30.762,-5.371,0
1579019615.297,34.668,35.156,26.367,34.668,19.531,0
1579019615.294,29.297,31.250,26.855,30.762,48.828,0
1579019615.298,24.414,29.297,27.832,25.391,35.645,0
1579019615.302,26.367,32.227,27.832,31.738,9.277,0
1579019615.306,32.227,33.203,28.320,43.945,48.340,0
1579019615.310,33.203,33.691,27.344,38.086,77.637,0
1579019615.314,30.273,34.180,28.320,31.738,26.855,0
1579019615.318,30.273,34.180,28.809,35.156,2.930,0
1579019615.321,38.086,35.156,29.785,43.457,15.625,0
1579019615.325,37.109,34.668,28.809,39.062,58.594,0
1579019615.329,32.227,34.668,28.809,23.926,66.406,0
1579019615.333,31.738,35.156,28.809,26.855,66.895,0
1579019615.337,30.762,35.156,28.320,37.598,60.547,0
1579019615.354,31.738,38.574,28.809,34.180,55.176,0
1579019615.358,28.809,37.598,27.832,21.973,101.074,0
1579019615.362,22.461,36.621,26.855,14.648,78.125,0
1579019615.366,27.344,33.203,30.762,28.320,57.617,0
1579019615.370,41.016,31.738,30.762,46.875,45.410,0
1579019615.374,34.668,41.016,22.461,29.785,2.930,0
1579019615.378,19.043,41.992,23.926,8.301,30.762,0
1579019615.381,20.508,40.527,26.855,15.625,36.621,0
1579019615.385,35.156,42.480,24.902,30.273,-18.555,0
1579019615.389,43.457,41.504,29.785,37.598,-1.953,0
1579019615.393,39.551,41.016,29.785,33.203,19.531,0
1579019615.397,36.621,38.086,28.320,33.203,57.129,0
1579019615.394,37.109,36.621,28.320,35.645,69.824,0
1579019615.398,35.156,38.086,27.344,35.645,32.227,0
1579019615.402,29.785,38.574,27.344,34.668,19.043,0
1579019615.406,32.715,38.574,26.367,38.086,46.387,0
1579019615.410,42.969,41.016,27.344,52.246,78.613,0
1579019615.414,49.316,41.016,27.344,55.176,60.059,0
1579019615.418,44.434,39.551,28.320,44.922,30.273,0
1579019615.421,41.504,39.062,27.344,42.969,45.410,0
1579019615.425,42.969,33.691,24.902,47.363,82.031,0
1579019615.429,38.574,29.297,26.367,51.270,37.109,0
1579019615.433,31.738,29.297,29.785,43.945,33.691,0
1579019615.437,25.879,30.762,31.250,33.691,55.176,0
1579019615.435,26.367,33.691,29.785,38.574,-0.488,0
1579019615.439,30.273,32.715,28.809,45.410,-4.883,0
1579019615.443,27.344,31.738,26.367,40.039,-4.883,0
1579019615.447,30.762,35.156,24.902,32.227,7.812,0
1579019615.451,41.016,38.574,24.902,31.738,19.531,0
1579019615.455,43.457,37.598,22.949,39.062,19.043,0
1579019615.459,43.945,36.133,22.461,40.039,45.898,0
1579019615.462,44.922,36.133,22.949,33.203,47.363,0
1579019615.466,47.852,35.645,23.926,32.227,43.945,0
1579019615.470,53.711,37.598,25.391,33.691,28.320,0
1579019615.474,56.641,40.527,23.438,32.227,7.324,0
1579019615.478,55.664,41.504,22.949,25.391,19.531,0
1579019615.474,52.246,40.039,24.414,24.902,-23.438,0
1579019615.478,53.711,38.574,25.879,36.621,-14.160,0
1579019615.482,52.734,37.109,23.926,40.039,28.320,0
1579019615.486,48.340,36.133,22.949,33.691,-10.254,0
1579019615.490,45.410,36.133,29.297,31.738,-15.625,0
1579019615.494,41.992,35.156,30.762,35.156,-12.207,0
1579019615.498,40.527,36.133,24.902,38.574,26.367,0
1579019615.501,40.039,35.645,23.438,34.668,45.410,0
1579019615.505,35.645,33.691,28.809,25.391,30.273,0
1579019615.509,41.016,34.180,26.367,36.133,67.383,0
1579019615.513,43.457,33.203,22.949,55.664,52.734,0
1579019615.517,18.555,29.297,26.855,40.039,42.969,0
1579019615.534,4.883,32.227,27.832,19.531,81.055,0
1579019615.538,17.578,33.203,28.809,31.738,18.555,0
1579019615.542,29.785,31.738,27.832,50.293,-67.383,0
1579019615.546,34.180,32.715,23.926,52.246,-5.859,0
1579019615.550,34.180,32.715,23.926,43.945,9.277,0
1579019615.554,33.203,33.203,26.855,37.598,20.508,0
1579019615.558,38.086,34.668,26.855,41.504,50.781,0
1579019615.561,43.945,35.645,24.414,44.922,1.465,0
1579019615.565,41.016,33.203,24.902,39.551,-3.418,0
1579019615.569,33.203,31.738,22.949,32.715,1.465,0
1579019615.573,33.691,28.809,21.973,32.715,-27.344,0
1579019615.577,38.574,24.902,22.461,40.527,23.438,0
1579019615.574,40.039,25.391,20.508,41.992,57.617,0
1579019615.578,43.457,29.297,20.508,33.691,25.391,0
1579019615.582,43.945,32.227,20.508,35.156,37.598,0
1579019615.586,39.551,33.691,18.066,41.992,59.082,0
1579019615.590,39.062,33.203,19.531,41.992,71.777,0
1579019615.594,41.016,30.762,18.066,35.645,32.227,0
1579019615.598,38.574,30.762,16.602,32.715,7.324,0
1579019615.601,32.715,30.273,19.043,40.527,47.363,0
1579019615.605,34.668,28.809,20.996,45.898,96.191,0
1579019615.609,36.621,30.762,21.973,39.062,44.922,0
1579019615.613,30.762,33.203,22.461,30.762,22.949,0
1579019615.617,28.320,34.180,22.461,40.039,71.289,0
1579019615.629,30.762,36.133,23.926,48.828,69.336,0
1579019615.633,32.227,37.598,25.879,39.062,23.438,0
1579019615.637,31.738,35.645,25.391,25.879,-12.207,0
1579019615.641,32.715,34.180,21.484,24.414,32.715,0
1579019615.645,31.738,35.645,20.996,34.668,93.750,0
1579019615.649,29.297,36.133,24.902,33.691,99.121,0
1579019615.653,32.227,38.086,24.902,23.438,78.125,0
1579019615.656,36.621,37.598,24.902,24.414,53.223,0
1579019615.660,39.062,35.645,25.391,34.668,-34.180,0
1579019615.664,34.180,37.109,21.973,34.668,-16.113,0
1579019615.668,31.738,38.086,22.949,24.414,7.324,0
1579019615.672,32.715,36.133,24.902,21.484,-2.930,0
1579019615.674,27.344,39.062,23.926,27.344,-11.230,0
1579019615.678,28.809,39.551,25.879,32.715,-36.621,0
1579019615.682,33.203,35.645,22.949,33.203,-25.879,0
1579019615.686,31.738,33.691,21.484,28.809,4.883,0
1579019615.690,30.273,34.180,24.414,33.203,23.926,0
1579019615.694,34.668,34.180,26.367,39.551,41.504,0
1579019615.698,34.180,32.715,24.902,35.156,77.637,0
1579019615.701,29.297,32.227,25.391,27.832,98.145,0
1579019615.705,26.367,32.227,26.367,28.809,41.016,0
1579019615.709,27.344,32.715,22.949,38.574,10.254,0
1579019615.713,28.320,33.203,22.461,39.062,41.016,0
1579019615.717,30.273,34.668,24.902,27.832,77.148,0
1579019615.715,33.203,36.621,24.902,26.367,113.281,0
1579019615.719,35.156,38.574,21.973,30.273,45.898,0
1579019615.723,41.016,38.086,20.996,32.227,-6.348,0
1579019615.727,39.062,33.691,21.484,25.391,58.594,0
1579019615.731,33.691,36.133,17.578,14.648,104.492,0
1579019615.735,30.273,39.062,15.625,18.555,51.270,0
1579019615.739,32.227,40.039,17.578,24.902,17.578,0
1579019615.742,31.250,41.992,17.578,20.508,-11.230,0
1579019615.746,28.809,41.504,18.066,17.090,19.043,0
1579019615.750,33.203,40.039,18.555,23.926,-19.531,0
1579019615.754,33.691,39.551,18.555,31.250,-123.047,0
1579019615.758,34.668,36.133,19.043,29.785,-60.059,0
1579019615.774,35.645,33.203,21.484,22.949,-17.578,0
1579019615.778,33.691,34.668,20.508,25.879,-2.441,0
1579019615.782,39.551,36.133,18.555,35.645,39.062,0
1579019615.786,45.898,36.621,21.973,39.062,50.781,0
1579019615.790,44.434,36.621,23.926,32.715,36.133,0
1579019615.794,45.410,38.086,23.438,29.297,12.207,0
1579019615.798,49.316,36.621,23.926,39.062,44.434,0
1579019615.801,49.316,36.133,25.391,40.527,11.230,0
1579019615.805,49.316,37.598,25.391,32.227,-35.645,0
1579019615.809,49.805,35.645,24.414,33.203,53.711,0
1579019615.813,49.316,34.668,23.438,41.016,101.562,0
1579019615.817,63.965,35.645,23.438,56.641,17.578,0
1579019615.814,67.383,33.203,29.297,58.594,2.930,0
1579019615.818,40.039,30.273,33.203,30.762,63.477,0
1579019615.822,28.320,25.879,36.133,21.973,58.594,0
1579019615.826,35.156,23.926,38.574,37.109,31.738,0
1579019615.830,45.410,23.438,39.551,46.875,67.383,0
1579019615.834,42.969,21.973,41.016,38.574,116.699,0
1579019615.838,32.715,20.020,40.527,29.785,71.289,0
1579019615.841,34.180,20.996,40.039,42.969,39.062,0
1579019615.845,36.621,21.484,38.086,48.828,8.789,0
1579019615.849,29.785,20.508,36.621,38.086,-21.973,0
1579019615.853,27.344,23.438,36.621,32.227,23.438,0
1579019615.857,35.156,23.926,36.621,39.551,47.852,0
1579019615.874,38.574,21.484,37.109,47.363,58.594,0
1579019615.878,34.668,22.949,37.109,41.016,39.551,0
1579019615.882,32.227,25.391,36.621,33.691,54.688,0
1579019615.886,31.250,24.414,35.156,38.574,65.430,0
1579019615.890,32.227,23.926,32.227,46.875,67.871,0
1579019615.894,26.367,25.391,30.762,37.598,47.363,0
1579019615.898,20.996,27.832,30.762,25.879,-62.500,0
1579019615.901,25.391,26.367,32.715,35.156,-59.082,0
1579019615.905,31.250,25.391,34.180,49.316,35.645,0
1579019615.909,31.738,26.367,34.180,45.410,-1.465,0
1579019615.913,30.273,25.391,32.715,33.203,-2.930,0
1579019615.917,31.250,25.391,29.785,34.180,23.926,0
1579019615.914,37.598,26.855,28.809,49.805,32.227,0
1579019615.918,44.922,30.762,29.785,50.781,27.832,0
1579019615.922,43.945,31.738,28.320,35.645,28.320,0
1579019615.926,40.527,32.227,27.344,31.250,32.227,0
1579019615.930,57.617,36.133,26.367,52.734,-6.836,0
1579019615.934,68.848,34.668,26.367,69.336,29.297,0
1579019615.938,41.992,30.273,28.809,41.504,76.172,0
1579019615.941,28.320,28.809,31.250,21.973,60.059,0
1579019615.945,41.992,29.297,36.133,42.969,70.801,0
1579019615.949,62.012,28.809,37.109,71.289,-10.254,0
1579019615.953,73.242,29.785,35.156,68.359,-23.926,0
1579019615.957,69.336,31.250,39.551,69.824,39.551,0
1579019615.954,65.430,26.855,45.410,86.914,45.898,0
1579019615.958,75.195,25.879,43.945,102.051,19.531,0
1579019615.962,83.496,23.438,47.363,113.281,20.996,0
1579019615.966,80.566,22.461,48.828,106.934,46.387,0
1579019615.970,100.586,28.320,42.480,121.582,55.664,0
1579019615.974,112.305,29.785,45.410,135.254,28.809,0
1579019615.978,103.027,29.297,48.828,126.465,16.602,0
1579019615.981,104.004,31.250,49.805,123.047,41.504,0
1579019615.985,102.539,33.203,49.805,117.676,68.359,0
1579019615.989,104.004,33.691,48.828,118.164,20.020,0
1579019615.993,108.398,36.621,46.875,115.723,2.930,0
1579019615.997,105.957,37.109,46.875,104.980,-39.551,0
1579019615.994,98.633,34.180,48.340,102.051,-26.367,0
1579019615.998,95.215,32.715,46.387,102.539,58.105,0
1579019616.002,92.773,35.156,42.480,101.074,38.086,0
1579019616.006,88.379,38.086,40.039,91.797,40.527,0
1579019616.010,81.543,36.133,41.016,81.055,21.484,0
1579019616.014,77.148,34.180,40.039,81.055,23.926,0
1579019616.018,82.031,37.109,39.062,86.914,32.715,0
1579019616.021,80.566,38.574,39.062,88.379,-16.602,0
1579019616.025,73.730,38.574,38.086,76.172,26.367,0
1579019616.029,72.266,39.551,34.180,70.312,41.504,0
1579019616.033,74.707,37.109,32.227,84.961,5.371,0
1579019616.037,75.684,36.621,32.227,88.867,37.109,0
1579019616.054,68.359,38.086,36.621,75.195,20.996,0
1579019616.058,60.059,38.574,39.551,66.406,-9.766,0
1579019616.062,58.594,36.621,37.109,73.242,2.930,0
1579019616.066,59.570,36.133,34.668,79.102,23.926,0
1579019616.070,59.570,36.621,30.762,65.918,12.207,0
1579019616.074,52.246,38.086,30.273,53.711,21.484,0
1579019616.078,47.852,40.039,30.273,55.664,53.223,0
1579019616.081,50.781,39.551,31.250,62.988,34.180,0
1579019616.085,49.316,39.062,33.203,60.547,39.062,0
1579019616.089,39.062,39.551,32.227,47.363,3.906,0
1579019616.093,34.180,41.016,30.762,46.875,39.062,0
1579019616.097,40.039,39.551,31.738,53.223,52.734,0
1579019616.096,42.480,37.598,31.250,51.270,-26.367,0
1579019616.100,37.109,38.574,32.227,41.504,0.488,0
1579019616.104,35.156,38.574,32.715,38.086,57.617,0
1579019616.108,39.551,37.598,32.715,44.922,89.355,0
1579019616.112,40.527,38.086,31.250,43.457,105.469,0
1579019616.116,39.062,38.086,31.250,36.133,124.023,0
1579019616.120,36.133,38.574,32.715,31.250,19.531,0
1579019616.123,39.551,38.574,29.297,33.203,-12.207,0
1579019616.127,48.828,38.086,29.785,41.504,36.621,0
1579019616.131,47.852,37.109,32.227,37.109,37.598,0
1579019616.135,41.504,36.621,31.738,29.297,52.246,0
1579019616.139,41.016,36.621,32.227,34.668,20.508,0
1579019616.135,45.898,37.598,28.809,41.992,43.457,0
1579019616.139,41.992,38.574,28.809,40.527,71.289,0
1579019616.143,30.762,35.645,32.715,32.227,81.055,0
1579019616.147,28.809,33.691,29.297,34.180,51.270,0
1579019616.151,36.133,36.133,26.367,47.363,28.320,0
1579019616.155,39.062,36.621,26.367,45.898,11.719,0
1579019616.159,34.668,35.156,24.902,27.832,-0.977,0
1579019616.162,33.691,36.133,24.902,20.508,52.246,0
1579019616.166,36.133,35.645,25.391,32.227,62.988,0
1579019616.170,37.109,35.645,26.367,37.109,55.664,0
1579019616.174,39.062,37.109,21.973,31.250,45.410,0
1579019616.178,30.762,37.598,20.996,29.297,41.016,0
1579019616.194,28.320,38.086,23.438,35.156,-17.578,0
1579019616.198,31.250,35.645,21.973,43.457,-24.902,0
1579019616.202,25.391,32.227,22.461,40.039,30.273,0
1579019616.206,18.555,33.203,22.461,25.391,35.156,0
1579019616.210,21.973,36.621,24.414,29.297,-37.109,0
1579019616.214,29.297,37.598,23.926,40.527,-39.551,0
1579019616.218,31.250,36.621,24.414,37.109,22.461,0
1579019616.221,35.645,37.109,25.391,28.320,-1.953,0
1579019616.225,35.156,38.086,22.461,31.250,-20.020,0
1579019616.229,37.109,37.109,20.020,43.945,41.992,0
1579019616.233,40.527,34.668,20.020,44.434,71.289,0
1579019616.237,35.645,32.715,22.461,36.133,62.500,0
1579019616.234,37.109,31.250,23.438,35.156,27.832,0
1579019616.238,44.434,35.156,22.461,41.992,-35.156,0
1579019616.242,43.457,37.598,23.926,43.945,-30.273,0
1579019616.246,49.316,32.227,23.926,48.340,1.465,0
1579019616.250,71.289,38.086,20.508,63.965,-8.789,0
1579019616.254,52.246,43.945,19.531,42.480,-0.977,0
1579019616.258,19.043,39.551,17.578,12.207,35.645,0
1579019616.261,6.348,35.645,15.625,-0.977,62.012,0
1579019616.265,-11.230,32.227,13.672,-16.113,66.406,0
1579019616.269,-28.809,35.645,7.324,-38.086,59.082,0
1579019616.273,-39.551,39.551,1.953,-60.547,45.410,0
1579019616.277,-53.711,38.086,-2.930,-80.078,44.922,0
1579019616.274,-63.477,36.621,-7.324,-94.727,44.922,0
1579019616.278,-63.965,40.039,-11.719,-97.168,22.949,0
1579019616.282,-69.336,41.016,-13.672,-97.168,27.344,0
1579019616.286,-62.500,39.062,-13.672,-88.379,73.242,0
1579019616.290,-59.570,41.016,-16.113,-87.402,76.172,0
1579019616.294,-57.617,38.574,-14.648,-87.891,61.523,0
1579019616.298,-42.480,40.527,-14.160,-70.312,44.922,0
1579019616.301,-29.297,43.457,-12.695,-56.152,18.066,0
1579019616.305,-24.902,41.992,-9.766,-59.082,27.832,0
1579019616.309,-19.531,43.945,-11.230,-56.152,19.531,0
1579019616.313,-11.719,44.434,-8.789,-40.039,9.277,0
1579019616.317,-4.395,42.969,-4.883,-24.902,24.902,0
1579019616.334,-2.441,43.457,-5.371,-18.555,-17.578,0
1579019616.338,-1.465,44.434,-3.906,-18.066,-66.406,0
1579019616.342,1.953,43.457,-4.883,-16.602,-32.227,0
1579019616.346,6.348,41.016,-9.277,-5.371,20.508,0
1579019616.350,9.277,39.062,-7.324,4.883,43.945,0
1579019616.354,7.812,41.016,-2.930,-0.977,66.406,0
1579019616.358,6.836,43.945,-3.418,-5.859,16.602,0
1579019616.361,11.230,41.016,-4.883,3.418,-26.367,0
1579019616.365,14.648,40.527,-3.906,11.719,52.734,0
1579019616.369,11.719,42.480,-0.488,2.930,66.406,0
1579019616.373,13.672,41.504,2.441,-1.953,75.195,0
1579019616.377,18.555,40.039,2.441,7.324,91.797,0
1579019616.374,23.438,39.062,2.930,18.555,47.363,0
1579019616.378,22.461,39.551,4.883,19.531,59.082,0
1579019616.382,27.832,42.969,4.883,12.207,52.734,0
1579019616.386,35.645,43.945,3.418,20.020,43.457,0
1579019616.390,43.457,42.480,2.441,34.668,28.809,0
1579019616.394,41.504,42.480,0.488,27.344,15.625,0
1579019616.398,33.691,42.480,0.977,22.949,56.641,0
1579019616.401,34.180,42.480,1.953,28.320,52.246,0
1579019616.405,37.109,41.504,0.977,36.133,21.973,0
1579019616.409,37.598,39.551,2.930,41.016,76.172,0
1579019616.413,30.762,39.551,2.930,26.855,98.633,0
1579019616.417,32.227,40.039,0.977,23.926,40.039,0
1579019616.414,40.527,38.574,1.953,36.621,14.160,0
1579019616.418,41.992,40.039,2.930,39.062,2.930,0
1579019616.422,37.109,43.457,4.395,32.715,-37.598,0
1579019616.426,32.227,42.480,4.395,24.414,-39.062,0
1579019616.430,32.715,41.504,4.883,29.297,32.227,0
1579019616.434,39.062,40.527,8.301,41.504,42.480,0
1579019616.438,40.039,39.551,7.324,38.574,77.148,0
1579019616.441,31.250,39.551,6.348,26.855,58.594,0
1579019616.445,30.273,37.598,7.812,31.738,1.465,0
1579019616.449,42.969,32.715,6.836,47.363,89.355,0
1579019616.453,44.434,35.645,7.324,48.828,49.805,0
1579019616.457,34.668,40.527,8.301,40.039,8.789,0
1579019616.473,36.133,37.109,9.277,44.922,77.148,0
1579019616.477,45.898,38.086,12.207,58.105,107.910,0
1579019616.481,48.828,39.062,14.160,60.059,70.312,0
1579019616.485,42.969,38.086,15.625,47.363,39.551,0
1579019616.489,41.016,37.598,14.160,42.480,61.523,0
1579019616.493,40.039,36.133,18.066,45.898,0.977,0
1579019616.497,44.434,34.668,21.484,44.434,29.297,0
1579019616.500,42.969,34.668,19.531,33.691,75.684,0
1579019616.504,37.109,35.645,20.508,24.414,75.195,0
1579019616.508,41.016,35.156,20.996,30.762,19.043,0
1579019616.512,48.340,36.133,18.555,41.504,-59.570,0
1579019616.516,43.945,37.598,20.020,40.527,13.184,0
1579019616.514,38.086,36.133,20.996,33.691,58.105,0
1579019616.518,51.758,36.621,18.555,47.852,51.270,0
1579019616.522,62.012,39.062,18.066,62.500,52.246,0
1579019616.526,44.922,37.598,20.020,44.434,8.301,0
1579019616.530,30.762,35.156,23.926,26.855,1.465,0
1579019616.534,27.832,34.180,22.461,24.902,48.828,0
1579019616.538,32.715,33.691,19.531,33.203,3.906,0
1579019616.541,41.504,32.715,22.949,40.527,-4.395,0
1579019616.545,37.598,29.297,25.879,33.691,41.992,0
1579019616.549,30.762,32.715,24.414,26.367,13.672,0
1579019616.553,33.691,35.156,20.020,31.250,-10.742,0
1579019616.557,33.691,33.203,21.484,37.598,29.297,0
1579019616.553,28.809,33.691,22.461,31.738,31.250,0
1579019616.557,27.832,35.156,21.973,27.344,41.504,0
1579019616.561,31.250,35.645,24.414,27.344,56.641,0
1579019616.565,35.156,35.156,26.855,30.762,20.996,0
1579019616.569,33.203,31.738,27.832,32.715,8.789,0
1579019616.573,29.297,32.715,27.832,27.832,23.926,0
1579019616.577,26.367,34.180,25.879,26.367,18.555,0
1579019616.580,27.832,35.156,26.367,40.039,37.109,0
1579019616.584,27.832,35.645,28.320,45.898,99.121,0
1579019616.588,19.531,35.645,29.785,39.062,39.062,0
1579019616.592,20.508,36.133,30.273,39.062,11.230,0
1579019616.596,25.391,31.738,27.344,45.410,16.113,0
1579019616.613,27.344,33.691,27.344,45.410,-15.625,0
1579019616.617,26.855,34.180,24.902,32.715,-19.531,0
1579019616.621,23.926,33.203,20.996,23.438,-7.324,0
1579019616.625,26.855,36.621,17.090,26.855,21.973,0
1579019616.629,31.250,35.645,17.090,35.645,58.105,0
1579019616.633,29.785,36.621,21.973,35.645,48.828,0
1579019616.637,23.926,38.574,24.414,22.461,1.465,0
1579019616.640,26.855,36.621,21.973,22.461,-18.066,0
1579019616.644,31.738,37.109,18.555,33.203,7.324,0
1579019616.648,31.250,35.645,17.090,26.855,38.086,0
1579019616.652,21.973,32.715,18.555,10.742,0.000,0
1579019616.656,18.066,33.203,18.066,11.230,12.207,0
1579019616.653,26.367,31.738,20.996,28.320,46.875,0
1579019616.657,31.738,33.203,22.949,36.621,12.695,0
1579019616.661,28.320,36.133,25.879,31.250,15.625,0
1579019616.665,27.832,28.809,31.738,29.785,69.824,0
1579019616.669,36.133,23.926,31.738,41.504,50.781,0
1579019616.673,37.598,29.297,28.320,49.805,6.836,0
1579019616.677,29.785,28.320,24.902,42.480,-4.883,0
1579019616.680,28.809,27.832,25.391,32.715,20.020,0
1579019616.684,39.062,31.738,26.367,42.480,19.531,0
1579019616.688,44.922,30.762,26.367,47.852,41.992,0
1579019616.692,44.434,31.738,28.320,42.969,55.664,0
1579019616.696,42.480,34.668,31.250,38.086,17.090,0
1579019616.695,45.898,33.203,30.762,37.109,-32.715,0
1579019616.699,47.363,30.273,26.367,40.527,-28.320,0
1579019616.703,48.828,30.273,26.855,41.992,16.602,0
1579019616.707,48.828,32.715,25.391,30.273,2.930,0
1579019616.711,40.527,32.715,23.926,26.367,56.152,0
1579019616.715,40.527,32.715,25.879,41.016,73.730,0
1579019616.719,41.504,34.668,24.414,44.434,63.477,0
1579019616.722,34.180,36.133,22.949,28.809,67.383,0
1579019616.726,30.273,36.133,23.438,23.438,50.293,0
1579019616.730,37.109,34.180,23.926,34.668,66.406,0
1579019616.734,42.969,34.668,23.438,42.969,69.824,0
1579019616.738,39.551,40.527,22.461,43.457,60.059,0
1579019616.753,34.668,41.992,24.414,36.621,81.543,0
1579019616.757,37.109,36.133,24.902,41.992,58.594,0
1579019616.761,38.574,33.203,21.973,57.617,62.500,0
1579019616.765,37.598,35.645,22.461,57.129,81.055,0
1579019616.769,40.039,37.598,22.949,48.828,67.871,0
1579019616.773,43.457,34.668,23.926,47.852,87.402,0
1579019616.777,48.340,36.621,26.855,54.688,35.645,0
1579019616.780,47.363,38.574,26.367,56.152,17.578,0
1579019616.784,45.410,35.645,28.320,48.828,27.344,0
1579019616.788,46.875,36.621,27.832,45.898,29.785,0
1579019616.792,49.805,38.086,25.391,50.293,50.781,0
1579019616.796,52.246,35.156,25.879,54.688,62.012,0
1579019616.795,44.922,34.180,22.461,45.410,46.387,0
1579019616.799,37.109,35.645,20.020,32.227,66.895,0
1579019616.803,43.945,37.598,20.508,41.016,45.898,0
1579019616.807,53.223,39.062,23.438,53.711,35.645,0
1579019616.811,49.316,41.016,23.926,45.898,63.965,0
1579019616.815,43.945,39.551,20.020,37.598,26.367,0
1579019616.819,43.457,37.109,16.602,42.969,24.414,0
1579019616.822,41.016,38.574,17.090,52.734,57.129,0
1579019616.826,33.691,39.062,17.090,45.410,26.855,0
1579019616.830,30.273,36.621,16.602,31.738,4.395,0
1579019616.834,31.738,36.133,16.602,32.227,11.719,0
1579019616.838,33.203,36.621,17.578,39.551,0.977,0
1579019616.833,38.086,34.180,19.043,40.039,23.438,0
1579019616.837,36.621,35.156,18.555,28.809,28.320,0
1579019616.841,33.691,36.133,18.555,26.855,18.555,0
1579019616.845,35.645,35.645,20.996,34.668,57.129,0
1579019616.849,37.598,36.133,21.484,36.621,27.832,0
1579019616.853,31.738,35.645,19.531,31.738,11.719,0
1579019616.857,28.809,36.133,15.137,25.879,61.035,0
1579019616.860,31.250,36.133,19.043,28.809,82.520,0
1579019616.864,32.715,33.691,22.461,31.250,61.523,0
1579019616.868,40.527,30.762,21.973,31.250,30.273,0
1579019616.872,39.551,30.762,24.902,29.297,47.852,0
1579019616.876,41.992,31.738,26.367,34.180,19.531,0
1579019616.894,48.828,33.203,26.855,41.504,-43.457,0
1579019616.898,44.922,34.668,28.320,39.062,-56.152,0
1579019616.902,37.109,34.668,26.855,31.250,23.926,0
1579019616.906,31.738,33.691,23.926,29.297,32.715,0
1579019616.910,35.645,28.809,21.484,36.133,3.418,0
1579019616.914,42.480,27.832,20.020,38.086,39.551,0
1579019616.918,42.480,28.809,22.949,30.762,22.461,0
1579019616.921,41.992,28.809,24.414,28.320,-13.184,0
1579019616.925,49.316,31.738,21.973,37.109,59.082,0
1579019616.929,55.664,32.715,22.949,41.016,47.852,0
1579019616.933,56.641,34.180,26.367,32.227,33.203,0
1579019616.937,52.246,33.691,24.414,18.555,78.613,0
1579019616.934,53.711,34.668,22.461,20.996,44.434,0
1579019616.938,54.199,37.598,21.973,33.203,17.090,0
1579019616.942,46.387,35.645,22.461,26.367,5.371,0
1579019616.946,39.551,32.715,23.926,12.207,-2.930,0
1579019616.950,40.039,33.691,20.996,15.137,-8.789,0
1579019616.954,42.969,35.645,19.043,20.508,55.176,0
1579019616.958,40.039,36.621,22.461,15.137,100.098,0
1579019616.961,30.273,37.598,22.949,5.371,45.410,0
1579019616.965,27.344,36.133,22.949,6.836,7.812,0
1579019616.969,38.086,37.109,24.902,17.578,8.301,0
1579019616.973,42.480,38.086,24.902,21.973,-15.137,0
1579019616.977,33.691,35.645,23.926,14.160,-4.395,0
1579019616.974,33.691,33.203,24.902,9.766,54.688,0
1579019616.978,38.574,33.203,25.879,22.461,86.914,0
1579019616.982,37.598,34.180,25.879,29.297,86.914,0
1579019616.986,31.250,33.203,25.391,22.949,72.754,0
1579019616.990,21.484,32.227,25.391,15.625,84.473,0
1579019616.994,20.996,34.180,22.949,17.578,28.809,0
1579019616.998,25.879,38.086,22.461,30.273,23.926,0
1579019617.001,27.832,40.039,25.391,26.367,102.051,0
1579019617.005,22.461,37.109,25.391,13.672,25.391,0
1579019617.009,20.996,36.133,20.508,18.555,-6.348,0
1579019617.013,25.391,35.156,20.020,31.250,2.441,0
1579019617.017,25.879,33.203,19.531,30.273,39.551,0
1579019617.033,21.973,34.668,20.020,18.066,26.855,0
1579019617.037,19.043,37.598,20.508,17.578,-39.551,0
1579019617.041,22.949,38.086,19.043,28.809,22.949,0
1579019617.045,30.762,33.203,21.484,32.715,47.852,0
1579019617.049,29.297,31.738,23.926,26.367,23.438,0
1579019617.053,22.461,34.668,22.949,18.066,66.406,0
1579019617.057,22.949,35.645,23.438,20.996,74.219,0
1579019617.060,26.367,35.156,23.438,28.809,41.992,0
1579019617.064,23.438,35.645,21.484,30.273,41.992,0
1579019617.068,22.949,36.621,21.973,29.785,37.598,0
1579019617.072,27.344,36.133,21.973,31.738,56.152,0
1579019617.076,29.297,36.621,20.508,38.086,73.242,0
1579019617.074,34.668,37.109,21.484,35.156,97.656,0
1579019617.078,26.855,35.156,20.996,28.320,68.848,0
1579019617.082,14.160,32.227,21.484,28.320,27.832,0
1579019617.086,18.066,33.203,25.391,33.203,-5.859,0
1579019617.090,17.090,34.668,27.344,40.527,-20.996,0
1579019617.094,5.859,34.668,31.250,32.227,-25.879,0
1579019617.098,1.465,38.086,33.691,24.414,-19.531,0
1579019617.101,3.906,39.062,28.809,30.273,-35.156,0
1579019617.105,1.465,34.180,23.438,28.320,-1.953,0
1579019617.109,-14.160,33.691,27.832,11.230,-4.395,0
1579019617.113,-21.973,34.668,29.785,2.930,9.277,0
1579019617.117,-15.625,30.273,31.250,13.672,87.891,0
1579019617.114,-11.719,32.227,37.109,20.508,32.715,0
1579019617.118,-33.203,32.715,37.598,-5.859,20.020,0
1579019617.122,-59.082,29.785,39.551,-38.574,41.992,0
1579019617.126,-63.965,29.785,41.992,-46.875,43.945,0
1579019617.130,-82.031,27.344,43.945,-60.059,11.719,0
1579019617.134,-98.633,25.391,41.992,-76.660,-5.859,0
1579019617.138,-112.793,22.949,39.551,-100.586,38.574,0
1579019617.141,-135.742,23.926,40.527,-128.418,14.648,0
1579019617.145,-145.508,20.996,37.598,-130.859,-34.180,0
1579019617.149,-156.250,16.602,36.621,-134.277,23.438,0
1579019617.153,-169.922,18.066,36.621,-159.668,11.230,0
1579019617.157,-168.457,20.020,32.715,-162.109,1.953,0
1579019617.173,-171.875,19.043,35.156,-162.109,66.895,0
1579019617.177,-175.781,19.531,38.086,-166.504,28.320,0
1579019617.181,-165.527,20.508,34.180,-160.156,-10.742,0
1579019617.185,-163.574,20.508,37.109,-159.668,82.520,0
1579019617.189,-157.227,22.461,37.109,-151.855,34.180,0
1579019617.193,-130.371,20.996,37.598,-119.141,-39.062,0
1579019617.197,-122.559,19.531,40.527,-106.934,42.969,0
1579019617.200,-129.395,20.508,38.574,-117.676,56.152,0
1579019617.204,-96.680,24.414,34.180,-86.426,-44.434,0
1579019617.208,-62.500,26.855,32.715,-49.805,-66.406,0
1579019617.212,-61.035,27.832,30.762,-54.199,80.566,0
1579019617.216,-39.551,29.785,23.926,-44.434,106.445,0
1579019617.214,-5.859,31.250,21.484,-6.836,13.184,0
1579019617.218,-4.395,32.227,22.461,0.000,8.789,0
1579019617.222,8.789,30.273,18.066,7.812,47.852,0
1579019617.226,34.668,30.273,15.137,32.715,44.434,0
1579019617.230,35.156,32.227,13.672,31.738,13.672,0
1579019617.234,41.992,34.668,11.230,40.039,-29.297,0
1579019617.238,69.824,39.062,8.301,69.824,12.207,0
1579019617.241,77.148,38.574,4.883,72.754,45.410,0
1579019617.245,70.801,35.645,5.859,65.918,49.805,0
1579019617.249,81.055,35.156,5.371,77.148,82.031,0
1579019617.253,94.238,37.598,2.441,95.703,56.152,0
1579019617.257,104.004,41.992,0.000,105.957,51.758,0
1579019617.254,110.352,42.969,1.465,105.957,-11.230,0
1579019617.258,109.863,42.480,4.883,111.816,-33.691,0
1579019617.262,115.234,45.410,3.906,123.535,-17.578,0
1579019617.266,124.023,48.828,4.395,128.418,12.695,0
1579019617.270,121.094,48.828,6.836,123.535,25.391,0
1579019617.274,118.652,47.363,5.371,119.141,16.113,0
1579019617.278,123.047,45.410,5.371,128.418,42.480,0
1579019617.281,123.535,45.410,6.348,127.441,25.879,0
1579019617.285,119.141,44.922,3.418,118.164,-22.461,0
1579019617.289,116.699,47.852,1.465,116.699,-33.691,0
1579019617.293,122.070,47.852,2.441,121.094,-14.648,0
1579019617.297,125.000,45.410,4.395,129.395,18.066,0
1579019617.313,116.211,45.410,7.324,122.070,37.109,0
1579019617.317,112.305,46.875,6.836,111.816,36.133,0
1579019617.321,110.840,42.969,8.301,118.652,52.734,0
1579019617.325,108.887,39.551,6.348,121.094,58.105,0
1579019617.329,107.422,41.504,5.859,110.352,69.336,0
1579019617.333,102.051,45.410,7.812,103.027,102.539,0
1579019617.337,98.145,48.340,7.812,101.074,56.641,0
1579019617.340,103.027,45.410,9.766,107.422,71.289,0
1579019617.344,106.445,45.898,13.672,113.281,16.602,0
1579019617.348,99.121,45.898,16.113,105.957,-34.668,0
1579019617.352,90.820,42.969,17.578,97.168,40.039,0
1579019617.356,94.238,41.016,17.578,104.004,83.496,0
1579019617.353,95.215,39.551,16.113,108.398,35.645,0
1579019617.357,88.867,41.504,15.625,99.609,3.906,0
1579019617.361,87.891,44.434,16.113,94.238,19.531,0
1579019617.365,89.844,43.457,15.137,96.191,-7.812,0
1579019617.369,93.262,42.480,10.254,99.121,-6.348,0
1579019617.373,88.379,42.969,8.301,91.797,59.570,0
1579019617.377,75.195,41.016,12.207,81.543,76.660,0
1579019617.380,71.777,39.062,15.137,82.520,51.758,0
1579019617.384,76.660,41.504,15.137,83.496,45.898,0
1579019617.388,77.148,43.457,17.578,80.078,24.414,0
1579019617.392,75.195,42.480,18.066,76.660,13.184,0
1579019617.396,71.289,42.969,16.602,73.730,14.648,0
1579019617.395,74.219,40.527,17.578,77.637,3.906,0
1579019617.399,77.148,39.062,16.602,74.219,21.484,0
1579019617.403,67.871,40.527,13.184,62.500,18.555,0
1579019617.407,61.523,39.551,11.719,57.129,-36.133,0
1579019617.411,61.035,38.086,12.207,62.500,-20.508,0
1579019617.415,56.152,35.156,14.648,68.848,31.250,0
1579019617.419,48.828,34.180,16.602,58.594,59.570,0
1579019617.422,44.922,36.621,18.555,49.805,57.129,0
1579019617.426,51.758,37.598,20.508,60.547,41.016,0
1579019617.430,55.176,34.180,19.531,68.848,63.965,0
1579019617.434,46.875,35.645,17.578,65.918,16.113,0
1579019617.438,38.574,37.109,20.020,52.734,27.832,0
1579019617.454,41.504,35.156,21.973,50.781,75.195,3
1579019617.458,53.223,34.180,20.996,62.500,40.527,0
1579019617.462,56.641,32.715,19.531,58.105,1.465,0
1579019617.466,44.922,32.227,17.578,40.039,29.785,0
1579019617.470,36.621,32.227,19.531,37.109,9.277,0
1579019617.474,41.992,34.180,21.484,44.922,11.230,0
1579019617.478,46.875,35.156,20.020,48.828,62.500,0
1579019617.481,39.062,30.762,19.531,44.434,61.523,0
1579019617.485,35.156,30.273,17.090,36.133,93.262,0
1579019617.489,40.039,31.250,15.137,43.457,60.059,0
1579019617.493,40.527,34.668,15.137,49.316,-1.953,0
1579019617.497,39.551,38.574,11.719,39.062,22.949,0
1579019617.493,35.645,40.039,11.230,29.297,26.855,0
1579019617.497,36.133,40.039,12.695,27.344,5.859,0
1579019617.501,42.480,41.504,12.207,32.227,26.855,0
1579019617.505,42.969,41.504,12.207,33.691,16.113,0
1579019617.509,34.180,38.574,12.207,27.832,-8.301,0
1579019617.513,29.785,35.156,11.230,30.762,-16.113,0
1579019617.517,38.574,36.621,10.254,45.410,16.113,0
1579019617.520,51.270,38.086,8.301,58.105,11.719,0
1579019617.524,44.434,38.086,12.207,43.457,35.645,0
1579019617.528,25.879,36.133,16.602,25.879,23.438,0
1579019617.532,34.180,32.227,14.648,44.434,26.367,0
1579019617.536,42.480,32.227,15.625,54.199,110.352,0
1579019617.554,34.180,31.250,17.090,41.992,60.059,0
1579019617.558,28.809,30.273,16.602,34.668,15.625,0
1579019617.562,33.203,31.250,15.137,41.016,25.879,0
1579019617.566,36.621,29.785,15.625,52.246,51.758,0
1579019617.570,30.762,28.320,14.160,46.875,115.234,0
1579019617.574,20.020,25.879,14.160,39.551,102.539,0
1579019617.578,20.996,27.344,14.648,39.062,60.547,0
1579019617.581,27.832,29.785,9.277,35.156,46.387,0
1579019617.585,26.367,30.762,4.395,35.645,34.180,0
1579019617.589,24.902,37.598,4.883,33.691,61.035,0
1579019617.593,24.414,38.574,6.348,33.203,62.012,0
1579019617.597,29.297,37.598,6.836,43.457,53.223,0
1579019617.594,33.203,36.133,6.836,44.434,62.988,0
1579019617.598,33.691,35.156,7.812,40.039,30.762,0
1579019617.602,31.738,38.574,8.789,38.086,9.277,0
1579019617.606,33.691,38.574,5.371,36.621,-9.766,0
1579019617.610,35.645,37.598,5.859,39.062,-21.973,0
1579019617.614,32.227,42.969,8.301,34.668,-8.301,0
1579019617.618,32.227,46.875,9.766,31.250,34.180,0
1579019617.621,40.527,44.922,10.254,37.598,44.922,0
1579019617.625,43.457,42.969,8.789,43.457,59.082,0
1579019617.629,36.621,41.016,8.301,41.992,52.246,0
1579019617.633,34.668,40.039,10.742,35.645,-6.348,0
1579019617.637,40.039,41.992,10.742,37.109,39.551,0
1579019617.634,42.480,42.969,10.742,46.387,110.352,0
1579019617.638,40.039,42.969,12.695,46.387,27.344,0
1579019617.642,35.156,41.992,11.719,33.203,-2.441,0
1579019617.646,31.738,41.016,13.672,25.879,15.625,0
1579019617.650,37.109,42.480,13.184,36.133,52.246,0
1579019617.654,35.645,42.480,11.719,40.527,72.266,0
1579019617.658,24.902,39.062,10.254,27.832,43.457,0
1579019617.661,23.438,37.109,11.719,26.367,63.965,0
1579019617.665,28.809,36.621,17.090,35.645,90.332,0
1579019617.669,33.203,35.156,19.043,41.504,70.801,0
1579019617.673,31.250,33.203,19.043,36.621,9.277,0
1579019617.677,32.227,33.203,20.508,28.320,-23.926,0
1579019617.693,33.691,33.691,24.414,36.621,23.926,0
1579019617.697,35.156,32.227,24.902,42.480,25.879,0
1579019617.701,37.598,28.320,20.020,33.691,26.855,0
1579019617.705,31.738,29.297,20.996,25.879,62.500,0
1579019617.709,28.809,33.203,24.902,29.785,1.953,0
1579019617.713,35.645,33.691,24.414,38.574,-23.926,0
1579019617.717,37.598,36.133,24.902,29.785,18.555,0
1579019617.720,31.250,41.504,23.438,13.672,17.578,0
1579019617.724,30.273,41.992,22.949,20.996,36.133,0
1579019617.728,37.109,41.016,24.414,36.621,34.180,0
1579019617.732,39.062,42.969,22.949,38.086,-32.715,0
1579019617.736,31.250,39.551,21.973,30.273,52.246,0
1579019617.734,26.367,39.551,23.438,27.344,114.746,0
1579019617.738,30.762,42.480,27.344,35.156,16.113,0
1579019617.742,39.062,41.016,30.762,41.504,-4.395,0
1579019617.746,37.109,40.039,32.715,35.645,23.438,0
1579019617.750,26.367,38.086,32.715,28.320,32.715,0
1579019617.754,24.902,35.645,33.691,31.250,20.508,0
1579019617.758,25.879,35.645,37.109,40.527,49.316,0
1579019617.761,26.855,38.086,38.574,41.504,56.641,0
1579019617.765,21.973,39.551,38.574,33.691,16.602,0
1579019617.769,13.672,36.621,40.039,32.227,13.672,0
1579019617.773,19.531,33.691,42.969,41.504,38.086,0
1579019617.777,25.391,33.691,45.898,44.434,16.602,0
1579019617.773,16.113,30.762,46.875,33.691,25.391,0
1579019617.777,15.137,29.785,48.340,30.762,57.129,0
1579019617.781,23.926,29.785,48.828,37.109,63.965,0
1579019617.785,25.879,30.762,47.852,37.598,54.199,0
1579019617.789,31.738,33.203,47.852,34.668,14.648,0
1579019617.793,35.156,34.180,46.875,33.203,28.320,0
1579019617.797,29.785,33.691,47.852,43.457,48.828,0
1579019617.800,28.320,30.762,48.340,55.664,90.820,0
1579019617.804,29.785,31.250,49.316,44.922,79.102,0
1579019617.808,25.879,33.203,50.781,36.621,-11.230,0
1579019617.812,28.320,29.785,49.805,46.387,13.184,0
1579019617.816,39.551,27.832,48.828,53.711,16.113,0
1579019617.833,42.969,31.250,47.363,50.293,32.227,0
1579019617.837,37.598,33.203,47.363,43.945,28.320,0
1579019617.841,37.598,34.668,44.434,41.992,-22.461,0
1579019617.845,37.598,37.109,43.945,49.316,-1.953,0
1579019617.849,32.227,36.621,43.457,48.828,14.160,0
1579019617.853,25.879,34.668,40.039,37.598,25.879,0
1579019617.857,27.832,34.668,41.016,29.785,58.105,0
1579019617.860,28.809,36.621,39.062,32.715,63.477,0
1579019617.864,26.855,34.668,39.551,40.039,83.984,0
1579019617.868,27.344,32.227,44.434,36.133,56.641,0
1579019617.872,26.367,33.691,45.898,25.879,11.230,0
1579019617.876,28.809,36.621,47.852,30.273,42.480,0
1579019617.874,34.668,38.086,45.898,39.062,38.086,0
1579019617.878,33.203,37.109,44.922,37.109,7.324,0
1579019617.882,25.879,33.691,43.945,29.785,3.418,0
1579019617.886,28.320,32.715,42.480,31.738,29.785,0
1579019617.890,34.180,34.180,43.457,45.410,26.855,0
1579019617.894,37.109,32.715,43.945,48.340,-1.465,0
1579019617.898,37.109,30.762,44.922,36.621,6.348,0
1579019617.901,36.133,33.203,46.875,34.668,44.922,0
1579019617.905,38.574,36.133,46.387,46.875,43.945,0
1579019617.909,39.551,35.645,43.945,45.410,52.246,0
1579019617.913,35.156,34.180,43.457,34.180,60.547,0
1579019617.917,29.785,32.715,44.922,32.715,57.617,0
1579019617.914,29.785,32.715,46.387,36.621,-39.062,0
1579019617.918,36.133,32.227,45.898,41.016,-34.668,0
1579019617.922,46.875,31.250,44.434,47.363,39.551,0
1579019617.926,41.992,37.109,41.992,40.527,22.461,0
1579019617.930,13.672,38.574,41.992,15.137,43.945,0
1579019617.934,15.625,33.691,40.527,18.066,57.617,0
1579019617.938,25.879,37.598,37.109,20.020,31.738,0
1579019617.941,16.113,38.574,38.574,4.395,-2.441,0
1579019617.945,17.578,38.086,38.086,3.418,-20.020,0
1579019617.949,25.391,39.551,34.180,14.648,21.484,0
1579019617.953,31.738,41.016,34.180,22.949,0.977,0
1579019617.957,29.297,40.039,36.621,14.160,11.230,0
1579019617.994,26.367,35.645,39.062,7.812,76.172,0
1579019617.998,27.344,32.715,38.086,16.602,47.363,0
1579019618.002,31.738,34.180,35.156,24.414,37.109,0
1579019618.006,33.691,36.621,35.645,22.461,58.105,0
1579019618.010,31.738,38.086,37.109,23.438,43.945,0
1579019618.014,37.598,39.551,36.133,37.598,79.102,0
1579019618.018,42.969,41.016,36.621,40.527,104.980,0
1579019618.021,36.621,40.527,37.109,32.715,43.945,0
1579019618.025,32.715,40.039,38.086,33.203,22.949,0
1579019618.029,32.715,37.598,40.039,38.086,32.715,0
1579019618.033,35.156,35.645,39.062,45.410,39.062,0
1579019618.037,35.645,34.668,38.086,36.133,32.715,0
1579019618.015,30.762,35.156,37.598,23.438,26.855,0
1579019618.019,32.715,37.598,37.598,25.879,12.207,0
1579019618.023,37.598,41.016,38.086,35.645,-6.836,0
1579019618.027,39.062,41.992,41.016,39.062,50.781,0
1579019618.031,33.691,41.016,41.992,29.785,81.055,0
1579019618.035,34.180,40.527,38.086,25.879,86.914,0
1579019618.039,38.086,39.062,38.086,33.691,72.754,0
1579019618.042,31.738,35.645,38.574,36.133,8.301,0
1579019618.046,29.785,33.203,36.133,24.902,41.016,0
1579019618.050,25.879,35.156,35.156,17.578,73.730,0
1579019618.054,25.391,34.668,34.668,22.461,84.961,0
1579019618.058,36.621,36.133,34.180,33.203,53.711,0
1579019618.054,40.527,39.551,36.133,31.738,35.156,0
1579019618.058,37.598,37.598,38.574,22.461,102.539,0
1579019618.062,47.363,37.598,37.598,25.879,101.074,0
1579019618.066,54.688,40.527,36.133,34.668,41.504,0
1579019618.070,51.758,39.062,37.598,35.156,28.320,0
1579019618.074,44.434,36.621,36.621,25.879,62.012,0
1579019618.078,38.574,35.645,31.738,20.508,64.941,0
1579019618.081,42.480,35.156,32.715,33.691,87.891,0
1579019618.085,36.621,36.133,36.133,32.227,90.332,0
1579019618.089,27.832,36.621,32.715,19.531,20.020,0
1579019618.093,36.133,38.086,31.250,28.809,-2.930,0
1579019618.097,41.504,37.598,33.203,38.086,24.902,0
1579019618.114,44.434,38.574,31.250,41.504,1.465,0
1579019618.118,41.504,40.527,32.227,37.598,5.859,0
1579019618.122,32.227,38.574,34.668,27.344,25.391,0
1579019618.126,32.227,36.133,33.203,32.715,18.066,0
1579019618.130,30.762,37.109,31.250,41.016,71.289,0
1579019618.134,21.973,35.645,32.715,30.273,39.062,0
1579019618.138,16.113,33.691,36.621,20.020,15.625,0
1579019618.141,20.996,34.668,38.086,26.367,19.043,0
1579019618.145,24.414,34.180,38.086,37.109,-10.742,0
1579019618.149,20.508,33.691,36.621,32.227,31.738,0
1579019618.153,20.020,32.227,36.621,23.926,30.273,0
1579019618.157,22.949,32.715,37.598,26.855,-20.020,0
1579019618.174,22.949,34.180,34.668,29.785,-33.203,0
1579019618.178,24.414,32.715,32.227,28.320,-50.781,0
1579019618.182,25.879,31.738,33.691,24.414,4.883,0
1579019618.186,25.879,33.203,35.645,26.855,144.043,0
1579019618.190,31.250,36.133,36.133,32.227,95.703,0
1579019618.194,36.621,39.062,33.203,36.133,-5.371,0
1579019618.198,38.086,41.016,33.203,31.738,-34.668,0
1579019618.201,40.039,40.039,35.645,26.367,-34.180,0
1579019618.205,46.875,41.504,33.691,32.715,-15.137,0
1579019618.209,50.781,42.969,34.180,37.598,40.527,0
1579019618.213,51.758,41.504,36.133,36.133,27.832,0
1579019618.217,47.852,43.945,33.691,31.738,7.324,0
1579019618.195,38.574,40.039,30.273,28.320,33.203,0
1579019618.199,39.062,36.133,32.227,37.109,-25.879,0
1579019618.203,39.551,40.039,36.133,36.621,2.441,0
1579019618.207,31.738,39.062,37.109,25.391,87.891,0
1579019618.211,29.785,36.621,40.039,28.320,76.172,0
1579019618.215,32.715,36.621,37.109,38.574,65.430,0
1579019618.219,34.180,35.156,36.621,42.969,47.852,0
1579019618.222,31.250,36.621,38.574,36.133,1.953,0
1579019618.226,26.855,37.109,36.621,26.855,32.715,0
1579019618.230,27.832,35.156,35.156,32.715,19.531,0
1579019618.234,33.203,34.668,33.203,38.574,24.902,0
1579019618.238,29.297,31.738,33.691,30.762,41.504,0
1579019618.273,22.461,32.227,35.645,22.949,-10.742,0
1579019618.277,16.602,34.668,37.109,25.391,19.043,0
1579019618.281,18.555,32.715,39.551,35.156,26.855,0
1579019618.285,25.391,32.715,41.504,34.668,35.156,0
1579019618.289,24.902,34.180,41.992,27.832,21.484,0
1579019618.293,25.391,35.156,42.480,29.297,-8.789,0
1579019618.297,33.691,36.621,39.551,35.156,43.945,0
1579019618.300,37.598,36.621,37.109,36.621,40.039,0
1579019618.304,35.156,34.668,39.062,33.203,5.371,0
1579019618.308,38.574,35.156,36.621,34.180,-6.836,0
1579019618.312,44.434,36.621,30.273,39.551,45.410,0
1579019618.316,46.875,38.574,30.273,39.551,42.480,0
1579019618.294,46.875,39.062,30.762,28.809,17.090,0
1579019618.298,50.293,39.551,29.785,24.414,-1.465,0
1579019618.302,52.734,40.039,32.227,34.668,1.465,0
1579019618.306,48.828,40.039,36.133,41.016,16.113,0
1579019618.310,39.062,38.574,35.156,35.156,-14.160,0
1579019618.314,33.691,36.621,35.156,30.762,-20.996,0
1579019618.318,35.645,36.133,35.645,34.180,34.180,0
1579019618.321,34.180,37.109,32.715,42.969,26.855,0
1579019618.325,25.879,34.668,32.227,40.039,-17.090,0
1579019618.329,22.461,32.715,33.203,24.414,14.160,0
1579019618.333,25.879,32.715,38.574,23.926,53.223,0
1579019618.337,33.203,32.227,40.527,37.109,-5.371,0
1579019618.334,34.668,33.691,40.039,34.180,-75.684,0
1579019618.338,28.809,31.738,40.039,23.438,-5.859,0
1579019618.342,22.461,27.344,41.992,20.020,86.426,0
1579019618.346,18.555,27.832,42.969,25.879,34.180,0
1579019618.350,17.578,28.809,41.992,36.133,-29.785,0
1579019618.354,16.113,28.809,41.504,30.273,-7.324,0
1579019618.358,15.137,30.273,41.016,23.438,8.301,0
1579019618.361,16.602,31.738,41.504,28.809,-2.930,0
1579019618.365,22.461,31.250,41.992,33.691,-10.254,0
1579019618.369,23.926,32.715,40.039,33.691,56.152,0
1579019618.373,23.438,35.645,36.621,25.879,19.531,0
1579019618.377,24.902,34.180,37.109,25.391,-16.602,0
1579019618.413,25.879,32.227,40.039,35.156,45.410,0
1579019618.417,24.902,35.156,41.016,34.180,28.809,0
1579019618.421,23.926,37.109,39.062,26.855,56.641,0
1579019618.425,28.809,36.621,38.574,30.273,74.219,0
1579019618.429,38.574,37.598,35.156,38.574,60.547,0
1579019618.433,41.992,38.574,32.227,38.086,90.820,0
1579019618.437,41.016,39.062,33.203,25.391,71.777,0
1579019618.440,41.504,39.551,34.180,22.949,-31.738,0
1579019618.444,40.039,35.645,33.203,34.180,-20.996,0
1579019618.448,38.086,32.715,31.250,38.086,-8.301,0
1579019618.452,34.180,34.668,32.715,30.273,-25.391,0
1579019618.456,29.785,37.109,35.156,25.391,-5.859,0
1579019618.436,29.297,37.598,35.645,27.832,29.785,0
1579019618.440,29.785,36.133,34.180,31.738,36.621,0
1579019618.444,27.832,37.109,35.645,29.297,-7.324,0
1579019618.448,20.020,35.645,36.621,19.531,17.090,0
1579019618.452,18.066,33.203,36.621,22.461,68.359,0
1579019618.456,22.461,32.715,37.109,31.250,29.785,0
1579019618.460,23.926,33.691,38.574,34.180,7.812,0
1579019618.463,23.438,37.598,37.598,31.738,54.199,0
1579019618.467,27.832,39.062,38.574,30.273,47.852,0
1579019618.471,29.785,39.062,41.504,45.410,46.387,0
1579019618.475,27.344,39.551,41.992,48.340,63.477,0
1579019618.479,29.297,38.574,41.016,36.133,83.496,0
1579019618.474,25.879,37.109,40.527,35.156,107.422,0
1579019618.478,26.855,34.180,41.016,39.062,52.246,0
1579019618.482,32.227,32.715,39.062,40.039,45.898,0
1579019618.486,38.086,33.203,40.039,35.645,52.734,0
1579019618.490,35.645,35.156,41.016,28.320,-9.277,0
1579019618.494,36.133,36.621,38.574,28.320,0.000,0
1579019618.498,41.992,39.551,38.574,34.180,33.691,0
1579019618.501,36.133,40.039,36.621,28.320,58.105,0
1579019618.505,29.297,40.039,33.691,15.625,54.199,0
1579019618.509,27.344,41.504,30.762,20.508,60.059,0
1579019618.513,25.879,40.527,26.855,32.715,22.949,0
1579019618.517,30.762,39.551,28.809,34.180,-13.184,0
1579019618.553,29.297,34.180,32.227,22.949,41.504,1
1579019618.557,26.367,30.273,34.180,19.043,7.324,0
1579019618.561,32.227,31.738,34.668,38.086,10.742,0
1579019618.565,31.250,33.203,35.156,46.875,32.715,0
1579019618.569,26.367,36.133,36.621,40.527,-4.883,0
1579019618.573,25.879,38.574,37.598,38.574,6.836,0
1579019618.577,29.785,37.109,35.645,43.945,44.434,0
1579019618.580,27.344,37.598,34.180,51.270,58.105,0
1579019618.584,27.344,38.574,37.598,45.410,56.641,0
1579019618.588,30.762,38.086,41.016,37.598,20.996,0
1579019618.592,28.320,38.086,40.527,37.598,53.223,0
1579019618.596,31.738,37.109,38.086,41.504,74.219,0
1579019618.594,37.109,36.133,34.668,37.598,33.203,0
1579019618.598,33.691,38.574,34.668,25.879,50.293,0
1579019618.602,32.227,41.992,34.668,24.414,11.719,0
1579019618.606,36.133,41.016,32.715,33.691,-22.461,0
1579019618.610,35.156,39.062,36.621,41.016,25.391,0
1579019618.614,31.250,37.598,38.086,33.203,21.484,0
1579019618.618,32.227,37.109,39.062,30.273,44.922,0
1579019618.621,32.227,34.668,37.109,39.062,28.320,0
1579019618.625,33.203,33.691,32.715,40.039,6.836,0
1579019618.629,28.809,36.133,33.691,37.598,44.922,0
1579019618.633,26.367,40.039,33.691,35.156,57.129,0
1579019618.637,33.203,39.551,29.785,36.621,39.062,0
1579019618.634,40.039,38.086,25.391,41.016,79.590,0
1579019618.638,38.086,40.527,25.391,38.574,87.402,0
1579019618.642,34.668,41.504,26.367,29.297,67.871,0
1579019618.646,34.668,41.016,26.855,29.297,38.086,0
1579019618.650,38.086,41.016,30.273,39.062,-32.715,0
1579019618.654,43.457,40.039,34.668,39.551,-4.883,0
1579019618.658,40.527,42.480,35.156,28.809,29.785,0
1579019618.661,37.109,41.992,32.227,26.367,3.906,0
1579019618.665,40.039,39.062,30.273,37.109,58.594,0
1579019618.669,46.875,39.551,29.785,42.969,116.211,0
1579019618.673,42.969,41.992,31.738,33.203,51.270,0
1579019618.677,41.016,39.551,36.133,29.785,55.664,0
1579019618.674,49.805,38.574,39.551,38.574,74.707,0
1579019618.678,53.711,39.551,38.574,43.457,42.969,0
1579019618.682,49.805,41.016,38.574,38.086,57.617,0
1579019618.686,40.039,39.551,37.109,28.320,62.500,0
1579019618.690,36.621,40.527,35.645,31.250,28.809,0
1579019618.694,38.086,40.527,36.133,38.574,36.621,0
1579019618.698,33.691,36.133,35.156,31.738,32.227,0
1579019618.701,27.344,35.645,35.156,22.461,-6.836,0
1579019618.705,28.809,37.598,34.668,26.367,8.301,0
1579019618.709,40.039,37.598,35.645,38.574,13.672,0
1579019618.713,41.992,37.109,37.598,41.504,0.488,0
1579019618.717,44.434,36.621,36.133,37.598,9.766,0
1579019618.716,45.410,37.598,31.250,41.992,9.277,0
1579019618.720,39.551,38.574,28.320,50.293,60.547,0
1579019618.724,34.668,38.086,28.320,48.828,70.801,0
1579019618.728,28.320,37.598,26.855,39.062,11.719,0
1579019618.732,32.715,37.109,24.902,37.109,-42.480,0
1579019618.736,38.086,40.039,28.320,41.016,-63.477,0
1579019618.740,36.621,41.992,31.250,40.527,-27.344,0
1579019618.743,36.133,39.551,30.762,34.180,-8.301,0
1579019618.747,32.227,39.062,33.691,26.367,48.828,0
1579019618.751,34.180,40.039,36.133,28.809,88.379,0
1579019618.755,35.645,37.109,32.227,32.227,72.266,0
1579019618.759,29.297,37.598,29.297,26.855,61.523,0
1579019618.773,29.297,38.574,25.391,12.207,78.613,0
1579019618.777,30.273,36.133,25.391,10.742,53.711,0
1579019618.781,28.320,36.133,28.320,21.973,42.480,0
1579019618.785,27.344,36.621,26.855,19.043,31.738,0
1579019618.789,25.391,37.598,29.297,13.672,39.551,0
1579019618.793,30.273,33.203,30.273,20.020,121.582,0
1579019618.797,33.691,31.250,28.320,32.227,88.867,0
1579019618.800,35.156,36.621,27.832,38.086,5.371,0
1579019618.804,36.621,37.109,25.879,32.715,-21.484,0
1579019618.808,35.645,35.156,25.879,34.668,-20.996,0
1579019618.812,35.156,32.715,26.855,49.805,35.156,0
1579019618.816,33.691,32.715,27.832,58.594,60.547,0
1579019618.815,36.133,33.691,23.438,49.805,41.016,0
1579019618.819,35.645,34.180,22.461,44.434,32.715,0
1579019618.823,32.227,34.668,24.902,52.246,-14.160,0
1579019618.827,37.598,34.180,25.879,61.523,-43.945,0
1579019618.831,39.551,33.203,28.809,57.617,-45.898,0
1579019618.835,34.180,32.715,27.344,43.945,-31.738,0
1579019618.839,34.180,28.809,26.367,40.039,23.926,0
1579019618.842,41.016,27.832,29.297,48.340,5.371,0
1579019618.846,41.992,28.320,33.691,45.898,-2.930,0
1579019618.850,40.527,31.250,33.203,36.621,60.547,0
1579019618.854,37.109,34.668,30.762,29.785,105.957,0
1579019618.858,38.574,35.156,30.273,29.297,43.945,0
1579019618.854,45.410,39.062,27.344,35.156,19.043,0
1579019618.858,42.480,39.062,25.391,25.879,37.109,0
1579019618.862,34.668,36.133,26.855,19.531,-2.441,0
1579019618.866,33.691,36.621,27.344,26.367,-15.137,0
1579019618.870,36.621,37.109,28.809,32.227,12.207,0
1579019618.874,32.227,36.133,33.203,35.156,20.020,0
1579019618.878,24.414,36.133,33.203,31.250,-26.855,0
1579019618.881,28.320,39.062,31.250,35.645,-3.418,0
1579019618.885,37.598,41.992,32.227,44.434,53.711,0
1579019618.889,35.156,43.457,30.762,41.504,20.020,0
1579019618.893,26.855,40.039,26.367,31.738,-4.883,0
1579019618.897,27.344,34.180,22.461,29.785,11.719,0
1579019618.913,32.227,37.598,21.484,37.598,28.320,0
1579019618.917,35.156,42.480,20.996,40.527,61.523,0
1579019618.921,27.832,42.480,20.020,34.668,79.102,0
1579019618.925,25.391,39.062,21.973,30.273,54.688,0
1579019618.929,32.715,38.086,25.391,36.133,72.266,0
1579019618.933,37.109,38.086,24.414,47.363,51.270,0
1579019618.937,33.691,36.621,24.902,43.457,4.395,0
1579019618.940,33.203,33.691,28.320,37.109,46.875,0
1579019618.944,37.109,32.715,29.297,45.898,44.434,0
1579019618.948,43.457,38.574,26.855,57.129,-25.391,0
1579019618.952,42.969,41.016,27.344,54.688,-5.859,0
1579019618.956,35.156,38.086,29.297,46.875,28.809,0
1579019618.953,34.180,34.668,28.809,46.387,-2.930,0
1579019618.957,34.180,32.227,27.832,54.688,-4.883,0
1579019618.961,30.273,32.227,28.320,53.711,53.223,0
1579019618.965,28.809,31.738,27.832,43.945,55.664,0
1579019618.969,29.297,31.738,25.391,41.992,24.902,0
1579019618.973,30.273,36.133,22.461,44.922,-3.418,0
1579019618.977,36.133,39.551,23.438,39.062,3.418,0
1579019618.980,31.250,39.551,24.414,24.414,23.926,0
1579019618.984,24.902,41.016,19.043,17.578,47.363,0
1579019618.988,28.809,42.969,15.625,27.344,45.410,0
1579019618.992,33.203,42.480,16.113,26.855,50.293,0
1579019618.996,32.227,41.992,13.672,14.160,11.719,0
1579019619.014,27.344,45.410,12.695,11.230,17.578,0
1579019619.018,21.973,46.387,13.672,20.996,26.855,0
1579019619.022,25.391,43.457,13.184,30.273,20.508,0
1579019619.026,22.949,43.457,11.230,26.367,54.688,0
1579019619.030,16.113,42.969,9.277,18.066,58.105,0
1579019619.034,18.555,43.457,9.766,20.996,65.430,0
1579019619.038,24.414,46.387,12.207,33.203,9.766,0
1579019619.041,20.508,42.480,15.137,34.668,6.836,0
1579019619.045,11.230,40.527,18.066,21.973,19.531,0
1579019619.049,11.719,41.992,20.020,18.555,24.414,0
1579019619.053,18.066,38.574,20.020,29.297,60.547,0
1579019619.057,25.391,36.133,20.996,34.180,2.441,0
1579019619.054,25.391,35.645,20.508,30.273,-10.742,0
1579019619.058,23.926,35.645,19.531,23.438,41.992,0
1579019619.062,25.879,33.691,19.043,26.367,69.824,0
1579019619.066,26.367,28.809,16.602,36.133,89.844,0
1579019619.070,28.320,28.320,16.602,35.156,33.691,0
1579019619.074,25.879,28.809,16.602,31.250,26.855,0
1579019619.078,28.320,31.250,19.531,35.645,51.270,0
1579019619.081,38.086,32.715,21.973,40.039,48.340,0
1579019619.085,41.504,30.762,20.020,36.621,49.316,0
1579019619.089,35.645,31.738,15.625,30.273,79.590,0
1579019619.093,34.180,34.668,15.625,28.320,104.492,0
1579019619.097,38.086,38.086,16.602,36.621,42.480,0
1579019619.094,38.086,41.016,10.742,35.645,26.367,0
1579019619.098,33.203,41.504,8.789,25.879,41.504,0
1579019619.102,29.297,42.480,15.137,27.344,7.812,0
1579019619.106,32.227,44.434,14.648,34.668,-35.645,0
1579019619.110,27.344,43.945,13.672,35.645,14.160,0
1579019619.114,20.508,41.504,18.066,32.227,64.453,0
1579019619.118,14.160,41.016,16.113,26.367,66.895,0
1579019619.121,17.578,39.551,14.160,27.832,78.613,0
1579019619.125,28.809,37.598,15.137,38.086,69.336,0
1579019619.129,29.785,38.574,13.672,32.715,44.434,0
1579019619.133,27.832,38.574,10.254,21.484,71.289,0
1579019619.137,35.645,38.574,9.277,30.762,83.008,0
1579019619.134,46.875,38.086,8.789,43.457,-5.859,0
1579019619.138,48.828,37.598,9.277,39.062,-0.488,0
1579019619.142,46.387,39.062,11.230,30.762,79.590,0
1579019619.146,43.945,40.527,12.207,30.273,89.844,0
1579019619.150,50.293,41.016,9.277,38.086,77.148,0
1579019619.154,52.734,41.992,6.348,43.945,11.230,0
1579019619.158,45.898,40.039,9.277,35.645,44.434,0
1579019619.161,41.992,37.598,10.254,30.273,78.125,0
1579019619.165,41.992,35.156,10.742,35.645,23.926,0
1579019619.169,45.410,30.762,11.719,37.598,4.883,0
1579019619.173,44.434,29.785,12.695,31.738,5.859,0
1579019619.177,39.062,29.297,13.184,23.438,98.633,0
1579019619.193,40.527,26.855,13.672,30.762,123.535,0
1579019619.197,44.922,26.367,13.672,39.062,57.617,0
1579019619.201,43.457,29.297,10.254,33.203,47.363,0
1579019619.205,40.039,32.227,11.230,27.344,26.855,0
1579019619.209,41.504,33.691,16.602,30.762,33.203,0
1579019619.213,46.875,32.715,16.602,40.527,23.926,0
1579019619.217,44.922,32.227,15.625,40.039,5.859,0
1579019619.220,32.227,33.691,15.625,26.855,-18.066,0
1579019619.224,28.809,37.109,16.602,28.320,-23.926,0
1579019619.228,37.109,40.527,20.020,42.969,35.156,0
1579019619.232,41.504,43.457,20.508,45.898,14.160,0
1579019619.236,36.621,43.457,20.996,31.738,19.043,0
1579019619.233,31.250,41.504,18.555,20.508,48.340,0
1579019619.237,32.715,41.504,17.578,27.832,-12.207,0
1579019619.241,36.133,41.504,21.484,33.691,-42.969,0
1579019619.245,32.715,39.062,23.926,29.297,-28.320,0
1579019619.249,24.902,36.133,25.879,21.973,41.992,0
1579019619.253,21.484,39.062,25.879,23.438,41.992,0
1579019619.257,25.391,42.480,26.367,31.250,8.789,0
1579019619.260,20.020,41.016,28.320,28.320,14.648,0
1579019619.264,7.812,39.551,26.367,20.020,-14.160,0
1579019619.268,3.906,39.062,28.809,25.391,61.035,0
1579019619.272,3.906,38.086,33.691,34.668,84.961,0
1579019619.276,2.930,37.598,33.691,35.156,32.715,0
1579019619.275,4.395,36.621,36.133,30.762,58.105,0
1579019619.279,5.859,33.691,40.039,30.273,7.324,0
1579019619.283,2.441,34.668,41.504,40.039,35.156,0
1579019619.287,6.348,37.109,41.504,43.945,110.352,0
1579019619.291,5.859,34.180,40.527,36.133,118.164,0
1579019619.295,10.742,31.738,40.527,32.227,48.340,0
1579019619.299,22.949,32.227,39.551,40.527,-3.418,0
1579019619.302,29.297,30.762,39.062,45.410,69.824,0
1579019619.306,35.156,31.250,40.039,37.109,48.340,0
1579019619.310,35.156,32.715,39.062,26.367,21.484,0
1579019619.314,33.691,32.715,40.039,33.691,31.738,0
1579019619.318,34.668,36.621,40.039,41.504,-9.277,0
1579019619.333,37.598,38.574,38.086,37.598,19.531,0
1579019619.337,36.133,39.062,38.086,31.250,27.344,0
1579019619.341,34.668,40.527,36.133,29.297,26.855,0
1579019619.345,41.992,37.598,36.133,36.133,53.223,0
1579019619.349,50.293,37.109,36.133,37.109,7.812,0
1579019619.353,54.688,41.504,33.691,29.297,43.945,0
1579019619.357,58.105,40.039,33.691,24.414,79.102,0
1579019619.360,62.012,38.574,36.133,28.320,55.664,0
1579019619.364,61.523,39.062,38.086,32.715,38.574,0
1579019619.368,53.223,38.086,37.598,23.438,29.297,0
1579019619.372,45.898,37.109,37.109,18.066,30.273,0
1579019619.376,40.039,37.598,38.086,20.508,69.336,0
1579019619.373,30.273,35.645,37.109,24.902,70.312,0
1579019619.377,18.555,30.273,38.086,23.438,-11.230,0
1579019619.381,15.625,31.250,40.527,14.160,9.766,0
1579019619.385,13.672,34.180,39.551,16.602,55.176,0
1579019619.389,16.602,33.203,41.016,25.879,36.133,0
1579019619.393,15.137,29.785,40.039,25.879,31.250,0
1579019619.397,10.742,27.832,37.598,18.555,48.340,0
1579019619.400,8.789,28.809,40.527,20.508,66.895,0
1579019619.404,7.812,30.762,40.039,29.785,66.406,0
1579019619.408,7.812,30.273,41.016,33.691,50.781,0
1579019619.412,3.418,29.297,44.434,25.879,21.484,0
1579019619.416,1.465,29.785,41.992,22.949,77.637,0
1579019619.414,10.742,31.738,39.551,34.180,108.887,0
1579019619.418,19.531,30.762,41.504,45.410,41.016,0
1579019619.422,18.066,30.762,41.016,40.527,36.133,0
1579019619.426,13.672,33.691,40.039,33.691,47.852,0
1579019619.430,17.090,34.180,41.992,41.504,52.734,0
1579019619.434,19.531,35.156,41.504,50.293,72.754,0
1579019619.438,19.531,33.203,42.480,44.434,94.238,0
1579019619.441,17.578,29.297,43.945,33.203,31.738,0
1579019619.445,15.625,28.809,41.016,31.738,11.230,0
1579019619.449,22.949,30.273,39.551,37.598,-42.969,0
1579019619.453,23.926,33.203,39.062,33.203,-58.105,0
1579019619.457,22.461,31.738,40.527,24.414,-4.395,0
1579019619.474,23.438,32.715,41.504,27.344,40.039,0
1579019619.478,26.855,37.109,42.480,33.691,29.297,0
1579019619.482,26.367,37.109,41.016,34.180,6.836,0
1579019619.486,19.531,34.180,38.574,23.438,15.137,0
1579019619.490,15.137,33.203,40.527,13.672,50.293,0
1579019619.494,20.508,33.691,39.551,24.902,57.617,0
1579019619.498,26.367,34.180,36.621,30.762,60.547,0
1579019619.501,25.879,35.156,35.645,16.602,46.875,0
1579019619.505,30.762,36.621,36.621,8.789,33.691,0
1579019619.509,40.527,37.598,39.062,18.555,66.406,0
1579019619.513,51.270,39.062,39.062,34.180,-25.879,0
1579019619.517,57.129,38.574,36.621,31.250,-67.383,0
1579019619.514,58.594,41.016,36.621,20.996,3.418,0
1579019619.518,58.594,41.504,37.598,26.367,43.945,0
1579019619.522,54.199,43.457,34.180,34.668,127.441,0
1579019619.526,49.316,45.410,33.691,37.598,90.820,0
1579019619.530,38.574,41.992,35.156,32.715,50.293,0
1579019619.534,32.227,40.527,34.180,30.273,16.113,0
1579019619.538,34.668,38.574,35.156,37.598,13.184,0
1579019619.541,36.133,36.621,32.715,41.016,25.879,0
1579019619.545,30.762,36.133,25.391,32.715,20.996,0
1579019619.549,28.809,37.598,25.391,25.391,-19.531,0
1579019619.553,33.691,38.086,25.391,29.297,-63.965,0
1579019619.557,37.109,38.574,20.996,34.668,44.434,0
1579019619.553,38.574,39.062,22.461,29.785,84.961,0
1579019619.557,33.203,37.598,20.996,22.949,47.363,0
1579019619.561,32.227,35.645,22.949,27.344,45.410,0
1579019619.565,40.527,35.156,25.879,36.621,44.434,0
1579019619.569,34.180,36.621,24.902,38.086,43.945,0
1579019619.573,23.438,36.133,23.438,32.227,22.949,0
1579019619.577,22.949,34.668,21.484,36.133,-10.254,0
1579019619.580,25.879,34.668,21.484,46.387,-5.371,0
1579019619.584,27.344,35.645,22.949,41.016,-16.113,0
1579019619.588,28.809,36.621,21.973,34.180,35.156,0
1579019619.592,24.414,31.250,22.461,31.250,28.809,0
1579019619.596,25.391,31.250,22.461,36.133,-9.766,0
1579019619.614,35.156,37.109,24.414,45.898,26.367,0
1579019619.618,35.645,39.062,25.391,37.109,13.184,0
1579019619.622,34.180,39.551,20.508,25.879,26.855,0
1579019619.626,41.504,38.574,19.043,32.715,32.715,0
1579019619.630,47.852,37.598,20.020,42.480,49.316,0
1579019619.634,44.434,39.062,20.996,38.574,51.270,0
1579019619.638,40.527,41.992,21.484,25.391,23.926,0
1579019619.641,44.922,42.969,20.508,25.391,50.781,0
1579019619.645,49.805,41.504,20.508,36.133,31.738,0
1579019619.649,50.293,44.434,23.438,41.016,10.254,0
1579019619.653,51.270,43.457,23.926,33.203,16.113,0
1579019619.657,51.758,41.504,20.508,28.320,-11.719,0
1579019619.654,49.805,41.016,19.531,41.504,24.414,0
1579019619.658,51.758,38.086,21.973,45.898,36.621,0
1579019619.662,56.152,36.621,22.949,36.621,75.684,3
1579019619.666,51.270,37.109,23.438,34.668,71.289,0
1579019619.670,48.828,35.645,23.438,40.039,-16.113,0
1579019619.674,54.199,37.109,23.438,43.945,14.160,0
1579019619.678,47.363,39.551,25.391,36.621,19.531,0
1579019619.681,34.668,39.062,26.855,26.367,22.461,0
1579019619.685,35.156,37.598,26.855,30.762,62.012,0
1579019619.689,36.621,35.156,27.832,36.621,68.848,0
1579019619.693,31.738,37.598,32.227,31.250,62.500,0
1579019619.697,28.320,39.062,29.297,27.344,51.270,0
1579019619.694,31.738,39.551,27.832,32.715,52.734,0
1579019619.698,33.691,35.645,29.297,44.434,50.781,0
1579019619.702,28.320,34.668,28.809,45.410,37.109,0
1579019619.706,23.926,36.133,28.320,33.203,18.555,0
1579019619.710,23.926,35.156,29.785,30.762,24.902,0
1579019619.714,23.926,33.203,30.273,42.969,18.555,0
1579019619.718,20.020,30.762,26.855,47.852,69.824,0
1579019619.721,19.531,33.691,24.902,40.527,65.430,0
1579019619.725,21.484,36.621,25.391,36.133,22.461,0
1579019619.729,27.832,32.227,22.461,46.875,25.391,0
1579019619.733,36.621,33.203,20.996,59.570,49.316,0
1579019619.737,38.574,37.598,20.020,56.152,30.273,0
1579019619.754,37.109,36.133,21.484,49.316,-10.742,0
1579019619.758,39.062,36.621,22.461,51.758,0.488,0
1579019619.762,41.992,38.574,20.508,55.176,-18.555,0
1579019619.766,39.551,40.527,20.508,49.805,-9.277,0
1579019619.770,34.668,41.504,19.043,37.109,22.461,0
1579019619.774,36.133,41.504,18.066,33.203,2.441,0
1579019619.778,38.086,41.016,19.043,35.156,3.418,0
1579019619.781,32.715,41.016,19.043,33.203,12.695,0
1579019619.785,31.250,40.527,17.578,23.926,58.105,0
1579019619.789,30.273,40.527,18.066,18.555,47.363,0
1579019619.793,30.273,40.527,18.066,29.785,-13.672,0
1579019619.797,33.203,41.504,16.113,34.180,41.016,0
1579019619.794,29.297,40.527,14.160,23.438,55.664,0
1579019619.798,24.902,37.598,14.160,20.508,14.648,0
1579019619.802,34.180,39.062,11.719,25.879,-20.508,0
1579019619.806,41.016,35.645,10.254,33.691,-27.344,0
1579019619.810,34.180,36.133,11.719,31.738,57.617,0
1579019619.814,28.320,38.574,12.695,23.926,65.430,0
1579019619.818,30.273,37.598,14.160,30.273,1.953,0
1579019619.821,35.156,39.062,16.113,37.109,-17.578,0
1579019619.825,34.180,38.086,18.555,34.180,27.832,0
1579019619.829,25.391,36.133,17.578,18.555,60.547,0
1579019619.833,23.438,35.645,16.113,18.066,14.160,0
1579019619.837,30.762,34.668,15.137,35.156,-13.184,0
1579019619.833,34.180,31.250,17.090,35.645,21.484,0
1579019619.837,39.551,31.738,18.555,26.855,31.738,0
1579019619.841,40.527,34.668,18.066,25.879,72.266,0
1579019619.845,37.109,34.668,15.137,38.086,53.711,0
1579019619.849,41.992,35.156,13.184,47.852,43.945,0
1579019619.853,41.992,33.691,13.672,43.945,68.848,0
1579019619.857,31.250,32.227,10.254,38.574,9.277,0
1579019619.860,32.227,30.273,9.277,38.574,41.016,0
1579019619.864,34.180,27.832,12.695,39.551,79.102,0
1579019619.868,25.879,29.785,10.254,36.133,82.031,0
1579019619.872,23.926,31.738,8.789,29.297,4.883,0
1579019619.876,29.297,30.273,7.324,26.855,-9.766,0
1579019619.894,31.250,28.809,4.395,33.691,-15.625,0
1579019619.898,32.715,32.715,4.883,31.738,-51.270,0
1579019619.902,38.086,37.598,2.930,21.484,31.738,0
1579019619.906,34.668,37.109,-1.465,19.043,41.992,0
1579019619.910,35.156,39.551,-3.418,22.949,40.527,0
1579019619.914,35.645,41.992,-3.906,21.484,55.664,0
1579019619.918,30.762,40.527,-5.859,11.719,13.672,0
1579019619.921,31.738,40.527,-8.789,7.812,-18.555,0
1579019619.925,37.109,40.527,-10.742,20.996,0.000,0
1579019619.929,43.945,39.551,-12.207,32.715,8.789,0
1579019619.933,41.992,35.645,-9.277,25.391,-12.207,0
1579019619.937,30.273,32.715,-6.348,17.090,-1.465,0
1579019619.934,28.809,33.203,-4.883,30.762,38.574,0
1579019619.938,32.715,35.645,-2.441,46.875,63.477,0
1579019619.942,34.180,36.621,0.488,46.875,103.516,0
1579019619.946,31.250,35.156,1.953,43.945,41.016,0
1579019619.950,31.250,32.227,3.418,46.387,-37.109,0
1579019619.954,37.598,30.273,6.348,55.176,-13.672,0
1579019619.958,40.527,30.273,5.859,54.688,65.430,0
1579019619.961,35.156,31.738,5.371,39.551,39.551,0
1579019619.965,27.832,32.715,8.301,35.156,-0.488,0
1579019619.969,30.273,35.156,8.789,37.598,29.297,0
1579019619.973,33.691,35.156,6.836,38.574,21.973,0
1579019619.977,34.668,35.645,9.277,36.621,20.020,0
1579019619.974,31.250,33.691,11.230,30.273,34.668,0
1579019619.978,31.250,32.715,12.207,35.645,-0.977,0
1579019619.982,37.598,36.133,14.648,43.457,-4.395,0
1579019619.986,37.598,37.109,13.672,38.086,62.012,0
1579019619.990,29.297,36.133,10.254,27.832,56.641,0
1579019619.994,25.879,35.156,10.254,27.832,33.203,0
1579019619.998,31.738,32.715,11.719,36.621,-8.789,0
1579019620.001,36.133,32.715,12.695,35.645,44.434,0
1579019620.005,31.250,32.227,17.578,28.320,96.680,0
1579019620.009,29.785,29.297,19.531,30.762,59.570,0
1579019620.013,40.527,31.738,20.508,41.504,18.555,0
1579019620.017,42.480,35.156,23.926,46.387,38.574,0
1579019620.034,37.598,34.180,26.367,41.504,38.086,0
1579019620.038,40.527,34.668,26.855,35.645,16.602,0
1579019620.042,41.504,34.180,26.855,43.945,83.984,0
1579019620.046,45.410,33.203,26.367,50.781,57.129,0
1579019620.050,45.898,34.668,26.367,37.109,-2.441,0
1579019620.054,42.480,36.621,27.344,30.273,-5.859,0
1579019620.058,49.805,40.039,31.250,43.945,16.602,0
1579019620.061,52.734,39.551,33.691,52.734,40.527,0
1579019620.065,46.875,40.527,34.668,45.898,28.809,0
1579019620.069,45.898,41.504,33.203,36.621,-12.207,0
1579019620.073,49.805,41.016,33.203,42.969,45.410,0
1579019620.077,49.316,39.551,36.133,51.270,49.316,0
1579019620.073,50.293,39.062,36.621,46.875,-25.879,0
1579019620.077,53.223,39.551,39.062,38.086,26.855,0
1579019620.081,51.758,40.527,39.551,35.645,61.035,0
1579019620.085,51.758,41.016,40.527,43.945,51.758,0
1579019620.089,52.246,42.969,42.969,44.922,72.266,0
1579019620.093,44.922,44.434,43.457,34.668,31.250,0
1579019620.097,27.344,41.016,42.969,32.715,2.930,0
1579019620.100,27.344,39.551,40.039,37.598,3.418,0
1579019620.104,30.762,38.086,39.551,41.504,32.715,0
1579019620.108,20.996,38.086,41.016,30.762,74.707,0
1579019620.112,19.043,36.133,39.551,23.926,75.684,0
1579019620.116,20.508,34.180,38.574,35.645,34.180,0
1579019620.114,24.414,36.621,39.062,45.898,-9.277,0
1579019620.118,26.855,39.551,39.062,42.969,49.316,0
1579019620.122,23.926,41.016,38.574,34.180,54.199,0
1579019620.126,31.738,40.039,42.969,40.039,7.324,0
1579019620.130,35.645,38.086,45.898,51.270,-7.812,0
1579019620.134,30.762,34.180,39.551,45.898,-43.945,0
1579019620.138,30.762,31.738,38.574,36.133,-31.738,0
1579019620.141,33.691,30.273,39.551,31.250,20.508,0
1579019620.145,38.086,29.297,37.109,37.109,94.238,0
1579019620.149,39.062,30.762,37.598,41.992,98.633,0
1579019620.153,36.621,34.180,37.598,34.180,16.602,0
1579019620.157,34.668,32.715,37.109,28.809,23.926,0
1579019620.173,32.227,32.715,39.062,30.762,69.824,0
1579019620.177,33.691,33.691,37.598,33.691,70.801,0
1579019620.181,29.297,31.250,36.133,27.344,14.160,0
1579019620.185,24.902,32.227,38.086,18.555,-9.277,0
1579019620.189,31.250,32.227,39.551,23.926,22.461,0
1579019620.193,34.180,28.809,39.062,28.320,53.223,0
1579019620.197,32.227,30.273,38.086,23.926,70.312,0
1579019620.200,34.180,35.156,37.598,25.879,57.129,0
1579019620.204,41.992,36.133,38.086,27.344,41.016,0
1579019620.208,42.969,34.180,37.109,30.273,53.223,0
1579019620.212,45.898,34.668,36.133,29.785,98.633,0
1579019620.216,40.039,37.109,34.668,11.719,91.309,0
1579019620.213,29.785,36.621,32.715,3.418,62.500,0
1579019620.217,38.086,33.203,35.645,20.508,27.832,0
1579019620.221,43.945,31.250,36.621,28.809,20.020,0
1579019620.225,38.086,32.227,32.227,20.020,0.488,0
1579019620.229,33.691,34.668,31.250,19.043,-15.625,0
1579019620.233,40.527,37.109,34.668,31.250,22.949,0
1579019620.237,48.828,35.156,35.156,38.086,41.992,0
1579019620.240,52.734,31.738,35.156,35.645,40.527,0
1579019620.244,51.270,32.715,35.645,30.762,-16.113,0
1579019620.248,54.688,37.598,35.645,30.762,-7.812,0
1579019620.252,56.641,37.109,32.227,36.621,45.410,0
1579019620.256,48.828,36.621,35.156,34.180,55.664,0
1579019620.273,45.410,39.551,37.109,20.996,22.949,0
1579019620.277,41.992,39.062,35.156,17.090,46.387,0
1579019620.281,40.039,38.574,33.203,22.949,48.340,0
1579019620.285,40.527,37.598,29.785,19.531,-18.066,0
1579019620.289,37.109,37.109,28.320,11.719,-6.836,0
1579019620.293,34.180,40.039,28.320,11.719,-7.812,0
1579019620.297,37.598,38.574,32.227,22.461,-14.648,0
1579019620.300,34.668,36.621,34.180,22.949,44.922,0
1579019620.304,24.902,36.621,34.180,16.113,66.895,0
1579019620.308,24.902,34.180,35.645,14.648,55.176,0
1579019620.312,30.273,34.668,35.645,20.020,18.066,0
1579019620.316,28.809,34.668,35.156,26.367,-9.277,0
1579019620.314,20.020,34.180,34.180,18.555,27.832,0
1579019620.318,14.648,34.668,32.227,9.277,46.387,0
1579019620.322,21.484,37.109,32.227,15.137,-1.465,0
1579019620.326,26.367,38.574,34.180,25.391,93.262,0
1579019620.330,27.344,38.574,35.645,26.855,82.031,0
1579019620.334,28.809,39.062,38.574,20.020,-5.859,0
1579019620.338,31.250,38.574,37.598,19.043,76.660,0
1579019620.341,38.086,36.133,34.668,30.762,57.617,0
1579019620.345,49.316,38.086,38.086,40.527,6.836,0
1579019620.349,50.293,41.016,39.062,31.250,9.766,0
1579019620.353,46.387,41.016,37.109,22.461,-0.977,0
1579019620.357,47.363,40.039,37.598,32.715,-0.488,0
1579019620.355,48.828,39.062,35.645,43.457,25.391,0
1579019620.359,48.340,41.016,32.227,39.551,38.086,0
