timestamps,TP9,AF7,AF8,TP10,Right AUX,Marker0
1579289091.312,14.160,133.301,32.715,-1.465,68.359,0
1579289091.316,18.555,133.789,29.785,6.348,64.941,0
1579289091.320,14.648,148.438,25.391,18.066,82.031,0
1579289091.324,7.324,140.625,21.484,0.488,51.758,0
1579289091.328,15.137,144.043,29.297,-17.578,3.906,0
1579289091.332,26.367,138.184,33.203,-5.371,-21.973,0
1579289091.336,27.832,125.488,28.320,12.695,3.418,0
1579289091.339,26.855,145.996,31.738,13.184,30.762,0
1579289091.343,25.391,138.672,34.180,-10.254,48.828,0
1579289091.347,20.996,121.094,31.250,-10.742,41.504,0
1579289091.351,20.508,118.652,32.715,19.531,59.570,0
1579289091.355,17.578,90.332,30.762,20.996,22.461,0
1579289091.352,19.531,64.453,30.762,14.648,3.418,0
1579289091.356,24.902,60.547,33.203,6.348,52.734,0
1579289091.360,20.020,38.574,34.668,13.184,83.496,0
1579289091.364,22.949,21.484,40.039,38.574,56.641,0
1579289091.368,25.879,22.949,36.621,20.996,5.859,0
1579289091.372,28.809,22.949,33.203,4.395,3.906,0
1579289091.376,32.715,25.879,35.156,19.043,-30.762,0
1579289091.379,31.250,24.902,30.273,32.715,2.441,0
1579289091.383,35.645,11.230,25.391,25.879,80.566,0
1579289091.387,30.273,10.254,26.367,11.230,88.379,0
1579289091.391,22.461,16.113,26.367,17.090,57.129,0
1579289091.395,29.785,9.766,27.344,35.156,42.480,0
1579289091.392,43.457,7.812,31.738,37.598,32.227,0
1579289091.396,44.922,12.207,29.297,20.508,-36.133,0
1579289091.400,36.133,21.484,28.320,15.137,-41.992,0
1579289091.404,42.480,33.203,33.691,43.457,47.363,0
1579289091.408,41.016,28.320,30.273,52.246,39.551,0
1579289091.412,31.250,28.320,24.414,23.926,21.484,0
1579289091.416,32.715,35.645,28.809,12.695,69.824,0
1579289091.419,36.621,30.273,31.250,32.715,27.344,0
1579289091.423,42.480,24.414,36.621,50.293,81.543,0
1579289091.427,51.758,29.785,42.480,43.457,117.188,0
1579289091.431,46.875,37.109,32.715,23.926,-10.254,0
1579289091.435,32.715,37.598,30.762,19.531,17.090,0
1579289091.452,26.367,31.250,33.691,39.062,52.734,0
1579289091.456,33.691,33.203,31.250,37.598,16.602,0
1579289091.460,31.738,36.133,30.273,13.184,44.434,0
1579289091.464,33.691,32.227,28.320,20.020,21.484,0
1579289091.468,48.828,37.109,37.109,55.664,8.789,0
1579289091.472,38.574,27.832,41.504,53.223,0.000,0
1579289091.476,27.832,25.391,33.691,26.855,0.000,0
1579289091.479,22.949,43.945,26.367,10.742,31.738,0
1579289091.483,21.973,49.316,27.832,24.902,14.160,0
1579289091.487,20.996,46.875,28.320,44.922,-6.836,0
1579289091.491,22.949,49.316,20.508,38.574,0.488,0
1579289091.495,30.762,49.316,21.973,31.250,40.039,0
1579289091.492,27.832,43.457,30.762,35.645,25.391,0
1579289091.496,39.062,41.016,25.391,42.480,1.465,0
1579289091.500,53.223,45.410,24.414,44.434,60.547,0
1579289091.504,37.598,41.016,31.738,27.832,72.754,0
1579289091.508,27.344,36.621,28.809,22.461,45.898,0
1579289091.512,29.785,59.082,30.273,41.992,19.531,0
1579289091.516,34.180,66.406,33.203,43.457,4.395,0
1579289091.519,28.320,40.527,29.785,23.926,27.832,0
1579289091.523,30.273,40.527,31.250,24.902,21.973,0
1579289091.527,33.691,56.152,36.621,54.199,33.203,0
1579289091.531,35.645,56.152,37.109,53.711,78.125,0
1579289091.535,47.363,43.457,33.203,32.715,63.477,0
1579289091.532,51.758,24.902,38.086,40.039,89.355,0
1579289091.536,35.156,30.273,49.805,49.316,109.375,0
1579289091.540,20.508,39.062,48.340,41.504,62.500,0
1579289091.544,21.484,26.367,47.363,32.715,35.156,0
1579289091.548,25.391,16.602,52.246,27.832,52.246,0
1579289091.552,36.133,22.949,53.711,41.992,34.668,0
1579289091.556,33.691,22.949,50.293,64.453,-36.133,0
1579289091.559,41.016,15.625,52.246,50.781,1.465,0
1579289091.563,40.527,20.996,54.688,19.043,20.996,0
1579289091.567,25.391,26.367,43.945,22.461,46.387,0
1579289091.571,32.715,7.812,45.898,47.363,62.988,0
1579289091.575,34.180,-7.812,52.246,47.363,26.855,0
1579289091.592,31.738,-7.812,46.387,20.508,62.500,0
1579289091.596,33.203,0.977,41.992,15.625,59.570,0
1579289091.600,28.320,7.324,44.434,34.180,19.043,0
1579289091.604,23.438,3.418,48.828,36.621,-19.531,0
1579289091.608,27.832,6.348,50.781,26.855,-11.230,0
1579289091.612,28.809,8.789,52.734,22.461,33.691,0
1579289091.616,17.578,-8.789,43.945,30.273,22.461,0
1579289091.619,13.672,-14.160,34.180,40.039,6.348,0
1579289091.623,28.320,-1.465,42.969,28.809,27.832,0
1579289091.627,28.809,-4.883,43.457,14.648,44.922,0
1579289091.631,24.902,-14.648,38.086,26.855,91.797,0
1579289091.635,30.273,-10.742,37.109,35.156,76.172,0
1579289091.632,29.785,-13.672,31.738,27.832,9.277,0
1579289091.636,32.227,-6.836,38.086,13.184,-14.648,0
1579289091.640,25.879,7.812,44.922,16.113,36.133,0
1579289091.644,15.625,5.859,42.969,36.133,74.707,0
1579289091.648,22.949,0.000,46.387,37.598,21.973,0
1579289091.652,24.414,4.883,45.898,20.508,-21.973,0
1579289091.656,17.090,10.254,43.945,12.207,22.949,0
1579289091.659,33.691,-7.812,43.945,32.227,77.637,0
1579289091.663,33.691,-10.742,35.156,37.109,37.109,0
1579289091.667,2.441,3.906,31.250,8.789,-20.508,0
1579289091.671,5.859,5.371,37.109,1.953,-7.324,0
1579289091.675,5.371,4.395,39.062,20.996,46.387,0
1579289091.672,-1.465,2.441,36.133,28.320,70.801,0
1579289091.676,14.648,0.977,36.621,14.648,55.176,0
1579289091.680,25.391,6.836,38.086,-0.488,35.645,0
1579289091.684,34.180,19.043,36.133,13.672,33.203,0
1579289091.688,34.668,21.484,37.109,35.645,9.766,0
1579289091.692,20.020,6.836,39.551,33.203,-2.930,0
1579289091.696,18.066,9.277,46.387,17.090,59.570,0
1579289091.699,19.531,28.320,44.434,13.672,26.367,0
1579289091.703,20.996,23.926,32.227,27.832,-0.488,0
1579289091.707,22.949,17.578,36.133,30.762,-3.418,0
1579289091.711,14.648,10.254,37.598,16.113,25.391,0
1579289091.715,11.719,-6.836,33.691,15.625,-12.695,0
1579289091.732,21.973,-16.113,32.227,24.902,-36.621,0
1579289091.736,14.648,-0.977,32.715,31.250,24.414,0
1579289091.740,12.207,6.348,33.691,23.926,32.715,0
1579289091.744,20.508,1.953,33.203,12.695,64.453,0
1579289091.748,15.137,-4.395,34.180,22.461,72.266,0
1579289091.752,21.484,-15.137,29.785,39.551,39.062,0
1579289091.756,32.715,-27.832,27.832,30.762,68.359,0
1579289091.759,28.320,-17.578,28.809,13.672,62.988,0
1579289091.763,34.180,5.371,26.855,28.809,66.895,0
1579289091.767,32.227,-5.371,29.785,39.062,75.195,0
1579289091.771,26.855,-19.043,30.762,30.762,26.855,0
1579289091.775,25.879,-16.113,34.180,13.672,19.043,0
1579289091.772,25.879,-15.137,38.086,17.090,-10.254,0
1579289091.776,31.250,-18.555,29.297,43.457,19.043,0
1579289091.780,41.016,-17.090,30.273,41.992,31.738,0
1579289091.784,30.762,-24.414,39.551,12.207,12.695,0
1579289091.788,14.648,-27.832,38.574,11.230,45.410,0
1579289091.792,29.785,-11.719,39.062,36.621,50.781,0
1579289091.796,34.180,-6.836,38.086,45.410,73.242,0
1579289091.799,23.926,-14.648,36.133,24.414,76.660,0
1579289091.803,22.461,-14.648,38.086,8.301,2.441,0
1579289091.807,22.949,-8.789,40.039,30.762,-41.016,0
1579289091.811,41.992,-8.789,49.316,61.035,-23.926,0
1579289091.815,45.410,-8.789,47.363,41.992,15.137,0
1579289091.812,15.137,-11.230,41.016,8.301,50.293,0
1579289091.816,13.672,-8.789,41.992,17.090,41.016,0
1579289091.820,20.508,-4.395,43.457,43.457,82.031,0
1579289091.824,26.367,-3.418,41.992,40.039,59.082,0
1579289091.828,27.832,1.465,41.016,13.184,-27.832,0
1579289091.832,33.691,5.371,45.410,12.695,26.855,0
1579289091.836,33.691,16.113,48.340,33.691,74.707,0
1579289091.839,37.109,24.902,45.898,45.898,19.043,0
1579289091.843,42.480,22.949,43.457,35.156,-4.395,0
1579289091.847,43.945,7.812,41.016,21.484,20.996,0
1579289091.851,49.805,-20.996,27.832,26.367,35.645,0
1579289091.855,25.879,-18.066,29.785,30.762,-11.719,0
1579289091.872,18.555,9.766,40.527,26.367,21.484,0
1579289091.876,21.973,2.441,38.086,6.348,36.621,0
1579289091.880,15.137,-1.465,39.062,13.672,-10.742,0
1579289091.884,25.879,6.836,47.363,39.062,41.992,0
1579289091.888,28.320,5.371,42.480,38.086,56.641,0
1579289091.892,34.180,-14.648,29.785,14.160,41.016,0
1579289091.896,33.203,-20.996,31.250,10.742,57.617,0
1579289091.899,14.160,-14.160,39.551,27.832,63.477,0
1579289091.903,17.578,-20.996,39.551,23.438,88.867,0
1579289091.907,18.066,-21.484,38.574,3.418,69.336,0
1579289091.911,20.996,-20.996,44.922,8.789,53.711,0
1579289091.915,27.832,-12.695,50.781,43.457,66.895,0
1579289091.912,23.926,3.418,43.457,51.270,8.789,0
1579289091.916,19.043,-15.137,39.551,22.461,4.883,0
1579289091.920,20.996,-34.668,41.016,16.113,1.953,0
1579289091.924,36.133,-28.320,34.180,38.086,-16.602,0
1579289091.928,29.297,-35.645,39.062,51.270,-4.883,0
1579289091.932,18.555,-31.738,46.387,43.945,77.148,0
1579289091.936,23.438,-26.367,43.945,13.184,82.520,0
1579289091.939,24.902,-32.715,42.480,15.137,18.555,0
1579289091.943,33.691,-33.691,41.504,40.527,47.852,0
1579289091.947,38.574,-31.250,36.621,20.020,27.344,0
1579289091.951,18.555,-23.926,31.738,-3.418,-16.602,0
1579289091.955,3.906,-20.020,35.645,4.883,43.945,0
1579289091.952,20.020,-38.086,34.180,26.855,52.246,0
1579289091.956,32.227,-41.992,33.691,39.062,11.719,0
1579289091.960,30.762,-26.855,30.273,19.043,19.043,0
1579289091.964,28.809,-31.738,24.414,10.742,-29.297,0
1579289091.968,28.320,-41.992,35.645,31.738,-14.160,0
1579289091.972,17.090,-44.922,47.852,37.598,52.246,0
1579289091.976,28.809,-46.387,36.133,21.484,56.152,0
1579289091.979,35.645,-56.641,27.344,16.113,59.570,0
1579289091.983,22.461,-55.176,31.738,29.297,28.809,0
1579289091.987,28.320,-36.621,34.668,36.621,44.922,0
1579289091.991,33.203,-21.973,40.039,22.461,57.617,0
1579289091.995,24.902,-23.926,38.574,9.766,20.020,0
1579289092.012,19.531,-28.809,33.203,19.043,44.922,0
1579289092.016,22.949,-21.973,29.785,27.832,35.156,0
1579289092.020,11.719,-19.531,26.855,13.184,45.898,0
1579289092.024,-9.277,-20.020,27.344,-8.789,67.871,0
1579289092.028,0.488,-16.602,32.227,-11.230,18.555,0
1579289092.032,2.930,-13.672,35.645,1.953,-44.922,0
1579289092.036,-4.395,-11.719,27.832,-2.441,-57.129,0
1579289092.039,-4.395,-0.977,22.949,-29.297,39.062,0
1579289092.043,1.953,9.277,23.926,-35.645,56.641,0
1579289092.047,0.977,12.207,24.902,-9.766,10.254,0
1579289092.051,-2.441,22.461,25.391,-3.906,38.086,0
1579289092.055,-19.043,31.250,22.461,-30.273,48.340,0
1579289092.052,-20.020,22.949,20.020,-51.758,72.266,0
1579289092.056,-12.207,18.555,20.020,-33.203,43.945,0
1579289092.060,-26.855,37.109,22.461,-10.254,35.645,0
1579289092.064,-29.785,44.922,15.137,-36.621,70.312,0
1579289092.068,-35.645,34.668,9.277,-60.547,44.922,0
1579289092.072,-35.645,26.855,6.836,-52.246,32.227,0
1579289092.076,-41.504,22.461,4.395,-32.227,60.547,0
1579289092.079,-43.457,27.344,7.324,-40.039,25.391,0
1579289092.083,-35.645,32.715,9.277,-64.941,11.230,0
1579289092.087,-39.551,31.738,6.836,-66.895,37.109,0
1579289092.091,-36.621,24.902,6.348,-53.223,50.293,0
1579289092.095,-44.434,19.043,0.488,-46.387,69.824,0
1579289092.092,-52.734,11.719,-5.371,-63.477,41.992,0
1579289092.096,-50.781,7.812,-2.930,-76.660,13.184,0
1579289092.100,-42.969,4.883,0.000,-58.594,48.828,0
1579289092.104,-18.066,9.766,8.301,-37.109,71.777,0
1579289092.108,-21.484,9.766,4.883,-47.363,23.438,0
1579289092.112,-39.551,-1.953,-0.977,-59.082,37.598,0
1579289092.116,-33.203,-0.488,1.953,-44.434,59.570,0
1579289092.119,-31.250,-7.812,-1.953,-37.598,66.895,0
1579289092.123,-31.250,-15.137,0.000,-53.711,78.125,0
1579289092.127,-24.414,-0.977,6.348,-69.824,2.441,0
1579289092.131,-25.391,7.812,4.883,-55.176,13.672,0
1579289092.135,-22.461,-12.207,9.277,-31.250,48.828,0
1579289092.152,-15.625,-23.926,23.438,-17.578,71.777,0
1579289092.156,-2.441,-4.883,26.367,-21.973,54.199,0
1579289092.160,1.465,4.883,13.672,-26.367,-36.621,0
1579289092.164,-3.906,-4.883,8.301,-10.742,2.441,0
1579289092.168,9.277,-18.555,19.043,1.953,50.781,0
1579289092.172,6.836,-18.555,18.555,-16.113,-13.672,0
1579289092.176,10.742,-7.324,20.020,-31.250,-45.898,0
1579289092.179,24.902,-13.184,26.367,0.488,32.227,0
1579289092.183,31.250,-23.926,27.832,31.250,36.133,0
1579289092.187,41.504,-14.160,37.109,23.438,21.484,0
1579289092.191,37.109,-21.973,34.668,13.672,37.598,0
1579289092.195,37.598,-32.227,31.250,32.227,28.320,0
1579289092.192,45.410,-28.320,39.062,56.641,26.367,0
1579289092.196,61.035,-30.762,49.316,67.383,-12.207,0
1579289092.200,69.336,-29.297,41.992,59.570,-43.457,0
1579289092.204,69.336,-17.090,31.250,60.547,-6.348,0
1579289092.208,74.707,-17.090,39.551,80.078,8.789,0
1579289092.212,76.172,-21.973,44.922,86.426,25.879,0
1579289092.216,92.285,-20.020,46.387,76.660,31.250,0
1579289092.219,101.562,-16.602,46.875,72.754,21.973,0
1579289092.223,88.379,-10.742,45.410,87.891,23.438,0
1579289092.227,83.984,-15.625,41.504,88.379,6.836,0
1579289092.231,76.172,-28.809,38.574,65.918,-9.766,0
1579289092.235,76.660,-27.832,47.363,53.223,14.160,0
1579289092.232,72.754,-7.324,51.758,67.383,74.707,0
1579289092.236,57.617,0.977,44.922,80.566,69.824,0
1579289092.240,47.852,4.395,41.992,53.711,10.742,0
1579289092.244,33.203,2.930,36.133,22.949,33.203,0
1579289092.248,28.809,5.859,40.039,32.227,14.160,0
1579289092.252,26.855,12.207,39.551,48.828,14.160,0
1579289092.256,9.277,11.230,26.367,26.367,62.988,0
1579289092.259,5.371,15.625,24.414,-11.230,74.219,0
1579289092.263,-0.977,14.648,28.809,-15.625,48.828,0
1579289092.267,-19.531,20.508,25.879,-1.953,18.555,0
1579289092.271,-36.621,26.855,16.113,-21.973,-7.812,0
1579289092.275,-60.059,32.227,4.395,-71.777,7.812,0
1579289092.292,-65.918,26.367,0.488,-85.938,80.078,0
1579289092.296,-70.801,14.648,3.418,-69.336,81.543,0
1579289092.300,-78.613,34.180,-0.488,-72.266,44.922,0
1579289092.304,-81.055,51.758,-5.859,-91.797,75.684,0
1579289092.308,-88.867,47.363,-8.789,-114.746,63.965,0
1579289092.312,-92.773,41.504,-7.812,-104.980,43.945,0
1579289092.316,-65.430,42.969,-2.930,-80.566,65.430,0
1579289092.319,-58.105,35.645,1.465,-90.820,78.125,0
1579289092.323,-69.336,17.090,3.418,-95.215,34.668,0
1579289092.327,-58.105,20.996,6.836,-74.707,20.020,0
1579289092.331,-61.035,15.625,1.953,-57.129,21.484,0
1579289092.335,-52.734,3.418,4.395,-45.898,11.719,0
1579289092.332,-38.574,5.859,13.672,-50.293,32.715,0
1579289092.336,-35.645,-3.418,17.090,-44.922,-10.742,0
1579289092.340,-20.996,-15.625,14.160,-16.602,-10.254,0
1579289092.344,-2.930,-20.508,15.137,4.395,15.137,0
1579289092.348,12.207,-22.949,18.555,2.441,22.949,0
1579289092.352,21.973,-15.625,20.020,6.348,70.801,0
1579289092.356,34.180,-6.348,22.949,43.457,55.176,0
1579289092.359,53.223,-11.719,28.320,67.871,24.414,0
1579289092.363,65.430,-20.508,30.273,66.406,46.875,0
1579289092.367,85.449,-27.832,27.832,56.641,27.344,0
1579289092.371,94.727,-29.297,35.645,80.566,11.230,0
1579289092.375,92.285,-32.715,44.434,106.445,-22.949,0
1579289092.372,83.008,-21.484,40.527,89.355,-18.066,0
1579289092.376,89.844,-17.090,44.434,76.172,44.922,0
1579289092.380,104.980,-27.344,55.176,99.121,74.219,0
1579289092.384,102.051,-29.785,55.176,119.629,8.301,0
1579289092.388,105.957,-24.902,53.711,117.676,7.324,0
1579289092.392,111.816,-23.438,55.664,103.027,29.297,0
1579289092.396,124.512,-28.809,58.594,100.098,6.348,0
1579289092.399,125.977,-40.039,51.758,119.629,48.340,0
1579289092.403,119.629,-23.438,59.082,137.695,76.172,0
1579289092.407,131.348,-5.859,75.195,131.836,46.387,0
1579289092.411,129.883,-36.621,65.430,112.793,25.879,0
1579289092.415,125.488,-55.176,62.012,118.164,-30.762,0
1579289092.432,115.723,-49.316,58.105,125.488,-42.480,0
1579289092.436,110.840,-44.922,52.246,108.887,9.766,0
1579289092.440,113.770,-35.156,56.152,94.238,-5.371,0
1579289092.444,112.793,-28.809,56.641,104.004,0.000,0
1579289092.448,109.863,-25.391,57.129,121.582,38.086,0
1579289092.452,116.211,-35.156,55.176,110.840,34.180,0
1579289092.456,127.930,-42.969,60.547,87.891,42.480,0
1579289092.459,113.770,-42.969,64.941,108.398,61.035,0
1579289092.463,106.445,-51.758,56.641,123.535,51.758,0
1579289092.467,114.258,-48.340,55.664,104.492,-8.301,0
1579289092.471,107.910,-42.480,57.129,85.938,8.301,0
1579289092.475,96.191,-37.109,57.617,79.590,78.125,0
1579289092.472,95.703,-22.461,54.688,90.332,65.918,0
1579289092.476,85.938,-15.625,52.734,92.285,40.039,0
1579289092.480,82.520,-22.461,49.805,86.426,31.738,0
1579289092.484,96.191,-20.996,50.781,86.426,45.410,0
1579289092.488,97.656,-26.855,59.082,100.098,62.500,0
1579289092.492,77.148,-32.715,55.664,99.609,-4.883,0
1579289092.496,78.125,-7.324,44.434,79.590,14.648,0
1579289092.499,91.309,0.977,46.387,64.453,-8.301,0
1579289092.503,79.590,-2.930,50.293,72.754,-81.543,0
1579289092.507,67.871,-10.254,48.828,81.543,-23.926,0
1579289092.511,64.941,-18.066,51.270,80.566,34.668,0
1579289092.515,66.406,-19.043,52.734,64.453,46.387,0
1579289092.512,67.383,-14.160,55.176,57.617,-11.230,0
1579289092.516,72.266,-14.160,51.758,85.938,15.625,0
1579289092.520,77.637,-9.766,50.781,91.309,80.566,0
1579289092.524,85.449,11.230,63.965,76.172,74.219,0
1579289092.528,82.031,5.859,53.711,70.312,57.129,0
1579289092.532,73.242,-2.930,42.480,82.031,62.500,0
1579289092.536,73.242,6.348,49.316,92.285,29.785,0
1579289092.539,69.824,0.977,44.922,65.430,-1.465,0
1579289092.543,60.059,-17.578,41.504,39.062,-12.207,0
1579289092.547,57.617,-22.461,43.945,54.199,-40.039,0
1579289092.551,67.871,-2.930,48.828,80.566,-46.387,0
1579289092.555,67.383,9.766,51.758,65.918,42.480,0
1579289092.572,56.641,-2.930,49.805,41.016,83.496,0
1579289092.576,71.289,-7.324,50.781,50.293,47.852,0
1579289092.580,68.359,4.883,49.805,67.871,45.410,0
1579289092.584,47.852,0.000,42.480,66.895,-17.090,0
1579289092.588,50.293,-5.371,39.551,45.898,-30.273,0
1579289092.592,55.664,0.000,39.062,43.457,15.625,0
1579289092.596,63.477,2.930,36.133,60.059,20.508,0
1579289092.599,66.895,6.348,41.016,63.965,26.367,0
1579289092.603,46.875,6.836,46.875,39.062,72.266,0
1579289092.607,20.996,3.418,46.875,12.207,90.332,0
1579289092.611,44.434,-3.906,44.922,36.133,67.383,0
1579289092.615,46.875,-2.930,45.410,58.594,62.500,0
1579289092.612,32.715,3.906,50.293,52.246,86.426,0
1579289092.616,40.039,5.371,52.734,48.340,25.391,0
1579289092.620,37.598,14.160,54.199,48.340,-4.395,0
1579289092.624,38.574,22.949,49.316,53.223,24.414,0
1579289092.628,51.758,25.391,53.223,54.199,43.945,0
1579289092.632,56.641,19.531,56.641,35.645,41.992,0
1579289092.636,55.176,2.441,53.711,42.969,19.043,0
1579289092.639,61.035,-0.488,52.734,70.312,4.395,0
1579289092.643,59.082,11.230,53.711,66.406,5.859,0
1579289092.647,40.039,6.836,50.781,35.645,11.230,0
1579289092.651,35.156,1.465,43.945,28.809,27.832,0
1579289092.655,35.645,6.836,41.504,49.805,25.879,0
1579289092.672,40.039,14.648,43.945,53.711,28.809,0
1579289092.676,54.199,20.508,49.316,42.969,62.500,0
1579289092.680,43.457,19.043,50.293,27.832,45.898,0
1579289092.684,34.180,23.438,50.781,37.109,52.246,0
1579289092.688,35.645,24.414,52.734,55.176,23.438,0
1579289092.692,33.203,14.648,53.711,38.574,15.137,0
1579289092.696,36.133,6.348,45.898,23.438,44.434,0
1579289092.699,39.062,26.367,48.828,41.016,35.645,0
1579289092.703,48.828,40.527,48.340,55.176,20.020,0
1579289092.707,53.711,37.598,41.016,38.086,0.977,0
1579289092.711,41.016,50.293,50.781,23.438,-20.020,0
1579289092.715,33.203,45.898,49.316,31.738,-2.441,0
1579289092.712,42.480,42.969,46.387,41.016,21.973,0
1579289092.716,42.969,53.711,49.316,38.574,30.762,0
1579289092.720,36.621,53.223,47.852,27.832,42.969,0
1579289092.724,37.598,48.340,45.898,23.926,14.160,0
1579289092.728,41.992,39.551,34.668,34.668,-4.395,0
1579289092.732,43.945,58.594,32.715,41.992,-5.859,0
1579289092.736,23.438,73.730,33.691,23.438,46.875,0
1579289092.739,24.902,62.988,31.738,7.324,45.410,0
1579289092.743,32.715,62.988,40.039,30.273,30.273,0
1579289092.747,23.438,73.242,37.598,37.109,49.316,0
1579289092.751,27.344,66.406,37.598,24.414,42.480,0
1579289092.755,35.645,54.199,41.016,15.137,42.480,0
1579289092.752,20.996,58.105,30.273,19.043,14.648,0
1579289092.756,14.648,51.758,30.762,30.273,21.973,0
1579289092.760,42.969,34.668,39.062,28.809,18.066,0
1579289092.764,43.945,33.203,34.180,17.090,20.996,0
1579289092.768,26.367,42.480,29.297,17.090,39.062,0
1579289092.772,27.344,41.016,28.320,39.062,17.090,0
1579289092.776,23.926,25.879,25.391,32.715,0.977,0
1579289092.779,33.691,15.625,23.926,9.766,89.844,0
1579289092.783,41.016,25.879,25.879,19.531,155.273,0
1579289092.787,37.598,21.484,26.367,33.203,126.953,0
1579289092.791,41.992,20.996,30.273,39.062,96.191,0
1579289092.795,44.434,44.922,32.715,38.086,53.711,0
1579289092.812,51.270,47.852,33.203,37.598,59.082,0
1579289092.816,48.340,39.551,36.621,53.223,35.156,0
1579289092.820,37.598,36.621,35.645,59.570,37.598,0
1579289092.824,27.344,40.039,26.855,26.367,3.418,0
1579289092.828,15.625,32.227,23.438,-3.906,-33.691,0
1579289092.832,14.160,39.062,25.391,8.301,42.480,0
1579289092.836,16.602,62.012,22.461,23.926,93.262,0
1579289092.839,19.043,66.406,17.090,14.160,28.320,0
1579289092.843,20.508,69.824,18.066,-9.766,6.836,0
1579289092.847,4.883,69.336,15.625,-17.578,82.520,0
1579289092.851,2.930,74.707,13.184,4.883,64.453,0
1579289092.855,0.488,81.055,13.184,0.000,12.695,0
1579289092.852,-15.625,88.379,15.625,-23.438,-17.578,0
1579289092.856,-6.348,87.891,16.113,-20.996,2.441,0
1579289092.860,13.184,93.750,23.926,8.301,41.016,0
1579289092.864,13.184,96.680,24.414,22.461,65.918,0
1579289092.868,4.883,83.008,14.648,1.953,79.590,0
1579289092.872,9.766,75.684,18.066,-12.695,72.266,0
1579289092.876,22.461,72.266,23.438,10.742,8.301,0
1579289092.879,14.648,76.660,22.461,33.691,11.719,0
1579289092.883,11.719,73.730,23.926,20.508,-2.930,0
1579289092.887,20.996,61.035,26.367,4.395,6.348,0
1579289092.891,19.531,66.406,21.973,10.742,17.578,0
1579289092.895,20.020,79.102,25.879,25.879,-35.156,0
1579289092.892,14.648,82.031,27.344,25.391,42.480,0
1579289092.896,16.602,83.984,25.879,8.789,61.523,0
1579289092.900,25.391,87.402,24.902,12.207,29.297,0
1579289092.904,33.691,88.379,22.461,31.738,75.195,0
1579289092.908,44.922,76.172,22.949,45.410,53.223,0
1579289092.912,29.785,76.660,27.344,28.809,-51.758,0
1579289092.916,20.508,83.008,36.133,9.277,-79.102,0
1579289092.919,33.691,81.055,33.691,31.250,53.711,0
1579289092.923,30.762,83.984,32.715,49.805,84.961,0
1579289092.927,24.414,90.820,39.062,35.645,61.523,0
1579289092.931,28.809,85.449,39.062,18.066,19.043,0
1579289092.935,33.203,80.566,35.156,31.738,-31.738,0
1579289092.952,39.062,85.938,37.598,49.805,13.672,0
1579289092.956,38.086,80.078,38.086,45.410,32.715,0
1579289092.960,49.805,81.543,34.668,33.691,-8.789,0
1579289092.964,59.570,86.914,34.668,28.809,11.719,0
1579289092.968,32.227,74.707,35.156,41.504,47.852,0
1579289092.972,23.438,70.801,36.133,42.480,91.797,0
1579289092.976,29.297,77.637,32.227,17.578,53.711,0
1579289092.979,26.855,84.961,31.738,18.066,6.348,0
1579289092.983,28.809,95.215,35.645,41.992,23.926,0
1579289092.987,36.133,100.098,33.691,48.828,-4.883,0
1579289092.991,43.457,79.102,34.668,31.250,37.598,0
1579289092.995,34.668,63.965,26.855,22.461,63.477,0
1579289092.992,38.574,78.125,23.926,47.852,24.414,0
1579289092.996,45.898,82.031,32.227,53.223,69.336,0
1579289093.000,37.598,76.660,36.133,40.039,86.914,0
1579289093.004,49.316,76.660,32.715,39.551,32.715,0
1579289093.008,52.246,72.754,30.762,56.641,15.137,0
1579289093.012,38.086,71.777,45.410,58.594,7.812,0
1579289093.016,24.902,62.012,48.340,33.691,25.879,0
1579289093.019,31.250,43.945,41.992,25.879,40.527,0
1579289093.023,38.574,52.246,47.363,34.668,30.273,0
1579289093.027,32.227,70.801,43.457,53.711,9.766,0
1579289093.031,34.668,73.730,41.016,62.012,22.949,0
1579289093.035,49.805,76.172,44.434,46.387,9.277,0
1579289093.032,39.062,67.871,44.922,44.434,7.324,0
1579289093.036,25.879,57.129,52.246,56.641,38.574,0
1579289093.040,43.457,63.477,56.152,66.895,41.992,0
1579289093.044,46.875,61.035,50.781,53.711,25.879,0
1579289093.048,36.621,58.105,48.340,32.715,3.418,0
1579289093.052,43.457,61.035,50.293,53.711,13.672,0
1579289093.056,50.293,65.430,49.805,71.289,78.613,0
1579289093.059,52.734,69.336,51.270,61.523,56.641,0
1579289093.063,52.246,66.895,51.270,37.109,-24.902,0
1579289093.067,42.969,67.871,51.758,46.387,35.156,0
1579289093.071,42.969,74.707,49.805,67.383,50.781,0
1579289093.075,46.387,73.730,42.480,48.340,60.059,0
1579289093.092,33.691,64.453,44.434,31.738,79.102,0
1579289093.096,32.715,57.129,47.363,39.551,21.973,0
1579289093.100,41.016,69.824,43.945,58.105,-31.250,0
1579289093.104,36.621,83.984,41.504,58.105,-32.715,0
1579289093.108,35.156,88.379,44.434,36.621,-43.457,0
1579289093.112,40.039,94.238,50.293,35.156,28.809,0
1579289093.116,51.758,97.168,50.781,61.523,105.957,0
1579289093.119,47.852,100.098,45.410,65.918,29.785,0
1579289093.123,30.762,96.680,43.457,42.969,50.781,0
1579289093.127,34.668,90.332,42.969,22.949,95.703,0
1579289093.131,42.969,74.707,43.457,37.109,-6.836,0
1579289093.135,43.945,63.477,46.875,63.477,-43.457,0
1579289093.132,53.223,77.148,48.340,64.941,-20.020,0
1579289093.136,51.758,85.449,42.969,41.992,-8.301,0
1579289093.140,52.734,92.773,37.598,37.109,-10.254,0
1579289093.144,47.363,90.820,37.109,56.641,45.410,0
1579289093.148,30.762,83.496,37.598,51.758,74.219,0
1579289093.152,29.785,76.660,37.109,24.902,65.430,0
1579289093.156,34.180,69.824,35.645,32.227,81.543,0
1579289093.159,39.062,76.660,35.645,54.688,71.777,0
1579289093.163,38.086,74.219,37.598,59.082,63.965,0
1579289093.167,35.645,70.312,35.645,40.527,46.875,0
1579289093.171,45.898,76.660,37.598,31.738,22.949,0
1579289093.175,58.105,78.125,39.551,52.246,-6.836,0
1579289093.172,38.574,66.895,34.180,52.734,-49.316,0
1579289093.176,24.414,58.105,36.133,33.691,-50.781,0
1579289093.180,30.273,41.992,34.668,22.461,22.461,0
1579289093.184,38.574,44.434,29.785,35.645,77.637,0
1579289093.188,42.969,58.105,33.203,58.594,2.441,0
1579289093.192,33.691,48.340,36.621,61.523,22.949,0
1579289093.196,45.898,63.965,37.598,47.363,48.828,0
1579289093.199,54.199,88.379,36.621,41.992,9.277,0
1579289093.203,31.738,88.867,33.203,47.852,54.688,0
1579289093.207,31.250,87.891,37.109,38.574,99.609,0
1579289093.211,28.320,78.125,39.551,19.531,45.898,0
1579289093.215,32.715,65.430,47.363,27.832,6.348,0
1579289093.232,38.086,71.777,49.805,53.711,-8.789,0
1579289093.236,34.668,76.660,36.133,50.293,5.859,0
1579289093.240,32.715,83.496,37.598,31.250,86.914,0
1579289093.244,41.504,100.586,43.945,19.043,54.688,0
1579289093.248,44.434,104.492,40.527,31.738,38.574,0
1579289093.252,28.320,98.633,40.039,41.016,40.039,0
1579289093.256,27.344,89.355,36.621,27.344,8.789,0
1579289093.259,24.902,92.773,30.273,8.301,9.766,0
1579289093.263,29.297,104.980,30.273,22.949,-6.836,0
1579289093.267,34.180,107.422,33.691,45.898,24.902,0
1579289093.271,33.691,103.027,37.598,43.457,20.508,0
1579289093.275,38.574,110.352,41.016,23.438,-4.883,0
1579289093.272,51.270,105.957,43.945,26.855,-6.836,0
1579289093.276,56.641,100.098,46.875,52.246,18.066,0
1579289093.280,39.062,118.652,42.480,51.758,117.676,0
1579289093.284,30.762,130.371,39.551,29.785,131.836,0
1579289093.288,31.250,134.277,40.039,21.973,21.973,0
1579289093.292,27.832,120.117,31.738,37.109,-34.180,0
1579289093.296,40.527,121.094,30.762,52.734,-23.438,0
1579289093.299,41.016,126.465,37.598,38.086,7.324,0
1579289093.303,42.480,110.352,39.062,18.555,20.508,0
1579289093.307,54.199,106.934,38.086,37.109,51.270,0
1579289093.311,38.086,115.723,38.574,49.805,59.082,0
1579289093.315,30.762,122.070,33.691,36.621,0.977,0
1579289093.312,29.297,118.164,33.203,31.250,17.090,0
1579289093.316,25.391,121.582,36.621,30.273,54.199,0
1579289093.320,33.691,123.047,34.180,41.016,67.871,0
1579289093.324,35.156,117.188,33.691,42.969,48.828,0
1579289093.328,31.250,113.770,35.645,15.625,45.898,0
1579289093.332,31.738,119.629,34.668,22.949,26.367,0
1579289093.336,37.598,123.047,39.062,53.223,-6.836,0
1579289093.339,53.223,121.582,40.039,61.523,57.617,0
1579289093.343,47.363,123.535,34.180,27.344,59.570,0
1579289093.347,25.879,111.816,34.668,11.230,47.852,0
1579289093.351,27.344,105.957,32.227,38.574,36.133,0
1579289093.355,32.227,123.535,31.250,44.434,51.758,0
1579289093.372,17.090,124.023,34.180,25.879,63.477,0
1579289093.376,13.184,124.023,33.691,7.324,50.293,0
1579289093.380,19.531,127.441,32.227,24.902,79.102,0
1579289093.384,27.832,114.258,30.273,44.922,44.434,0
1579289093.388,39.551,85.449,32.227,24.414,-1.465,0
1579289093.392,16.602,73.730,36.133,7.812,46.387,0
1579289093.396,0.488,78.613,33.203,7.812,18.555,0
1579289093.399,8.301,67.871,34.180,26.367,6.836,0
1579289093.403,21.973,71.777,40.527,43.457,47.852,0
1579289093.407,31.250,90.332,36.621,24.902,44.434,0
1579289093.411,18.555,79.590,30.762,22.461,39.062,0
1579289093.415,7.324,63.965,27.832,35.645,10.254,0
1579289093.412,13.184,66.895,19.531,20.996,41.504,0
1579289093.416,18.555,70.801,20.020,9.277,41.016,0
1579289093.420,20.508,54.199,25.879,8.301,2.930,0
1579289093.424,20.508,38.086,25.391,28.809,49.316,0
1579289093.428,32.715,41.992,26.367,43.945,79.102,0
1579289093.432,32.715,45.410,31.738,26.855,68.848,0
1579289093.436,18.066,35.645,31.250,13.672,48.340,0
1579289093.439,29.785,31.250,33.691,21.973,28.809,0
1579289093.443,36.133,33.203,33.203,49.316,42.969,0
1579289093.447,25.391,37.109,25.391,38.086,51.270,0
1579289093.451,18.555,39.551,30.273,3.906,19.531,0
1579289093.455,16.602,43.457,34.180,13.184,70.801,0
1579289093.452,16.113,48.828,32.715,38.086,64.453,0
1579289093.456,36.133,33.691,37.109,39.062,34.668,0
1579289093.460,42.969,38.086,39.551,25.391,105.469,0
1579289093.464,25.391,60.059,37.598,21.484,50.293,0
1579289093.468,34.668,76.172,43.945,46.387,3.418,0
1579289093.472,31.738,72.266,42.969,47.363,58.594,0
1579289093.476,28.809,58.105,36.133,19.531,80.566,0
1579289093.479,37.109,50.293,35.645,9.277,76.660,0
1579289093.483,27.832,42.480,36.621,20.508,52.734,0
1579289093.487,20.020,37.598,37.109,34.180,37.598,0
1579289093.491,19.043,30.762,33.203,21.973,51.758,0
1579289093.495,34.668,48.828,32.715,6.348,62.012,0
1579289093.512,31.250,56.641,32.715,13.184,27.832,0
1579289093.516,11.719,40.039,29.297,29.785,27.832,0
1579289093.520,13.184,45.410,32.715,24.414,-5.371,0
1579289093.524,21.973,50.781,40.527,8.301,-15.625,0
1579289093.528,27.344,45.898,44.434,16.113,33.203,0
1579289093.532,28.320,55.176,41.504,37.109,41.016,0
1579289093.536,26.855,52.734,39.062,41.016,62.012,0
1579289093.539,35.156,32.227,40.039,26.367,62.500,0
1579289093.543,31.250,9.766,37.109,17.090,79.590,0
1579289093.547,19.043,0.488,37.598,36.133,36.133,0
1579289093.551,20.508,4.883,39.551,46.387,-4.395,0
1579289093.555,21.973,-1.953,39.062,25.391,64.941,0
1579289093.552,19.043,-16.113,42.969,8.301,105.957,0
1579289093.556,15.625,-16.602,42.480,30.762,64.941,0
1579289093.560,34.180,-19.531,43.945,52.246,49.805,0
1579289093.564,41.992,-23.926,42.480,36.621,52.734,0
1579289093.568,26.855,-14.160,31.250,10.254,22.949,0
1579289093.572,22.949,-6.836,31.250,16.113,28.809,0
1579289093.576,26.367,4.395,35.645,34.668,39.062,0
1579289093.579,27.344,22.949,30.762,31.738,12.207,0
1579289093.583,37.598,3.906,25.879,9.766,51.270,0
1579289093.587,36.621,-18.066,23.926,-0.488,62.988,0
1579289093.591,15.625,-2.441,22.949,20.996,14.648,0
1579289093.595,16.113,21.484,26.855,30.762,-33.203,0
1579289093.593,12.207,26.367,26.367,7.812,-42.969,0
1579289093.597,11.719,25.391,24.902,0.977,40.527,0
1579289093.601,22.949,33.203,25.391,23.926,78.613,0
1579289093.605,20.996,33.203,20.508,34.180,52.734,0
1579289093.609,30.273,31.738,18.555,25.879,92.285,0
1579289093.613,38.574,29.785,23.438,13.672,98.633,0
1579289093.617,25.879,17.578,30.273,26.855,53.223,0
1579289093.620,29.785,13.184,34.180,43.457,20.996,0
1579289093.624,38.574,27.832,39.551,34.668,-24.414,0
1579289093.628,37.109,12.207,39.062,18.555,-9.277,0
1579289093.632,37.109,-0.977,35.645,22.461,33.203,0
1579289093.636,43.457,18.555,34.180,46.387,30.762,0
1579289093.652,42.969,20.996,32.715,49.316,28.809,0
1579289093.656,37.598,17.578,33.203,27.832,-1.953,0
1579289093.660,31.250,22.461,31.250,21.973,26.367,0
1579289093.664,22.949,20.996,34.180,38.574,77.637,0
1579289093.668,21.484,13.672,39.551,34.668,31.250,0
1579289093.672,17.090,10.742,35.645,8.789,1.953,0
1579289093.676,8.789,6.836,28.809,-1.953,45.410,0
1579289093.679,22.461,3.418,35.645,18.555,24.902,0
1579289093.683,18.555,6.836,39.551,37.109,-46.875,0
1579289093.687,14.160,-2.930,34.180,21.973,5.859,0
1579289093.691,20.996,-26.855,32.227,12.695,61.523,0
1579289093.695,20.996,-22.461,31.250,29.785,16.113,0
1579289093.692,20.020,0.977,34.180,41.992,-2.441,0
1579289093.696,20.020,7.324,40.039,31.250,38.086,0
1579289093.700,21.484,1.465,38.086,4.883,18.555,0
1579289093.704,25.879,-1.465,35.156,10.742,20.996,0
1579289093.708,15.137,-1.953,32.715,26.367,12.695,0
1579289093.712,15.625,-7.812,32.227,25.879,-9.766,0
1579289093.716,13.672,-8.789,33.691,10.742,44.922,0
1579289093.719,10.254,-3.906,35.645,7.324,53.711,0
1579289093.723,20.508,-2.930,36.133,37.109,41.016,0
1579289093.727,28.320,11.719,31.250,44.922,32.227,0
1579289093.731,28.320,6.348,30.273,18.066,3.906,0
1579289093.735,24.414,-13.672,29.785,8.301,7.812,0
1579289093.732,26.367,-0.977,25.391,27.344,19.531,0
1579289093.736,25.879,25.391,22.461,37.109,35.156,0
1579289093.740,20.996,36.133,22.949,19.043,16.602,0
1579289093.744,27.832,31.738,32.715,3.906,38.574,0
1579289093.748,24.414,21.973,33.203,14.160,-4.883,0
1579289093.752,24.902,11.719,29.297,30.273,-20.508,0
1579289093.756,45.410,16.113,34.180,26.367,9.766,0
1579289093.759,27.344,2.930,34.668,3.906,40.039,0
1579289093.763,15.137,-8.789,33.203,4.883,55.664,0
1579289093.767,27.344,10.742,33.691,26.855,-2.930,0
1579289093.771,27.832,21.484,32.715,30.273,32.227,0
1579289093.775,27.832,32.715,34.668,16.113,85.938,0
1579289093.792,27.832,33.203,31.738,8.301,86.426,0
1579289093.796,28.320,31.250,29.785,29.785,75.684,0
1579289093.800,40.527,33.691,34.180,43.457,51.758,0
1579289093.804,43.945,32.715,28.809,25.391,75.195,0
1579289093.808,24.414,34.668,31.250,10.742,66.406,0
1579289093.812,25.879,34.180,37.598,24.414,62.500,0
1579289093.816,24.902,31.738,40.527,39.062,46.875,0
1579289093.819,19.043,36.621,40.527,36.621,5.859,0
1579289093.823,28.809,48.828,33.691,9.277,54.688,0
1579289093.827,31.250,63.477,34.668,14.648,98.633,0
1579289093.831,28.809,61.035,29.785,36.621,8.789,0
1579289093.835,24.902,56.641,26.367,22.949,-28.320,0
1579289093.833,31.250,66.406,29.297,4.395,41.016,0
1579289093.837,38.574,79.590,26.367,2.441,15.137,0
1579289093.841,16.602,82.031,26.367,30.273,-16.113,0
1579289093.845,12.207,75.195,30.273,35.645,8.789,0
1579289093.849,16.113,83.496,25.879,5.859,-13.672,0
1579289093.853,12.207,103.027,20.508,-1.465,-8.301,0
1579289093.857,14.160,102.539,28.809,20.020,-11.230,0
1579289093.860,11.719,96.191,35.156,29.297,0.000,0
1579289093.864,14.160,81.055,32.227,20.996,48.340,0
1579289093.868,16.113,62.988,28.320,15.137,29.785,0
1579289093.872,8.301,67.871,32.227,25.879,44.434,0
1579289093.876,18.066,79.590,39.551,44.434,54.688,0
1579289093.873,39.062,84.961,39.551,30.273,-48.340,0
1579289093.877,34.180,75.684,37.109,10.254,-49.316,0
1579289093.881,19.531,72.754,35.645,20.508,48.340,0
1579289093.885,19.043,84.961,33.691,35.156,55.176,0
1579289093.889,21.973,86.914,33.691,32.715,32.715,0
1579289093.893,22.461,82.520,34.668,14.160,19.043,0
1579289093.897,19.531,85.938,31.250,9.766,-23.926,0
1579289093.900,21.484,82.031,27.832,37.598,36.133,0
1579289093.904,29.785,74.707,33.691,46.387,66.895,0
1579289093.908,37.598,69.824,37.109,19.531,50.293,0
1579289093.912,32.227,69.336,39.062,10.742,34.668,0
1579289093.916,25.391,70.312,43.457,29.785,1.953,0
1579289093.932,36.133,80.566,41.992,37.109,-3.906,0
1579289093.936,35.156,87.891,36.621,20.020,-19.531,0
1579289093.940,29.297,76.172,35.645,11.230,10.742,0
1579289093.944,41.504,85.449,38.574,30.273,46.875,0
1579289093.948,37.109,90.332,39.551,42.969,62.988,0
1579289093.952,21.973,70.312,40.039,29.785,17.090,0
1579289093.956,26.367,63.965,41.504,11.719,-16.113,0
1579289093.959,36.621,63.477,42.969,17.578,18.555,0
1579289093.963,37.109,59.570,41.504,41.992,19.043,0
1579289093.967,36.621,45.898,42.480,40.527,48.828,0
1579289093.971,40.527,35.645,45.898,23.926,50.293,0
1579289093.975,36.133,34.180,46.387,18.555,52.246,0
1579289093.973,32.227,32.715,42.969,38.574,30.762,0
1579289093.977,45.410,36.133,44.434,54.199,45.410,0
1579289093.981,57.617,45.898,52.246,44.922,87.891,0
1579289093.985,47.852,44.434,52.734,31.738,54.199,0
1579289093.989,38.574,38.086,49.805,37.109,80.078,0
1579289093.993,54.688,42.969,45.410,53.711,84.473,0
1579289093.997,54.199,48.828,43.945,40.039,43.457,0
1579289094.000,27.832,52.246,43.457,21.484,66.406,0
1579289094.004,29.785,53.223,41.504,34.180,128.906,0
1579289094.008,38.574,46.875,40.527,42.480,120.605,0
1579289094.012,39.062,46.875,40.527,33.203,51.270,0
1579289094.016,40.039,54.688,41.992,22.461,44.434,0
1579289094.013,42.480,56.152,42.969,24.902,64.941,0
1579289094.017,49.316,57.129,39.062,47.852,68.848,0
1579289094.021,41.504,55.664,38.574,42.480,44.434,0
1579289094.025,32.227,46.387,39.551,22.461,5.371,0
1579289094.029,49.316,53.223,38.086,32.715,26.367,0
1579289094.033,36.621,70.312,39.062,38.086,-6.348,0
1579289094.037,19.043,77.637,39.062,42.480,-32.715,0
1579289094.040,32.715,84.961,36.621,29.297,23.926,0
1579289094.044,26.855,92.773,36.621,10.254,9.277,0
1579289094.048,29.785,86.914,41.016,35.156,8.789,0
1579289094.052,31.250,82.520,36.621,48.828,21.973,0
1579289094.056,29.785,84.473,31.250,36.133,34.180,0
1579289094.072,33.203,84.473,32.227,13.672,61.523,0
1579289094.076,28.320,87.402,37.598,14.648,-3.906,0
1579289094.080,30.762,89.355,41.992,40.039,-26.855,0
1579289094.084,27.832,85.938,41.504,33.203,16.113,0
1579289094.088,23.926,88.867,39.551,11.230,27.832,0
1579289094.092,23.926,83.496,38.086,11.719,76.172,0
1579289094.096,29.297,74.707,36.621,29.297,40.527,0
1579289094.099,41.992,75.195,41.992,35.156,-5.371,0
1579289094.103,25.391,72.754,40.039,16.602,-18.555,0
1579289094.107,15.137,83.008,31.738,6.348,-19.531,0
1579289094.111,10.254,86.426,27.344,11.719,63.965,0
1579289094.115,-2.930,84.961,30.273,13.184,44.922,0
1579289094.113,4.395,94.238,34.180,4.395,48.828,0
1579289094.117,5.371,92.773,27.344,-5.859,18.555,0
1579289094.121,8.789,83.984,24.414,17.090,19.043,0
1579289094.125,23.438,82.031,25.879,39.551,54.199,0
1579289094.129,30.273,78.125,27.832,29.785,7.812,0
1579289094.133,20.996,87.891,25.391,8.789,32.227,0
1579289094.137,24.414,88.379,16.113,2.441,91.309,0
1579289094.140,52.734,79.590,22.949,36.621,128.906,0
1579289094.144,52.246,96.191,28.809,43.945,105.957,0
1579289094.148,42.480,99.609,23.926,19.531,35.156,0
1579289094.152,55.176,97.168,24.414,35.645,-15.625,0
1579289094.156,67.383,96.680,26.855,71.289,50.781,0
1579289094.173,69.824,77.637,27.832,72.266,64.453,0
1579289094.177,71.289,54.199,35.645,60.059,54.199,0
1579289094.181,78.125,56.641,47.363,68.848,92.285,0
1579289094.185,81.543,80.078,39.062,78.613,44.922,0
1579289094.189,83.984,83.496,31.738,83.008,34.668,0
1579289094.193,83.008,72.266,37.109,71.777,21.484,0
1579289094.197,76.660,68.848,39.551,57.129,7.812,0
1579289094.200,80.078,72.754,48.828,68.848,5.371,0
1579289094.204,85.449,82.520,54.688,86.426,20.020,0
1579289094.208,81.055,80.078,42.969,74.707,-20.020,0
1579289094.212,76.172,74.707,30.762,47.852,-13.184,0
1579289094.216,81.543,70.801,33.691,48.828,66.406,0
1579289094.212,67.871,78.125,33.203,74.219,29.297,0
1579289094.216,52.734,69.824,34.180,69.824,42.480,0
1579289094.220,51.758,44.922,42.480,41.504,68.848,0
1579289094.224,49.316,49.316,41.992,34.668,25.391,0
1579289094.228,49.805,56.641,37.109,46.387,-2.930,0
1579289094.232,54.199,59.570,38.574,59.570,24.414,0
1579289094.236,54.688,59.082,37.598,41.992,11.719,0
1579289094.239,58.594,49.805,36.621,34.668,15.625,0
1579289094.243,60.547,26.855,40.527,62.500,99.121,0
1579289094.247,60.059,20.020,41.016,69.336,84.961,0
1579289094.251,61.523,33.203,37.109,47.363,39.062,0
1579289094.255,65.430,42.480,38.086,38.574,25.879,0
1579289094.252,67.383,43.945,40.527,54.688,64.453,0
1579289094.256,55.176,29.785,39.551,63.477,81.543,0
1579289094.260,43.945,25.879,32.715,54.688,38.086,0
1579289094.264,38.574,43.945,31.250,37.109,51.758,0
1579289094.268,48.340,56.641,39.062,39.062,48.828,0
1579289094.272,44.434,57.129,35.156,57.617,27.832,0
1579289094.276,30.273,63.477,33.691,53.711,22.949,0
1579289094.279,28.320,76.660,38.574,28.809,-6.348,0
1579289094.283,25.879,83.984,41.016,24.902,-9.277,0
1579289094.287,30.762,83.984,44.434,46.387,-0.977,0
1579289094.291,36.133,93.750,37.598,52.246,72.754,0
1579289094.295,31.250,100.586,31.738,32.715,35.156,0
1579289094.313,39.062,95.703,36.621,25.391,-22.949,0
1579289094.317,42.969,98.145,33.203,42.480,-29.785,0
1579289094.321,38.574,112.793,35.156,59.082,-13.184,0
1579289094.325,37.109,110.840,38.574,40.527,17.090,0
1579289094.329,26.855,96.191,26.367,2.930,28.809,0
1579289094.333,40.039,94.238,35.156,23.926,25.391,0
1579289094.337,44.434,97.168,45.410,56.641,11.230,0
1579289094.340,33.203,94.238,38.574,46.387,9.277,0
1579289094.344,40.039,91.797,36.133,19.531,37.598,0
1579289094.348,41.504,90.820,34.668,24.902,56.641,0
1579289094.352,29.297,100.586,33.691,44.434,27.832,0
1579289094.356,25.391,102.539,30.273,41.016,38.574,0
1579289094.352,28.809,97.656,30.762,22.949,30.762,0
1579289094.356,23.438,109.375,32.227,15.625,65.918,0
1579289094.360,27.344,112.793,25.879,34.668,31.738,0
1579289094.364,29.785,108.887,22.461,42.969,-23.926,0
1579289094.368,22.461,113.281,28.320,26.855,46.875,0
1579289094.372,27.832,118.164,29.297,21.484,48.340,0
1579289094.376,29.785,121.094,34.668,39.551,45.410,0
1579289094.379,23.926,121.094,38.086,46.387,47.363,0
1579289094.383,27.344,126.465,37.109,33.203,6.836,0
1579289094.387,26.367,136.719,36.621,23.438,-40.527,0
1579289094.391,38.574,127.441,35.645,30.762,50.293,0
1579289094.395,42.480,121.582,40.039,49.316,81.055,0
1579289094.393,22.949,132.812,43.457,51.270,0.977,0
1579289094.397,23.438,148.438,35.645,22.949,-1.465,0
1579289094.401,22.461,164.551,32.227,22.949,2.441,0
1579289094.405,26.855,175.293,31.250,50.293,15.625,0
1579289094.409,22.949,172.363,25.879,42.969,-11.230,0
1579289094.413,14.648,168.945,25.391,20.020,53.711,0
1579289094.417,17.578,175.293,26.855,12.207,78.613,0
1579289094.420,17.578,175.293,30.762,27.832,-20.996,0
1579289094.424,10.254,178.711,29.297,35.156,27.832,0
1579289094.428,8.789,186.035,32.715,14.648,81.055,0
1579289094.432,14.160,183.594,36.621,0.000,19.043,0
1579289094.436,17.578,183.594,29.785,18.066,-5.371,0
1579289094.453,30.273,180.176,30.762,41.016,41.016,0
1579289094.457,28.320,178.711,35.645,27.344,51.758,0
1579289094.461,9.766,187.500,36.133,3.906,7.812,0
1579289094.465,11.719,194.824,40.039,9.277,8.301,0
1579289094.469,8.301,197.266,41.992,21.484,51.270,0
1579289094.473,15.625,194.824,33.691,20.508,48.828,0
1579289094.477,26.855,189.453,24.414,1.953,67.383,0
1579289094.480,20.996,186.035,27.832,-1.953,52.734,0
1579289094.484,21.973,198.730,34.668,18.555,33.203,0
1579289094.488,21.973,204.102,37.109,25.391,3.906,0
1579289094.492,15.625,199.707,39.551,12.695,27.832,0
1579289094.496,20.508,205.078,38.574,3.418,72.266,0
1579289094.493,20.508,211.914,34.180,13.672,16.602,0
1579289094.497,21.973,229.004,41.016,24.902,18.066,0
1579289094.501,35.156,229.004,42.480,13.184,85.938,0
1579289094.505,21.973,219.238,37.598,-2.930,51.758,0
1579289094.509,7.812,226.074,35.156,6.836,54.199,0
1579289094.513,20.996,222.168,27.832,22.461,32.715,0
1579289094.517,22.461,220.703,21.973,10.742,-14.648,0
1579289094.520,19.043,224.609,23.438,-4.883,51.270,0
1579289094.524,22.461,223.633,22.949,3.418,31.250,0
1579289094.528,22.949,227.051,18.066,16.602,6.836,0
1579289094.532,21.973,231.934,21.973,15.625,67.383,0
1579289094.536,23.926,231.445,28.320,-1.953,78.125,0
1579289094.532,23.438,228.027,24.902,-4.395,20.508,0
1579289094.536,25.879,226.074,28.809,20.996,37.109,0
1579289094.540,33.203,215.332,35.645,27.344,100.098,0
1579289094.544,22.461,206.543,32.227,8.789,55.664,0
1579289094.548,16.602,221.191,31.250,-0.977,43.945,0
1579289094.552,10.254,237.793,31.250,12.695,68.359,0
1579289094.556,6.348,235.352,27.832,24.902,43.457,0
1579289094.559,12.207,222.656,29.297,10.254,12.207,0
1579289094.563,26.855,212.402,33.203,9.766,-12.207,0
1579289094.567,20.020,208.496,30.762,20.020,39.551,0
1579289094.571,-14.648,207.520,25.879,3.418,-14.648,0
1579289094.575,-7.812,196.289,20.508,-12.695,-60.547,0
1579289094.593,-10.742,190.918,12.695,-40.039,-11.230,0
1579289094.597,-23.926,195.801,6.348,-49.316,-18.555,0
1579289094.601,-13.672,187.988,12.695,-25.391,27.832,0
1579289094.605,-32.227,187.500,15.625,-32.227,58.105,0
1579289094.609,-61.035,190.918,9.766,-61.523,30.273,0
1579289094.613,-80.078,174.316,7.324,-69.336,38.086,0
1579289094.617,-76.172,151.367,-0.977,-61.523,-13.672,0
1579289094.620,-62.988,146.484,-2.441,-53.711,-19.531,0
1579289094.624,-68.359,157.715,1.465,-70.801,5.371,0
1579289094.628,-82.031,171.875,-2.441,-91.797,-15.625,0
1579289094.632,-72.754,185.547,8.789,-67.871,13.184,0
1579289094.636,-39.062,184.570,16.113,-41.992,36.133,0
1579289094.632,-40.039,175.781,7.324,-52.246,42.969,0
1579289094.636,-56.152,169.922,8.789,-62.500,34.668,0
1579289094.640,-42.480,166.504,18.555,-37.598,25.879,0
1579289094.644,-31.250,178.223,22.461,-18.066,15.625,0
1579289094.648,-27.832,197.754,22.949,-21.484,43.945,0
1579289094.652,-26.367,200.684,21.484,-41.992,95.215,0
1579289094.656,-25.391,191.895,29.297,-31.738,61.035,0
1579289094.659,-25.391,180.664,27.832,-0.488,12.695,0
1579289094.663,-15.625,173.828,18.555,0.488,30.273,0
1579289094.667,-10.254,163.086,23.926,-13.672,85.449,0
1579289094.671,-14.648,139.160,26.367,-23.438,71.289,0
1579289094.675,-4.395,131.348,30.273,7.324,23.926,0
1579289094.673,16.602,131.836,29.297,29.297,41.992,0
1579289094.677,2.441,125.488,28.809,6.836,25.391,0
1579289094.681,-4.395,116.699,26.367,-8.789,28.809,0
1579289094.685,16.113,111.328,23.926,7.812,25.391,0
1579289094.689,27.832,103.516,33.203,27.832,7.812,0
1579289094.693,12.695,96.680,38.086,14.648,27.832,0
1579289094.697,-1.465,102.051,40.039,-9.277,30.762,0
1579289094.700,2.930,103.516,39.551,4.395,-11.230,0
1579289094.704,-5.859,110.840,34.668,22.461,-4.395,0
1579289094.708,-11.230,102.051,41.016,15.625,54.199,0
1579289094.712,-9.277,83.984,43.945,2.441,74.707,0
1579289094.716,-1.953,87.891,46.387,16.113,41.016,0
1579289094.732,2.930,86.914,46.387,35.645,-4.395,0
1579289094.736,4.883,74.219,35.156,29.297,45.410,0
1579289094.740,10.254,74.707,38.086,18.066,61.035,0
1579289094.744,9.766,83.008,48.340,11.230,17.578,0
1579289094.748,25.391,82.031,50.781,35.645,32.715,0
1579289094.752,42.480,82.031,50.781,62.012,73.242,0
1579289094.756,25.391,65.918,46.875,45.898,58.594,0
1579289094.759,15.625,39.551,42.480,20.508,23.926,0
1579289094.763,16.113,29.297,48.828,36.621,10.742,0
1579289094.767,20.996,18.555,49.805,56.152,21.484,0
1579289094.771,31.250,23.438,44.922,38.574,77.148,0
1579289094.775,31.738,36.621,46.875,19.531,60.547,0
1579289094.772,43.457,36.133,53.711,41.016,33.691,0
1579289094.776,45.898,28.320,51.758,63.965,59.082,0
1579289094.780,21.973,20.508,41.992,50.781,54.688,0
1579289094.784,21.484,17.090,39.551,31.738,51.758,0
1579289094.788,27.344,19.531,42.480,30.762,46.387,0
1579289094.792,35.645,16.113,40.039,44.434,49.805,0
1579289094.796,45.898,33.203,38.086,52.246,52.246,0
1579289094.799,38.086,45.898,40.039,26.855,37.598,0
1579289094.803,28.809,36.133,41.504,-2.441,34.668,0
1579289094.807,27.832,33.203,41.504,5.371,46.875,0
1579289094.811,29.297,36.133,37.598,23.438,24.414,0
1579289094.815,36.133,44.922,36.621,13.672,-3.906,0
1579289094.813,41.504,39.062,40.527,3.418,-31.250,0
1579289094.817,39.551,27.344,42.969,17.578,-53.711,0
1579289094.821,41.504,28.320,40.039,35.156,2.930,0
1579289094.825,38.086,27.832,36.133,28.320,46.387,0
1579289094.829,32.715,8.301,37.109,8.301,64.453,0
1579289094.833,43.945,-3.418,38.574,15.137,45.410,0
1579289094.837,49.805,-1.953,35.156,27.832,-23.438,0
1579289094.840,28.320,-5.859,34.668,24.902,15.137,0
1579289094.844,20.996,-0.977,44.922,7.324,-16.113,0
1579289094.848,33.691,11.719,52.246,-2.930,-67.871,0
1579289094.852,41.016,32.715,41.504,21.484,-1.465,0
1579289094.856,39.062,42.480,42.480,28.809,33.203,0
1579289094.872,38.574,49.805,48.340,5.371,-32.715,0
1579289094.876,37.109,52.734,40.527,-7.812,-18.555,0
1579289094.880,35.645,56.641,43.457,7.812,30.273,0
1579289094.884,17.090,77.637,44.922,18.066,3.906,0
1579289094.888,29.785,98.633,42.969,13.184,22.949,0
1579289094.892,38.574,113.281,41.504,0.977,29.297,0
1579289094.896,16.113,100.586,34.668,4.395,41.504,0
1579289094.899,16.602,79.102,34.668,22.461,17.578,0
1579289094.903,21.973,68.359,42.480,17.090,5.371,0
1579289094.907,24.902,64.453,46.387,2.441,36.133,0
1579289094.911,28.809,52.734,43.457,10.742,20.020,0
1579289094.915,34.668,35.645,41.504,39.551,38.086,0
1579289094.913,35.156,47.363,39.551,62.988,41.504,0
1579289094.917,62.988,62.500,35.645,55.664,19.043,0
1579289094.921,80.566,72.266,37.598,57.129,39.551,0
1579289094.925,57.129,72.754,29.297,83.984,36.621,0
1579289094.929,40.039,56.641,20.020,86.426,12.695,0
1579289094.933,30.273,48.340,28.320,58.105,16.113,0
1579289094.937,27.344,43.945,36.621,40.039,39.551,0
1579289094.940,24.414,40.039,41.016,57.129,52.246,0
1579289094.944,39.062,40.039,48.340,71.289,26.855,0
1579289094.948,49.316,32.227,46.875,59.570,43.457,0
1579289094.952,31.738,28.320,37.598,34.668,58.105,0
1579289094.956,25.879,23.926,29.297,37.598,71.289,0
1579289094.953,42.480,37.598,39.551,64.453,65.918,0
1579289094.957,54.199,61.523,44.922,64.941,15.625,0
1579289094.961,41.504,50.781,23.438,43.945,-10.254,0
1579289094.965,25.879,52.246,24.414,36.133,33.691,0
1579289094.969,22.949,62.988,36.621,47.363,17.578,0
1579289094.973,40.527,49.316,35.645,57.129,16.602,0
1579289094.977,41.992,40.039,36.621,39.062,68.359,0
1579289094.980,27.344,31.738,39.551,32.715,67.871,0
1579289094.984,37.109,33.691,34.180,60.059,42.969,0
1579289094.988,35.156,53.223,33.203,70.801,75.195,0
1579289094.992,26.367,63.477,38.574,42.480,94.727,0
1579289094.996,38.574,78.125,43.457,27.832,29.297,0
1579289095.013,49.805,65.918,43.457,52.246,53.711,0
1579289095.017,49.316,50.293,35.156,69.824,74.707,0
1579289095.021,34.180,66.406,33.203,55.176,73.730,0
1579289095.025,22.949,67.383,37.598,35.645,33.203,0
1579289095.029,21.484,70.801,42.480,36.133,36.621,0
1579289095.033,26.855,75.684,34.668,57.129,125.488,0
1579289095.037,23.926,66.895,22.949,51.270,75.195,0
1579289095.040,42.969,68.359,44.434,38.086,22.949,0
1579289095.044,66.406,62.012,45.898,37.598,47.363,0
1579289095.048,39.062,61.035,28.320,39.551,29.785,0
1579289095.052,25.879,87.891,33.691,44.434,21.484,0
1579289095.056,35.156,89.355,38.086,30.273,7.812,0
1579289095.053,33.691,74.219,40.039,22.461,-28.809,0
1579289095.057,34.668,83.984,38.574,35.645,3.418,0
1579289095.061,37.598,102.539,36.621,48.340,-4.883,0
1579289095.065,27.832,105.957,32.715,33.203,-5.859,0
1579289095.069,41.016,112.793,32.227,18.555,32.715,0
1579289095.073,37.598,118.164,31.738,29.297,10.742,0
1579289095.077,26.855,112.793,34.180,43.457,40.039,0
1579289095.080,33.691,111.328,40.039,36.133,43.945,0
1579289095.084,32.227,104.492,37.109,15.137,27.832,0
1579289095.088,32.715,83.496,34.668,21.484,16.602,0
1579289095.092,31.250,79.102,37.109,43.457,29.297,0
1579289095.096,37.109,97.168,35.645,39.551,27.344,0
1579289095.093,54.199,89.355,32.715,21.973,12.207,0
1579289095.097,53.223,84.961,38.086,30.273,83.496,0
1579289095.101,31.250,94.238,28.809,48.340,92.773,0
1579289095.105,28.320,95.703,24.414,41.016,56.152,0
1579289095.109,30.762,121.582,27.832,21.973,55.176,0
1579289095.113,33.691,126.953,23.926,11.719,33.203,0
1579289095.117,45.410,82.520,26.367,24.414,11.719,0
1579289095.120,43.457,40.527,29.785,39.062,45.898,0
1579289095.124,25.879,16.113,32.715,27.832,46.875,0
1579289095.128,33.203,-5.859,42.969,16.113,-5.371,0
1579289095.132,43.945,5.371,50.293,34.180,22.949,0
1579289095.136,30.762,37.109,40.039,47.852,49.805,0
1579289095.153,20.020,54.688,32.715,36.133,37.598,0
1579289095.157,27.832,71.777,36.133,22.949,26.367,0
1579289095.161,49.316,79.102,34.180,29.785,39.551,0
1579289095.165,55.176,75.684,42.969,55.176,89.355,0
1579289095.169,15.625,73.242,43.945,44.922,50.781,0
1579289095.173,-6.836,79.102,30.273,3.906,41.992,0
1579289095.177,4.395,94.238,37.109,-2.930,68.848,0
1579289095.180,-0.977,97.656,44.922,15.137,22.949,0
1579289095.184,-19.531,104.004,44.434,13.672,-27.832,0
1579289095.188,-14.648,134.766,48.340,1.953,-71.777,0
1579289095.192,-14.160,146.973,51.758,4.883,-28.809,0
1579289095.196,-3.906,138.184,52.246,15.625,72.266,0
1579289095.192,7.324,150.391,55.664,21.973,26.855,0
1579289095.196,-11.719,177.246,53.223,8.789,-7.812,0
1579289095.200,-1.953,178.711,54.199,-0.977,92.773,0
1579289095.204,3.906,211.426,46.875,11.719,58.594,0
1579289095.208,-16.113,240.723,37.598,21.484,42.480,0
1579289095.212,-5.859,253.906,42.969,11.230,61.035,0
1579289095.216,22.461,268.555,42.969,-3.418,35.156,0
1579289095.219,13.672,277.832,42.969,1.953,22.461,0
1579289095.223,15.137,291.992,47.363,29.297,8.789,0
1579289095.227,25.879,292.480,36.133,40.527,41.016,0
1579289095.231,15.137,284.668,24.414,10.254,5.859,0
1579289095.235,15.137,280.273,33.691,5.371,-10.742,0
1579289095.232,22.949,290.527,38.086,35.156,28.809,0
1579289095.236,34.668,308.105,35.645,41.504,39.062,0
1579289095.240,26.855,317.383,32.715,20.508,-17.090,0
1579289095.244,8.301,308.105,33.203,6.348,-51.270,0
1579289095.248,14.648,261.230,31.738,17.090,6.836,0
1579289095.252,14.160,212.402,28.809,37.598,43.457,0
1579289095.256,12.695,204.590,27.832,33.203,48.828,0
1579289095.259,21.484,225.098,26.855,8.789,63.477,0
1579289095.263,22.949,239.746,25.879,6.348,9.766,0
1579289095.267,21.484,244.141,31.738,27.832,4.883,0
1579289095.271,20.508,264.160,33.691,30.273,40.039,0
1579289095.275,35.156,288.574,25.391,7.812,13.672,0
1579289095.292,36.621,292.480,21.973,0.488,-42.480,0
1579289095.296,16.113,301.758,28.809,22.461,-26.367,0
1579289095.300,18.066,315.430,33.203,36.621,49.316,0
1579289095.304,22.949,325.195,25.879,20.996,86.914,0
1579289095.308,15.137,336.914,26.855,8.301,59.570,0
1579289095.312,16.602,343.262,29.297,30.762,-14.160,0
1579289095.316,34.668,365.234,30.762,39.551,-30.273,0
1579289095.319,36.621,413.086,29.785,20.996,51.758,0
1579289095.323,22.949,447.266,26.367,5.859,86.426,0
1579289095.327,36.621,465.332,29.297,33.691,45.898,0
1579289095.331,51.758,496.094,34.180,72.266,56.152,0
1579289095.335,36.621,549.316,27.832,48.340,39.551,0
1579289095.332,14.160,582.031,16.113,2.930,21.484,0
1579289095.336,19.531,596.191,16.113,0.977,31.738,0
1579289095.340,28.809,604.980,19.043,25.391,25.879,0
1579289095.344,34.668,615.723,20.508,35.645,20.996,0
1579289095.348,49.316,570.312,16.602,16.602,52.734,0
1579289095.352,44.922,434.082,14.160,15.625,84.961,0
1579289095.356,34.668,315.918,10.254,38.574,52.246,0
1579289095.359,34.668,243.164,11.230,38.086,3.906,0
1579289095.363,36.133,246.582,19.531,23.438,0.488,0
1579289095.367,45.898,324.219,20.996,14.648,49.805,0
1579289095.371,47.363,394.531,20.996,39.062,82.520,0
1579289095.375,49.316,444.336,25.391,58.105,110.352,0
1579289095.372,61.035,474.609,22.949,32.715,82.031,0
1579289095.376,49.805,482.422,22.949,14.648,48.340,0
1579289095.380,39.551,497.070,25.879,18.066,87.402,0
1579289095.384,41.016,511.230,24.414,23.926,51.270,0
1579289095.388,36.621,508.301,30.273,14.160,-15.625,0
1579289095.392,34.180,506.348,34.180,-0.488,-10.254,0
1579289095.396,46.387,517.090,33.203,11.719,26.367,0
1579289095.399,52.734,506.836,35.156,36.133,18.555,0
1579289095.403,51.758,486.816,35.156,35.156,4.883,0
1579289095.407,42.480,500.000,37.598,12.695,23.438,0
1579289095.411,29.297,505.859,37.598,10.254,12.207,0
1579289095.415,35.645,434.570,30.762,33.203,-7.324,0
1579289095.432,28.809,310.547,26.855,38.086,0.977,0
1579289095.436,28.809,236.816,30.273,17.578,27.832,0
1579289095.440,35.156,260.742,38.086,6.348,2.441,0
1579289095.444,35.156,317.383,39.551,28.809,-1.953,0
1579289095.448,43.945,356.934,30.273,41.504,45.410,0
1579289095.452,42.969,389.160,31.738,27.832,44.434,0
1579289095.456,21.973,404.785,39.062,17.578,32.227,0
1579289095.459,20.508,408.691,37.598,25.391,0.488,0
1579289095.463,40.527,420.410,34.668,44.434,14.160,0
1579289095.467,40.039,438.477,34.180,33.203,45.898,0
1579289095.471,33.203,457.031,32.227,1.953,-3.906,0
1579289095.475,50.293,463.867,33.691,3.906,3.418,0
1579289095.473,54.199,460.449,40.527,32.227,13.672,0
1579289095.477,26.855,478.516,36.621,27.832,-20.508,0
1579289095.481,19.043,519.531,31.250,4.883,-28.320,0
1579289095.485,27.832,547.363,35.645,3.906,-9.766,0
1579289095.489,32.227,556.641,40.527,25.391,20.996,0
1579289095.493,29.785,567.871,38.086,34.180,49.805,0
1579289095.497,33.691,587.402,36.621,20.508,74.707,0
1579289095.500,40.039,600.098,34.668,6.836,71.289,0
1579289095.504,36.133,603.027,32.715,18.066,48.828,0
1579289095.508,34.180,598.633,37.598,46.387,63.965,0
1579289095.512,46.875,560.547,38.086,33.203,55.176,0
1579289095.516,38.086,541.016,37.109,11.719,22.461,0
1579289095.513,29.297,561.523,41.504,23.926,50.781,0
1579289095.517,35.645,565.918,40.039,41.504,37.109,0
1579289095.521,31.250,568.848,37.598,35.156,39.062,0
1579289095.525,28.809,577.637,39.062,17.090,56.152,0
1579289095.529,28.320,582.520,38.574,17.578,71.777,0
1579289095.533,25.879,581.055,36.621,41.504,76.172,0
1579289095.537,44.922,580.566,39.551,52.734,58.105,0
1579289095.540,38.086,582.520,43.457,37.598,83.984,0
1579289095.544,20.508,580.078,37.109,31.250,75.684,0
1579289095.548,37.109,572.754,34.668,47.852,2.441,0
1579289095.552,36.621,561.523,38.574,61.035,27.832,0
1579289095.556,38.574,555.664,36.133,45.410,59.082,0
1579289095.573,45.898,559.570,33.203,35.156,41.992,0
1579289095.577,34.668,553.223,37.109,55.664,27.832,0
1579289095.581,36.133,545.410,38.574,72.266,-11.719,0
1579289095.585,31.738,554.688,37.109,55.664,3.906,0
1579289095.589,34.668,559.082,39.551,33.691,43.457,0
1579289095.593,37.109,552.246,43.945,41.016,48.828,0
1579289095.597,41.016,555.176,41.992,58.105,-34.180,0
1579289095.600,56.641,557.129,32.227,57.617,15.137,0
1579289095.604,39.062,543.945,28.320,28.809,56.152,0
1579289095.608,18.066,535.645,31.738,20.020,-14.160,0
1579289095.612,25.391,527.344,36.621,56.152,12.695,0
1579289095.616,32.715,519.043,42.480,66.406,27.832,0
1579289095.612,36.621,515.137,41.016,41.016,22.461,0
1579289095.616,39.551,502.930,39.551,30.762,56.641,0
1579289095.620,45.410,491.699,39.551,41.504,55.664,0
1579289095.624,35.645,486.328,32.715,44.922,27.832,0
1579289095.628,25.879,482.910,36.133,34.180,-2.930,0
1579289095.632,34.180,476.562,45.410,26.855,5.859,0
1579289095.636,32.227,474.609,45.898,39.551,42.480,0
1579289095.639,29.297,463.867,40.039,46.387,66.895,0
1579289095.643,32.227,448.730,35.156,34.180,34.668,0
1579289095.647,27.832,445.312,36.621,18.066,-57.129,0
1579289095.651,26.855,444.336,34.668,27.832,-15.137,0
1579289095.655,32.715,427.734,34.668,49.805,25.391,0
1579289095.652,45.410,414.062,36.133,46.875,-47.363,0
1579289095.656,41.992,412.598,32.715,33.203,30.273,0
1579289095.660,32.715,403.320,37.598,31.738,99.609,0
1579289095.664,32.715,383.789,44.434,51.270,40.527,0
1579289095.668,45.410,373.047,42.969,56.641,20.020,0
1579289095.672,48.340,374.023,41.016,31.738,75.195,0
1579289095.676,30.762,369.141,40.527,20.508,82.031,0
1579289095.679,32.227,367.676,39.062,41.504,63.477,0
1579289095.683,33.691,360.840,39.062,64.941,98.633,0
1579289095.687,26.855,348.145,36.133,49.805,124.512,0
1579289095.691,45.410,347.656,37.109,27.832,111.328,0
1579289095.695,53.711,354.492,41.016,41.504,19.531,0
1579289095.713,35.156,354.492,40.039,60.547,9.277,0
1579289095.717,31.250,344.727,38.574,48.828,55.664,0
1579289095.721,38.086,336.914,41.016,36.133,57.617,0
1579289095.725,46.387,345.215,41.504,47.363,115.234,0
1579289095.729,45.410,347.656,39.062,57.617,72.754,0
1579289095.733,26.855,337.402,30.273,48.828,10.742,0
1579289095.737,37.598,335.938,29.297,27.832,36.133,0
1579289095.740,40.527,347.168,26.855,19.531,109.863,0
1579289095.744,20.020,350.586,19.043,33.691,54.688,0
1579289095.748,26.367,336.914,21.973,38.086,-11.230,0
1579289095.752,16.113,325.195,25.391,11.230,52.734,0
1579289095.756,10.254,310.547,26.855,-0.977,36.133,0
1579289095.752,18.555,278.809,27.344,20.996,15.625,0
1579289095.756,37.598,246.094,28.320,42.969,48.340,0
1579289095.760,46.387,219.727,28.320,36.621,16.113,0
1579289095.764,35.156,197.266,29.297,19.531,8.301,0
1579289095.768,39.551,188.965,25.391,24.902,5.371,0
1579289095.772,35.156,187.012,19.043,35.156,38.086,0
1579289095.776,28.320,177.734,22.949,33.691,64.453,0
1579289095.779,27.344,165.527,27.832,17.090,39.062,0
1579289095.783,36.133,151.367,24.902,6.348,15.625,0
1579289095.787,29.297,150.879,27.832,25.879,-8.301,0
1579289095.791,15.137,170.898,31.738,37.598,5.371,0
1579289095.795,20.020,192.871,23.438,15.625,42.480,0
1579289095.813,23.926,220.703,20.996,6.836,66.895,0
1579289095.817,22.949,244.629,22.949,22.461,24.902,0
1579289095.821,29.297,256.836,22.949,33.691,4.395,0
1579289095.825,38.086,263.184,24.902,25.879,-18.066,0
1579289095.829,48.340,268.066,27.344,15.137,-1.465,0
1579289095.833,36.621,282.715,25.391,17.090,16.113,0
1579289095.837,10.254,292.969,20.996,28.320,9.277,0
1579289095.840,11.230,299.805,22.461,24.902,66.895,0
1579289095.844,15.137,299.805,27.344,7.324,56.641,0
1579289095.848,18.555,292.480,26.855,13.184,-32.715,0
1579289095.852,30.762,286.133,29.785,38.574,-66.895,0
1579289095.856,51.758,247.559,34.180,37.109,-39.551,0
1579289095.853,35.156,186.523,31.250,17.090,17.090,0
1579289095.857,18.066,145.020,30.762,16.602,37.109,0
1579289095.861,32.715,120.117,29.297,41.504,15.625,0
1579289095.865,29.785,95.215,27.344,46.875,10.254,0
1579289095.869,28.809,68.848,29.785,30.273,18.555,0
1579289095.873,39.551,52.734,29.785,23.438,41.016,0
1579289095.877,42.969,49.316,31.250,37.598,12.695,0
1579289095.880,41.504,47.363,36.621,58.105,-10.254,0
1579289095.884,33.691,38.086,39.551,44.922,9.277,0
1579289095.888,40.527,22.949,34.180,27.832,5.859,0
1579289095.892,39.062,-10.742,31.250,33.691,58.594,0
1579289095.896,25.391,-79.102,36.621,48.828,117.188,0
1579289095.892,26.367,-150.391,38.574,44.434,74.707,0
1579289095.896,26.367,-193.359,29.297,14.160,12.207,0
1579289095.900,28.320,-224.121,27.344,19.043,19.531,0
1579289095.904,43.945,-247.559,32.227,45.410,19.531,0
1579289095.908,42.969,-244.141,32.227,40.527,9.277,0
1579289095.912,22.461,-213.379,37.109,27.344,53.223,0
1579289095.916,20.508,-140.137,38.086,23.926,68.848,0
1579289095.919,36.621,-53.711,33.203,44.434,9.766,0
1579289095.923,56.641,19.531,36.133,73.730,13.672,0
1579289095.927,46.875,77.148,43.945,52.734,70.801,0
1579289095.931,20.996,125.977,41.016,6.836,64.453,0
1579289095.935,28.809,176.758,42.969,26.855,41.504,0
1579289095.953,31.250,209.473,55.176,66.406,37.109,0
1579289095.957,13.184,237.793,59.570,50.781,43.945,0
1579289095.961,12.695,270.020,60.547,27.832,19.043,0
1579289095.965,19.043,286.621,60.059,47.852,21.973,0
1579289095.969,25.879,301.270,62.988,67.383,16.602,0
1579289095.973,15.137,311.523,64.453,51.270,10.254,0
1579289095.977,18.066,291.016,62.500,30.762,22.461,0
1579289095.980,38.086,257.324,62.988,36.133,9.766,0
1579289095.984,26.367,251.953,66.895,65.430,29.297,0
1579289095.988,17.090,248.047,65.430,75.684,61.035,0
1579289095.992,18.555,227.051,63.965,43.945,57.617,0
1579289095.996,15.625,223.633,65.918,28.320,41.016,0
1579289095.993,34.668,244.629,62.500,49.316,32.715,0
1579289095.997,36.621,260.742,63.477,62.012,42.480,0
1579289096.001,24.902,284.180,62.500,45.898,9.277,0
1579289096.005,20.020,306.152,54.199,31.738,-15.625,0
1579289096.009,19.043,304.688,51.270,35.645,19.043,0
1579289096.013,33.691,312.500,50.781,49.316,-4.395,0
1579289096.017,20.020,329.590,50.781,44.922,16.113,0
1579289096.020,1.953,333.984,44.922,20.508,75.195,0
1579289096.024,13.672,339.355,43.945,26.367,83.496,0
1579289096.028,24.414,333.984,46.875,53.711,47.852,0
1579289096.032,31.250,308.594,43.945,42.480,53.711,0
1579289096.036,35.156,303.223,46.387,17.090,-8.789,0
1579289096.033,13.184,326.172,47.363,31.250,-42.480,0
1579289096.037,-1.465,332.520,44.922,43.457,44.922,0
1579289096.041,15.625,317.383,46.875,42.480,70.312,0
1579289096.045,19.043,327.148,46.387,25.879,46.875,0
1579289096.049,29.785,345.703,46.875,19.531,100.098,0
1579289096.053,36.621,351.074,39.551,41.992,124.023,0
1579289096.057,14.648,347.656,33.691,44.922,46.875,0
1579289096.060,13.184,342.773,40.039,21.973,52.246,0
1579289096.064,33.691,340.820,45.410,6.348,107.422,0
1579289096.068,36.621,328.613,49.805,26.367,42.480,0
1579289096.072,28.320,306.641,45.898,47.363,-2.441,0
1579289096.076,34.668,317.871,31.250,41.016,-72.266,0
1579289096.092,48.340,355.469,37.598,25.391,-38.086,0
1579289096.096,26.367,367.188,41.016,20.020,49.805,0
1579289096.100,12.207,355.469,36.133,23.926,13.672,0
1579289096.104,23.438,342.285,35.156,21.484,-5.859,0
1579289096.108,40.527,351.074,40.039,11.719,4.883,0
1579289096.112,56.152,361.816,38.086,12.695,43.457,0
1579289096.116,18.555,331.055,15.137,15.625,64.453,0
1579289096.119,1.953,323.730,13.184,12.695,43.457,0
1579289096.123,17.578,337.891,20.020,4.395,40.527,0
1579289096.127,13.672,327.148,16.113,-2.930,24.902,0
1579289096.131,13.184,322.266,12.207,0.000,41.992,0
1579289096.135,45.898,334.473,15.137,18.066,-2.930,0
1579289096.133,41.504,345.703,17.090,14.648,-16.602,0
1579289096.137,20.508,357.422,15.625,2.441,37.598,0
1579289096.141,39.551,365.234,20.996,24.414,65.918,0
1579289096.145,33.691,367.188,25.391,42.480,82.520,0
1579289096.149,27.344,365.234,27.832,34.180,65.430,0
1579289096.153,42.969,365.723,29.785,25.391,10.742,0
1579289096.157,34.180,354.980,30.762,28.320,2.930,0
1579289096.160,46.875,356.934,29.785,45.410,22.461,0
1579289096.164,61.523,376.953,23.926,46.387,41.992,0
1579289096.168,41.992,316.406,21.484,19.043,29.785,0
1579289096.172,46.387,187.012,27.344,21.973,70.312,0
1579289096.176,47.363,73.730,30.762,44.434,86.426,0
1579289096.172,45.898,-21.484,30.762,46.875,10.742,0
1579289096.176,46.387,-82.031,33.203,24.902,18.066,0
1579289096.180,28.320,-128.418,25.879,8.301,29.297,0
1579289096.184,24.902,-155.762,21.484,29.785,27.344,0
1579289096.188,38.574,-126.465,22.461,47.363,23.438,0
1579289096.192,43.457,-88.379,24.902,35.156,-27.832,0
1579289096.196,32.715,-57.617,31.738,14.160,-8.301,0
1579289096.199,33.691,-38.574,32.715,29.297,32.227,0
1579289096.203,49.316,-28.809,32.227,46.875,25.879,0
1579289096.207,38.574,10.742,32.715,28.809,53.223,0
1579289096.211,24.902,48.340,29.297,11.230,43.945,0
1579289096.215,37.598,59.570,32.227,22.461,2.441,0
1579289096.232,41.992,85.449,36.621,43.457,-4.883,0
1579289096.236,30.762,119.629,34.180,35.156,71.289,0
1579289096.240,25.391,126.953,27.832,0.488,123.047,0
1579289096.244,51.758,130.859,26.855,1.465,113.281,0
1579289096.248,33.203,142.090,30.762,18.555,89.355,0
1579289096.252,8.301,150.391,29.785,19.531,52.246,0
1579289096.256,24.414,167.480,25.391,9.766,24.414,0
1579289096.259,29.785,183.105,34.180,-2.441,-1.465,0
1579289096.263,30.762,194.336,41.016,12.695,-44.434,0
1579289096.267,21.484,228.027,37.598,18.066,19.531,0
1579289096.271,18.066,271.484,43.457,7.324,62.012,0
1579289096.275,29.785,301.270,44.434,-3.906,62.988,0
1579289096.272,33.203,328.613,39.551,-6.836,50.781,0
1579289096.276,10.742,349.121,47.363,14.160,15.137,0
1579289096.280,-6.348,368.164,38.574,1.953,25.879,0
1579289096.284,-8.789,387.207,28.809,-36.133,-19.043,0
1579289096.288,-16.602,399.902,33.691,-35.645,13.184,0
1579289096.292,-23.438,410.156,34.180,-15.137,26.855,0
1579289096.296,-27.832,423.340,29.297,-20.996,0.488,0
1579289096.299,-30.273,435.059,29.785,-45.410,68.359,0
1579289096.303,-40.527,437.988,29.297,-60.059,75.195,0
1579289096.307,-62.012,439.941,10.742,-60.059,7.812,0
1579289096.311,-69.336,446.289,7.812,-71.777,9.277,0
1579289096.315,-71.777,452.637,16.113,-101.074,13.184,0
1579289096.313,-107.422,454.102,10.254,-125.977,56.152,0
1579289096.317,-134.766,450.684,-3.906,-137.207,74.707,0
1579289096.321,-129.883,453.125,-19.531,-130.371,32.715,0
1579289096.325,-127.441,458.984,-29.785,-145.508,43.457,0
1579289096.329,-133.301,458.496,-29.297,-178.711,30.762,0
1579289096.333,-136.719,458.496,-28.320,-182.617,42.480,0
1579289096.337,-154.785,469.238,-31.738,-162.598,24.414,0
1579289096.340,-164.062,473.633,-35.156,-164.551,13.672,0
1579289096.344,-155.762,473.633,-33.203,-184.082,49.316,0
1579289096.348,-134.277,465.332,-31.738,-180.664,80.078,0
1579289096.352,-127.441,454.590,-32.227,-154.297,70.312,0
1579289096.356,-123.047,449.707,-33.203,-140.625,7.812,0
1579289096.372,-106.445,442.383,-18.066,-140.137,62.500,0
1579289096.376,-105.469,432.617,-17.578,-130.371,68.359,0
1579289096.380,-107.910,423.828,-37.598,-101.562,51.270,0
1579289096.384,-86.914,420.410,-27.832,-85.938,61.035,0
1579289096.388,-65.918,420.898,-5.371,-90.820,2.441,0
1579289096.392,-54.688,413.086,1.465,-86.426,1.953,0
1579289096.396,-52.734,397.461,-2.441,-57.617,42.480,0
1579289096.399,-12.207,388.672,5.859,-27.832,-17.090,0
1579289096.403,9.766,375.977,15.625,-12.695,-15.137,0
1579289096.407,-4.883,361.816,25.391,-12.207,-3.906,0
1579289096.411,27.344,354.980,31.738,8.789,-42.969,0
1579289096.415,39.551,339.844,34.668,52.734,-24.414,0
1579289096.412,62.500,334.473,36.621,68.359,25.879,0
1579289096.416,90.332,342.773,41.016,61.035,25.391,0
1579289096.420,70.801,325.684,44.922,64.453,40.527,0
1579289096.424,66.895,305.176,43.945,91.797,73.730,0
1579289096.428,81.543,300.781,47.852,112.793,56.152,0
1579289096.432,99.121,302.734,53.711,111.816,47.852,0
1579289096.436,105.957,297.852,52.246,106.934,71.777,0
1579289096.439,107.422,286.621,55.176,119.629,66.406,0
1579289096.443,104.004,277.832,56.641,124.512,-10.742,0
1579289096.447,107.910,265.625,50.781,111.328,-13.672,0
1579289096.451,109.863,250.977,55.176,105.957,30.762,0
1579289096.455,100.586,244.629,61.035,121.582,12.695,0
1579289096.452,108.887,238.281,55.176,142.090,65.918,0
1579289096.456,120.117,230.469,52.246,136.230,102.051,0
1579289096.460,111.816,222.656,56.152,113.281,67.871,0
1579289096.464,112.793,205.078,55.176,121.582,51.758,0
1579289096.468,137.695,190.918,50.781,141.113,5.371,0
1579289096.472,128.906,178.711,51.270,138.184,29.785,0
1579289096.476,114.746,172.852,60.547,118.164,65.430,0
1579289096.479,114.746,168.457,63.477,106.934,8.301,0
1579289096.483,112.793,162.109,59.570,118.652,14.648,0
1579289096.487,125.488,160.645,57.617,124.023,13.672,0
1579289096.491,127.441,163.574,55.664,107.910,9.277,0
1579289096.495,104.492,161.621,56.641,99.121,13.672,0
1579289096.512,102.539,145.508,53.711,122.070,47.363,0
1579289096.516,114.258,135.742,50.293,132.812,78.613,0
1579289096.520,105.469,153.320,50.781,107.422,49.805,0
1579289096.524,85.449,150.391,49.316,88.867,53.223,0
1579289096.528,90.332,145.020,56.641,94.238,68.848,0
1579289096.532,100.586,159.180,62.500,118.164,9.277,0
1579289096.536,102.051,159.180,60.547,108.887,-10.742,0
1579289096.539,94.727,145.020,58.105,84.473,26.855,0
1579289096.543,75.684,134.766,56.152,94.727,60.059,0
1579289096.547,83.008,147.949,55.664,108.887,64.453,0
1579289096.551,87.402,125.977,51.270,113.770,44.434,0
1579289096.555,91.797,-9.766,51.270,101.074,56.152,0
1579289096.553,109.375,-167.480,53.223,87.402,3.418,0
1579289096.557,94.727,-279.785,49.316,101.562,-14.160,0
1579289096.561,74.219,-349.609,47.852,110.840,39.551,0
1579289096.565,79.102,-310.059,44.434,93.262,83.496,0
1579289096.569,85.938,-214.844,37.598,74.219,119.629,0
1579289096.573,87.891,-143.066,36.133,85.938,62.988,0
1579289096.577,86.426,-90.820,41.992,101.074,13.184,0
1579289096.580,72.266,-48.828,50.293,89.844,28.809,0
1579289096.584,66.406,0.000,53.711,69.824,31.250,0
1579289096.588,77.148,32.227,49.316,62.988,9.277,0
1579289096.592,75.195,52.734,42.969,85.938,-0.488,0
1579289096.596,57.617,80.078,47.852,94.727,20.508,0
1579289096.592,73.730,126.953,49.805,65.918,34.668,0
1579289096.596,80.078,162.598,37.598,56.641,5.859,0
1579289096.600,54.199,168.457,34.668,69.824,45.898,0
1579289096.604,37.109,166.504,39.551,65.918,54.199,0
1579289096.608,47.852,170.410,43.457,54.199,6.348,0
1579289096.612,55.664,180.664,43.457,51.270,27.344,0
1579289096.616,56.152,191.406,36.621,65.918,31.738,0
1579289096.619,72.754,198.242,42.480,86.914,30.273,0
1579289096.623,60.059,184.570,43.457,69.336,46.875,0
1579289096.627,35.156,180.664,34.668,38.086,31.738,0
1579289096.631,47.363,205.078,42.480,61.035,0.488,0
1579289096.635,45.898,203.613,38.574,78.613,-18.066,0
1579289096.652,44.434,186.035,24.414,54.688,2.441,0
1579289096.656,53.223,193.848,27.344,34.668,34.180,0
1579289096.660,47.363,206.543,32.715,50.293,76.660,0
1579289096.664,66.895,208.496,30.762,73.730,44.922,0
1579289096.668,58.594,207.520,33.203,68.848,-37.109,0
1579289096.672,35.645,221.191,36.621,41.016,3.418,0
1579289096.676,44.434,240.234,36.133,29.297,-6.836,0
1579289096.679,44.922,238.281,43.457,54.688,-19.531,0
1579289096.683,68.848,221.680,37.109,70.801,28.809,0
1579289096.687,84.961,228.027,30.273,54.688,75.684,0
1579289096.691,53.711,248.535,33.691,41.016,23.438,0
1579289096.695,30.762,243.652,29.297,51.270,-1.953,0
1579289096.692,36.133,230.469,25.879,59.082,61.035,0
1579289096.696,40.527,237.793,28.320,46.387,36.621,0
1579289096.700,33.203,238.770,31.738,33.203,38.086,0
1579289096.704,38.574,227.051,31.250,41.016,73.730,0
1579289096.708,40.039,215.820,26.367,64.941,17.578,0
1579289096.712,37.598,209.961,25.879,63.477,-4.883,0
1579289096.716,46.875,213.379,30.762,50.293,20.508,0
1579289096.719,45.898,223.633,37.109,56.152,28.809,0
1579289096.723,30.762,242.188,32.227,65.430,-23.926,0
1579289096.727,22.949,258.301,28.320,59.082,-10.742,0
1579289096.731,31.738,264.160,31.250,44.922,36.133,0
1579289096.735,30.273,271.973,29.297,43.945,25.879,0
1579289096.733,33.203,281.250,27.832,60.059,10.254,0
1579289096.737,58.594,287.598,28.320,62.988,43.945,0
1579289096.741,49.805,290.039,32.227,41.504,70.312,0
1579289096.745,27.832,274.414,36.621,33.691,7.812,0
1579289096.749,46.387,260.742,33.691,54.199,-17.578,0
1579289096.753,40.527,276.367,31.738,65.430,23.926,0
1579289096.757,40.039,314.453,37.109,48.340,29.785,0
1579289096.760,40.039,327.148,40.527,31.738,20.020,0
1579289096.764,25.391,307.617,43.457,36.133,13.672,0
1579289096.768,24.902,299.316,42.969,46.875,31.738,0
1579289096.772,28.809,307.617,36.621,44.922,26.367,0
1579289096.776,35.645,307.617,35.645,18.555,38.574,0
1579289096.792,29.297,300.293,32.715,15.137,64.941,0
1579289096.796,22.461,296.875,30.762,43.945,58.105,0
1579289096.800,35.645,293.945,37.598,48.828,66.895,0
1579289096.804,43.457,278.809,42.969,35.156,71.289,0
1579289096.808,29.297,271.973,41.504,27.832,91.309,0
1579289096.812,19.043,291.016,35.645,38.574,20.508,0
1579289096.816,40.039,302.734,35.645,50.293,55.176,0
1579289096.819,43.457,302.734,37.109,41.504,71.777,0
1579289096.823,35.645,284.668,38.086,25.391,13.672,0
1579289096.827,39.551,272.949,35.156,34.668,29.785,0
1579289096.831,34.668,278.809,31.738,53.711,72.754,0
1579289096.835,41.504,271.484,32.227,42.969,77.148,0
1579289096.832,41.992,260.254,34.180,23.438,54.199,0
1579289096.836,53.223,254.883,30.273,31.250,125.977,0
1579289096.840,64.941,250.000,31.250,59.082,63.477,0
1579289096.844,54.688,250.977,32.227,52.246,12.695,0
1579289096.848,25.879,250.488,27.344,23.926,23.926,0
1579289096.852,25.391,231.934,29.785,37.598,8.301,0
1579289096.856,47.852,222.168,36.133,58.594,29.297,0
1579289096.859,35.156,221.680,38.574,51.270,25.391,0
1579289096.863,18.555,216.797,34.180,34.180,36.621,0
1579289096.867,26.367,211.426,28.809,21.973,61.035,0
1579289096.871,47.852,205.078,36.621,51.270,34.668,0
1579289096.875,55.176,208.984,46.387,74.707,19.531,0
1579289096.872,39.551,217.285,41.016,48.828,10.254,0
1579289096.876,10.742,207.031,33.691,19.043,3.418,0
1579289096.880,16.602,206.055,28.809,23.438,-19.043,0
1579289096.884,14.160,219.238,28.320,36.133,-42.969,0
1579289096.888,14.648,225.098,26.855,26.367,41.992,0
1579289096.892,25.879,229.004,22.461,6.348,-12.207,0
1579289096.896,30.273,227.051,25.879,12.695,-48.828,0
1579289096.899,40.527,219.238,28.809,38.086,18.066,0
1579289096.903,26.855,224.121,32.227,50.293,36.133,0
1579289096.907,37.109,241.699,35.156,33.691,34.180,0
1579289096.911,29.297,254.883,29.297,16.602,-31.250,0
1579289096.915,29.785,245.117,25.879,35.156,-18.555,0
1579289096.933,39.551,222.168,20.996,41.504,41.504,0
1579289096.937,29.297,223.633,24.902,16.113,38.086,0
1579289096.941,35.645,236.328,30.762,16.602,7.324,0
1579289096.945,32.715,214.844,28.320,50.781,33.203,0
1579289096.949,37.109,223.145,31.738,61.523,88.379,0
1579289096.953,29.297,266.113,34.180,27.832,76.172,0
1579289096.957,19.531,269.043,33.203,-0.977,39.062,0
1579289096.960,42.480,251.465,35.156,22.949,54.199,0
1579289096.964,46.875,269.531,37.598,49.316,9.277,0
1579289096.968,34.668,240.723,30.273,42.480,5.859,0
1579289096.972,48.340,115.234,23.438,29.297,31.738,0
1579289096.976,53.711,-7.812,28.320,36.133,24.902,0
1579289096.972,59.570,-77.637,28.809,54.199,36.621,0
1579289096.976,49.316,-69.336,22.949,45.410,67.871,0
1579289096.980,38.574,-13.184,32.227,22.461,41.504,0
1579289096.984,59.082,64.941,23.926,37.598,-5.859,0
1579289096.988,59.082,107.422,-6.836,56.641,21.484,0
1579289096.992,62.500,117.676,14.648,61.523,90.332,0
1579289096.996,81.055,143.066,39.062,58.594,107.422,0
1579289096.999,64.453,179.199,25.391,36.133,58.594,0
1579289097.003,52.246,193.359,25.879,45.898,17.578,0
1579289097.007,46.875,192.871,24.902,53.223,99.609,0
1579289097.011,66.406,221.680,40.039,56.152,71.777,0
1579289097.015,85.449,238.770,52.246,62.012,-22.461,0
1579289097.013,66.406,243.652,26.367,52.734,-5.859,0
1579289097.017,42.480,242.188,17.090,54.688,7.812,0
1579289097.021,37.598,233.887,15.137,37.109,35.645,0
1579289097.025,32.715,238.770,15.137,8.301,30.273,0
1579289097.029,35.645,250.000,26.855,16.113,20.020,0
1579289097.033,41.504,250.977,32.227,41.992,1.465,0
1579289097.037,42.480,236.328,32.715,41.992,-2.930,0
1579289097.040,42.480,231.445,35.156,26.855,10.254,0
1579289097.044,45.410,240.723,38.086,29.785,28.320,0
1579289097.048,50.781,237.305,45.898,59.570,28.320,0
1579289097.052,48.340,236.328,42.480,66.895,-27.344,0
1579289097.056,45.898,245.117,37.109,41.504,-20.020,0
1579289097.072,45.898,238.770,42.480,31.250,38.086,0
1579289097.076,52.246,245.117,44.922,54.688,90.332,0
1579289097.080,44.922,249.023,32.715,62.012,122.559,0
1579289097.084,58.105,261.719,28.809,52.246,56.641,0
1579289097.088,54.688,263.184,31.738,43.457,-31.738,0
1579289097.092,43.945,243.652,30.762,45.410,-12.695,0
1579289097.096,41.016,247.559,29.297,54.688,-35.156,0
1579289097.099,43.945,256.836,32.715,54.199,-50.293,0
1579289097.103,48.340,258.789,34.668,42.969,-3.906,0
1579289097.107,41.992,259.766,32.227,40.527,6.836,0
1579289097.111,57.617,248.047,36.621,52.246,42.480,0
1579289097.115,70.312,242.676,36.133,62.012,39.551,0
1579289097.112,40.039,246.582,28.809,44.434,21.973,0
1579289097.116,22.949,249.023,34.668,28.320,22.461,0
1579289097.120,31.250,248.047,36.621,46.875,13.184,0
1579289097.124,31.738,247.070,30.762,55.664,21.484,0
1579289097.128,29.785,252.441,33.691,38.086,36.133,0
1579289097.132,39.062,257.324,41.016,20.508,1.465,0
1579289097.136,59.082,264.648,32.715,36.621,9.766,0
1579289097.139,57.617,264.648,26.367,68.359,11.719,0
1579289097.143,44.434,253.418,36.621,66.895,13.672,0
1579289097.147,28.809,239.746,39.551,25.391,48.828,0
1579289097.151,14.648,240.723,36.621,18.555,1.953,0
1579289097.155,22.949,257.324,43.945,52.246,25.391,0
1579289097.152,18.066,262.207,38.574,38.574,86.426,0
1579289097.156,1.953,252.930,34.668,15.137,69.824,0
1579289097.160,3.418,254.395,50.781,14.648,35.645,0
1579289097.164,4.395,251.953,43.457,23.926,77.148,0
1579289097.168,-10.742,246.094,29.297,25.391,75.195,0
1579289097.172,-17.090,247.070,25.391,-2.441,0.000,0
1579289097.176,-5.859,253.418,30.762,-2.930,19.531,0
1579289097.179,2.441,250.000,41.504,14.648,12.695,0
1579289097.183,3.906,252.930,36.133,25.879,-35.156,0
1579289097.187,9.766,249.023,34.180,22.461,18.066,0
1579289097.191,7.324,245.117,38.086,9.766,119.629,0
1579289097.195,33.691,267.090,42.480,29.297,94.238,0
1579289097.212,33.691,272.461,38.574,41.992,24.902,0
1579289097.216,0.977,268.066,38.086,22.949,65.430,0
1579289097.220,7.812,260.742,42.480,7.324,-3.906,0
1579289097.224,18.066,250.000,38.086,17.578,-4.395,0
1579289097.228,9.277,238.770,36.621,42.480,96.680,0
1579289097.232,12.207,230.957,37.109,29.297,74.219,0
1579289097.236,28.320,224.609,37.109,10.742,3.906,0
1579289097.239,34.668,211.426,41.992,18.555,33.691,0
1579289097.243,23.438,202.148,34.668,33.203,20.996,0
1579289097.247,18.555,215.332,28.809,44.922,12.695,0
1579289097.251,14.160,228.027,32.227,26.367,37.598,0
1579289097.255,13.672,216.309,32.715,12.207,9.766,0
1579289097.252,8.301,211.426,35.156,31.250,38.574,0
1579289097.256,-1.953,218.750,34.180,39.062,77.148,0
1579289097.260,17.090,221.680,36.133,24.414,88.867,0
1579289097.264,23.926,224.609,38.086,9.277,59.082,0
1579289097.268,13.184,234.863,36.133,21.973,25.391,0
1579289097.272,20.996,247.070,36.621,44.434,4.883,0
1579289097.276,33.691,245.605,41.992,43.457,45.410,0
1579289097.279,28.809,247.070,41.992,25.391,24.414,0
1579289097.283,40.039,257.812,40.527,27.832,26.855,0
1579289097.287,51.270,257.812,37.598,41.016,96.191,0
1579289097.291,27.344,262.695,39.551,43.945,51.270,0
1579289097.295,25.879,265.137,46.875,30.762,-42.480,0
1579289097.292,26.855,253.906,40.039,17.578,-13.184,0
1579289097.296,17.578,247.070,32.227,20.996,53.711,0
1579289097.300,11.719,251.953,39.551,27.344,55.176,0
1579289097.304,25.879,261.719,41.504,21.484,30.762,0
1579289097.308,36.621,273.438,34.180,16.602,-5.859,0
1579289097.312,13.672,274.902,35.156,23.926,-61.035,0
1579289097.316,10.742,264.160,36.621,32.715,-14.160,0
1579289097.319,20.020,259.766,32.715,21.973,52.246,0
1579289097.323,19.043,247.070,40.527,9.766,62.012,0
1579289097.327,20.020,241.699,42.480,24.414,38.574,0
1579289097.331,28.809,258.301,35.156,44.434,18.555,0
1579289097.335,25.391,260.742,35.156,42.480,65.430,0
1579289097.352,30.762,253.418,36.621,20.996,74.707,0
1579289097.356,31.250,235.352,37.598,20.996,44.922,0
1579289097.360,30.762,234.375,36.621,53.223,70.312,0
1579289097.364,32.715,272.461,28.809,55.176,108.887,0
1579289097.368,20.020,281.250,29.297,23.926,42.969,0
1579289097.372,15.137,258.301,32.715,12.695,-6.836,0
1579289097.376,12.695,257.812,35.156,26.367,11.719,0
1579289097.379,43.945,270.020,41.992,45.410,30.273,0
1579289097.383,54.688,265.137,36.621,28.809,49.316,0
1579289097.387,27.344,263.184,33.691,10.742,43.945,0
1579289097.391,35.156,264.648,41.504,28.320,39.062,0
1579289097.395,28.809,258.301,32.227,31.250,-0.977,0
1579289097.392,16.113,255.371,23.926,19.531,-12.207,0
1579289097.396,27.344,236.816,35.156,14.160,53.223,0
1579289097.400,29.297,227.051,43.945,23.926,54.688,0
1579289097.404,31.738,245.117,44.434,40.039,35.156,0
1579289097.408,35.156,246.582,37.109,35.156,40.527,0
1579289097.412,21.973,242.676,34.668,8.789,21.484,0
1579289097.416,8.301,251.953,43.457,0.000,-1.465,0
1579289097.419,26.367,265.625,46.387,19.531,33.203,0
1579289097.423,33.203,258.789,45.898,35.156,38.086,0
1579289097.427,32.227,240.723,56.641,23.438,22.461,0
1579289097.431,36.621,257.324,46.387,8.301,17.090,0
1579289097.435,21.484,267.090,33.691,14.160,76.660,0
1579289097.452,16.602,262.207,46.387,18.066,95.703,0
1579289097.456,17.578,247.559,45.898,11.719,57.617,0
1579289097.460,27.832,214.355,50.293,7.324,70.312,0
1579289097.464,45.410,182.129,54.688,35.156,67.383,0
1579289097.468,70.801,155.273,49.316,63.965,32.715,0
1579289097.472,55.176,143.555,43.457,31.738,34.180,0
1579289097.476,15.625,127.930,36.133,-3.906,20.996,0
1579289097.479,22.461,116.699,39.062,9.766,-15.625,0
1579289097.483,33.203,101.074,40.527,38.086,19.043,0
1579289097.487,47.852,75.195,41.016,51.270,25.391,0
1579289097.491,59.570,78.125,43.457,35.156,41.016,0
1579289097.495,65.918,97.656,38.086,29.297,16.602,0
1579289097.493,74.219,97.656,39.551,59.082,-18.555,0
1579289097.497,72.266,91.309,45.410,74.707,37.109,0
1579289097.501,57.617,86.426,43.457,50.781,59.082,0
1579289097.505,69.824,72.754,41.992,42.969,16.113,0
1579289097.509,79.102,50.293,36.621,72.754,5.859,0
1579289097.513,65.918,46.875,35.156,81.055,27.832,0
1579289097.517,59.570,62.500,43.457,49.316,39.551,0
1579289097.520,64.941,74.707,41.504,26.855,43.945,0
1579289097.524,59.570,74.707,34.180,41.016,39.551,0
1579289097.528,37.598,66.895,30.273,51.270,20.020,0
1579289097.532,43.945,63.477,28.320,42.480,-40.527,0
1579289097.536,54.688,68.848,23.926,27.832,-4.395,0
1579289097.532,35.156,72.754,21.973,20.996,26.855,0
1579289097.536,31.250,71.777,29.785,42.969,8.789,0
1579289097.540,41.992,81.055,32.227,43.457,42.480,0
1579289097.544,51.758,92.285,27.832,15.625,35.156,0
1579289097.548,42.969,94.238,30.273,16.602,42.480,0
1579289097.552,35.156,96.191,38.574,49.316,61.523,0
1579289097.556,44.922,94.727,35.645,49.316,-7.812,0
1579289097.559,37.598,91.797,29.785,24.902,1.953,0
1579289097.563,28.320,81.543,30.273,18.066,67.383,0
1579289097.567,41.504,80.078,34.180,41.016,67.383,0
1579289097.571,50.781,83.984,37.109,60.547,73.242,0
1579289097.575,48.828,86.426,31.738,37.598,70.312,0
1579289097.592,50.781,106.445,34.180,17.090,56.641,0
1579289097.596,39.551,121.094,40.039,34.668,38.574,0
1579289097.600,36.133,119.629,38.086,54.688,51.270,0
1579289097.604,35.645,105.469,32.227,34.668,81.055,0
1579289097.608,29.785,91.797,31.250,10.254,16.113,0
1579289097.612,26.367,62.012,29.785,17.578,-18.066,0
1579289097.616,29.785,-5.371,32.715,30.762,50.293,0
1579289097.619,36.133,-53.223,35.156,32.227,59.082,0
1579289097.623,23.926,-68.359,28.809,12.207,34.180,0
1579289097.627,17.578,-93.262,28.809,4.883,31.250,0
1579289097.631,30.762,-126.953,34.180,31.738,45.898,0
1579289097.635,37.109,-133.301,37.598,48.828,73.730,0
1579289097.633,36.133,-130.371,35.156,35.156,45.410,0
1579289097.637,35.645,-145.020,28.320,11.230,66.406,0
1579289097.641,41.992,-151.855,29.297,20.020,57.129,0
1579289097.645,33.203,-156.250,32.715,40.039,-39.062,0
1579289097.649,23.926,-157.715,34.180,27.344,-17.578,0
1579289097.653,23.438,-170.898,38.574,13.184,45.898,0
1579289097.657,20.508,-180.664,41.504,24.902,28.320,0
1579289097.660,31.250,-164.062,36.621,44.922,-33.203,0
1579289097.664,34.180,-152.832,35.645,39.551,-17.090,0
1579289097.668,25.391,-163.086,34.180,18.066,38.574,0
1579289097.672,32.715,-174.316,38.574,19.043,40.039,0
1579289097.676,46.875,-173.340,40.039,37.598,16.113,0
1579289097.672,41.504,-166.504,29.785,50.781,65.918,0
1579289097.676,38.086,-163.086,34.668,34.180,50.781,0
1579289097.680,27.832,-164.551,38.086,14.160,-24.414,0
1579289097.684,20.996,-161.621,38.086,36.133,41.016,0
1579289097.688,29.297,-156.250,42.480,46.875,36.621,0
1579289097.692,26.855,-161.133,35.645,23.926,13.184,0
1579289097.696,24.902,-169.434,35.645,15.137,-26.367,0
1579289097.699,19.531,-171.387,41.016,26.855,6.348,0
1579289097.703,25.391,-161.621,30.273,35.156,102.539,0
1579289097.707,26.367,-140.625,35.156,18.555,82.520,0
1579289097.711,14.160,-136.719,40.527,7.812,38.574,0
1579289097.715,31.250,-138.672,26.855,20.020,23.438,0
1579289097.732,40.039,-145.508,32.227,38.086,7.324,0
1579289097.736,42.969,-157.715,33.691,43.945,25.391,0
1579289097.740,40.039,-157.227,24.902,23.926,57.617,0
1579289097.744,17.090,-148.438,28.320,7.812,6.836,0
1579289097.748,13.672,-133.789,38.086,33.203,15.137,0
1579289097.752,7.812,-132.324,40.527,38.574,42.480,0
1579289097.756,4.883,-125.000,40.039,20.508,21.484,0
1579289097.759,32.715,-115.234,36.621,8.301,40.527,0
1579289097.763,36.621,-130.859,31.738,23.926,81.543,0
1579289097.767,14.648,-141.602,38.086,44.922,70.312,0
1579289097.771,18.555,-119.629,44.434,31.250,8.789,0
1579289097.775,10.742,-109.375,35.645,7.324,3.418,0
1579289097.772,11.719,-119.141,36.621,12.207,30.762,0
1579289097.776,29.297,-118.164,36.621,37.109,104.492,0
1579289097.780,26.367,-111.816,28.320,25.391,103.516,0
1579289097.784,19.531,-108.398,32.227,-0.488,29.297,0
1579289097.788,18.555,-87.891,39.551,11.719,20.020,0
1579289097.792,28.320,-85.938,38.086,35.645,91.309,0
1579289097.796,29.297,-96.191,39.062,37.109,46.875,0
1579289097.799,17.090,-94.238,37.598,25.391,-39.062,0
1579289097.803,13.184,-93.750,30.762,14.160,-8.301,0
1579289097.807,13.672,-89.355,36.621,25.879,38.086,0
1579289097.811,12.695,-92.285,40.039,34.668,61.523,0
1579289097.815,20.996,-103.027,36.621,17.090,43.945,0
1579289097.813,36.133,-83.984,38.574,8.789,36.133,0
1579289097.817,24.902,-78.125,45.410,23.926,54.199,0
1579289097.821,13.672,-84.473,41.504,39.551,58.105,0
1579289097.825,17.090,-79.590,36.621,21.973,69.336,0
1579289097.829,22.461,-68.848,39.551,10.742,-4.395,0
1579289097.833,33.691,-54.688,43.457,35.645,-41.016,0
1579289097.837,38.086,-60.059,41.504,43.945,33.203,0
1579289097.840,33.203,-70.312,32.227,30.273,62.988,0
1579289097.844,18.555,-76.172,28.320,14.648,26.367,0
1579289097.848,22.949,-55.176,39.062,22.949,-23.926,0
1579289097.852,37.598,-32.715,36.133,48.828,9.277,0
1579289097.856,34.668,-41.504,29.785,41.016,44.434,0
1579289097.872,33.691,-46.875,28.320,20.020,80.078,0
1579289097.876,35.156,-52.246,21.973,14.160,76.660,0
1579289097.880,35.645,-50.293,29.785,23.438,9.766,0
1579289097.884,18.555,-40.527,36.621,35.156,59.570,0
1579289097.888,8.301,-52.246,34.668,22.461,57.617,0
1579289097.892,-0.488,-86.914,31.250,1.953,11.719,0
1579289097.896,-0.977,-111.328,31.738,-0.488,41.504,0
1579289097.899,-3.418,-113.281,34.180,8.789,58.105,0
1579289097.903,-13.184,-128.906,33.691,5.371,38.574,0
1579289097.907,-16.113,-166.016,30.273,-13.672,57.617,0
1579289097.911,-23.438,-173.340,22.461,-10.254,79.590,0
1579289097.915,-7.812,-177.734,12.695,-0.977,24.414,0
1579289097.912,-8.301,-190.430,15.137,-6.836,-22.949,0
1579289097.916,-12.207,-190.430,25.391,-12.207,22.461,0
1579289097.920,-5.371,-200.195,29.785,-6.348,47.363,0
1579289097.924,-2.930,-209.961,31.738,15.137,46.875,0
1579289097.928,4.395,-206.543,29.297,15.625,70.801,0
1579289097.932,20.508,-207.520,27.832,-2.441,69.336,0
1579289097.936,23.438,-212.891,28.809,-2.441,24.414,0
1579289097.939,8.301,-221.680,32.715,15.625,20.020,0
1579289097.943,5.859,-212.891,32.715,24.902,7.812,0
1579289097.947,6.348,-198.730,22.949,0.000,-35.645,0
1579289097.951,5.859,-192.871,19.531,-17.578,-8.301,0
1579289097.955,13.184,-201.660,17.578,8.789,35.156,0
1579289097.954,20.020,-205.078,21.973,29.297,20.996,0
1579289097.958,18.066,-185.547,26.855,15.137,31.738,0
1579289097.962,24.902,-176.758,25.391,-10.254,40.527,0
1579289097.966,20.020,-179.688,23.438,-5.859,-11.230,0
1579289097.970,16.113,-181.152,26.367,22.949,-21.484,0
1579289097.974,28.809,-182.129,29.297,27.832,-5.859,0
1579289097.978,22.949,-171.387,28.809,-0.977,0.488,0
1579289097.981,20.020,-165.527,30.273,-7.324,17.578,0
1579289097.985,24.414,-169.434,33.691,21.484,6.348,0
1579289097.989,40.039,-175.781,34.668,34.180,13.672,0
1579289097.993,26.855,-179.688,33.691,4.395,20.020,0
1579289097.997,3.418,-174.316,33.691,-11.719,42.480,0
1579289098.012,16.113,-178.711,29.297,3.906,75.195,0
1579289098.016,26.367,-178.223,34.180,16.602,1.465,0
1579289098.020,24.414,-174.805,31.738,10.742,-38.086,0
1579289098.024,20.020,-186.523,26.855,-10.742,4.395,0
1579289098.028,24.414,-180.664,30.273,-2.441,-26.855,0
1579289098.032,34.668,-178.711,23.926,23.438,-25.391,0
1579289098.036,25.879,-182.617,23.438,15.137,59.570,0
1579289098.039,10.254,-172.363,35.645,-10.742,25.391,0
1579289098.043,39.551,-172.363,39.551,0.977,54.199,0
1579289098.047,36.133,-174.805,29.785,20.996,96.191,0
1579289098.051,5.371,-166.016,29.785,9.766,37.109,0
1579289098.055,26.367,-151.855,35.156,-2.441,23.438,0
1579289098.052,33.203,-150.391,40.039,1.953,14.648,0
1579289098.056,19.531,-147.461,46.387,20.020,28.320,0
1579289098.060,14.160,-140.137,42.480,19.531,79.102,0
1579289098.064,29.785,-145.020,26.855,-12.207,76.172,0
1579289098.068,20.508,-147.949,20.996,-28.320,68.848,0
1579289098.072,-15.625,-145.996,30.762,-14.160,80.566,0
1579289098.076,-10.254,-138.184,27.344,0.977,52.246,0
1579289098.079,0.977,-134.766,20.020,-8.789,8.301,0
1579289098.083,-10.254,-145.020,20.996,-32.715,29.297,0
1579289098.087,-3.906,-156.738,24.902,-21.484,108.887,0
1579289098.091,8.301,-157.715,29.785,-6.348,76.172,0
1579289098.095,8.789,-152.344,31.738,-14.648,8.301,0
1579289098.092,7.812,-154.785,32.715,-31.738,78.613,0
1579289098.096,18.555,-163.086,36.133,-29.785,51.270,0
1579289098.100,32.715,-156.738,36.133,-2.930,-34.180,0
1579289098.104,25.391,-152.344,35.645,-4.883,-16.113,0
1579289098.108,37.598,-159.180,34.180,-25.879,-19.531,0
1579289098.112,38.574,-158.691,28.320,-29.785,3.418,0
1579289098.116,15.625,-148.926,36.621,-6.348,11.719,0
1579289098.119,23.438,-148.438,31.738,10.742,36.133,0
1579289098.123,21.484,-153.320,21.973,-19.531,52.734,0
1579289098.127,21.484,-143.066,31.250,-32.715,100.098,0
1579289098.131,31.250,-142.090,34.180,-12.695,83.496,0
1579289098.135,36.133,-137.695,38.086,-0.488,37.109,0
1579289098.152,42.480,-131.836,41.504,-10.254,63.477,0
1579289098.156,32.227,-138.672,34.668,-27.832,58.105,0
1579289098.160,30.762,-134.766,30.762,-19.043,32.227,0
1579289098.164,41.504,-127.930,34.180,-7.812,49.316,0
1579289098.168,27.344,-123.535,34.180,-11.719,58.105,0
1579289098.172,25.391,-127.930,32.227,-17.090,19.531,0
1579289098.176,27.344,-123.535,32.715,-15.137,-37.598,0
1579289098.179,27.344,-107.422,37.598,3.418,-76.172,0
1579289098.183,30.762,-109.863,41.504,7.812,-24.414,0
1579289098.187,34.180,-124.023,42.480,-12.695,21.484,0
1579289098.191,31.250,-120.117,44.922,-15.137,37.109,0
1579289098.195,28.809,-110.840,41.016,1.953,69.336,0
1579289098.192,44.922,-96.191,41.504,11.719,36.133,0
1579289098.196,26.855,-96.680,44.922,-0.488,31.738,0
1579289098.200,9.277,-103.516,33.691,-13.184,36.621,0
1579289098.204,17.090,-103.516,28.809,1.953,4.395,0
1579289098.208,14.648,-87.402,33.203,13.184,75.195,0
1579289098.212,22.461,-80.078,36.621,2.930,86.426,0
1579289098.216,23.926,-90.332,41.992,-5.371,56.641,0
1579289098.219,29.785,-81.055,41.016,-3.906,7.812,0
1579289098.223,44.922,-77.637,41.504,13.672,9.277,0
1579289098.227,26.855,-82.520,41.016,14.160,108.398,0
1579289098.231,16.602,-102.051,31.738,-17.090,111.328,0
1579289098.235,16.113,-107.910,32.227,-22.461,57.617,0
1579289098.232,17.090,-82.031,31.250,-0.977,21.484,0
1579289098.236,20.996,-86.426,33.203,9.766,93.262,0
1579289098.240,23.926,-93.750,40.039,-2.441,60.547,1
1579289098.244,23.926,-90.820,36.621,-10.742,16.602,0
1579289098.248,23.438,-79.590,29.785,5.859,83.496,0
1579289098.252,32.227,-65.430,28.809,19.531,33.691,0
1579289098.256,30.762,-73.242,30.273,4.395,11.230,0
1579289098.259,21.973,-90.332,26.367,-18.066,44.434,0
1579289098.263,28.809,-93.262,29.297,-7.812,22.461,0
1579289098.267,39.551,-76.660,36.621,22.461,-0.488,0
1579289098.271,23.438,-79.102,37.109,19.043,41.992,0
1579289098.275,15.137,-84.961,43.457,-0.488,109.375,0
1579289098.292,27.832,-77.148,47.852,5.859,97.168,0
1579289098.296,29.297,-57.129,37.598,23.926,30.762,0
1579289098.300,25.391,-51.758,29.785,16.602,48.828,0
1579289098.304,18.066,-66.895,29.785,-9.277,51.758,0
1579289098.308,17.090,-73.730,32.227,-10.254,20.996,0
1579289098.312,32.715,-65.918,39.551,21.484,30.273,0
1579289098.316,30.273,-76.172,36.621,31.250,11.719,0
1579289098.319,23.438,-72.266,28.320,-7.324,28.809,0
1579289098.323,27.832,-61.523,22.461,-24.414,15.137,0
1579289098.327,21.973,-57.129,33.203,3.418,-22.949,0
1579289098.331,20.020,-43.457,52.734,22.461,44.922,0
1579289098.335,16.602,-62.988,38.086,8.789,69.824,0
1579289098.333,17.090,-72.266,22.949,-8.301,6.348,0
1579289098.337,30.762,-56.152,35.645,2.930,-7.324,0
1579289098.341,43.945,-42.480,44.922,26.855,10.254,0
1579289098.345,45.898,-39.062,45.410,27.344,-1.953,0
1579289098.349,44.434,-53.711,45.898,12.695,-7.324,0
1579289098.353,39.062,-51.270,30.273,9.766,56.641,0
1579289098.357,42.480,-41.992,27.344,20.508,26.367,0
1579289098.360,33.203,-41.992,35.156,16.602,12.207,0
1579289098.364,17.578,-31.738,37.598,0.488,48.340,0
1579289098.368,22.461,-54.199,39.551,-1.953,55.664,0
1579289098.372,22.949,-63.965,29.785,9.766,89.844,0
1579289098.376,18.555,-34.180,27.832,18.555,50.293,0
1579289098.372,25.879,-28.809,34.180,7.324,36.133,0
1579289098.376,30.273,-43.457,35.156,-1.465,24.414,0
1579289098.380,27.832,-35.645,35.156,11.719,30.273,0
1579289098.384,36.621,-28.809,41.504,27.344,75.684,0
1579289098.388,38.086,-40.527,29.785,17.578,82.520,0
1579289098.392,26.855,-33.691,12.695,-7.812,19.043,0
1579289098.396,41.504,-29.297,22.949,-6.348,2.441,0
1579289098.399,32.227,-44.434,30.273,14.160,95.703,0
1579289098.403,19.531,-43.457,30.762,7.812,104.004,0
1579289098.407,41.504,-28.320,42.480,-4.883,79.590,0
1579289098.411,42.480,-28.320,42.969,-0.488,47.363,0
1579289098.415,37.598,-30.273,29.297,7.812,45.410,0
1579289098.432,36.133,-20.996,32.227,11.230,68.848,0
1579289098.436,41.016,-25.391,40.039,-9.277,41.992,0
1579289098.440,37.109,-33.691,37.109,-13.184,21.484,0
1579289098.444,27.344,-27.832,29.785,8.789,30.762,0
1579289098.448,30.273,-18.066,28.320,12.695,30.273,0
1579289098.452,36.133,-15.625,24.414,-7.324,-8.789,0
1579289098.456,35.645,-19.531,26.855,-24.902,-7.812,0
1579289098.459,27.344,-24.414,34.668,-6.348,-6.348,0
1579289098.463,30.762,-24.414,30.273,11.230,-34.668,0
1579289098.467,35.645,-24.414,33.691,4.395,-11.230,0
1579289098.471,34.180,-31.250,35.156,-11.719,20.508,0
1579289098.475,34.668,-1.953,38.086,8.301,39.551,0
1579289098.472,44.922,15.137,42.969,35.156,17.578,0
1579289098.476,45.410,5.859,36.621,15.137,-30.273,0
1579289098.480,24.414,0.000,32.227,-14.160,6.836,0
1579289098.484,21.973,-7.812,31.738,-14.648,59.570,0
1579289098.488,27.344,-8.301,28.320,6.836,3.418,0
1579289098.492,23.926,-6.348,29.785,16.113,-12.695,0
1579289098.496,29.785,-14.648,33.203,-2.441,40.039,0
1579289098.499,34.668,2.930,34.668,-10.742,46.387,0
1579289098.503,25.391,15.625,25.879,6.348,32.227,0
1579289098.507,29.785,6.836,12.695,-2.441,16.113,0
1579289098.511,24.414,14.160,19.043,-24.902,37.109,0
1579289098.515,13.184,19.531,22.949,-37.598,67.871,0
1579289098.512,20.020,8.301,24.414,-27.344,-2.930,0
1579289098.516,11.719,18.555,25.879,-3.906,60.059,0
1579289098.520,17.090,10.254,20.020,-7.812,109.375,0
1579289098.524,23.926,-6.836,24.414,-22.949,27.832,0
1579289098.528,19.531,7.324,26.855,-18.555,39.551,0
1579289098.532,14.648,14.648,25.879,3.418,40.527,0
1579289098.536,18.066,11.719,27.832,4.395,4.395,0
1579289098.539,33.691,1.465,21.973,-14.160,55.176,0
1579289098.543,50.781,4.395,22.949,-10.254,23.438,0
1579289098.547,46.387,10.254,25.879,9.277,-59.082,0
1579289098.551,39.551,5.371,21.973,11.719,-36.133,0
1579289098.555,34.668,-29.297,26.367,-5.859,-3.906,0
1579289098.572,29.785,-74.707,27.832,-18.555,51.758,0
1579289098.576,28.320,-87.402,27.344,-4.883,58.594,0
1579289098.580,28.809,-101.074,26.367,6.348,71.777,0
1579289098.584,26.367,-121.582,29.297,-1.465,88.867,0
1579289098.588,35.156,-131.348,28.809,-11.230,22.461,0
1579289098.592,42.480,-136.719,29.785,-1.465,-25.391,0
1579289098.596,42.480,-152.344,31.738,13.184,-2.930,0
1579289098.599,44.922,-171.387,32.227,8.789,38.574,0
1579289098.603,39.062,-166.016,34.668,-12.207,-14.648,0
1579289098.607,39.551,-152.344,31.250,-10.254,-5.859,0
1579289098.611,47.852,-155.273,34.668,16.602,59.570,0
1579289098.615,52.246,-162.598,44.434,22.461,54.688,0
1579289098.613,46.387,-159.180,42.969,-3.906,-11.230,0
1579289098.617,33.691,-150.391,34.180,-11.719,-3.906,0
1579289098.621,42.480,-150.879,31.250,7.812,7.812,0
1579289098.625,46.387,-154.785,31.250,13.672,9.766,0
1579289098.629,40.039,-160.645,30.273,-3.906,24.414,0
1579289098.633,46.387,-160.156,34.668,-11.719,45.898,0
1579289098.637,43.945,-147.461,35.156,1.465,53.711,0
1579289098.640,35.156,-155.762,31.738,6.348,18.555,0
1579289098.644,25.391,-164.062,29.297,-8.789,35.156,0
1579289098.648,24.414,-151.367,34.180,-26.367,72.266,0
1579289098.652,34.180,-146.484,41.992,-12.207,82.520,0
1579289098.656,45.898,-139.160,41.504,5.371,98.633,0
1579289098.652,31.250,-135.742,39.062,-10.254,106.934,0
1579289098.656,8.789,-143.555,31.738,-36.133,50.781,0
1579289098.660,9.277,-133.789,29.785,-32.715,43.457,0
1579289098.664,15.625,-116.211,36.621,-6.836,59.570,0
1579289098.668,17.090,-116.211,39.551,-1.953,-5.371,0
1579289098.672,15.137,-119.141,35.156,-22.949,-14.160,0
1579289098.676,25.879,-119.141,33.203,-28.320,-20.996,0
1579289098.679,23.926,-118.652,39.062,-1.953,-7.812,0
1579289098.683,20.020,-119.141,39.062,14.648,23.926,0
1579289098.687,34.180,-111.328,41.504,15.137,44.922,0
1579289098.691,41.992,-98.633,43.457,5.859,109.863,0
1579289098.695,35.156,-109.375,38.574,8.301,85.938,0
1579289098.713,39.551,-112.305,30.762,18.555,55.176,0
1579289098.717,46.875,-92.285,35.156,7.812,49.316,0
1579289098.721,33.203,-81.055,44.922,-7.812,4.395,0
1579289098.725,18.555,-84.961,40.039,-4.883,-26.855,0
1579289098.729,25.391,-94.727,34.668,12.207,31.250,0
1579289098.733,38.574,-99.609,38.574,17.578,17.090,0
1579289098.737,37.109,-96.191,42.969,-1.953,42.969,0
1579289098.740,43.945,-87.402,43.945,1.953,70.312,0
1579289098.744,37.598,-92.285,46.875,25.391,91.797,0
1579289098.748,30.273,-95.703,51.270,28.809,91.797,0
1579289098.752,31.250,-80.566,52.246,13.672,64.453,0
1579289098.756,34.180,-81.055,49.805,10.254,99.609,0
1579289098.752,36.133,-87.891,54.688,38.086,88.379,0
1579289098.756,38.086,-78.613,63.477,45.410,54.199,0
1579289098.760,46.387,-66.406,59.570,18.555,51.270,0
1579289098.764,25.879,-65.918,54.199,-1.465,21.973,0
1579289098.768,15.137,-64.453,52.734,13.184,51.270,0
1579289098.772,30.762,-66.895,50.781,36.133,9.277,0
1579289098.776,37.598,-62.988,48.340,19.531,-15.137,0
1579289098.779,34.668,-55.664,44.922,-5.859,39.551,0
1579289098.783,35.645,-71.289,41.992,5.859,-19.531,0
1579289098.787,36.621,-79.102,45.410,32.227,22.461,0
1579289098.791,22.461,-62.988,44.922,25.879,48.340,0
1579289098.795,23.926,-66.895,44.922,5.859,14.648,0
1579289098.812,33.691,-70.801,54.688,12.695,65.430,0
1579289098.816,28.320,-62.988,49.316,26.367,21.973,0
1579289098.820,24.902,-54.688,40.039,26.855,-25.391,0
1579289098.824,30.762,-53.711,43.945,14.160,-17.578,0
1579289098.828,35.645,-64.941,44.922,2.930,-14.648,0
1579289098.832,29.297,-68.359,36.621,10.742,14.160,0
1579289098.836,29.297,-62.500,32.715,21.484,34.180,0
1579289098.839,37.598,-68.359,36.621,6.348,18.066,0
1579289098.843,42.969,-78.125,40.039,-7.812,51.270,0
1579289098.847,47.363,-69.824,39.062,9.277,100.586,0
1579289098.851,35.645,-48.340,34.668,27.832,81.543,0
1579289098.855,24.414,-37.109,40.527,20.996,72.754,0
1579289098.852,21.484,-37.598,42.480,-6.836,62.500,0
1579289098.856,17.578,-49.805,40.527,-8.301,13.672,0
1579289098.860,22.949,-55.664,40.527,17.090,50.781,0
1579289098.864,23.926,-47.363,38.086,15.137,62.988,0
1579289098.868,28.320,-40.527,39.062,0.977,49.316,0
1579289098.872,39.062,-41.016,40.039,3.418,64.453,0
1579289098.876,42.969,-30.273,40.527,20.508,87.891,0
1579289098.879,37.109,-17.578,36.621,19.043,88.379,0
1579289098.883,28.809,-21.484,30.273,-5.859,30.762,0
1579289098.887,36.133,-26.367,32.715,-10.742,49.316,0
1579289098.891,43.457,-24.414,37.109,17.090,76.660,0
1579289098.895,32.715,-22.949,34.180,31.250,62.988,0
1579289098.892,34.668,-39.062,31.250,8.789,16.113,0
1579289098.896,35.645,-45.410,33.691,-5.371,-16.602,0
1579289098.900,24.414,-9.277,35.156,14.648,45.898,0
1579289098.904,27.832,16.113,33.203,33.203,76.172,0
1579289098.908,32.227,30.762,33.691,25.879,32.227,0
1579289098.912,22.461,56.641,32.715,-0.977,74.707,0
1579289098.916,20.020,66.895,32.227,0.488,43.457,0
1579289098.919,24.902,82.520,36.133,23.438,-35.156,0
1579289098.923,28.809,101.562,34.668,21.484,25.391,0
1579289098.927,36.133,101.562,33.691,0.488,51.270,0
1579289098.931,19.531,100.586,35.645,-18.555,28.809,0
1579289098.935,9.277,103.027,35.645,7.324,41.504,0
1579289098.952,13.672,107.910,35.645,28.320,51.758,0
1579289098.956,21.973,114.746,41.504,7.812,15.137,0
1579289098.960,36.133,108.887,49.805,-2.441,53.711,0
1579289098.964,29.785,102.539,45.898,13.184,38.574,0
1579289098.968,22.949,124.023,42.480,32.227,26.855,0
1579289098.972,23.926,144.531,41.016,16.113,67.383,0
1579289098.976,8.789,134.766,36.133,-19.043,26.855,0
1579289098.979,4.395,128.906,34.668,-13.672,15.137,0
1579289098.983,28.809,141.113,40.527,13.184,-10.254,0
1579289098.987,27.832,139.648,47.363,13.672,-32.227,0
1579289098.991,10.742,106.445,43.945,-6.836,-31.738,0
1579289098.995,9.277,107.910,36.133,-8.301,4.395,0
1579289098.992,15.137,142.090,37.109,13.672,31.250,0
1579289098.996,18.066,141.602,43.457,20.020,1.465,0
1579289099.000,16.113,127.441,46.875,6.348,-12.207,0
1579289099.004,28.320,127.930,40.527,1.953,18.555,0
1579289099.008,37.598,121.582,34.668,18.066,43.945,0
1579289099.012,44.922,103.027,40.527,32.715,17.090,0
1579289099.016,37.598,105.957,38.086,18.555,-11.230,0
1579289099.019,34.180,133.301,39.551,5.371,26.367,0
1579289099.023,43.457,144.043,38.574,27.832,43.945,0
1579289099.027,36.133,137.207,39.062,49.805,-14.648,0
1579289099.031,27.344,135.254,44.434,34.180,4.395,0
1579289099.035,22.461,133.301,40.527,5.859,58.594,0
1579289099.033,25.879,124.512,38.574,20.996,26.367,0
1579289099.037,33.203,129.883,40.527,42.969,-25.879,0
1579289099.041,33.691,120.605,36.133,39.062,11.230,0
1579289099.045,28.320,112.305,32.227,17.578,61.523,0
1579289099.049,37.598,125.000,34.180,8.789,26.367,0
1579289099.053,39.062,116.211,29.297,24.414,-22.949,0
1579289099.057,13.184,119.141,29.785,26.367,34.668,0
1579289099.060,18.066,127.441,35.645,7.324,43.457,0
1579289099.064,30.762,114.258,42.969,1.953,-5.859,0
1579289099.068,28.320,127.930,44.922,27.344,54.199,0
1579289099.072,31.250,132.324,42.969,36.621,46.875,0
1579289099.076,29.297,111.816,38.086,17.090,33.203,0
1579289099.092,27.344,104.980,31.738,7.812,37.598,0
1579289099.096,26.855,107.910,33.691,23.926,21.484,0
1579289099.100,39.551,127.441,31.738,38.574,24.902,0
1579289099.104,46.875,143.066,29.297,22.949,22.949,0
1579289099.108,30.273,129.883,28.320,2.930,31.738,0
1579289099.112,29.785,115.234,31.738,10.254,82.031,0
1579289099.116,41.992,111.816,31.738,32.715,36.133,0
1579289099.119,34.668,116.211,31.250,29.785,-17.578,0
1579289099.123,29.297,108.398,36.133,7.324,-19.043,0
1579289099.127,32.715,99.121,31.250,4.883,-39.062,0
1579289099.131,52.246,138.184,27.344,25.391,-12.695,0
1579289099.135,42.480,168.457,26.367,28.809,15.137,0
1579289099.132,14.648,159.668,29.785,2.930,13.184,0
1579289099.136,18.555,168.457,37.109,4.883,31.250,0
1579289099.140,14.648,191.895,46.387,36.621,17.578,0
1579289099.144,16.113,190.430,39.551,49.316,-7.324,0
1579289099.148,20.508,192.871,25.391,37.598,29.785,0
1579289099.152,20.508,187.988,25.879,19.531,20.020,0
1579289099.156,16.113,173.828,35.156,33.691,20.996,0
1579289099.159,24.902,188.477,38.086,57.129,56.641,0
1579289099.163,26.855,193.848,33.203,44.922,25.391,0
1579289099.167,33.691,185.547,28.320,27.344,-34.668,0
1579289099.171,34.668,178.223,26.367,33.691,-3.906,0
1579289099.175,29.297,169.922,31.738,53.711,63.477,0
1579289099.172,32.227,164.062,33.691,57.617,36.133,0
1579289099.176,22.461,164.551,21.484,37.598,2.441,0
1579289099.180,34.668,170.410,23.926,34.180,32.227,0
1579289099.184,40.039,171.387,35.645,56.641,35.645,0
1579289099.188,34.180,169.434,31.250,68.359,9.766,0
1579289099.192,37.109,164.062,34.668,50.293,46.387,0
1579289099.196,30.762,171.875,40.039,41.992,62.500,0
1579289099.199,36.621,166.992,39.062,54.688,17.090,0
1579289099.203,38.086,160.156,42.969,61.035,-10.254,0
1579289099.207,39.551,166.016,41.992,55.664,14.648,0
1579289099.211,41.504,174.805,38.574,52.734,9.766,0
1579289099.215,38.086,145.508,38.086,58.594,11.719,0
1579289099.232,40.039,109.375,25.879,62.500,3.418,0
1579289099.236,24.414,132.812,26.855,53.711,50.293,0
1579289099.240,15.137,151.855,36.621,35.156,72.266,0
1579289099.244,22.949,150.391,32.227,32.715,24.902,0
1579289099.248,22.949,145.996,30.762,55.176,19.043,0
1579289099.252,39.551,145.508,32.715,56.152,71.777,0
1579289099.256,47.363,158.203,34.180,32.227,96.191,2
1579289099.259,35.645,165.039,37.109,29.785,53.711,0
1579289099.263,34.668,161.133,36.621,55.176,19.043,0
1579289099.267,41.992,156.738,31.738,63.477,30.762,0
1579289099.271,45.410,166.992,32.715,45.898,94.238,0
1579289099.275,42.480,175.781,36.133,26.367,70.801,0
1579289099.272,39.062,166.016,30.762,39.062,26.367,0
1579289099.276,32.715,153.809,31.250,55.664,8.301,0
1579289099.280,37.109,151.367,39.551,52.734,42.480,0
1579289099.284,37.598,158.203,33.691,35.156,82.520,0
1579289099.288,36.133,157.227,30.273,35.645,96.680,0
1579289099.292,37.109,150.879,37.109,59.082,53.711,0
1579289099.296,43.945,142.090,38.574,59.082,-0.977,0
1579289099.299,61.035,143.066,40.039,41.016,15.625,0
1579289099.303,43.945,151.855,40.039,40.039,73.730,0
1579289099.307,30.273,156.738,40.039,57.617,52.734,0
1579289099.311,41.504,165.039,40.527,58.594,26.855,0
1579289099.315,31.250,167.480,38.574,31.250,12.695,0
1579289099.312,25.879,165.039,41.016,24.414,-20.996,0
1579289099.316,34.668,158.203,42.480,46.875,30.762,0
1579289099.320,46.387,156.738,41.504,54.199,29.297,0
1579289099.324,55.664,152.832,42.969,43.945,98.633,0
1579289099.328,43.945,155.273,45.898,29.785,101.562,0
1579289099.332,41.992,160.156,44.922,37.598,42.480,0
1579289099.336,36.133,172.363,40.039,47.852,24.902,0
1579289099.339,41.504,195.801,50.781,50.293,30.273,0
1579289099.343,29.785,197.266,47.852,27.344,54.199,0
1579289099.347,19.043,188.965,39.551,19.531,50.781,0
1579289099.351,28.320,190.918,47.852,53.711,26.855,0
1579289099.355,26.855,180.664,44.434,49.805,45.410,0
1579289099.372,37.109,174.805,37.109,16.113,18.066,0
1579289099.376,30.762,187.012,49.316,20.508,-16.602,0
1579289099.380,22.461,193.359,49.316,42.480,3.906,0
1579289099.384,31.738,201.172,43.945,49.316,14.160,0
1579289099.388,39.551,207.031,49.805,38.574,40.527,0
1579289099.392,38.086,201.172,43.945,34.180,72.754,0
1579289099.396,32.715,188.477,31.738,43.457,16.602,0
1579289099.399,41.016,184.082,35.156,51.270,-11.230,0
1579289099.403,44.922,190.918,40.039,42.969,-8.301,0
1579289099.407,28.809,182.617,34.180,26.367,17.090,0
1579289099.411,22.461,176.270,26.855,27.344,64.453,0
1579289099.415,31.738,200.195,30.762,42.969,74.219,0
1579289099.412,39.551,200.195,34.180,36.621,44.434,0
1579289099.416,34.180,180.664,35.156,13.672,19.531,0
1579289099.420,40.039,166.504,37.598,20.020,48.340,0
1579289099.424,40.039,162.598,35.156,46.387,4.883,0
1579289099.428,40.527,156.250,34.180,52.734,-20.508,0
1579289099.432,50.781,145.996,36.133,31.738,22.461,0
1579289099.436,23.438,128.906,37.598,20.020,-3.418,0
1579289099.439,10.742,112.305,39.551,40.527,-43.457,0
1579289099.443,18.066,116.699,35.645,56.152,-32.227,0
1579289099.447,24.902,111.816,30.273,34.180,16.113,0
1579289099.451,32.715,115.723,30.273,19.531,6.348,0
1579289099.455,22.461,116.699,30.273,42.969,13.672,0
1579289099.452,28.809,106.445,26.855,55.176,90.820,0
1579289099.456,44.434,101.074,29.297,43.457,95.703,0
1579289099.460,39.062,92.773,27.832,36.621,52.734,0
1579289099.464,17.090,84.961,26.367,49.316,14.160,0
1579289099.468,14.160,81.543,33.691,57.129,11.719,0
1579289099.472,17.090,76.172,33.691,42.969,55.664,0
1579289099.476,16.113,70.801,35.156,29.297,57.129,0
1579289099.479,25.391,79.102,32.227,32.715,0.977,0
1579289099.483,25.391,85.449,30.273,50.293,37.598,0
1579289099.487,23.926,71.289,37.109,60.547,37.109,0
1579289099.491,25.879,58.594,38.574,41.992,48.340,0
1579289099.495,42.480,60.059,38.086,38.574,89.844,0
1579289099.512,29.785,52.246,30.273,58.105,98.145,0
1579289099.516,11.230,19.043,26.367,61.035,71.289,0
1579289099.520,24.902,8.301,39.062,51.758,20.996,0
1579289099.524,20.996,11.719,47.852,43.457,14.648,0
1579289099.528,17.090,3.418,38.086,51.270,23.438,0
1579289099.532,31.738,3.418,32.227,71.289,3.418,0
1579289099.536,26.855,-1.953,30.762,54.688,55.664,0
1579289099.539,15.137,-6.836,26.367,19.531,58.594,0
1579289099.543,29.297,-27.832,25.391,26.367,25.391,0
1579289099.547,27.344,-48.340,30.762,49.316,51.758,0
1579289099.551,20.508,-40.527,40.039,56.152,26.367,0
1579289099.555,22.949,-42.969,38.086,39.551,-9.766,0
1579289099.552,22.461,-66.406,34.668,32.715,9.277,0
1579289099.556,25.879,-90.820,36.621,49.316,57.129,0
1579289099.560,23.438,-89.355,35.645,51.270,14.160,0
1579289099.564,30.273,-84.473,33.203,32.227,8.301,0
1579289099.568,36.133,-86.914,37.598,27.344,37.109,0
1579289099.572,26.855,-84.473,35.645,43.457,16.602,0
1579289099.576,41.016,-85.938,32.715,54.688,-14.648,0
1579289099.579,44.922,-79.590,36.133,39.551,13.672,0
1579289099.583,23.438,-72.754,33.691,28.809,74.219,0
1579289099.587,24.414,-83.496,19.043,42.969,54.688,0
1579289099.591,26.367,-81.543,26.367,49.805,5.371,0
1579289099.595,18.555,-76.660,41.016,41.504,27.344,0
1579289099.592,15.137,-79.102,36.133,27.344,21.484,0
1579289099.596,34.668,-83.008,37.109,38.574,7.812,0
1579289099.600,34.180,-79.102,38.574,58.594,32.227,0
1579289099.604,25.879,-62.012,31.738,57.617,28.320,0
1579289099.608,26.367,-49.316,31.250,36.621,2.930,0
1579289099.612,19.531,-48.340,34.180,30.273,63.477,0
1579289099.616,15.625,-52.246,33.203,48.340,67.871,0
1579289099.619,28.320,-48.340,27.832,56.152,57.129,0
1579289099.623,31.250,-34.668,31.250,32.715,75.684,0
1579289099.627,11.230,-41.016,39.062,26.367,42.480,0
1579289099.631,20.996,-41.016,39.551,52.734,33.691,0
1579289099.635,39.062,-31.738,37.598,65.430,12.695,0
1579289099.652,31.250,-32.715,35.156,47.363,18.066,0
1579289099.656,28.809,-14.160,33.203,27.832,-9.277,0
1579289099.660,32.227,-15.625,31.250,36.621,13.184,0
1579289099.664,33.203,-41.504,36.621,60.547,38.086,0
1579289099.668,32.227,-60.547,35.156,55.664,14.648,0
1579289099.672,29.297,-87.891,30.273,34.668,62.012,0
1579289099.676,25.391,-97.168,32.227,39.551,35.645,0
1579289099.679,33.203,-85.449,38.086,59.570,20.996,0
1579289099.683,35.156,-107.422,47.852,64.453,45.898,0
1579289099.687,20.508,-135.742,39.551,35.156,11.230,0
1579289099.691,33.203,-127.441,35.156,31.250,39.062,0
1579289099.695,33.691,-118.164,36.133,49.316,47.852,0
1579289099.692,21.484,-106.445,32.227,49.805,-34.668,0
1579289099.696,41.504,-96.191,37.598,42.969,-21.484,0
1579289099.700,42.480,-115.234,38.086,41.504,80.078,0
1579289099.704,31.250,-122.559,29.297,53.711,47.363,0
1579289099.708,32.715,-112.793,31.250,61.035,55.664,0
1579289099.712,24.902,-114.258,33.691,41.504,40.039,0
1579289099.716,20.508,-90.820,34.668,23.438,-54.199,0
1579289099.719,32.715,-53.223,39.551,26.855,-34.668,0
1579289099.723,31.250,-22.949,43.457,42.969,0.977,0
1579289099.727,28.809,-6.348,35.645,40.039,39.062,0
1579289099.731,25.879,0.488,35.156,17.578,51.758,0
1579289099.735,22.461,18.066,42.969,25.391,47.363,0
1579289099.732,23.438,33.691,42.969,51.270,77.637,0
1579289099.736,24.902,47.363,41.504,50.293,88.379,0
1579289099.740,45.898,60.547,37.109,25.391,103.027,0
1579289099.744,47.363,70.312,36.133,20.996,59.570,0
1579289099.748,35.645,67.383,37.598,46.875,28.809,0
1579289099.752,36.621,75.195,30.273,55.176,50.781,0
1579289099.756,30.762,91.309,29.785,36.621,19.043,0
1579289099.759,22.949,92.773,34.668,13.672,21.484,0
1579289099.763,12.207,88.379,35.645,22.461,23.926,0
1579289099.767,19.043,77.148,39.551,51.758,-26.367,0
1579289099.771,25.391,68.359,41.992,46.875,67.383,0
1579289099.775,25.391,67.383,37.109,26.367,88.867,0
1579289099.792,23.438,68.848,33.691,33.691,68.848,0
1579289099.796,20.508,70.312,31.250,51.270,93.750,0
1579289099.800,42.480,54.688,30.273,49.805,25.879,0
1579289099.804,49.805,49.805,37.598,35.156,-10.254,0
1579289099.808,31.250,75.684,39.551,34.180,24.414,0
1579289099.812,31.738,78.125,41.016,49.805,59.082,0
1579289099.816,35.645,74.707,43.945,50.781,46.875,0
1579289099.819,32.227,89.844,44.434,32.715,10.742,0
1579289099.823,29.297,90.820,46.387,25.391,-2.441,0
1579289099.827,29.297,90.332,47.852,43.945,20.020,0
1579289099.831,25.391,99.609,42.480,61.035,80.078,0
1579289099.835,30.273,95.703,40.527,52.734,113.281,0
1579289099.832,31.250,97.656,40.527,34.668,20.020,0
1579289099.836,35.156,111.328,32.715,39.551,-20.996,0
1579289099.840,60.059,93.750,32.227,53.711,6.348,0
1579289099.844,53.223,85.449,31.250,44.922,89.355,0
1579289099.848,32.227,106.934,27.344,30.762,76.172,0
1579289099.852,40.039,109.863,32.715,40.039,-20.996,0
1579289099.856,36.133,106.934,34.668,55.176,16.602,0
1579289099.859,27.832,104.980,35.156,48.340,55.176,0
1579289099.863,27.832,100.098,36.133,26.367,100.586,0
1579289099.867,21.484,102.539,36.133,23.926,107.422,0
1579289099.871,31.250,111.328,39.062,52.734,59.570,0
1579289099.875,38.574,107.910,39.551,63.965,30.273,0
1579289099.872,41.504,101.562,41.016,47.363,7.812,0
1579289099.876,45.410,98.633,41.504,35.156,22.949,0
1579289099.880,28.809,100.586,35.156,43.945,4.883,0
1579289099.884,27.832,123.535,33.203,56.152,-27.344,0
1579289099.888,48.340,127.930,37.598,45.410,-24.414,0
1579289099.892,47.363,115.723,39.551,36.621,-0.488,0
1579289099.896,30.273,112.793,39.062,49.316,-8.789,0
1579289099.899,24.414,114.746,40.527,57.129,20.020,0
1579289099.903,30.762,118.164,41.992,47.363,23.926,0
1579289099.907,33.691,131.348,42.480,31.738,-31.250,0
1579289099.911,27.344,150.879,40.039,35.156,-21.973,0
1579289099.915,31.250,171.387,41.992,52.734,77.637,0
1579289099.932,34.180,177.734,40.527,49.316,114.258,0
1579289099.936,38.574,185.547,34.668,19.531,54.688,0
1579289099.940,41.016,219.727,41.016,14.160,8.301,0
1579289099.944,29.785,238.770,42.480,43.457,16.113,0
1579289099.948,29.785,241.211,37.109,49.316,17.090,0
1579289099.952,24.414,255.859,34.668,30.762,71.777,0
1579289099.956,26.855,276.367,34.180,22.461,76.172,0
1579289099.959,39.062,306.641,37.109,41.504,-4.395,0
1579289099.963,41.504,332.520,33.691,57.129,44.434,0
1579289099.967,27.832,363.770,30.762,37.109,39.551,0
1579289099.971,19.043,414.062,35.156,23.438,20.020,0
1579289099.975,29.297,432.617,34.668,35.645,10.254,0
1579289099.973,37.598,447.266,33.691,51.758,-4.883,0
1579289099.977,32.715,493.164,36.133,51.270,63.477,0
1579289099.981,25.391,508.789,38.574,29.785,89.355,0
1579289099.985,37.109,495.605,38.086,35.645,39.062,0
1579289099.989,44.434,503.906,39.062,61.035,42.969,0
1579289099.993,27.832,500.000,43.945,56.641,72.266,0
1579289099.997,24.902,500.000,40.039,31.250,23.438,0
1579289100.000,31.250,504.395,38.086,22.949,-1.953,0
1579289100.004,28.809,496.094,47.363,45.410,22.461,0
1579289100.008,33.203,514.160,44.922,50.293,17.090,0
1579289100.012,40.527,525.879,34.180,28.809,9.277,0
