timestamps,TP9,AF7,AF8,TP10,Right AUX,Marker0
1579292272.218,-201.172,39.062,-207.520,-968.750,25.879,0
1579292272.222,-224.609,41.992,-125.488,-968.750,32.227,0
1579292272.226,-218.750,42.969,-122.070,-968.262,26.367,0
1579292272.230,-208.984,42.480,-194.824,-968.262,5.371,0
1579292272.234,-188.477,43.945,-196.777,-968.262,-11.230,0
1579292272.238,-148.438,47.852,-216.797,-968.262,44.434,0
1579292272.242,-106.445,46.875,-265.137,-968.750,74.707,0
1579292272.245,-30.273,42.480,-46.875,-968.262,61.035,0
1579292272.249,1.465,38.086,-194.824,-968.262,53.711,0
1579292272.253,0.000,35.645,-561.035,-968.262,-6.836,0
1579292272.257,30.273,35.156,-316.895,-968.262,7.324,0
1579292272.261,34.180,35.645,-65.430,-968.262,74.219,0
1579292272.279,16.113,34.668,-76.172,-968.750,39.551,0
1579292272.283,12.695,36.621,-206.055,-968.750,44.434,0
1579292272.287,0.977,37.598,-299.316,-968.262,47.852,0
1579292272.291,10.254,40.039,-258.301,-968.750,-21.484,0
1579292272.295,39.551,38.086,-199.707,-968.750,12.207,0
1579292272.299,44.922,36.621,-300.781,-968.750,23.438,0
1579292272.303,24.902,35.156,-557.617,-968.750,2.441,0
1579292272.306,48.340,35.645,-710.938,-968.262,43.457,0
1579292272.310,99.609,43.457,-500.488,-968.262,-23.926,0
1579292272.314,103.516,49.316,-271.973,-968.262,-44.434,0
1579292272.318,91.309,42.969,-234.863,-968.750,11.719,0
1579292272.322,85.938,44.922,-328.125,-968.750,-16.602,0
1579292272.318,99.121,48.828,-350.098,-968.262,0.000,0
1579292272.322,98.633,41.992,-232.422,-968.262,4.395,0
1579292272.326,62.012,32.715,-287.109,-968.262,-53.223,0
1579292272.330,31.250,30.762,-280.273,-968.750,-14.648,0
1579292272.334,20.996,37.598,-166.992,-968.262,106.934,0
1579292272.338,12.695,41.016,-217.773,-968.262,129.883,0
1579292272.342,-10.742,35.645,-323.730,-968.262,56.152,0
1579292272.345,-20.020,32.227,-199.219,-968.262,49.316,0
1579292272.349,-0.488,36.621,-90.332,-968.262,62.500,0
1579292272.353,28.809,39.551,-153.320,-969.727,10.254,0
1579292272.357,57.129,44.434,-277.344,-953.125,-4.395,0
1579292272.361,94.238,45.898,-160.645,-992.676,72.266,0
1579292272.358,148.438,41.016,47.852,-819.824,91.797,0
1579292272.362,205.566,41.504,117.676,-390.625,62.988,0
1579292272.366,235.840,43.945,206.055,-286.621,64.453,0
1579292272.370,233.887,41.992,-81.543,-500.000,59.570,0
1579292272.374,246.094,39.551,-157.227,-344.238,62.500,0
1579292272.378,257.324,40.039,45.898,271.973,75.684,0
1579292272.382,245.117,38.086,35.645,470.215,44.922,0
1579292272.385,214.355,36.133,113.281,188.965,-26.367,0
1579292272.389,166.504,39.062,-124.512,129.883,26.855,0
1579292272.393,146.973,37.598,-324.707,539.551,28.809,0
1579292272.397,139.160,37.109,109.375,937.012,26.855,0
1579292272.401,81.055,41.016,155.273,738.770,44.922,0
1579292272.418,17.578,41.504,-57.617,519.531,10.254,0
1579292272.422,-4.883,42.480,29.297,840.332,53.711,0
1579292272.426,-6.348,45.898,96.191,-975.098,23.926,0
1579292272.430,-13.672,44.434,169.434,993.164,22.949,0
1579292272.434,-22.949,45.410,106.445,747.070,61.035,0
1579292272.438,-6.348,42.480,-40.039,776.367,54.688,0
1579292272.442,25.391,33.691,-224.121,-976.562,28.320,0
1579292272.445,42.969,36.133,-373.047,-999.512,12.207,0
1579292272.449,47.852,33.691,-182.129,807.617,24.902,0
1579292272.453,58.105,17.090,-38.086,808.594,50.781,0
1579292272.457,78.613,27.344,-16.113,-989.746,0.977,0
1579292272.461,51.758,52.246,-35.156,-1000.000,25.879,0
1579292272.459,2.930,50.293,-95.703,994.141,47.363,0
1579292272.463,-32.715,42.969,-44.434,-999.512,-1.953,0
1579292272.467,-44.922,45.410,-33.691,999.512,49.316,0
1579292272.471,-52.734,43.945,-52.734,999.512,43.945,0
1579292272.475,-58.594,48.340,-9.766,999.512,63.965,0
1579292272.479,-57.617,46.875,-166.016,999.512,63.965,0
1579292272.483,-20.020,38.574,-246.582,999.512,5.859,0
1579292272.486,31.250,49.316,-59.082,999.512,57.617,0
1579292272.490,54.688,52.734,25.879,999.512,47.363,0
1579292272.494,75.684,44.434,-58.594,-999.023,31.250,0
1579292272.498,103.027,43.945,-369.629,986.328,102.539,0
1579292272.502,162.598,46.875,-324.707,-994.141,106.934,0
1579292272.499,214.355,43.457,-11.230,924.316,96.191,0
1579292272.503,226.074,42.480,-110.840,404.297,56.641,0
1579292272.507,208.008,39.062,-297.363,53.711,5.371,0
1579292272.511,184.570,34.180,-335.938,332.031,27.344,0
1579292272.515,161.133,37.109,-187.988,481.445,48.828,0
1579292272.519,103.027,39.551,-248.047,68.359,103.516,0
1579292272.523,37.598,40.039,-536.621,-347.168,55.176,0
1579292272.526,32.715,37.109,-548.340,-215.332,2.441,0
1579292272.530,42.480,32.715,-632.324,-145.996,48.828,0
1579292272.534,34.668,38.086,-672.852,-619.629,69.824,0
1579292272.538,38.574,42.969,-470.703,-984.375,34.180,0
1579292272.542,62.012,39.062,-369.629,-942.871,-0.977,0
1579292272.558,88.379,34.668,-179.688,-672.363,28.809,0
1579292272.562,87.402,35.645,-204.590,-585.449,4.395,0
1579292272.566,66.406,39.062,-288.574,-856.445,-21.973,0
1579292272.570,63.965,39.551,-173.340,-786.621,46.875,0
1579292272.574,82.031,37.109,-90.820,-362.793,42.969,0
1579292272.578,75.684,40.527,-101.562,-454.102,56.641,0
1579292272.582,74.707,42.969,-430.176,-894.531,86.426,0
1579292272.585,94.238,42.480,-608.398,-983.398,47.363,0
1579292272.589,122.070,35.645,-336.426,-953.613,55.664,0
1579292272.593,147.461,33.203,-184.082,-970.703,71.289,0
1579292272.597,113.281,40.527,-110.840,-968.262,48.828,0
1579292272.601,23.926,40.527,-296.387,-968.262,5.371,0
1579292272.598,-21.484,45.410,-307.617,-968.750,43.457,0
1579292272.602,-68.848,47.852,-143.066,-968.262,41.504,0
1579292272.606,-165.039,38.086,-224.121,-968.262,-34.668,0
1579292272.610,-250.977,33.691,-183.105,-968.262,36.133,0
1579292272.614,-289.551,37.109,-231.934,-968.262,76.172,0
1579292272.618,-321.777,38.086,-445.801,-968.750,-11.230,0
1579292272.622,-337.402,34.180,-467.773,-967.773,-19.043,0
1579292272.625,-356.445,35.645,-397.949,-956.543,38.574,0
1579292272.629,-367.188,41.016,-216.309,-999.512,73.242,0
1579292272.633,-331.055,36.133,-246.582,-810.059,23.438,0
1579292272.637,-309.082,28.320,-551.758,-623.535,6.836,0
1579292272.641,-253.906,32.715,-501.465,-830.078,62.500,0
1579292272.638,-172.852,32.227,-270.020,-719.727,87.402,0
1579292272.642,-111.328,36.133,-81.055,-148.438,72.266,0
1579292272.646,-60.547,47.363,-60.059,302.734,11.719,0
1579292272.650,-10.742,39.551,-129.883,125.000,30.762,0
1579292272.654,28.320,39.062,-145.020,-203.125,27.344,0
1579292272.658,58.105,42.969,-288.086,88.867,0.977,0
1579292272.662,87.402,34.180,-245.117,387.207,20.020,0
1579292272.665,92.773,35.156,-89.844,122.070,14.160,0
1579292272.669,68.359,39.551,-459.473,-472.656,69.336,0
1579292272.673,73.242,41.016,-619.141,-592.285,35.156,0
1579292272.677,84.473,41.992,-188.477,-150.879,30.762,0
1579292272.681,54.199,43.457,-35.156,-158.691,76.172,0
1579292272.699,-12.207,41.504,-148.926,-583.984,37.109,0
1579292272.703,-67.871,43.457,-305.664,-637.207,24.902,0
1579292272.707,-80.566,48.828,-247.070,-59.570,59.570,0
1579292272.711,-95.703,43.457,-83.496,391.113,29.785,0
1579292272.715,-117.676,41.992,-2.930,236.328,44.434,0
1579292272.719,-126.465,38.574,-153.320,186.523,77.148,0
1579292272.723,-110.840,33.203,-333.008,660.645,64.453,0
1579292272.726,-73.242,37.109,-187.988,983.398,4.883,0
1579292272.730,-46.387,41.016,28.320,990.723,-2.930,0
1579292272.734,-33.691,41.992,36.621,994.629,43.945,0
1579292272.738,1.465,41.504,80.078,-1000.000,30.762,0
1579292272.742,38.574,40.527,-115.723,999.512,38.574,0
1579292272.738,69.824,43.945,-285.156,999.512,2.930,0
1579292272.742,75.684,39.551,-67.871,999.512,10.254,0
1579292272.746,83.496,36.621,-11.719,999.512,35.156,0
1579292272.750,102.051,45.898,2.441,999.512,26.367,0
1579292272.754,86.426,48.828,-110.352,999.512,40.039,0
1579292272.758,49.316,41.016,-263.672,999.512,24.414,0
1579292272.762,20.020,40.527,-299.316,-999.023,6.836,0
1579292272.765,19.531,37.598,-337.402,992.188,-35.156,0
1579292272.769,26.367,39.551,-114.746,-986.816,9.766,0
1579292272.773,8.301,45.898,-84.961,967.285,111.816,0
1579292272.777,-45.898,38.086,-501.465,865.723,41.992,0
1579292272.781,-50.781,34.180,-312.988,951.660,13.672,0
1579292272.779,-26.855,38.086,6.348,-979.004,70.312,0
1579292272.783,-49.805,41.016,9.277,949.219,59.082,0
1579292272.787,-87.402,40.039,-163.574,590.820,65.918,0
1579292272.791,-61.523,38.086,-318.359,582.031,17.578,0
1579292272.795,-13.672,37.109,-137.695,982.910,9.766,0
1579292272.799,-10.742,41.016,-101.562,957.031,114.746,0
1579292272.803,-6.836,41.016,-288.086,557.129,80.566,0
1579292272.806,11.719,39.551,-398.438,487.793,4.883,0
1579292272.810,28.809,41.504,-386.719,886.230,35.645,0
1579292272.814,31.250,35.156,-122.070,-965.332,79.590,0
1579292272.818,17.578,37.109,-14.160,912.598,73.730,0
1579292272.822,15.625,41.504,-87.891,908.203,5.859,0
1579292272.838,27.832,41.992,-10.254,-992.676,51.758,0
1579292272.842,58.594,47.852,-67.383,999.512,127.930,0
1579292272.846,62.500,39.551,-42.969,997.070,113.770,0
1579292272.850,38.086,24.414,14.648,-1000.000,85.449,0
1579292272.854,78.125,21.484,-64.941,999.512,35.156,0
1579292272.858,139.160,26.367,-157.715,990.234,15.137,0
1579292272.862,136.719,31.250,-447.754,-975.098,72.266,0
1579292272.865,137.207,35.645,-532.227,871.094,69.824,0
1579292272.869,193.848,43.457,-178.711,742.188,57.129,0
1579292272.873,231.445,45.410,60.059,860.352,118.164,0
1579292272.877,220.215,39.062,-38.086,484.375,43.945,0
1579292272.881,191.406,34.668,-350.098,-157.227,-15.137,0
1579292272.878,163.574,36.133,-438.965,-265.625,-26.855,0
1579292272.882,117.188,37.109,-276.855,122.559,-8.789,0
1579292272.886,41.992,36.133,-191.406,275.879,11.230,0
1579292272.890,-52.734,35.156,-240.234,-130.859,11.719,0
1579292272.894,-121.094,32.227,-409.668,-325.195,2.441,0
1579292272.898,-133.789,32.227,-433.105,121.094,27.344,0
1579292272.902,-132.812,35.645,-331.055,437.988,38.086,0
1579292272.905,-139.648,39.062,-285.156,237.305,43.457,0
1579292272.909,-133.301,39.062,-191.406,-69.336,37.598,0
1579292272.913,-104.980,40.039,-338.867,251.465,39.551,0
1579292272.917,-75.684,40.527,-458.496,755.859,47.852,0
1579292272.921,-43.945,39.551,-138.672,655.762,50.293,0
1579292272.918,-38.574,36.133,-34.180,255.371,50.293,0
1579292272.922,-18.555,34.180,-177.734,244.141,20.996,0
1579292272.926,34.180,31.738,-230.469,633.301,61.523,0
1579292272.930,72.754,31.738,-57.129,600.098,105.469,0
1579292272.934,91.797,38.086,8.789,23.926,98.145,0
1579292272.938,112.793,41.504,-251.465,-266.113,87.891,0
1579292272.942,156.250,42.969,-205.078,-125.488,127.930,0
1579292272.945,171.875,40.527,-163.574,-193.848,88.379,0
1579292272.949,149.414,36.133,-539.551,-679.688,47.852,0
1579292272.953,144.531,36.133,-510.742,-1000.000,28.809,0
1579292272.957,150.391,37.598,-319.824,-901.855,12.695,0
1579292272.961,150.391,39.062,-203.613,-889.160,25.879,0
1579292272.978,116.211,33.691,-255.371,-975.586,19.531,0
1579292272.982,78.125,31.738,-337.891,-969.238,51.758,0
1579292272.986,80.078,44.434,-287.109,-966.309,-7.324,0
1579292272.990,92.285,43.945,-223.633,-968.750,-16.113,0
1579292272.994,76.660,40.039,-205.566,-968.262,56.641,0
1579292272.998,48.340,46.875,-401.367,-968.750,51.758,0
1579292273.002,42.480,50.293,-524.414,-968.750,41.504,0
1579292273.005,62.012,40.039,-404.297,-968.262,3.418,0
1579292273.009,76.660,33.691,-254.395,-968.750,-18.066,0
1579292273.013,69.336,32.715,-244.629,-964.844,-16.602,0
1579292273.017,71.289,38.086,-234.863,-977.051,-8.789,0
1579292273.021,82.520,44.434,-447.266,-939.941,38.086,0
1579292273.019,87.402,38.574,-424.805,-913.086,51.758,0
1579292273.023,79.590,33.691,-198.730,-968.262,21.973,0
1579292273.027,60.547,32.715,-228.027,-970.703,19.043,0
1579292273.031,75.684,35.156,-208.008,-966.309,18.066,0
1579292273.035,93.262,35.645,-294.922,-968.750,-26.367,0
1579292273.039,78.125,36.621,-425.293,-968.262,-23.438,0
1579292273.043,65.918,45.410,-433.594,-968.750,34.180,0
1579292273.046,91.797,49.805,-401.367,-968.750,25.879,0
1579292273.050,118.652,43.945,-267.090,-968.750,41.504,0
1579292273.054,115.234,38.086,-333.984,-968.262,56.641,0
1579292273.058,98.633,41.992,-395.020,-968.262,43.945,0
1579292273.062,90.820,41.992,-186.035,-968.262,63.477,0
1579292273.059,107.910,40.039,-127.930,-968.262,68.359,0
1579292273.063,115.234,40.527,-91.797,-968.262,35.645,0
1579292273.067,87.891,39.062,-363.770,-968.750,-0.977,0
1579292273.071,86.426,40.039,-478.516,-968.262,12.207,0
1579292273.075,119.629,41.992,-186.523,-968.262,34.668,0
1579292273.079,118.652,41.504,-218.262,-968.750,68.848,0
1579292273.083,104.004,40.527,-287.598,-967.773,58.594,0
1579292273.086,90.820,37.109,-420.898,-968.750,-7.324,0
1579292273.090,94.238,33.691,-649.414,-968.750,-1.953,0
1579292273.094,118.652,34.180,-306.641,-954.102,54.199,0
1579292273.098,115.723,32.227,-131.836,-941.406,44.434,0
1579292273.102,88.379,32.227,-196.777,-995.605,0.488,0
1579292273.119,73.242,40.527,-167.480,-821.289,13.184,0
1579292273.123,84.961,40.527,-37.598,-287.109,82.031,0
1579292273.127,90.332,38.574,149.414,-166.504,90.332,0
1579292273.131,70.312,39.551,50.781,-531.250,58.105,0
1579292273.135,67.383,31.738,30.762,-494.141,76.660,0
1579292273.139,84.961,30.273,-65.918,-64.941,67.871,0
1579292273.143,83.984,35.156,-366.211,36.133,31.738,0
1579292273.146,84.961,35.645,-236.816,-410.645,52.246,0
1579292273.150,84.473,36.133,-62.500,-680.664,62.988,0
1579292273.154,93.262,35.645,23.438,-233.887,76.172,0
1579292273.158,89.844,29.297,56.641,71.777,55.664,0
1579292273.162,63.965,30.762,-44.434,-141.602,58.105,0
1579292273.158,42.969,38.086,-22.461,-447.754,84.473,0
1579292273.162,27.344,40.039,-128.906,-211.426,27.832,0
1579292273.166,19.043,39.062,-18.066,363.770,24.902,0
1579292273.170,-0.977,42.969,125.977,370.117,62.012,0
1579292273.174,-43.457,43.945,-30.273,72.266,66.895,0
1579292273.178,-50.293,36.621,-145.508,193.359,44.922,0
1579292273.182,-34.180,42.480,-74.707,682.617,67.871,0
1579292273.185,-37.598,44.434,47.363,833.984,38.574,0
1579292273.189,-31.738,36.621,175.781,511.719,67.383,0
1579292273.193,-33.691,38.574,-203.125,479.980,62.012,0
1579292273.197,-7.812,42.480,-310.059,861.816,45.410,0
1579292273.201,30.762,40.527,80.566,-963.379,11.719,0
1579292273.199,27.832,38.574,129.395,892.090,20.508,0
1579292273.203,29.785,41.992,117.676,799.316,81.543,0
1579292273.207,54.688,43.945,-37.598,963.379,-13.672,0
1579292273.211,78.613,43.945,13.184,-988.281,12.695,0
1579292273.215,69.336,38.574,-13.184,970.215,25.391,0
1579292273.219,39.062,38.086,-302.734,894.531,-44.922,0
1579292273.223,45.410,47.363,-199.219,931.152,-21.484,0
1579292273.226,49.805,44.434,-195.312,-973.145,15.625,0
1579292273.230,49.316,42.480,-350.586,930.664,53.711,0
1579292273.234,57.617,46.875,-116.699,495.117,84.961,0
1579292273.238,55.176,39.062,-83.496,319.824,46.875,0
1579292273.242,97.656,32.227,-41.992,507.812,36.133,0
1579292273.258,114.746,33.691,-87.891,367.188,49.805,0
1579292273.262,96.191,40.039,-204.102,-260.254,74.707,0
1579292273.266,90.332,41.992,-239.746,-638.184,64.453,0
1579292273.270,87.402,37.109,-243.652,-330.566,29.785,0
1579292273.274,100.098,45.410,-116.211,-151.367,44.922,0
1579292273.278,61.035,47.363,-336.914,-475.098,74.707,0
1579292273.282,8.789,38.086,-786.133,-843.262,13.184,0
1579292273.285,19.043,36.621,-645.020,-570.312,-38.574,0
1579292273.289,33.203,41.992,-204.102,-39.062,48.828,0
1579292273.293,25.879,43.945,-29.785,-180.664,83.008,0
1579292273.297,19.531,42.969,-194.336,-543.945,73.730,0
1579292273.301,51.270,45.898,-313.477,-397.461,42.480,0
1579292273.298,92.773,44.922,-110.840,63.965,42.969,0
1579292273.302,103.027,45.410,-24.902,180.176,49.316,0
1579292273.306,92.773,40.039,-133.301,-167.480,-4.395,0
1579292273.310,84.473,33.691,-230.957,-102.539,23.926,0
1579292273.314,92.285,36.621,-233.887,317.383,25.391,0
1579292273.318,92.773,45.898,-193.359,440.918,20.996,0
1579292273.322,76.172,45.410,-297.363,146.484,58.594,0
1579292273.325,76.172,42.969,-314.453,-57.129,18.066,0
1579292273.329,97.168,45.898,-126.953,327.637,28.809,0
1579292273.333,75.195,39.551,-357.910,482.910,75.195,0
1579292273.337,50.781,34.668,-498.535,130.859,54.688,0
1579292273.341,40.527,38.574,-190.918,-130.371,84.961,0
1579292273.338,45.898,41.016,-114.258,68.848,68.848,0
1579292273.342,64.941,40.039,-83.008,346.680,21.973,0
1579292273.346,63.965,43.945,-164.551,22.461,38.574,0
1579292273.350,59.082,48.828,-223.633,-424.805,55.664,0
1579292273.354,70.312,49.805,-171.875,-270.020,55.664,0
1579292273.358,97.656,48.828,-241.211,110.352,21.484,0
1579292273.362,107.910,42.480,-255.371,98.633,24.902,0
1579292273.365,89.844,42.480,-537.109,-405.273,26.367,0
1579292273.369,109.863,48.340,-593.262,-525.391,77.637,0
1579292273.373,162.109,44.434,-181.641,-135.254,65.918,0
1579292273.377,177.246,41.504,-110.352,-163.574,48.828,0
1579292273.381,174.805,44.922,-132.812,-682.617,72.266,0
1579292273.399,159.180,47.852,-316.406,-1000.000,38.086,0
1579292273.403,146.973,44.922,-419.434,-760.254,34.180,0
1579292273.407,121.094,38.574,-205.566,-343.262,39.551,0
1579292273.411,71.289,43.457,-62.500,-332.520,43.457,0
1579292273.415,18.066,45.410,-84.961,-325.195,9.766,0
1579292273.419,-20.508,38.574,-310.547,308.594,-17.578,0
1579292273.423,-38.574,35.156,-294.922,929.688,-22.461,0
1579292273.426,-46.387,36.621,39.551,-998.047,-31.738,0
1579292273.430,-55.176,38.086,106.934,983.887,12.695,0
1579292273.434,-39.062,38.086,140.625,-998.047,-1.465,0
1579292273.438,-7.324,42.969,20.996,999.512,3.906,0
1579292273.442,26.367,43.457,-140.625,999.512,11.230,0
1579292273.439,38.574,40.039,40.039,999.512,0.000,0
1579292273.443,35.156,39.551,143.066,999.512,37.109,0
1579292273.447,75.684,40.527,184.082,999.512,26.855,0
1579292273.451,70.801,40.039,140.625,999.512,50.781,0
1579292273.455,40.527,38.086,43.457,999.512,65.918,0
1579292273.459,30.762,42.969,-9.277,999.512,31.250,0
1579292273.463,17.090,41.992,-119.629,998.535,-0.977,0
1579292273.466,2.930,37.109,12.695,996.094,37.598,0
1579292273.470,-20.508,37.598,79.590,-987.305,37.598,0
1579292273.474,-68.848,41.992,-292.480,915.039,23.438,0
1579292273.478,-77.637,42.969,-200.195,895.996,53.711,0
1579292273.482,-65.918,41.504,94.727,-975.586,4.395,0
1579292273.478,-109.863,42.480,121.094,948.730,0.977,0
1579292273.482,-188.965,44.434,23.438,593.262,35.156,0
1579292273.486,-252.930,47.363,-97.168,716.309,37.109,0
1579292273.490,-295.410,43.945,87.402,-966.797,63.965,0
1579292273.494,-331.543,41.016,160.156,991.211,60.059,0
1579292273.498,-368.652,39.551,-28.320,994.629,56.152,0
1579292273.502,-388.184,42.969,-167.480,-999.512,24.902,0
1579292273.505,-373.047,41.016,-365.723,999.512,4.395,0
1579292273.509,-326.172,34.180,-271.484,999.512,40.039,0
1579292273.513,-266.602,38.574,122.070,999.512,89.355,0
1579292273.517,-225.586,40.039,131.836,-999.023,70.801,0
1579292273.521,-157.227,42.969,122.070,990.234,52.734,0
1579292273.538,-63.477,47.363,74.219,-995.117,49.316,0
1579292273.542,0.000,41.016,41.504,979.492,20.996,0
1579292273.546,28.809,39.551,47.852,658.203,49.805,0
1579292273.550,64.941,39.551,18.555,582.031,65.918,0
1579292273.554,112.793,37.109,64.941,765.137,51.758,0
1579292273.558,144.043,38.086,-111.816,502.930,40.039,0
1579292273.562,148.438,37.109,-325.195,-104.980,57.617,0
1579292273.565,158.203,37.109,-233.398,-343.750,86.426,0
1579292273.569,185.547,42.969,-154.297,-162.109,27.832,0
1579292273.573,176.270,41.016,-150.879,-287.598,8.789,0
1579292273.577,131.348,40.039,-406.738,-726.562,68.848,0
1579292273.581,104.492,40.527,-666.016,-955.566,16.602,0
1579292273.579,115.723,32.715,-325.684,-544.922,17.578,0
1579292273.583,102.051,30.273,-32.715,-164.062,92.773,0
1579292273.587,54.199,31.738,-55.176,-397.461,49.805,0
1579292273.591,16.602,32.227,-221.680,-502.930,43.945,0
1579292273.595,12.207,35.645,-259.277,-33.691,46.387,0
1579292273.599,7.324,31.250,-118.164,508.789,33.691,0
1579292273.603,-9.766,26.367,-127.441,525.879,62.012,0
1579292273.606,-18.555,34.668,-93.750,242.676,74.707,0
1579292273.610,-15.625,37.598,-98.633,528.320,55.176,0
1579292273.614,3.418,32.715,-277.344,972.656,40.039,0
1579292273.618,35.156,31.250,-77.637,-985.352,12.695,0
1579292273.622,45.410,35.156,78.613,689.453,-5.859,0
1579292273.638,59.570,40.039,-43.457,538.086,6.348,0
1579292273.642,80.566,35.156,-5.371,915.527,63.965,0
1579292273.646,97.656,32.227,79.102,-985.840,73.242,0
1579292273.650,98.633,37.598,138.672,695.801,82.031,0
1579292273.654,89.355,39.551,23.438,441.406,43.945,0
1579292273.658,91.797,36.621,-140.137,710.938,-19.043,0
1579292273.662,92.285,37.109,-125.000,-955.078,50.293,0
1579292273.665,82.031,35.645,-156.738,870.605,84.473,0
1579292273.669,60.059,39.551,-142.090,557.129,17.090,0
1579292273.673,60.059,47.852,6.348,752.930,47.852,0
1579292273.677,78.125,49.316,77.637,-986.816,27.344,0
1579292273.681,75.195,43.945,80.566,959.473,13.672,0
1579292273.678,60.059,37.109,-144.043,624.023,112.793,0
1579292273.682,83.984,41.016,-179.688,579.590,105.469,0
1579292273.686,116.211,41.504,-10.742,839.844,22.461,0
1579292273.690,116.211,39.551,-100.098,703.613,-0.488,0
1579292273.694,99.609,39.062,-140.137,252.441,46.875,0
1579292273.698,71.777,38.574,-322.266,-33.203,31.738,0
1579292273.702,67.871,36.621,-423.340,217.285,14.160,0
1579292273.705,61.035,32.227,-269.531,248.535,-9.766,0
1579292273.709,19.043,36.133,-213.867,-128.418,2.441,0
1579292273.713,-19.043,39.551,-158.203,-167.969,20.020,0
1579292273.717,-44.922,36.133,-343.750,373.535,10.254,0
1579292273.721,-43.945,33.691,-382.812,940.430,29.785,0
1579292273.718,-31.250,35.156,16.113,919.434,56.641,0
1579292273.722,-25.391,38.574,120.605,791.504,118.652,0
1579292273.726,14.648,41.504,107.422,973.633,86.914,0
1579292273.730,66.406,43.457,36.133,999.512,27.832,0
1579292273.734,102.051,41.504,43.457,-973.145,62.500,0
1579292273.738,120.117,41.504,-37.598,814.941,58.105,0
1579292273.742,137.207,36.621,-258.301,628.418,20.996,0
1579292273.745,187.500,34.180,-103.516,935.059,45.410,0
1579292273.749,213.379,37.598,-90.820,852.051,95.703,0
1579292273.753,189.941,34.180,-443.359,307.617,89.844,0
1579292273.757,173.828,30.273,-319.336,28.320,78.125,0
1579292273.761,149.414,34.180,-144.531,326.660,34.180,0
1579292273.778,95.215,41.992,4.883,684.570,53.711,0
1579292273.782,1.465,41.504,-83.984,490.723,29.297,0
1579292273.786,-81.055,35.156,-206.543,369.141,20.996,0
1579292273.790,-112.305,35.156,-2.930,789.062,65.430,0
1579292273.794,-133.789,35.645,85.449,-976.074,43.457,0
1579292273.798,-155.762,34.668,-31.250,985.352,28.320,0
1579292273.802,-180.176,34.668,-261.719,996.582,14.648,0
1579292273.805,-159.668,34.668,-284.668,-1000.000,28.320,0
1579292273.809,-114.746,37.598,24.414,999.512,66.895,0
1579292273.813,-104.004,39.062,5.371,999.023,32.715,0
1579292273.817,-85.449,36.133,-83.008,999.512,3.418,0
1579292273.821,-36.621,37.598,-34.668,999.512,6.836,0
1579292273.818,25.879,36.133,-166.016,999.512,22.949,0
1579292273.822,77.148,35.645,-46.875,999.512,35.156,0
1579292273.826,101.562,36.621,67.383,999.512,19.043,0
1579292273.830,122.559,37.109,20.996,-1000.000,-8.789,0
1579292273.834,164.062,43.457,56.641,982.910,15.625,0
1579292273.838,189.941,41.992,10.254,-966.797,67.383,0
1579292273.842,186.035,30.762,-144.531,843.262,57.129,0
1579292273.845,183.594,20.996,-213.379,508.789,17.090,0
1579292273.849,201.660,33.691,-70.801,689.941,13.184,0
1579292273.853,201.660,47.852,157.715,943.848,70.312,0
1579292273.857,163.086,48.340,-134.277,655.762,75.684,0
1579292273.861,113.770,52.246,-426.270,78.613,64.941,0
1579292273.859,83.008,51.270,-178.223,124.023,86.426,0
1579292273.863,67.383,44.922,50.781,570.312,75.195,0
1579292273.867,42.969,41.016,158.691,505.371,76.172,0
1579292273.871,5.371,40.527,-96.680,24.902,9.766,0
1579292273.875,-4.883,39.062,-249.023,-131.348,-28.809,0
1579292273.879,14.648,41.016,-228.027,305.664,4.883,0
1579292273.883,14.160,44.922,-180.664,512.695,53.223,0
1579292273.886,-1.465,42.480,-64.453,69.824,38.574,0
1579292273.890,-19.043,40.039,-326.660,-257.324,7.324,0
1579292273.894,4.395,35.645,-380.859,-53.223,28.809,0
1579292273.898,41.504,32.715,-74.707,149.902,23.926,0
1579292273.902,41.016,38.086,-93.262,-161.621,1.465,0
1579292273.918,47.363,45.410,-161.133,-625.000,0.000,0
1579292273.922,60.059,42.969,-338.867,-516.113,29.785,0
1579292273.926,80.566,36.621,-398.926,-321.289,34.180,0
1579292273.930,95.703,37.109,-292.969,-635.254,28.320,0
1579292273.934,88.867,44.922,-326.660,-960.449,41.016,0
1579292273.938,97.656,46.387,-346.191,-974.121,40.039,0
1579292273.942,112.793,45.898,-478.516,-917.969,25.391,0
1579292273.945,108.398,43.945,-666.992,-933.594,53.711,0
1579292273.949,111.816,39.062,-441.406,-975.586,81.055,0
1579292273.953,120.605,40.527,-186.523,-966.797,57.617,0
1579292273.957,130.859,41.504,-130.371,-968.262,36.621,0
1579292273.961,127.930,40.039,-185.059,-968.750,28.809,0
1579292273.959,112.305,43.457,-301.758,-968.262,2.441,0
1579292273.963,102.051,42.480,-213.867,-968.750,12.695,0
1579292273.967,108.887,41.016,-145.020,-968.750,40.039,0
1579292273.971,119.629,42.480,-96.680,-968.262,35.645,0
1579292273.975,98.145,39.062,-175.781,-968.750,22.949,0
1579292273.979,77.637,41.992,-361.328,-966.309,47.363,0
1579292273.983,94.727,39.551,-392.578,-975.586,34.668,0
1579292273.986,118.164,37.598,-337.402,-940.430,15.625,0
1579292273.990,120.117,36.133,-140.625,-921.387,67.383,0
1579292273.994,93.750,28.809,-110.840,-976.074,52.734,0
1579292273.998,91.309,30.273,-329.590,-948.242,30.762,0
1579292274.002,125.000,36.621,-171.387,-628.418,43.457,0
1579292273.999,125.488,40.039,-5.371,-453.125,-8.301,0
1579292274.003,109.375,42.969,-65.430,-741.699,-23.438,0
1579292274.007,99.609,41.992,-22.949,-758.789,62.500,0
1579292274.011,108.398,45.898,-148.926,-322.754,76.660,0
1579292274.015,122.070,46.875,-118.164,-4.395,51.270,0
1579292274.019,94.727,38.574,26.855,-165.527,103.516,0
1579292274.023,67.383,39.062,-134.766,-381.348,97.656,0
1579292274.026,72.266,33.691,-50.781,-12.695,34.180,0
1579292274.030,62.012,28.809,-106.934,401.855,48.828,0
1579292274.034,40.527,35.156,-229.980,326.660,94.727,0
1579292274.038,28.320,36.621,0.488,90.332,26.367,0
1579292274.042,28.320,38.086,134.277,370.605,22.949,0
1579292274.059,36.621,38.086,302.246,913.574,75.195,0
1579292274.063,27.832,37.598,243.164,930.664,39.551,0
1579292274.067,3.418,38.086,62.012,649.902,-34.180,0
1579292274.071,-6.836,40.039,164.551,791.504,30.762,0
1579292274.075,3.418,40.039,289.551,-976.074,95.215,0
1579292274.079,-6.348,35.645,173.828,994.141,43.945,0
1579292274.083,-31.250,38.574,-126.465,987.793,47.852,0
1579292274.086,-32.715,40.527,-271.973,994.629,49.316,0
1579292274.090,3.906,41.016,13.184,-999.512,0.488,0
1579292274.094,21.484,41.016,179.688,999.023,-5.371,0
1579292274.098,17.090,37.109,226.074,999.023,55.176,0
1579292274.102,9.766,36.133,62.988,997.070,36.621,0
1579292274.098,31.250,38.574,-24.902,999.023,40.039,0
1579292274.102,62.500,37.598,147.949,999.512,51.270,0
1579292274.106,60.547,35.645,127.930,999.512,2.441,0
1579292274.110,51.270,39.062,105.469,999.023,20.996,0
1579292274.114,59.570,42.480,35.645,997.559,55.176,0
1579292274.118,82.031,42.969,-73.730,999.023,63.965,0
1579292274.122,93.262,38.086,-87.402,-1000.000,37.109,0
1579292274.125,80.566,36.621,-38.574,998.535,34.180,0
1579292274.129,72.266,35.645,86.914,996.582,57.617,0
1579292274.133,74.707,34.180,-4.883,986.328,53.711,0
1579292274.137,63.477,41.016,-230.957,-971.680,-9.766,0
1579292274.141,46.875,43.945,-96.191,888.672,-0.977,0
1579292274.138,25.391,41.992,41.992,709.473,104.004,0
1579292274.142,33.203,40.039,79.102,896.484,96.191,0
1579292274.146,41.016,35.156,-27.344,-961.914,18.066,0
1579292274.150,26.367,31.250,-262.207,880.371,43.457,0
1579292274.154,18.555,34.180,-240.234,559.570,26.367,0
1579292274.158,26.367,38.574,-260.254,744.629,-35.645,0
1579292274.162,47.363,38.574,-188.965,-973.633,62.012,0
1579292274.165,43.945,35.645,16.602,917.480,90.820,0
1579292274.169,17.090,35.645,-372.559,588.379,17.578,0
1579292274.173,40.039,35.156,-541.016,538.086,-22.461,0
1579292274.177,87.891,36.133,-38.574,935.547,42.969,0
1579292274.181,104.004,44.922,171.387,903.320,138.672,0
1579292274.198,94.238,51.758,44.434,360.352,100.098,0
1579292274.202,86.914,48.828,-162.109,247.559,59.570,0
1579292274.206,112.305,42.480,-106.934,608.398,55.176,0
1579292274.210,110.840,38.086,29.785,754.883,67.871,0
1579292274.214,70.312,34.668,-16.602,309.082,83.984,0
1579292274.218,40.527,37.109,-251.953,-97.656,35.156,0
1579292274.222,29.297,40.039,-561.035,234.375,30.762,0
1579292274.225,29.785,39.062,-544.922,517.090,18.555,0
1579292274.229,24.902,40.527,-146.973,318.848,44.434,0
1579292274.233,-9.277,41.992,-42.969,-91.797,110.352,0
1579292274.237,-18.555,42.480,-159.668,-34.668,54.199,0
1579292274.241,1.953,41.016,-115.234,482.422,45.898,0
1579292274.238,12.695,40.527,4.395,474.609,66.895,0
1579292274.242,11.230,43.457,16.602,117.676,36.621,0
1579292274.246,16.602,35.645,36.621,138.672,64.941,0
1579292274.250,61.523,29.785,191.406,642.090,70.312,0
1579292274.254,81.543,26.855,230.469,932.129,32.227,0
1579292274.258,63.965,28.809,140.137,607.422,51.270,0
1579292274.262,90.820,32.715,131.836,424.805,96.191,0
1579292274.265,125.000,31.738,250.488,694.336,116.211,0
1579292274.269,110.352,30.273,424.805,900.879,85.449,0
1579292274.273,58.594,34.668,370.117,743.164,61.523,0
1579292274.277,-23.926,35.156,121.582,614.258,55.664,0
1579292274.281,-85.938,25.391,309.082,890.137,-20.508,0
1579292274.278,-145.996,16.113,633.789,-979.004,-14.648,0
1579292274.282,-216.797,21.973,644.531,987.793,-10.254,0
1579292274.286,-280.762,33.691,428.711,-1000.000,-55.176,0
1579292274.290,-302.734,35.156,341.309,998.047,-7.324,0
1579292274.294,-265.137,41.504,519.043,-999.023,51.270,0
1579292274.298,-257.812,47.363,443.359,995.117,64.453,0
1579292274.302,-252.441,50.293,315.430,958.984,51.270,0
1579292274.305,-223.633,57.617,336.426,974.609,33.691,0
1579292274.309,-215.332,55.176,49.316,998.535,29.785,0
1579292274.313,-200.684,43.457,21.973,-990.723,7.324,0
1579292274.317,-190.430,48.828,281.738,971.680,63.965,0
1579292274.321,-198.730,62.500,136.230,913.086,83.984,0
1579292274.338,-190.918,62.012,20.508,982.910,26.367,0
1579292274.342,-184.570,60.059,-39.551,975.586,1.465,0
1579292274.346,-191.406,53.711,-114.258,446.289,7.812,0
1579292274.350,-202.148,50.293,-256.836,-444.336,29.785,0
1579292274.354,-174.805,54.688,-425.781,-680.176,-32.715,0
1579292274.358,-143.066,57.129,-529.297,-584.473,-26.855,0
1579292274.362,-143.066,56.641,-678.223,-845.215,36.621,0
1579292274.365,-157.715,53.711,-631.348,-982.422,9.766,0
1579292274.369,-159.180,62.012,-464.355,-970.703,4.883,0
1579292274.373,-166.504,64.453,-355.957,-709.961,31.250,0
1579292274.377,-225.098,47.363,-263.184,-507.812,3.418,0
1579292274.381,-310.547,41.992,-549.805,-739.746,7.324,0
1579292274.378,-352.051,44.922,-625.977,-681.641,32.715,0
1579292274.382,-340.332,40.039,-324.707,-167.969,47.363,0
1579292274.386,-331.055,40.039,-202.148,193.359,109.863,0
1579292274.390,-311.035,42.969,-122.559,-16.602,95.703,0
1579292274.394,-276.367,39.062,-286.621,-277.344,42.969,0
1579292274.398,-218.750,34.668,-327.637,37.109,93.750,0
1579292274.402,-150.879,34.180,-276.367,229.004,78.125,0
1579292274.405,-88.867,35.645,-331.543,-106.934,13.672,0
1579292274.409,-40.527,33.203,-213.867,-473.145,37.598,0
1579292274.413,8.789,34.668,-356.934,-417.480,56.152,0
1579292274.417,69.336,38.574,-546.387,-145.508,66.406,0
1579292274.421,116.699,38.086,-262.207,-425.781,79.590,0
1579292274.419,132.324,43.457,-244.141,-916.504,15.137,0
1579292274.423,152.344,38.086,-312.500,-959.473,-21.484,0
1579292274.427,165.527,30.762,-296.875,-788.086,17.578,0
1579292274.431,165.527,26.367,-309.570,-850.098,18.555,0
1579292274.435,156.738,28.809,-334.961,-984.375,22.949,0
1579292274.439,139.160,36.621,-477.539,-964.355,32.715,0
1579292274.443,150.391,37.598,-410.645,-966.797,10.742,0
1579292274.446,148.438,42.969,-296.387,-970.215,25.879,0
1579292274.450,98.145,40.039,-557.129,-953.125,41.992,0
1579292274.454,64.453,28.320,-469.727,-995.117,34.180,0
1579292274.458,63.477,20.996,-162.598,-836.914,41.504,0
1579292274.462,61.035,30.273,-0.977,-457.031,67.871,0
1579292274.479,30.762,42.480,-59.570,-519.043,34.180,0
1579292274.483,22.949,43.457,-223.145,-738.770,14.648,0
1579292274.487,53.711,39.062,-85.938,-408.691,44.434,0
1579292274.491,77.148,38.574,128.418,246.094,76.172,0
1579292274.495,84.473,32.227,211.426,414.062,71.777,0
1579292274.499,62.012,24.902,28.320,119.141,72.754,0
1579292274.503,60.547,31.250,-411.133,171.875,32.227,0
1579292274.506,107.422,38.086,-377.930,637.695,-11.719,0
1579292274.510,130.371,36.621,44.434,845.703,14.160,0
1579292274.514,105.469,33.691,132.812,522.949,25.391,0
1579292274.518,82.031,32.715,92.773,326.172,61.035,0
1579292274.522,86.914,33.203,84.473,683.594,105.469,0
1579292274.519,89.355,27.344,173.340,864.258,98.633,0
1579292274.523,58.594,24.902,136.230,514.160,48.340,0
1579292274.527,26.367,29.297,-28.320,181.152,3.418,0
1579292274.531,28.809,34.180,-48.828,361.816,0.977,0
1579292274.535,42.480,36.621,-2.441,701.660,47.852,0
1579292274.539,29.785,32.715,-95.215,484.375,67.871,0
1579292274.543,8.301,35.645,-276.855,61.523,26.367,0
1579292274.546,19.531,41.504,-202.637,191.406,32.227,0
1579292274.550,51.270,41.016,71.289,605.469,50.293,0
1579292274.554,43.457,32.715,-99.121,585.449,64.453,0
1579292274.558,31.250,20.020,-539.062,75.684,26.367,0
1579292274.562,62.012,26.855,-376.953,-65.430,36.133,0
1579292274.559,92.773,41.504,-71.289,312.012,61.035,0
1579292274.563,100.098,45.410,76.660,398.926,76.660,0
1579292274.567,80.078,45.410,-100.098,-60.547,41.504,0
1579292274.571,65.430,50.781,-265.137,-375.977,7.812,0
1579292274.575,72.266,50.781,-71.289,-2.930,56.152,0
1579292274.579,58.105,43.945,-64.941,369.629,77.637,0
1579292274.583,25.879,44.434,-50.293,245.117,81.055,0
1579292274.586,-8.301,42.480,-153.809,177.734,61.523,0
1579292274.590,-15.137,33.691,-217.773,659.180,65.918,0
1579292274.594,9.277,35.645,82.031,-977.539,42.480,0
1579292274.598,17.578,50.781,85.449,990.723,-16.602,0
1579292274.602,8.301,47.363,132.324,984.375,60.059,0
1579292274.619,13.672,35.156,11.719,957.520,59.082,0
1579292274.623,61.523,38.574,-236.816,-984.863,47.852,0
1579292274.627,121.094,37.109,-109.375,853.516,50.781,0
1579292274.631,154.297,31.250,-68.359,174.805,9.277,0
1579292274.635,195.801,33.691,-113.281,-220.703,40.527,0
1579292274.639,243.164,35.156,-187.012,-47.852,95.215,0
1579292274.643,257.812,37.109,-443.848,-99.609,129.883,0
1579292274.646,241.211,38.574,-402.832,-551.758,81.055,0
1579292274.650,192.383,29.297,-296.875,-830.566,-11.230,0
1579292274.654,137.695,30.273,-271.973,-427.246,-32.715,0
1579292274.658,65.918,42.480,-194.336,5.859,22.949,0
1579292274.662,-10.254,42.969,-231.934,-143.066,24.414,0
1579292274.659,-65.430,37.598,-171.875,-278.809,30.762,0
1579292274.663,-98.145,37.109,-76.172,83.496,55.664,0
1579292274.667,-104.980,39.551,48.828,653.320,48.340,0
1579292274.671,-111.328,35.156,12.207,691.895,-27.832,0
1579292274.675,-113.281,33.691,-225.586,390.137,-46.875,0
1579292274.679,-93.262,40.039,-279.297,649.414,-6.836,0
1579292274.683,-46.387,37.598,-127.930,-992.676,51.270,0
1579292274.686,-1.465,34.668,-81.543,-984.375,9.277,0
1579292274.690,28.320,38.574,42.969,926.758,-4.883,0
1579292274.694,44.434,35.645,-238.281,875.000,18.066,0
1579292274.698,85.938,31.250,-393.555,986.328,-12.695,0
1579292274.702,128.418,31.738,34.180,-975.098,23.438,0
1579292274.699,130.371,34.668,112.793,894.531,43.457,0
1579292274.703,135.742,40.527,-47.852,477.539,-27.832,0
1579292274.707,151.855,40.039,-151.367,544.922,-21.484,0
1579292274.711,164.062,36.133,-9.766,909.668,49.805,0
1579292274.715,152.832,37.598,89.355,615.234,67.871,0
1579292274.719,117.676,38.574,-201.660,89.355,24.414,0
1579292274.723,109.863,38.574,-325.195,71.777,24.414,0
1579292274.726,100.586,42.480,-343.262,354.980,54.688,0
1579292274.730,84.961,47.363,-321.777,277.832,27.344,0
1579292274.734,55.664,44.922,-145.020,-178.711,32.227,0
1579292274.738,24.414,41.016,-150.879,-191.895,61.035,0
1579292274.742,34.180,41.504,-51.270,208.008,33.691,0
1579292274.759,23.926,40.527,-184.570,318.848,20.996,0
1579292274.763,-10.254,40.527,-365.723,89.844,67.383,0
1579292274.767,0.977,43.457,-150.391,42.969,94.727,0
1579292274.771,40.039,46.875,-66.895,531.738,43.945,0
1579292274.775,52.246,44.434,51.270,821.777,41.016,0
1579292274.779,23.438,39.551,-145.020,545.410,44.922,0
1579292274.783,2.930,38.086,-550.781,341.309,44.434,0
1579292274.786,34.180,36.133,-286.133,611.816,78.125,0
1579292274.790,61.035,39.062,45.410,973.145,75.195,0
1579292274.794,53.223,43.457,54.199,692.383,57.129,0
1579292274.798,33.691,39.062,-193.359,141.602,70.312,0
1579292274.802,59.082,48.340,-316.406,208.984,50.781,0
1579292274.799,99.121,55.176,-99.121,525.879,33.203,0
1579292274.803,70.312,34.180,-34.668,381.836,60.059,0
1579292274.807,32.227,25.391,-201.172,-260.254,5.859,0
1579292274.811,29.297,29.785,-363.770,-545.410,23.438,0
1579292274.815,48.828,30.273,-338.379,-204.590,100.586,0
1579292274.819,56.641,32.227,-411.133,-202.637,46.387,0
1579292274.823,45.898,34.668,-569.336,-670.898,30.273,0
1579292274.826,36.621,36.133,-484.863,-984.375,80.078,0
1579292274.830,43.945,36.133,-302.246,-705.078,144.531,0
1579292274.834,43.945,34.668,-465.332,-421.875,52.246,0
1579292274.838,28.320,30.273,-493.652,-687.988,10.742,0
1579292274.842,20.996,26.855,-425.781,-985.352,11.230,0
1579292274.839,37.598,27.344,-438.477,-835.938,-4.883,0
1579292274.843,53.711,33.203,-350.098,-424.316,16.602,0
1579292274.847,33.203,38.086,-485.352,-347.168,19.043,0
1579292274.851,8.789,37.598,-473.145,-594.238,35.645,0
1579292274.855,6.836,37.109,-237.305,-349.609,78.125,0
1579292274.859,7.324,35.156,-233.887,170.410,78.613,0
1579292274.863,5.859,34.668,-241.699,333.008,3.418,0
1579292274.866,-14.160,34.668,-376.953,178.711,26.855,0
1579292274.870,-14.160,36.621,-467.773,220.703,71.289,0
1579292274.874,27.344,42.480,-27.344,757.812,82.031,0
1579292274.878,32.715,43.945,166.504,990.234,55.664,0
1579292274.882,6.348,39.551,95.215,739.746,5.371,0
1579292274.899,-20.020,34.180,4.883,691.406,51.270,0
1579292274.903,-5.859,28.809,13.184,940.430,47.852,0
1579292274.907,24.902,26.855,152.832,-972.656,29.297,0
1579292274.911,16.602,30.762,71.289,929.688,40.527,0
1579292274.915,0.000,29.297,-71.289,849.121,2.930,0
1579292274.919,-1.953,29.297,-224.121,955.078,24.902,0
1579292274.923,3.418,36.133,-344.238,-990.234,65.918,0
1579292274.926,-5.371,27.832,-84.961,997.559,24.414,0
1579292274.930,-43.457,23.438,38.086,971.191,20.020,0
1579292274.934,-64.941,30.762,42.969,978.027,19.531,0
1579292274.938,-62.988,34.668,2.441,-995.605,11.719,0
1579292274.942,-62.500,36.621,-25.879,997.559,15.137,0
1579292274.939,-68.848,39.551,49.805,999.512,26.367,0
1579292274.943,-72.754,41.992,-5.371,999.512,-4.883,0
1579292274.947,-48.828,38.574,28.809,999.512,-18.066,0
1579292274.951,-39.551,36.133,6.348,999.512,13.672,0
1579292274.955,-55.176,35.156,-0.977,999.512,98.145,0
1579292274.959,-61.035,30.273,12.695,999.512,150.879,0
1579292274.963,-34.668,32.227,-222.656,999.512,33.203,0
1579292274.966,4.883,35.645,-155.762,999.512,8.789,0
1579292274.970,8.789,34.668,-9.766,999.512,29.785,0
1579292274.974,-11.230,29.297,-359.863,999.512,19.043,0
1579292274.978,17.090,29.785,-312.500,999.512,33.203,0
1579292274.982,57.129,38.574,59.570,999.512,61.035,0
1579292274.979,66.406,38.574,80.078,999.512,35.645,0
1579292274.983,57.617,40.039,-20.508,-1000.000,3.906,0
1579292274.987,64.453,43.457,-86.426,997.070,53.223,0
1579292274.991,95.703,35.156,9.766,987.793,65.430,0
1579292274.995,92.773,35.156,44.922,-988.281,42.480,0
1579292274.999,65.430,41.992,-163.574,751.465,56.641,0
1579292275.003,60.547,45.898,-262.207,348.145,58.594,0
1579292275.006,47.363,45.898,-468.750,397.461,44.434,0
1579292275.010,38.574,29.297,-500.488,399.902,30.273,0
1579292275.014,32.715,28.320,-320.801,-182.617,5.371,0
1579292275.018,9.766,46.387,-430.176,-705.566,26.855,0
1579292275.022,25.391,53.711,-305.176,-574.219,41.016,0
1579292275.039,49.316,55.176,-286.133,-389.160,-11.719,0
1579292275.043,46.387,50.293,-295.410,-703.613,-19.531,0
1579292275.047,27.344,47.363,-235.352,-983.398,47.363,0
1579292275.051,29.785,47.363,-265.137,-967.285,39.062,0
1579292275.055,66.895,42.480,-202.148,-826.660,32.227,0
1579292275.059,73.730,36.621,-402.344,-848.633,38.574,0
1579292275.063,70.312,37.598,-658.203,-979.980,-7.812,0
1579292275.066,97.168,41.992,-443.848,-979.004,16.113,0
1579292275.070,122.070,41.016,-153.320,-787.598,109.863,0
1579292275.074,121.582,39.062,-83.008,-726.562,63.965,0
1579292275.078,92.285,38.574,-382.324,-936.523,38.086,0
1579292275.082,78.125,39.062,-496.094,-996.582,47.363,0
1579292275.079,95.703,41.992,-327.637,-897.949,1.465,0
1579292275.083,102.539,41.504,-251.465,-696.777,-0.977,0
1579292275.087,78.125,32.227,-163.574,-827.637,-12.695,0
1579292275.091,49.316,33.691,-333.496,-1000.000,-11.719,0
1579292275.095,52.246,37.598,-287.598,-876.465,83.984,0
1579292275.099,62.012,39.062,-195.312,-619.141,68.359,0
1579292275.103,40.039,38.086,-335.938,-668.457,6.836,0
1579292275.106,17.578,34.180,-209.961,-917.480,38.574,0
1579292275.110,14.160,36.621,-173.340,-746.094,66.406,0
1579292275.114,20.508,38.574,-390.625,-203.613,66.895,0
1579292275.118,39.551,34.180,-148.926,-38.574,89.844,0
1579292275.122,37.109,31.738,65.430,-274.414,97.656,0
1579292275.119,27.832,28.809,31.250,-214.355,82.031,0
1579292275.123,39.551,32.715,41.016,323.730,76.172,0
1579292275.127,45.898,35.156,56.152,624.023,61.523,0
1579292275.131,38.086,37.109,-12.207,328.125,36.133,0
1579292275.135,32.227,40.039,-83.496,178.711,53.711,0
1579292275.139,42.969,34.180,-37.109,558.105,94.727,0
1579292275.143,63.965,33.691,-50.293,852.051,57.617,0
1579292275.146,54.199,37.109,-143.555,535.156,37.598,0
1579292275.150,40.527,40.527,-152.832,41.016,48.340,0
1579292275.154,57.617,41.504,-2.441,201.660,80.566,0
1579292275.158,73.730,41.992,53.223,538.086,38.574,0
1579292275.162,53.711,45.898,57.129,392.578,27.344,0
1579292275.179,6.348,47.852,-179.688,-105.957,89.355,0
1579292275.183,-3.418,39.551,-255.371,-223.145,79.102,0
1579292275.187,8.301,35.645,-67.871,212.402,31.738,0
1579292275.191,-3.418,41.016,-32.227,261.719,6.836,0
1579292275.195,-23.438,42.969,-102.539,-182.129,-10.742,0
1579292275.199,-32.227,40.039,-494.141,-473.633,-85.449,0
1579292275.203,2.930,38.574,-569.824,-201.660,-37.598,0
1579292275.206,48.340,34.180,-254.395,46.875,14.648,0
1579292275.210,56.641,30.762,-100.098,-331.055,41.992,0
1579292275.214,67.871,38.086,-94.727,-743.652,58.105,0
1579292275.218,116.699,43.945,-316.406,-691.406,55.176,0
1579292275.222,172.852,40.039,-366.211,-689.453,34.668,0
1579292275.219,199.219,37.109,-188.477,-896.973,33.691,0
1579292275.223,187.500,40.039,-273.926,-979.004,9.766,0
1579292275.227,192.871,40.039,-284.668,-961.914,-20.020,0
1579292275.231,185.059,38.574,-383.301,-969.238,28.320,0
1579292275.235,143.555,43.945,-422.852,-967.773,45.410,0
1579292275.239,70.801,45.898,-391.602,-954.590,20.996,0
1579292275.243,13.184,53.711,-433.105,-1000.000,47.852,0
1579292275.246,-9.766,50.781,-195.801,-782.227,31.738,0
1579292275.250,-60.059,34.668,-209.961,-582.031,44.434,0
1579292275.254,-101.074,34.668,-540.039,-873.047,62.012,0
1579292275.258,-96.191,39.551,-436.523,-1000.000,-4.395,0
1579292275.262,-58.594,42.480,-169.922,-746.094,0.000,0
1579292275.279,-23.438,38.086,22.461,-408.203,49.316,0
1579292275.283,-27.832,33.691,-36.133,-613.770,56.641,0
1579292275.287,-28.809,36.133,-143.066,-734.375,51.758,0
1579292275.291,-4.883,35.156,-21.484,-80.078,3.418,0
1579292275.295,9.277,38.574,130.371,674.805,41.016,0
1579292275.299,2.441,44.434,137.695,783.203,31.250,0
1579292275.303,-27.344,41.016,-67.871,411.133,16.602,0
1579292275.306,-27.832,34.180,-183.594,321.777,27.344,0
1579292275.310,4.395,32.227,51.270,541.504,-3.906,0
1579292275.314,7.324,33.691,229.004,224.121,59.570,0
1579292275.318,-11.230,34.668,153.809,-577.637,111.328,0
1579292275.322,-14.648,38.574,-37.598,-1000.000,97.168,0
1579292275.319,-8.789,42.969,-282.227,-868.164,57.129,0
1579292275.323,-25.391,31.738,-147.461,-835.449,75.195,0
1579292275.327,-65.430,20.996,-91.797,-964.844,24.414,0
1579292275.331,-121.094,27.832,-173.828,-988.770,-2.441,0
1579292275.335,-169.434,29.785,-105.957,-865.723,42.969,0
1579292275.339,-218.262,31.738,-241.211,-601.074,31.738,0
1579292275.343,-271.484,39.551,-282.227,-691.895,28.809,0
1579292275.346,-315.430,37.109,-208.496,-960.938,8.301,0
1579292275.350,-325.684,35.156,-113.281,-664.551,56.152,0
1579292275.354,-308.594,32.715,78.613,-279.785,78.613,0
1579292275.358,-306.641,29.785,-283.203,-468.750,16.113,0
1579292275.362,-287.109,33.691,-500.977,-783.203,54.199,0
1579292275.359,-222.168,36.621,-131.836,-715.332,97.168,0
1579292275.363,-152.344,39.551,18.066,-395.996,79.102,0
1579292275.367,-88.379,40.039,26.855,-599.609,72.754,0
1579292275.371,-33.691,39.062,-157.715,-971.191,65.918,0
1579292275.375,17.578,41.016,-256.836,-969.727,12.207,0
1579292275.379,68.848,40.039,-284.668,-958.496,12.207,0
1579292275.383,108.887,33.691,-300.293,-971.191,43.457,0
1579292275.386,121.094,35.645,-140.625,-968.262,16.113,0
1579292275.390,102.051,42.480,-311.523,-968.262,45.410,0
1579292275.394,120.605,43.945,-533.203,-968.750,43.945,0
1579292275.398,139.160,40.527,-187.988,-968.262,39.062,0
1579292275.402,110.352,38.574,25.391,-968.750,105.469,0
1579292275.419,72.266,41.992,-66.895,-968.262,39.062,0
1579292275.423,40.527,43.945,-192.871,-968.750,-7.812,0
1579292275.427,31.250,45.898,-128.418,-968.750,54.688,0
1579292275.431,3.418,46.875,8.789,-968.750,82.520,0
1579292275.435,-32.715,45.410,-64.453,-959.961,55.176,0
1579292275.439,-40.527,41.504,-245.605,-987.793,0.000,0
1579292275.443,-35.645,37.598,-412.598,-881.348,-21.484,0
1579292275.446,-37.598,39.062,-480.957,-720.215,24.414,0
1579292275.450,-38.086,38.086,-245.605,-854.004,40.039,0
1579292275.454,-38.086,35.645,-93.750,-786.621,-0.977,0
1579292275.458,-11.719,43.945,19.043,-212.891,1.465,0
1579292275.462,-2.441,43.457,120.605,281.738,34.180,0
1579292275.459,-23.926,36.133,47.852,219.238,6.348,0
1579292275.463,-28.809,42.969,150.391,107.910,57.129,0
1579292275.467,-29.785,39.062,201.660,504.395,41.016,0
1579292275.471,-23.438,36.621,286.133,904.297,0.488,0
1579292275.475,-38.086,40.527,313.965,813.477,22.949,0
1579292275.479,-63.477,39.062,177.734,656.738,80.566,0
1579292275.483,-53.711,33.691,152.344,873.535,28.809,0
1579292275.486,-13.672,45.898,437.500,-979.492,6.836,0
1579292275.490,-18.555,47.852,596.680,989.746,39.551,0
1579292275.494,-70.312,30.762,606.445,998.535,43.457,0
1579292275.498,-122.559,28.809,449.219,999.512,83.496,0
1579292275.502,-152.832,29.785,505.371,999.512,60.547,0
1579292275.499,-154.297,41.016,939.941,999.512,53.223,0
1579292275.503,-176.270,48.828,966.797,999.512,14.648,0
1579292275.507,-207.031,45.410,954.590,999.512,29.785,0
1579292275.511,-228.027,49.316,961.426,999.512,75.195,0
1579292275.515,-224.609,57.617,-998.047,999.512,77.637,0
1579292275.519,-225.586,61.035,922.852,999.512,59.570,0
1579292275.523,-229.492,63.477,770.508,999.512,48.340,0
1579292275.526,-177.246,66.895,888.184,999.512,45.410,0
1579292275.530,-124.512,66.895,748.535,993.164,12.695,0
1579292275.534,-104.980,66.406,548.828,-984.375,-44.434,0
1579292275.538,-87.402,61.523,628.906,935.547,-38.086,0
1579292275.542,-56.152,56.152,537.109,859.863,61.523,0
1579292275.559,-19.043,54.688,499.512,-992.676,64.453,0
1579292275.563,-32.715,53.223,333.008,906.738,33.691,0
1579292275.567,-69.336,52.734,142.090,421.875,47.852,0
1579292275.571,-85.938,44.434,242.676,328.613,15.137,0
1579292275.575,-76.172,40.527,266.113,758.789,13.184,0
1579292275.579,-57.617,48.340,138.672,923.340,5.859,0
1579292275.583,-47.852,54.199,-210.449,476.562,31.738,0
1579292275.586,-1.953,50.781,-369.141,-28.809,42.480,0
1579292275.590,55.176,54.688,-199.219,-27.832,21.973,0
1579292275.594,104.492,63.477,-124.512,-109.863,69.336,0
1579292275.598,153.320,60.547,-176.758,-678.223,48.340,0
1579292275.602,175.781,49.316,-499.023,-990.723,7.324,0
1579292275.599,234.375,48.828,-695.801,-954.590,43.945,0
1579292275.603,314.941,54.688,-428.223,-964.355,45.410,0
1579292275.607,330.078,57.129,-448.730,-969.727,29.785,0
1579292275.611,312.012,48.340,-561.035,-968.262,37.109,0
1579292275.615,297.852,43.945,-522.461,-968.262,64.941,0
1579292275.619,274.414,42.480,-653.320,-969.727,14.160,0
1579292275.623,247.070,36.133,-657.227,-964.844,5.371,0
1579292275.626,201.660,42.480,-479.980,-958.008,101.074,0
1579292275.630,149.902,46.387,-381.348,-986.328,88.379,0
1579292275.634,117.676,39.551,-372.559,-702.637,62.500,0
1579292275.638,67.383,32.715,-613.770,-356.934,64.453,0
1579292275.642,36.621,31.738,-609.863,-566.406,19.043,0
1579292275.639,28.320,33.203,-350.586,-735.352,42.969,0
1579292275.643,39.551,35.156,-250.000,-311.523,47.363,0
1579292275.647,53.711,30.762,-190.918,41.016,24.414,0
1579292275.651,56.152,27.832,-309.570,-261.230,3.906,0
1579292275.655,65.430,27.344,-417.969,-745.605,-50.781,0
1579292275.659,88.379,28.809,-468.750,-679.199,2.930,0
1579292275.663,127.930,28.809,-424.805,-314.453,47.363,0
1579292275.666,156.738,25.879,-354.492,-532.715,40.527,0
1579292275.670,159.668,25.391,-659.668,-939.453,22.949,0
1579292275.674,193.848,28.320,-615.234,-989.746,56.152,0
1579292275.678,236.328,26.367,-190.918,-868.652,78.125,0
1579292275.682,241.211,20.020,-126.953,-854.004,41.504,0
1579292275.699,227.539,25.879,-121.094,-977.539,68.848,0
1579292275.703,216.797,32.227,-249.023,-969.238,69.336,0
1579292275.707,245.117,31.250,-224.609,-965.332,67.871,0
1579292275.711,256.348,34.668,-99.121,-969.238,78.613,0
1579292275.715,219.727,36.621,-203.125,-968.750,61.523,0
1579292275.719,193.848,37.598,-253.906,-968.262,73.730,0
1579292275.723,172.852,38.086,-555.176,-968.262,-8.301,0
1579292275.726,154.785,35.156,-652.344,-968.750,-30.273,0
1579292275.730,148.926,32.227,-293.945,-968.750,58.594,0
1579292275.734,115.723,29.785,-173.828,-968.750,70.312,0
1579292275.738,99.121,31.250,-100.586,-968.750,49.805,0
1579292275.742,88.379,33.691,-99.121,-968.262,86.914,0
1579292275.739,64.941,31.738,-148.926,-968.262,62.988,0
1579292275.743,48.828,36.621,-160.645,-968.262,7.812,0
1579292275.747,42.969,35.156,-113.770,-968.262,72.754,0
1579292275.751,52.734,29.785,-46.387,-968.262,77.637,0
1579292275.755,52.246,29.785,-165.527,-968.262,27.344,0
1579292275.759,33.203,30.762,-319.336,-968.262,53.711,0
1579292275.763,27.832,30.273,-369.629,-968.750,29.785,0
1579292275.766,53.223,30.273,-251.953,-968.750,32.227,0
1579292275.770,73.242,33.691,-99.121,-968.262,0.977,0
1579292275.774,47.852,31.738,-251.953,-968.750,-5.859,0
1579292275.778,21.484,23.926,-394.531,-968.262,63.477,0
1579292275.782,47.852,25.879,-303.223,-968.262,19.043,0
1579292275.779,73.730,31.250,-132.324,-968.750,56.641,0
1579292275.783,75.684,31.250,39.062,-968.750,122.070,0
1579292275.787,56.641,31.250,-93.262,-968.750,94.238,0
1579292275.791,48.828,26.367,-420.898,-968.750,0.000,0
1579292275.795,80.078,29.297,-312.988,-968.750,-57.617,0
1579292275.799,73.730,34.180,-304.688,-968.750,-68.359,0
1579292275.803,42.480,39.062,-356.934,-968.750,-35.645,0
1579292275.806,29.785,34.668,-91.797,-968.750,85.449,0
1579292275.810,22.949,30.273,-372.559,-968.750,55.664,0
1579292275.814,28.809,33.203,-429.199,-969.727,-21.973,0
1579292275.818,-2.441,30.762,-78.125,-961.426,14.160,0
1579292275.822,-56.641,31.250,-34.668,-982.910,39.551,0
1579292275.839,-67.383,26.367,15.625,-929.199,66.406,0
1579292275.843,-82.520,23.926,9.277,-844.727,81.055,0
1579292275.847,-120.605,32.227,-73.730,-933.105,41.016,0
1579292275.851,-156.738,35.156,-95.215,-1000.000,4.883,0
1579292275.855,-186.035,33.203,15.137,-851.074,42.969,0
1579292275.859,-220.215,34.180,31.250,-539.062,52.734,0
1579292275.863,-279.297,35.156,-318.359,-653.320,7.812,0
1579292275.866,-334.473,29.785,-413.574,-989.746,13.184,0
1579292275.870,-343.262,27.832,-22.461,-853.027,42.480,0
1579292275.874,-335.938,32.715,171.875,-353.516,34.180,0
1579292275.878,-333.984,35.645,280.762,-165.039,39.551,0
1579292275.882,-350.586,30.762,201.172,-493.652,79.590,0
1579292275.879,-355.469,28.809,130.859,-535.645,83.496,0
1579292275.883,-336.914,35.156,268.066,18.555,56.152,0
1579292275.887,-336.914,35.645,356.934,286.621,42.480,0
1579292275.891,-354.004,34.668,362.305,34.668,64.453,0
1579292275.895,-378.418,35.156,158.691,-247.559,33.203,0
1579292275.899,-386.230,34.668,32.227,132.324,1.953,0
1579292275.903,-375.000,36.621,188.477,686.035,43.945,0
1579292275.906,-397.461,41.016,209.473,573.242,46.387,0
1579292275.910,-428.223,36.133,308.594,340.820,58.105,0
1579292275.914,-447.266,30.273,251.953,559.570,79.590,0
1579292275.918,-441.895,31.250,208.496,945.801,78.613,0
1579292275.922,-448.242,31.250,442.383,978.516,29.785,0
1579292275.919,-492.188,36.133,371.582,654.785,-1.465,0
1579292275.923,-505.371,37.109,338.379,671.387,-8.301,0
1579292275.927,-523.438,33.203,279.297,974.609,23.438,0
1579292275.931,-547.363,30.762,152.344,-977.051,53.223,0
1579292275.935,-553.711,33.691,356.445,927.734,74.707,0
1579292275.939,-572.266,29.297,246.094,881.348,55.664,0
1579292275.943,-533.691,26.855,208.496,980.469,29.785,0
1579292275.946,-497.070,32.227,323.730,-970.215,12.695,0
1579292275.950,-486.328,33.203,23.926,885.254,30.762,0
1579292275.954,-452.637,29.785,104.004,657.227,73.242,0
1579292275.958,-438.477,34.668,358.398,830.566,37.109,0
1579292275.962,-434.082,41.992,466.797,-957.031,43.457,0
1579292275.979,-456.055,41.504,411.133,871.582,50.781,0
1579292275.983,-479.492,38.574,195.801,501.953,22.949,0
1579292275.987,-468.262,34.668,252.930,511.719,37.109,0
1579292275.991,-481.934,26.855,376.465,788.574,54.199,0
1579292275.995,-514.160,25.391,362.793,626.953,41.504,0
1579292275.999,-561.035,38.574,100.098,-12.207,5.371,0
1579292276.003,-604.004,39.062,-332.520,-208.496,21.973,0
1579292276.006,-620.605,30.762,-257.812,122.559,3.418,0
1579292276.010,-634.766,31.738,116.699,103.516,-28.320,0
1579292276.014,-668.457,29.785,128.418,-380.859,15.625,0
1579292276.018,-687.012,24.902,-83.984,-790.039,25.391,0
1579292276.022,-632.812,29.785,-222.168,-627.930,11.719,0
1579292276.019,-618.164,37.598,-39.062,-514.648,39.551,0
1579292276.023,-636.719,32.227,16.113,-853.027,42.480,0
1579292276.027,-611.816,34.180,-55.664,-987.305,19.043,0
1579292276.031,-569.336,42.480,11.719,-957.031,37.109,0
1579292276.035,-492.676,40.527,14.160,-968.750,65.918,0
1579292276.039,-452.148,35.645,-111.328,-968.750,39.551,0
1579292276.043,-456.543,32.715,-202.148,-968.262,7.812,0
1579292276.046,-407.227,31.738,-169.434,-969.727,17.090,0
1579292276.050,-341.309,28.809,136.719,-963.379,84.961,0
1579292276.054,-352.539,28.809,-17.090,-962.891,82.520,0
1579292276.058,-358.887,28.320,-408.691,-961.426,-34.668,0
1579292276.062,-292.480,30.762,-87.402,-990.723,10.254,0
1579292276.059,-249.023,31.250,183.105,-867.676,67.871,0
1579292276.063,-234.375,31.738,110.352,-780.273,4.395,0
1579292276.067,-220.703,34.180,-36.621,-926.758,3.418,0
1579292276.071,-214.355,31.738,-23.438,-1000.000,28.320,0
1579292276.075,-170.898,32.227,153.809,-801.270,54.199,0
1579292276.079,-127.441,33.691,71.777,-517.578,40.527,0
1579292276.083,-111.328,35.645,99.609,-750.977,96.680,0
1579292276.086,-122.559,32.227,50.293,-1000.000,115.234,0
1579292276.090,-103.027,30.762,-256.348,-785.645,45.410,0
1579292276.094,-55.664,34.668,58.594,-354.980,60.547,0
1579292276.098,-60.059,35.645,324.219,-397.949,74.219,0
1579292276.102,-78.125,36.621,262.207,-797.363,85.449,0
1579292276.119,-85.938,38.086,111.328,-766.113,52.734,0
1579292276.123,-68.848,35.645,108.398,-309.570,37.598,0
1579292276.127,-56.152,30.762,304.688,-238.770,74.707,0
1579292276.131,-64.941,32.227,250.488,-640.625,94.238,0
1579292276.135,-59.082,35.156,23.926,-784.668,58.594,0
1579292276.139,-38.574,36.621,-123.535,-367.188,7.324,0
1579292276.143,-21.484,35.156,-138.184,-98.633,0.488,0
1579292276.146,-31.250,31.250,6.836,-338.867,-15.137,0
1579292276.150,-70.312,35.156,125.000,-445.801,33.691,0
1579292276.154,-73.242,39.551,216.797,-41.992,73.730,0
1579292276.158,-42.480,40.527,305.664,423.828,64.941,0
1579292276.162,-48.340,43.945,141.602,367.676,76.172,0
1579292276.159,-71.289,46.875,74.707,90.820,45.410,0
1579292276.163,-86.914,39.062,258.301,347.168,98.145,0
1579292276.167,-88.867,31.738,356.445,766.602,101.562,0
1579292276.171,-98.633,33.691,354.980,776.855,54.199,0
1579292276.175,-115.723,33.203,229.980,446.777,99.121,0
1579292276.179,-114.258,33.203,12.207,374.023,27.832,0
1579292276.183,-80.078,39.551,30.762,666.992,4.883,0
1579292276.186,-44.434,39.551,147.461,589.355,87.402,0
1579292276.190,-26.855,35.156,125.488,48.340,15.137,0
1579292276.194,-21.973,34.180,-201.172,-279.297,1.953,0
1579292276.198,8.301,35.156,-323.242,-64.941,46.387,0
1579292276.202,46.875,35.645,109.863,47.363,68.359,0
1579292276.200,12.207,35.645,219.727,-327.637,121.094,0
1579292276.204,-39.062,35.645,119.141,-553.223,90.820,0
1579292276.208,-65.918,34.668,4.395,-182.129,13.184,0
1579292276.212,-79.102,38.574,82.520,392.578,-15.625,0
1579292276.216,-124.512,37.109,250.488,476.562,23.926,0
1579292276.220,-178.223,31.738,28.320,219.238,15.137,0
1579292276.224,-179.199,35.156,-27.832,462.402,22.949,0
1579292276.227,-167.969,33.691,-10.742,906.250,24.902,0
1579292276.231,-162.598,32.227,-144.531,892.578,9.766,0
1579292276.235,-145.996,37.109,144.043,504.395,85.938,0
1579292276.239,-150.391,36.133,169.434,525.879,69.824,0
1579292276.243,-133.789,35.156,217.285,960.449,12.695,0
1579292276.259,-131.348,41.504,328.613,-985.840,31.738,0
1579292276.263,-179.688,46.387,226.074,983.887,-4.395,0
1579292276.267,-211.914,38.574,264.160,-998.047,-15.625,0
1579292276.271,-205.566,32.715,295.410,999.512,2.441,0
1579292276.275,-178.711,37.109,335.449,997.559,-13.672,0
1579292276.279,-198.242,32.227,172.852,-998.047,30.273,0
1579292276.283,-222.656,29.297,-141.113,969.238,66.406,0
1579292276.286,-178.711,33.691,-1.465,880.371,4.883,0
1579292276.290,-150.879,38.086,209.961,758.301,-32.715,0
1579292276.294,-160.156,43.945,223.633,333.008,7.812,0
1579292276.298,-206.543,42.480,61.523,-396.484,59.570,0
1579292276.302,-219.727,39.551,-93.750,-562.988,70.801,0
1579292276.299,-210.938,45.410,84.473,-357.422,106.445,0
1579292276.303,-241.699,49.805,20.020,-612.305,94.727,0
1579292276.307,-280.273,44.922,-106.445,-938.477,56.152,0
1579292276.311,-312.500,45.898,-131.836,-978.516,65.430,0
1579292276.315,-336.426,40.039,-187.988,-704.590,48.340,0
1579292276.319,-335.449,33.203,-170.898,-619.629,40.527,0
1579292276.323,-315.918,37.598,-243.164,-917.480,58.594,0
1579292276.326,-314.941,30.273,-202.637,-1000.000,65.918,0
1579292276.330,-262.207,34.668,-43.945,-837.402,37.109,0
1579292276.334,-215.820,47.852,-251.953,-686.035,84.473,0
1579292276.338,-200.195,42.969,-355.469,-897.461,102.539,0
1579292276.342,-145.020,39.551,-110.840,-987.305,56.641,0
1579292276.339,-67.871,36.133,-19.043,-958.496,72.266,0
1579292276.343,4.395,39.551,-19.531,-969.238,19.531,0
1579292276.347,60.547,47.852,-120.605,-968.750,-8.301,0
1579292276.351,110.352,54.199,-75.195,-968.262,62.988,0
1579292276.355,134.277,56.152,-155.762,-968.262,20.020,0
1579292276.359,157.227,45.410,-257.812,-968.750,-8.301,0
1579292276.363,177.246,31.738,-212.891,-968.262,5.371,0
1579292276.366,158.203,37.598,-378.418,-968.262,-14.160,0
1579292276.370,152.344,47.852,-351.562,-968.750,-24.414,0
1579292276.374,169.434,41.504,-47.852,-968.750,9.277,0
1579292276.378,149.414,34.668,63.477,-968.750,73.730,0
1579292276.382,119.141,40.527,46.387,-968.750,25.391,0
1579292276.399,80.078,46.875,-246.094,-968.262,-9.766,0
1579292276.403,63.477,39.062,-330.566,-968.262,42.969,0
1579292276.407,72.754,38.574,-76.660,-968.262,-12.695,0
1579292276.411,50.293,44.922,-34.668,-968.262,-20.996,0
1579292276.415,30.762,45.410,-16.113,-968.750,11.230,0
1579292276.419,30.762,38.086,-249.512,-968.750,-0.977,0
1579292276.423,59.082,32.715,-515.625,-970.215,0.488,0
1579292276.426,98.145,36.621,-282.227,-957.031,33.691,0
1579292276.430,105.469,38.574,-76.172,-973.633,10.254,0
1579292276.434,108.887,34.668,-21.484,-929.688,-16.113,0
1579292276.438,131.836,33.691,51.270,-471.191,59.082,0
1579292276.442,151.855,34.668,78.613,-249.512,57.129,0
1579292276.439,158.691,39.551,117.188,-510.742,39.551,0
1579292276.443,164.062,41.016,109.375,-511.230,87.891,0
1579292276.447,204.590,44.434,164.062,-114.258,68.848,0
1579292276.451,217.285,38.086,122.070,107.910,25.879,0
1579292276.455,186.523,30.762,-1.953,-289.551,35.156,0
1579292276.459,177.246,32.715,-115.234,-587.402,87.402,0
1579292276.463,192.871,33.691,-213.379,-290.039,38.086,0
1579292276.466,205.566,24.902,-49.805,38.574,-18.555,0
1579292276.470,175.781,22.461,-27.832,-165.527,-4.883,0
1579292276.474,162.109,40.527,-354.004,-685.547,28.809,0
1579292276.478,201.172,46.387,-324.219,-542.480,78.613,0
1579292276.482,223.633,37.598,9.277,-3.418,66.895,0
1579292276.479,219.727,35.156,88.379,-19.531,18.066,0
1579292276.483,196.777,35.156,23.926,-403.809,40.039,0
1579292276.487,189.941,33.203,-244.141,-504.883,38.086,0
1579292276.491,234.863,32.227,-188.477,-74.707,3.906,0
1579292276.495,264.648,32.715,25.879,147.461,-20.508,0
1579292276.499,264.160,35.645,-98.145,-177.246,36.621,0
1579292276.503,267.090,38.574,-180.176,-339.355,96.680,0
1579292276.506,280.762,36.133,-385.742,-62.500,67.871,0
1579292276.510,293.945,33.691,-422.852,176.758,37.109,0
1579292276.514,283.691,31.738,-0.977,56.641,79.102,0
1579292276.518,267.578,29.785,109.863,-132.812,104.004,0
1579292276.522,282.715,31.250,134.277,234.375,69.824,0
1579292276.539,286.133,35.156,156.738,794.922,77.637,0
1579292276.543,274.414,34.180,132.812,915.039,36.621,0
1579292276.547,262.207,30.762,179.199,829.590,26.367,0
1579292276.551,273.438,34.180,136.230,917.969,33.691,0
1579292276.555,304.199,35.156,171.875,-982.910,27.344,0
1579292276.559,310.547,31.250,-47.363,933.105,47.363,0
1579292276.563,327.148,35.645,-276.367,484.375,22.461,0
1579292276.566,378.418,39.062,-133.301,124.023,-33.691,0
1579292276.570,421.387,28.809,-34.668,286.133,-11.230,0
1579292276.574,445.801,27.344,44.922,282.227,-5.371,0
1579292276.578,420.410,37.109,-193.848,-226.562,9.766,0
1579292276.582,397.949,36.621,-399.414,-500.977,21.973,0
1579292276.579,389.648,32.715,-127.930,-57.129,52.246,0
1579292276.583,353.027,36.621,36.621,377.441,73.242,0
1579292276.587,305.176,37.598,71.289,294.434,74.219,0
1579292276.591,234.863,37.598,-54.688,120.117,138.184,0
1579292276.595,193.359,39.551,-148.926,505.859,130.371,0
1579292276.599,192.871,36.621,-66.406,987.305,53.223,0
1579292276.603,176.758,37.598,-134.277,978.516,21.484,0
1579292276.606,156.738,36.133,-75.684,756.836,71.289,0
1579292276.610,164.062,32.715,-35.645,818.848,91.797,0
1579292276.614,195.801,35.156,-335.449,-989.258,16.602,0
1579292276.618,230.469,38.086,-219.238,-991.699,-8.301,0
1579292276.622,223.633,40.527,21.484,953.613,14.160,0
1579292276.619,226.562,44.922,44.434,928.223,51.270,0
1579292276.623,254.395,41.504,50.293,988.770,77.148,0
1579292276.627,283.203,38.086,-39.062,-972.656,29.297,0
1579292276.631,315.430,39.062,-4.883,894.531,16.113,0
1579292276.635,320.801,35.645,-32.227,678.711,43.945,0
1579292276.639,340.820,38.574,-150.391,850.098,61.035,0
1579292276.643,372.070,44.922,-205.566,-956.543,21.484,0
1579292276.646,362.305,46.875,-459.961,858.398,4.395,0
1579292276.650,358.398,48.340,-432.617,497.070,74.707,0
1579292276.654,389.648,48.340,-76.660,582.031,100.586,0
1579292276.658,409.180,50.293,-23.926,896.973,26.367,0
1579292276.662,428.711,48.828,-31.738,740.723,18.555,0
1579292276.679,426.270,41.992,-230.957,306.152,9.277,0
1579292276.683,428.711,41.504,-274.414,271.484,16.602,0
1579292276.687,458.496,41.992,-104.492,602.051,79.102,0
1579292276.691,467.773,37.109,-62.012,523.438,103.516,0
1579292276.695,445.312,33.691,-218.750,-110.840,61.523,0
1579292276.699,422.363,39.551,-563.965,-443.359,15.625,0
1579292276.703,433.594,43.457,-669.434,-216.797,10.742,0
1579292276.706,446.289,41.016,-434.082,-114.746,37.598,0
1579292276.710,422.363,39.062,-346.191,-507.324,57.129,0
1579292276.714,392.578,36.133,-515.137,-956.543,29.785,0
1579292276.718,381.836,35.645,-751.953,-750.000,41.992,0
1579292276.722,385.742,39.551,-670.898,-440.918,19.531,0
1579292276.719,362.305,43.945,-429.199,-654.297,5.859,0
1579292276.723,313.965,41.016,-430.176,-979.492,68.359,0
1579292276.727,307.129,38.086,-411.133,-843.750,56.152,0
1579292276.731,300.781,41.504,-463.379,-393.066,74.219,0
1579292276.735,266.602,35.156,-504.883,-394.531,63.477,0
1579292276.739,225.586,31.250,-515.625,-724.121,52.246,0
1579292276.743,206.543,33.203,-582.031,-791.992,99.609,0
1579292276.746,219.727,27.832,-415.527,-465.332,20.508,0
1579292276.750,217.285,29.785,-374.512,-209.473,31.738,0
1579292276.754,189.941,38.574,-669.434,-573.242,74.707,0
1579292276.758,192.383,36.621,-628.418,-764.648,31.250,0
1579292276.762,228.516,34.668,-324.219,-333.984,29.785,0
1579292276.759,241.699,43.457,-226.074,18.066,51.270,0
1579292276.763,218.750,45.410,-363.770,-113.770,-3.906,0
1579292276.767,200.195,41.504,-375.977,-361.816,19.043,0
1579292276.771,208.008,40.527,-216.309,-36.621,41.016,0
1579292276.775,206.543,38.574,-90.332,362.793,41.016,0
1579292276.779,166.016,41.504,-189.941,193.848,21.484,0
1579292276.783,118.164,49.316,-422.363,-91.309,-7.812,0
1579292276.786,91.797,40.527,-594.238,62.012,66.406,0
1579292276.790,97.168,31.738,-352.539,539.062,77.148,0
1579292276.794,84.473,35.645,-20.508,523.926,53.223,0
1579292276.798,56.641,41.016,-51.758,76.660,67.383,0
1579292276.802,35.645,43.945,-205.078,35.156,8.301,0
1579292276.819,18.066,40.039,-228.516,505.859,5.371,0
1579292276.823,5.371,38.086,-61.035,802.246,5.371,0
1579292276.827,-27.832,38.086,-82.031,462.891,-23.926,0
1579292276.831,-52.734,39.551,-262.695,206.543,-18.555,0
1579292276.835,-32.715,39.551,-228.516,639.648,-27.832,0
1579292276.839,-21.973,35.156,-170.898,-995.605,23.438,0
1579292276.843,-30.273,34.180,-189.453,771.484,47.363,0
1579292276.846,-33.203,33.691,-164.551,345.703,21.973,0
1579292276.850,-21.484,35.156,-75.684,526.367,89.844,0
1579292276.854,-3.906,33.691,65.918,994.629,86.426,0
1579292276.858,-20.508,31.738,-134.766,975.586,32.715,0
1579292276.862,-45.898,32.715,-202.637,782.715,69.824,0
1579292276.859,-43.457,33.203,-70.801,874.512,41.992,0
1579292276.863,-20.020,32.715,-20.020,-982.910,30.762,0
1579292276.867,-17.578,33.203,96.191,994.141,86.426,0
1579292276.871,-52.246,35.645,-118.652,997.559,83.984,0
1579292276.875,-71.777,34.668,-222.656,-1000.000,61.523,0
1579292276.879,-65.918,35.645,-190.430,999.512,9.277,0
1579292276.883,-75.684,37.109,-297.852,999.512,-11.230,0
1579292276.886,-91.309,39.551,-117.676,999.512,14.648,0
1579292276.890,-124.023,37.109,-210.938,-999.512,44.434,0
1579292276.894,-128.906,32.227,-440.430,992.676,42.480,0
1579292276.898,-95.215,33.691,-136.230,-997.559,41.016,0
1579292276.902,-101.074,36.621,-3.418,969.238,31.250,0
1579292276.919,-117.188,32.227,-92.773,729.980,-5.859,0
1579292276.923,-122.559,30.762,-142.090,741.699,50.781,0
1579292276.927,-112.305,30.273,-90.332,-979.980,64.941,0
1579292276.931,-94.238,31.250,-1.953,908.691,27.832,0
1579292276.935,-102.539,39.551,-95.703,462.402,35.156,0
1579292276.939,-107.910,41.016,-220.215,456.055,43.457,0
1579292276.943,-91.309,35.645,-278.320,841.309,89.844,0
1579292276.946,-61.035,34.668,-271.484,850.586,74.219,0
1579292276.950,-42.480,38.086,-149.902,324.707,35.156,0
1579292276.954,-40.527,35.645,-201.172,125.488,74.219,0
1579292276.958,0.000,35.645,-103.027,529.785,68.359,0
1579292276.962,24.414,36.621,-2.930,720.215,88.379,0
1579292276.959,21.973,35.156,-184.082,363.281,128.418,0
1579292276.963,35.645,31.250,-183.594,-105.957,107.910,0
1579292276.967,62.988,32.715,-124.512,88.379,60.059,0
1579292276.971,82.520,41.016,-88.867,437.500,6.836,0
1579292276.975,66.895,37.598,-137.695,195.312,44.434,0
1579292276.979,38.574,37.109,-401.367,-253.906,41.504,0
1579292276.983,61.035,43.457,-498.535,-265.137,-6.348,0
1579292276.986,97.168,39.551,-281.250,122.559,-9.766,0
1579292276.990,83.984,31.738,-83.008,150.391,33.203,0
1579292276.994,57.617,35.156,-37.598,-287.109,103.516,0
1579292276.998,41.016,40.039,-440.918,-392.578,80.078,0
1579292277.002,55.664,42.480,-604.980,-89.844,25.391,0
1579292276.999,70.801,44.434,-310.059,6.836,-10.742,0
1579292277.003,55.176,42.480,-171.875,-289.062,11.230,0
1579292277.007,37.109,38.574,-149.902,-498.047,64.453,0
1579292277.011,37.109,39.062,-204.590,-207.520,50.781,0
1579292277.015,43.945,41.992,-172.363,-10.254,-11.230,0
1579292277.019,33.203,42.480,-189.941,-246.094,43.945,0
1579292277.023,24.414,44.434,-411.133,-573.730,20.508,0
1579292277.026,42.480,45.410,-304.199,-410.645,-11.719,0
1579292277.030,51.270,42.969,-295.410,-54.199,0.000,0
1579292277.034,52.246,38.086,-319.824,-293.945,27.832,0
1579292277.038,42.969,34.180,-170.898,-770.020,58.594,0
1579292277.042,41.504,33.203,-250.977,-777.344,6.348,0
1579292277.059,57.617,33.691,-121.582,-395.020,15.625,0
1579292277.063,38.574,36.621,-231.445,-334.961,55.664,0
1579292277.067,-12.695,36.133,-556.152,-786.621,8.301,0
1579292277.071,-30.762,36.133,-428.223,-836.914,6.348,0
1579292277.075,-11.719,41.016,-188.965,-288.086,26.855,0
1579292277.079,-25.391,41.016,-140.137,10.742,15.625,0
1579292277.083,-65.918,41.504,-382.324,-212.891,9.277,0
1579292277.086,-63.477,41.992,-456.055,-412.109,-0.977,0
1579292277.090,-30.273,44.922,-142.578,4.883,-6.348,0
1579292277.094,-10.254,46.875,103.027,456.543,55.664,0
1579292277.098,0.977,41.504,182.617,258.789,67.383,0
1579292277.102,-1.465,37.109,-101.562,-82.031,14.648,0
1579292277.099,19.531,37.109,-307.129,104.492,10.254,0
1579292277.103,78.125,39.551,73.730,558.594,91.309,0
1579292277.107,101.562,34.668,164.062,409.668,70.312,0
1579292277.111,104.492,37.598,30.762,-158.691,37.598,0
1579292277.115,130.371,40.039,-126.465,-303.711,48.828,0
1579292277.119,166.992,33.203,-332.031,-129.395,20.996,0
1579292277.123,180.664,32.227,-322.754,-245.605,26.367,0
1579292277.126,151.367,35.156,-394.043,-730.469,22.949,0
1579292277.130,116.211,36.133,-363.770,-943.359,22.461,0
1579292277.134,82.031,35.156,-203.125,-552.734,38.086,0
1579292277.138,31.250,32.227,-429.199,-293.457,59.082,0
1579292277.142,-9.277,31.250,-423.828,-456.543,41.992,0
1579292277.139,-48.340,34.668,-202.637,-519.531,-4.883,0
1579292277.143,-71.289,40.039,-110.352,-56.641,9.277,0
1579292277.147,-74.219,40.039,8.301,412.109,29.297,0
1579292277.151,-81.055,37.598,-159.668,146.973,-57.617,0
1579292277.155,-64.941,38.574,-167.480,-262.207,-21.484,0
1579292277.159,-17.090,41.016,-138.672,-101.562,92.773,0
1579292277.163,41.504,44.434,-106.934,231.445,95.703,0
1579292277.166,66.895,40.039,101.562,131.348,78.125,0
1579292277.170,44.922,40.527,-270.508,-306.152,64.453,0
1579292277.174,46.875,43.945,-474.609,-201.172,59.570,0
1579292277.178,61.523,38.574,-83.496,439.453,25.879,0
1579292277.182,36.621,38.574,83.496,688.477,-18.066,0
1579292277.199,-9.766,38.086,99.609,423.828,-8.301,0
1579292277.203,-45.898,37.109,-24.902,237.793,22.461,0
1579292277.207,-34.180,36.133,31.738,584.961,45.898,0
1579292277.211,-21.484,38.574,188.477,688.965,50.781,0
1579292277.215,-35.156,40.039,98.633,111.328,41.016,0
1579292277.219,-39.062,38.574,-163.574,-511.230,44.434,0
1579292277.223,-20.996,35.156,-558.105,-628.418,-1.953,0
1579292277.226,-8.789,34.668,-561.523,-378.906,27.832,0
1579292277.230,-19.531,43.457,-204.102,-575.684,46.387,0
1579292277.234,-87.891,45.410,-236.328,-968.750,-30.273,0
1579292277.238,-149.414,39.062,-235.352,-907.715,-0.977,0
1579292277.242,-186.523,39.062,-190.430,-570.801,72.754,0
1579292277.239,-237.305,38.086,-157.715,-524.414,84.961,0
1579292277.243,-280.273,34.180,-163.574,-885.254,33.691,0
1579292277.247,-291.504,34.180,-257.812,-957.520,3.418,0
1579292277.251,-287.109,36.133,-110.352,-638.672,68.848,0
1579292277.255,-291.016,39.551,-94.238,-563.965,104.004,0
1579292277.259,-293.457,42.969,-333.984,-837.402,47.363,0
1579292277.263,-278.809,43.945,-458.496,-999.023,-5.859,0
1579292277.266,-212.402,38.574,-360.352,-630.371,-6.348,0
1579292277.270,-133.789,36.133,-69.824,-282.227,12.207,0
1579292277.274,-114.258,39.062,-60.059,-526.855,66.406,0
1579292277.278,-104.492,37.109,-487.793,-794.434,55.176,0
1579292277.282,-32.715,36.133,-378.906,-582.031,28.320,0
1579292277.280,37.598,41.504,60.547,-207.520,101.562,0
1579292277.284,59.570,45.898,52.246,-499.023,56.641,0
1579292277.288,58.105,44.434,-269.043,-981.445,-4.883,0
1579292277.292,87.891,46.387,-363.770,-901.367,11.719,0
1579292277.296,117.676,44.434,-122.559,-571.777,8.789,0
1579292277.300,104.980,38.086,-112.793,-533.203,48.828,0
1579292277.304,82.520,35.645,-285.645,-868.652,31.738,0
1579292277.307,65.430,37.598,-291.992,-862.305,-3.418,0
1579292277.311,63.477,40.527,-263.672,-322.266,20.508,0
1579292277.315,46.387,38.086,-128.906,-6.348,-13.672,0
1579292277.319,2.930,37.598,60.059,-99.121,36.621,0
1579292277.323,-35.156,39.062,87.891,-161.133,109.863,0
1579292277.339,-40.527,34.668,94.727,280.762,53.711,0
1579292277.343,-41.992,35.156,5.859,871.094,39.551,0
1579292277.347,-35.156,42.969,54.688,834.961,62.500,0
1579292277.351,-38.086,41.016,113.281,593.750,39.551,0
1579292277.355,-14.648,34.180,142.578,822.754,62.012,0
1579292277.359,19.043,36.133,82.031,-977.539,26.855,0
1579292277.363,19.531,39.062,-202.148,-1000.000,-35.156,0
1579292277.366,24.902,38.574,-117.676,882.324,15.137,0
1579292277.370,41.992,37.598,82.031,887.695,26.367,0
1579292277.374,77.148,40.039,108.398,998.047,21.484,0
1579292277.378,94.238,38.086,178.223,-975.098,17.090,0
1579292277.382,65.430,34.668,-86.914,838.867,62.988,0
1579292277.379,50.293,36.133,-369.141,567.871,38.086,0
1579292277.383,73.730,38.574,-99.609,833.496,-13.672,0
1579292277.387,76.660,40.039,93.750,947.754,45.898,0
1579292277.391,52.734,37.109,34.668,480.957,55.664,0
1579292277.395,28.320,36.133,-189.941,140.625,68.848,0
1579292277.399,47.363,41.016,-288.086,291.992,73.730,0
1579292277.403,72.266,37.109,-208.496,535.645,70.801,0
1579292277.406,61.035,24.414,-176.758,202.148,85.449,0
1579292277.410,49.805,26.855,-228.516,-307.617,42.480,0
1579292277.414,63.477,35.156,-377.441,-154.297,23.926,0
1579292277.418,85.449,43.457,-496.094,223.145,44.922,0
1579292277.422,96.191,40.527,-256.348,149.414,27.832,0
1579292277.419,82.520,32.227,-141.602,-339.355,42.480,0
1579292277.423,83.496,37.109,-164.062,-491.211,84.961,0
1579292277.427,85.449,36.621,-181.641,-103.516,88.867,0
1579292277.431,64.941,31.738,-173.828,-30.762,82.031,0
1579292277.435,28.320,30.273,-153.809,-363.770,26.367,0
1579292277.439,-17.578,34.668,-304.688,-374.023,19.531,0
1579292277.443,-16.602,34.180,-192.383,263.672,57.129,0
1579292277.446,-12.695,33.203,25.879,886.230,46.387,0
1579292277.450,-36.133,34.668,-252.441,828.125,26.855,0
1579292277.454,-16.113,36.133,-256.836,708.984,21.973,0
1579292277.458,35.156,36.621,27.344,916.016,8.789,0
1579292277.462,72.266,37.109,10.742,-965.820,-31.250,0
1579292277.479,88.867,34.180,46.387,878.418,23.438,0
1579292277.483,95.703,32.715,-79.590,346.191,22.949,0
1579292277.487,123.047,38.086,-79.590,198.730,41.016,0
1579292277.491,146.484,40.039,16.602,341.797,56.152,0
1579292277.495,140.137,35.645,-60.547,119.141,-8.789,0
1579292277.499,112.793,34.180,-216.797,-308.594,20.508,0
1579292277.503,75.684,37.598,-569.824,-356.934,63.477,0
1579292277.506,59.570,34.180,-542.969,118.652,1.953,0
1579292277.510,20.996,34.180,-98.145,356.934,15.625,0
1579292277.514,-49.805,42.480,-19.043,211.914,48.828,0
1579292277.518,-102.051,47.852,-85.449,289.062,15.625,0
1579292277.522,-123.047,44.434,-69.336,782.227,41.504,0
1579292277.519,-121.094,45.898,77.637,-975.098,58.594,0
1579292277.523,-126.465,44.922,58.594,973.633,7.324,0
1579292277.527,-128.418,41.504,-20.020,990.234,58.594,0
1579292277.531,-94.238,42.969,3.906,-998.047,26.855,0
1579292277.535,-44.434,41.504,-47.852,998.535,-9.766,0
1579292277.539,-14.160,43.457,-134.277,999.512,32.715,0
1579292277.543,-6.348,43.945,-191.895,999.512,53.711,0
1579292277.546,27.832,38.086,-90.332,-1000.000,104.980,0
1579292277.550,80.078,40.527,42.969,995.117,12.207,0
1579292277.554,97.168,41.504,-96.191,-992.188,19.531,0
1579292277.558,101.562,40.039,-172.363,978.516,86.914,0
1579292277.562,116.211,41.016,-22.461,918.457,47.852,0
1579292277.559,130.859,38.086,36.133,968.262,59.570,0
1579292277.563,139.648,45.410,120.117,-967.773,49.316,0
1579292277.567,113.281,46.875,-87.891,711.914,80.078,0
1579292277.571,92.285,34.180,-331.543,241.211,87.891,0
1579292277.575,106.934,29.785,-206.055,309.570,77.637,0
1579292277.579,119.141,44.922,-272.949,472.168,44.922,0
1579292277.583,117.188,43.457,-296.387,175.781,44.434,0
1579292277.586,100.098,37.598,-409.180,-248.047,74.219,0
1579292277.590,98.145,39.062,-720.215,-152.344,36.621,0
1579292277.594,115.234,32.715,-466.797,207.031,36.621,0
1579292277.598,116.211,30.762,-115.234,198.730,72.266,0
1579292277.602,97.168,33.203,-118.164,-145.508,54.688,0
1579292277.619,79.102,36.133,-227.539,-154.297,33.203,0
1579292277.623,90.332,39.551,-309.082,237.305,-41.992,0
1579292277.627,103.027,37.598,-144.531,266.113,-17.578,0
1579292277.631,79.102,27.344,-127.930,-164.062,50.781,0
1579292277.635,69.336,27.344,-210.449,-383.789,37.598,0
1579292277.639,79.590,36.621,-353.516,-144.043,32.227,0
1579292277.643,91.309,41.504,-431.641,-40.527,51.270,0
1579292277.646,94.238,38.086,-364.746,-519.531,74.707,0
1579292277.650,85.449,35.645,-425.293,-943.359,76.660,0
1579292277.654,102.051,35.645,-390.625,-821.289,3.418,0
1579292277.658,113.281,36.133,-284.668,-683.594,-9.766,0
1579292277.662,93.262,36.621,-454.102,-879.395,71.777,0
1579292277.659,80.566,31.738,-550.781,-986.328,15.137,0
1579292277.663,89.355,29.785,-381.836,-959.961,-17.578,0
1579292277.667,101.074,26.367,-330.566,-968.750,-22.949,0
1579292277.671,89.355,20.020,-331.055,-969.238,-36.621,0
1579292277.675,61.523,27.832,-367.676,-961.914,50.293,0
1579292277.679,51.270,40.527,-450.684,-986.816,66.406,0
1579292277.683,70.801,40.039,-435.059,-893.555,75.195,0
1579292277.686,84.473,36.133,-374.023,-839.355,47.363,0
1579292277.690,73.242,29.785,-271.484,-951.660,-15.625,0
1579292277.694,49.316,27.344,-490.234,-1000.000,28.809,0
1579292277.698,67.383,31.250,-672.363,-786.133,74.707,0
1579292277.702,103.027,29.785,-320.801,-435.059,57.617,0
1579292277.699,95.215,29.785,-158.203,-577.148,12.207,0
1579292277.703,79.590,34.180,-158.691,-789.551,29.785,0
1579292277.707,81.055,31.250,-242.676,-515.625,9.277,0
1579292277.711,94.238,28.809,-169.922,-205.078,13.672,0
1579292277.715,86.914,30.762,-30.273,-301.758,44.922,0
1579292277.719,57.129,31.738,-214.355,-530.762,56.152,0
1579292277.723,59.570,35.156,-284.180,-314.453,41.992,0
1579292277.726,70.801,35.645,-263.184,139.648,25.391,0
1579292277.730,63.477,30.273,-377.441,77.148,40.527,0
1579292277.734,62.012,31.738,-221.191,-256.348,8.789,0
1579292277.738,62.988,41.504,-63.965,-238.770,25.879,0
1579292277.742,81.055,38.574,44.922,227.051,30.273,0
1579292277.759,85.938,37.598,62.988,440.918,44.434,0
1579292277.763,70.801,44.434,-79.102,134.277,75.684,0
1579292277.767,59.570,46.875,-96.680,107.422,30.273,0
1579292277.771,57.617,36.133,29.785,605.469,21.484,0
1579292277.775,55.176,18.555,205.078,-971.191,59.082,0
1579292277.779,20.020,26.855,73.730,876.465,122.070,0
1579292277.783,-18.066,42.969,-226.074,539.062,80.566,0
1579292277.786,-2.930,43.945,-34.668,787.109,26.855,0
1579292277.790,18.555,43.457,185.059,-970.215,46.387,0
1579292277.794,15.625,43.945,168.945,-999.023,-11.230,0
1579292277.798,-23.438,40.527,79.590,832.520,27.832,0
1579292277.802,-38.574,43.945,-109.375,817.871,71.777,0
1579292277.800,-4.883,38.086,-1.953,-987.793,28.809,0
1579292277.804,0.488,36.621,146.973,-995.605,52.246,0
1579292277.808,-10.742,40.527,118.652,978.516,74.219,0
1579292277.812,-27.344,41.504,50.293,972.168,66.406,0
1579292277.816,-28.809,41.504,-75.195,993.652,82.031,0
1579292277.820,-22.461,34.180,-154.785,-984.863,18.555,0
1579292277.824,-37.109,31.250,-218.262,947.266,-34.668,0
1579292277.827,-40.527,34.668,-282.715,838.867,-10.742,0
1579292277.831,-1.465,40.039,-76.660,932.617,20.996,0
1579292277.835,16.113,41.016,-219.727,-970.215,31.738,0
1579292277.839,10.254,33.691,-327.148,912.109,54.199,0
1579292277.843,17.090,31.250,5.371,604.004,107.910,0
1579292277.839,25.879,30.762,82.031,701.660,130.371,0
1579292277.843,44.434,27.832,110.840,954.590,88.867,0
1579292277.847,40.527,30.762,-4.883,724.121,54.688,0
1579292277.851,29.297,33.203,-119.141,315.430,39.062,0
1579292277.855,40.527,32.715,-63.965,263.184,75.195,0
1579292277.859,62.988,33.691,-137.207,613.281,97.168,0
1579292277.863,80.078,42.969,-80.566,578.125,99.121,0
1579292277.866,72.266,46.875,-318.848,34.180,69.336,0
1579292277.870,85.938,49.805,-601.074,-154.785,51.270,0
1579292277.874,136.230,42.480,-229.980,134.766,43.457,0
1579292277.878,154.297,29.297,20.020,259.277,83.008,0
1579292277.882,147.949,34.668,-25.391,-235.840,81.055,0
1579292277.899,139.160,42.480,-314.453,-740.723,6.348,0
1579292277.903,152.344,38.086,-360.352,-531.738,2.441,0
1579292277.907,161.621,34.668,-159.180,-265.625,25.391,0
1579292277.911,139.160,39.062,-154.297,-523.438,39.062,0
1579292277.915,98.145,35.645,-176.270,-940.918,74.707,0
1579292277.919,65.430,29.297,-426.758,-867.188,65.918,0
1579292277.923,55.664,32.227,-608.398,-525.391,-16.602,0
1579292277.926,52.246,38.574,-305.664,-597.168,-28.809,0
1579292277.930,32.715,41.992,-209.473,-905.762,25.879,0
1579292277.934,27.832,45.410,-197.266,-948.730,43.945,0
1579292277.938,41.504,47.363,-315.430,-621.582,22.461,0
1579292277.942,54.199,44.922,-362.793,-385.742,20.508,0
1579292277.939,63.965,45.898,-137.207,-643.555,45.898,0
1579292277.943,53.711,44.434,-125.977,-709.473,40.039,0
1579292277.947,66.406,40.039,-86.914,-278.320,1.953,0
1579292277.951,90.332,43.945,-44.922,64.941,-1.953,0
1579292277.955,92.285,46.875,-104.980,-102.539,13.184,0
1579292277.959,100.586,47.852,-253.906,-455.566,0.488,0
1579292277.963,140.625,48.828,-276.855,-289.062,45.898,0
1579292277.966,182.129,45.410,-72.266,-88.867,53.711,0
1579292277.970,176.758,43.945,-10.254,-335.449,43.457,0
1579292277.974,118.164,35.645,-467.285,-711.426,33.203,0
1579292277.978,90.332,35.156,-543.457,-590.820,14.648,0
1579292277.982,83.984,40.039,-61.523,24.414,19.531,0
1579292277.979,33.691,42.480,69.336,238.281,66.895,0
1579292277.983,-19.531,41.992,-30.762,99.121,86.426,0
1579292277.987,-40.039,38.086,-116.211,335.449,26.367,0
1579292277.991,-25.879,33.203,59.570,840.332,32.715,0
1579292277.995,-16.113,39.551,244.629,-941.895,61.523,0
1579292277.999,-20.508,48.828,28.320,703.125,14.160,0
1579292278.003,-3.906,43.945,-177.734,416.016,-36.621,0
1579292278.006,47.852,39.551,-169.922,785.645,14.648,0
1579292278.010,95.703,35.156,18.555,-950.195,61.035,0
1579292278.014,96.680,35.156,167.969,882.324,39.551,0
1579292278.018,61.035,31.250,73.730,672.363,88.867,0
1579292278.022,34.180,22.949,125.000,886.719,50.781,0
1579292278.038,6.348,26.855,-64.941,-973.633,-69.336,0
1579292278.042,-41.504,30.762,-75.195,987.305,0.488,0
1579292278.046,-88.867,31.250,200.195,-997.559,87.891,0
1579292278.050,-101.074,32.227,87.402,991.211,31.738,0
1579292278.054,-74.707,34.180,18.066,987.793,-28.809,0
1579292278.058,-65.918,43.457,-85.938,-990.234,37.598,0
1579292278.062,-53.711,39.062,-435.059,514.160,27.344,0
1579292278.065,-14.648,32.227,-346.680,-75.684,-31.738,0
1579292278.069,8.789,37.109,-104.492,-75.195,16.113,0
1579292278.073,12.695,35.645,21.484,-85.449,74.707,0
1579292278.077,-38.086,34.668,-136.719,-540.527,41.992,0
1579292278.081,-99.609,39.551,-261.719,-876.465,63.477,0
1579292278.078,-125.000,37.598,-20.508,-493.652,173.340,0
1579292278.082,-167.480,33.691,59.082,-154.785,145.996,0
1579292278.086,-224.609,42.969,-60.059,-403.809,14.648,0
1579292278.090,-263.184,44.434,-276.367,-757.812,-14.160,0
1579292278.094,-255.371,38.086,-263.672,-591.309,62.012,0
1579292278.098,-225.586,39.062,-156.250,-218.750,75.195,0
1579292278.102,-196.289,36.621,-262.695,-418.457,60.547,0
1579292278.105,-157.227,36.621,-232.422,-845.215,30.273,0
1579292278.109,-117.188,36.133,-165.039,-732.422,47.852,0
1579292278.113,-53.711,36.133,-415.039,-315.918,36.621,0
1579292278.117,11.719,38.574,-249.512,-264.160,45.410,0
1579292278.121,34.180,38.574,-0.488,-724.609,83.984,0
1579292278.118,64.453,40.527,-129.883,-963.379,12.207,0
1579292278.122,112.793,43.945,-126.465,-626.953,8.301,0
1579292278.126,132.324,44.922,-91.309,-573.242,65.918,0
1579292278.130,122.070,50.293,-84.473,-895.996,40.039,0
1579292278.134,99.121,47.363,-168.945,-983.398,-12.207,0
1579292278.138,99.609,39.062,-296.875,-957.520,-5.371,0
1579292278.142,108.887,40.527,-279.297,-968.750,-22.949,0
1579292278.145,74.219,47.363,-493.652,-958.984,-26.855,0
1579292278.149,41.992,47.363,-518.066,-976.074,4.395,0
1579292278.153,41.504,43.457,-214.355,-927.734,18.555,0
1579292278.157,34.668,41.992,-138.184,-622.070,27.344,0
1579292278.161,17.578,36.133,20.508,-492.676,28.809,0
1579292278.178,-23.926,30.762,-57.617,-719.238,33.203,0
1579292278.182,-30.762,37.598,-52.734,-515.625,51.270,0
1579292278.186,-18.555,45.898,149.414,104.492,75.684,0
1579292278.190,-33.691,49.805,199.219,397.461,20.508,0
1579292278.194,-52.734,52.246,195.312,252.441,18.555,0
1579292278.198,-54.199,46.387,41.016,270.508,60.547,0
1579292278.202,-20.508,41.504,93.750,773.926,147.461,0
1579292278.205,15.137,46.387,304.688,-951.172,106.445,0
1579292278.209,22.949,48.340,243.164,885.742,-11.230,0
1579292278.213,19.531,44.922,210.449,748.047,-10.254,0
1579292278.217,25.391,42.480,14.160,923.828,35.645,0
1579292278.221,44.922,46.387,-126.465,-977.539,26.367,0
1579292278.219,56.152,46.875,63.477,952.637,23.926,0
1579292278.223,36.621,38.574,37.109,716.797,69.336,0
1579292278.227,41.016,43.457,111.328,734.863,63.965,0
1579292278.231,49.805,46.387,72.266,-980.957,10.254,0
1579292278.235,44.434,40.039,-36.133,917.969,-14.648,0
1579292278.239,27.344,36.133,-62.500,407.227,52.246,0
1579292278.243,26.367,41.504,-187.988,266.602,90.332,0
1579292278.246,52.734,42.969,-36.133,610.352,85.449,0
1579292278.250,41.992,35.645,15.625,661.133,90.332,0
1579292278.254,14.648,33.203,-253.418,170.410,22.461,0
1579292278.258,24.414,32.715,-221.191,-178.223,-18.066,0
1579292278.262,58.105,32.227,-51.758,206.055,51.758,0
1579292278.278,84.473,35.645,87.891,502.441,60.059,0
1579292278.282,71.289,38.086,-81.543,190.918,17.578,0
1579292278.286,62.012,38.574,-375.000,-253.418,31.250,0
1579292278.290,87.891,36.621,-342.773,-190.918,10.254,0
1579292278.294,96.191,33.203,-191.895,223.633,-2.930,0
1579292278.298,73.730,37.109,-218.262,110.352,3.906,0
1579292278.302,28.809,42.480,-339.844,-264.648,33.691,0
1579292278.305,-12.207,45.410,-564.941,-133.301,73.242,0
1579292278.309,-9.277,44.922,-411.133,453.125,37.598,0
1579292278.313,-6.836,42.480,67.871,850.586,3.906,0
1579292278.317,-29.785,44.922,206.055,771.484,73.242,0
1579292278.321,-28.809,47.852,172.363,834.473,99.609,0
1579292278.318,20.996,46.387,88.379,994.629,67.871,0
1579292278.322,74.707,42.480,140.625,-972.168,35.156,0
1579292278.326,95.703,37.598,132.812,722.168,28.320,0
1579292278.330,115.723,34.180,-2.441,158.691,24.902,0
1579292278.334,150.879,36.621,-96.191,152.344,-27.832,0
1579292278.338,178.711,36.621,-176.270,149.902,-4.883,0
1579292278.342,179.199,35.156,-196.777,-312.988,125.977,0
1579292278.345,151.855,37.109,-290.527,-734.863,71.777,0
1579292278.349,140.137,39.551,-302.734,-563.965,-30.273,0
1579292278.353,123.535,36.133,-38.574,38.574,14.648,0
1579292278.357,39.551,26.367,-233.398,160.645,39.551,0
1579292278.361,-52.734,28.809,-471.680,-37.109,57.617,0
1579292278.358,-89.844,40.039,-155.762,406.250,17.090,0
1579292278.362,-96.191,38.086,86.426,970.703,15.137,0
1579292278.366,-102.051,39.062,190.430,-998.047,39.062,0
1579292278.370,-119.141,44.922,56.152,980.469,19.043,0
1579292278.374,-115.234,41.016,3.906,997.070,22.949,0
1579292278.378,-72.266,41.992,-39.551,-1000.000,11.230,0
1579292278.382,-26.367,45.898,-98.145,999.023,0.977,0
1579292278.385,-5.371,39.551,120.605,999.023,49.316,0
1579292278.389,-0.977,33.203,-14.648,999.512,91.309,0
1579292278.393,27.344,39.551,-359.863,999.512,18.066,0
1579292278.397,73.730,44.922,-66.895,999.512,15.625,0
1579292278.401,80.078,39.551,202.637,999.023,103.027,0
1579292278.419,77.148,42.480,139.160,-998.535,57.129,0
1579292278.423,96.680,50.781,-27.832,988.770,-13.672,0
1579292278.427,121.094,50.781,-24.414,-1000.000,8.789,0
1579292278.431,124.512,48.340,154.785,969.238,68.848,0
1579292278.435,102.051,42.480,109.863,563.965,106.445,0
1579292278.439,89.355,35.645,-77.637,275.879,99.121,0
1579292278.443,100.586,33.691,-245.605,416.504,57.129,0
1579292278.446,96.680,41.504,-490.723,306.641,2.441,0
1579292278.450,83.008,49.316,-375.977,-124.023,-1.953,0
1579292278.454,74.707,48.340,-141.602,-331.055,65.430,0
1579292278.458,70.312,42.480,-96.191,43.945,79.590,0
1579292278.462,51.758,38.086,-60.547,299.316,37.598,0
1579292278.459,21.973,36.133,-201.172,19.531,36.621,0
1579292278.463,9.277,34.180,-231.445,-172.363,19.531,0
1579292278.467,20.020,35.156,-121.094,170.898,11.719,0
1579292278.471,41.504,38.086,14.648,651.367,22.461,0
1579292278.475,37.598,37.598,22.949,552.246,26.367,0
1579292278.479,15.625,37.598,-226.074,167.480,17.090,0
1579292278.483,19.531,32.227,-365.234,313.477,-13.672,0
1579292278.486,48.340,31.250,-182.129,718.262,18.066,0
1579292278.490,69.824,43.945,31.250,663.574,55.664,0
1579292278.494,62.500,43.457,-14.648,57.617,61.523,0
1579292278.498,63.477,41.016,-332.520,-223.145,50.293,0
1579292278.502,98.145,42.480,-277.344,85.449,58.594,0
1579292278.499,116.699,43.457,-55.664,62.012,53.711,0
1579292278.503,107.422,43.457,-128.418,-471.680,47.852,0
1579292278.507,91.797,36.621,-248.535,-920.410,37.598,0
1579292278.511,98.633,34.668,-416.016,-694.336,81.055,0
1579292278.515,114.258,37.109,-363.281,-434.082,57.129,0
1579292278.519,91.309,41.016,-399.414,-752.930,-49.316,0
1579292278.523,65.430,45.898,-566.406,-998.047,-13.184,0
1579292278.526,81.543,39.551,-347.656,-932.617,26.855,0
1579292278.530,85.449,34.180,-424.316,-636.719,-6.836,0
1579292278.534,69.336,39.062,-574.219,-592.285,65.918,0
1579292278.538,67.383,38.086,-269.043,-904.785,104.004,0
1579292278.542,69.336,36.621,-128.418,-785.156,68.359,0
1579292278.559,93.262,36.133,6.348,-308.105,93.750,0
1579292278.563,103.516,35.645,-30.273,-155.273,52.734,0
1579292278.567,96.680,39.551,-156.250,-402.344,-1.953,0
1579292278.571,89.844,41.992,-71.777,-392.578,39.062,0
1579292278.575,86.914,41.992,39.551,134.277,67.871,0
1579292278.579,75.684,40.039,-38.086,333.984,6.836,0
1579292278.583,51.758,35.156,-286.133,58.105,30.762,0
1579292278.586,53.223,41.016,-417.480,-104.004,99.121,0
1579292278.590,86.914,43.945,-97.656,210.449,93.750,0
1579292278.594,108.887,34.180,208.984,583.984,90.332,0
1579292278.598,102.539,37.598,219.238,331.543,76.660,0
1579292278.602,84.961,41.016,40.527,-43.457,80.566,0
1579292278.599,96.680,38.086,-56.152,142.090,69.824,0
1579292278.603,117.676,41.016,93.750,516.113,36.133,0
1579292278.607,104.980,38.086,146.973,448.730,55.664,0
1579292278.611,81.543,34.668,67.383,-16.602,62.988,0
1579292278.615,63.477,38.086,-68.848,14.160,41.992,0
1579292278.619,62.500,36.133,-154.297,555.664,35.645,0
1579292278.623,62.988,33.691,-114.746,682.617,36.621,0
1579292278.626,35.156,32.715,-21.484,336.914,52.734,0
1579292278.630,13.672,31.250,-24.902,212.891,88.867,0
1579292278.634,21.973,34.668,-41.016,661.133,79.590,0
1579292278.638,19.043,37.598,-161.133,966.797,100.098,0
1579292278.642,4.883,35.645,-212.402,670.410,43.457,0
1579292278.639,-3.906,38.086,-71.777,408.203,-31.250,0
1579292278.643,-2.930,37.598,16.602,696.777,14.648,0
1579292278.647,9.766,33.691,127.930,-979.004,36.133,0
1579292278.651,5.371,39.551,79.102,945.312,55.664,0
1579292278.655,-15.137,41.992,-50.781,662.109,30.273,0
1579292278.659,-5.371,40.527,-123.047,756.836,18.555,0
1579292278.663,17.090,42.969,-79.590,-977.051,85.449,0
1579292278.666,16.602,35.645,57.617,977.539,75.684,0
1579292278.670,0.000,32.227,-227.051,631.836,38.574,0
1579292278.674,15.137,34.180,-430.176,506.348,38.086,0
1579292278.678,55.664,35.645,-22.461,877.930,10.742,0
1579292278.682,59.082,41.504,25.391,914.062,-4.395,0
1579292278.699,54.199,43.457,-131.836,499.023,-9.766,0
1579292278.703,50.781,44.922,-110.840,333.496,58.594,0
1579292278.707,62.500,40.527,-30.762,651.855,60.059,0
1579292278.711,80.078,38.574,100.098,871.094,39.062,0
1579292278.715,70.312,39.062,41.016,505.371,30.273,0
1579292278.719,53.711,35.645,-170.410,120.605,3.418,0
1579292278.723,56.641,41.504,-397.949,345.703,33.203,0
1579292278.726,75.684,49.805,-411.621,684.570,48.340,0
1579292278.730,85.938,44.922,-79.102,515.625,48.340,0
1579292278.734,65.918,38.574,-35.645,57.617,43.945,0
1579292278.738,60.547,38.574,-113.770,84.961,-5.859,0
1579292278.742,68.359,39.551,-150.391,475.098,-41.016,0
1579292278.739,64.453,39.062,-44.434,503.418,52.734,0
1579292278.743,52.246,35.645,37.109,60.059,88.379,0
1579292278.747,54.199,40.527,-157.715,-103.027,55.664,0
1579292278.751,78.125,42.969,-90.332,373.535,52.246,0
1579292278.755,81.543,37.598,-29.297,572.754,19.531,0
1579292278.759,61.523,43.945,-252.441,231.934,0.488,0
1579292278.763,46.387,42.480,-308.594,-10.742,32.715,0
1579292278.766,65.430,35.156,-203.613,235.352,14.648,0
1579292278.770,87.402,39.551,23.926,562.500,17.090,0
1579292278.774,64.453,43.945,-6.836,326.660,43.945,0
1579292278.778,31.250,43.457,-466.797,-80.078,25.391,0
1579292278.782,44.922,37.598,-400.391,43.945,20.020,0
1579292278.779,51.758,37.109,-49.316,401.855,15.137,0
1579292278.783,32.227,41.504,-15.137,369.141,-22.461,0
1579292278.787,8.301,38.086,-88.867,2.930,28.809,0
1579292278.791,6.348,38.574,-194.336,20.996,59.082,0
1579292278.795,35.156,43.945,-20.020,426.270,77.148,0
1579292278.799,36.621,36.133,-34.180,456.543,91.797,0
1579292278.803,20.996,33.203,-222.656,127.441,75.684,0
1579292278.806,24.414,40.527,-281.738,32.715,40.039,0
1579292278.810,52.246,39.551,-468.750,456.543,17.090,0
1579292278.814,86.426,32.227,-331.055,633.301,40.527,0
1579292278.818,84.961,31.250,-3.906,251.465,59.082,0
1579292278.822,83.496,41.504,-26.855,40.527,64.453,0
1579292278.839,102.539,45.410,-16.113,310.547,58.594,0
1579292278.843,102.539,38.086,-26.367,634.766,45.410,0
1579292278.847,80.078,34.180,-60.547,361.816,21.484,0
1579292278.851,50.293,33.691,-98.145,-39.551,34.668,0
1579292278.855,30.762,33.203,-79.102,245.117,55.664,0
1579292278.859,12.695,35.645,-102.051,704.590,45.898,0
1579292278.863,-8.789,36.133,-243.652,706.543,75.195,0
1579292278.866,-27.832,35.156,-259.766,266.602,46.875,0
1579292278.870,-37.598,40.039,-195.312,245.117,26.855,0
1579292278.874,-18.066,43.457,-78.613,812.988,41.016,0
1579292278.878,1.953,43.945,51.758,907.715,-6.836,0
1579292278.882,-21.484,41.504,-193.359,492.676,2.930,0
1579292278.879,-15.625,37.109,-342.285,256.348,42.969,0
1579292278.883,47.363,38.086,-62.500,536.621,14.648,0
1579292278.887,89.844,39.062,73.242,754.883,11.230,0
1579292278.891,101.074,36.133,27.344,312.012,-6.836,0
1579292278.895,124.023,38.086,-207.520,-162.109,-10.254,0
1579292278.899,166.992,43.945,-317.383,-106.934,63.965,0
1579292278.903,184.082,41.016,-328.613,32.227,0.488,0
1579292278.906,169.922,36.133,-241.699,-102.051,12.695,0
1579292278.910,132.324,41.992,-94.238,-357.910,75.195,0
1579292278.914,74.707,45.410,-226.562,-32.227,61.523,0
1579292278.918,16.602,37.598,-194.824,635.254,109.863,0
1579292278.922,-23.438,32.715,16.113,858.887,97.656,0
1579292278.919,-61.523,37.598,3.906,829.102,47.852,0
1579292278.923,-61.035,40.039,120.117,921.387,83.496,0
1579292278.927,-30.762,41.016,66.895,-990.723,82.520,0
1579292278.931,-11.719,42.480,-180.176,997.559,28.320,0
1579292278.935,14.160,42.480,-42.480,967.773,33.691,0
1579292278.939,27.832,39.551,-96.191,955.078,26.855,0
1579292278.943,56.641,40.039,-62.500,-1000.000,51.270,0
1579292278.946,51.270,40.039,78.613,-999.023,39.551,0
1579292278.950,0.488,41.504,-87.891,997.559,22.949,0
1579292278.954,-25.879,48.340,-3.418,999.512,24.902,0
1579292278.958,-38.574,45.898,131.348,999.512,14.648,0
1579292278.962,-46.387,42.480,199.219,999.023,42.969,0
1579292278.980,-72.266,45.410,145.020,-999.512,18.555,0
1579292278.984,-95.703,43.945,-134.277,998.047,-11.230,0
1579292278.988,-76.172,41.992,-191.895,972.168,7.324,0
1579292278.992,-28.320,37.598,4.883,-975.586,20.996,0
1579292278.996,1.953,38.574,84.961,794.922,9.277,0
1579292279.000,-7.324,40.527,-183.105,27.832,-5.371,0
1579292279.004,-17.090,40.039,-519.043,-460.938,8.301,0
1579292279.007,2.441,40.527,-325.195,-153.320,55.176,0
1579292279.011,-20.996,39.551,-40.039,152.832,52.734,0
1579292279.015,-103.516,44.434,-131.836,-145.508,-9.277,0
1579292279.019,-174.805,42.969,-185.059,-253.906,-43.457,0
1579292279.023,-234.375,39.551,-293.457,186.523,78.613,0
1579292279.018,-274.902,41.016,-263.672,556.641,112.305,0
1579292279.022,-279.297,41.992,8.301,383.789,43.457,0
1579292279.026,-272.461,41.504,-20.996,9.277,51.270,0
1579292279.030,-226.074,48.828,-18.066,159.668,59.082,0
1579292279.034,-172.852,52.246,-18.066,404.297,60.059,0
1579292279.038,-147.949,41.992,-180.176,146.484,24.902,0
1579292279.042,-120.117,41.016,-310.059,-321.777,16.113,0
1579292279.045,-75.195,44.434,-394.043,-417.969,21.484,0
1579292279.049,-9.277,41.504,-198.730,-79.590,32.227,0
1579292279.053,11.230,43.945,-200.684,-176.270,52.734,0
1579292279.057,-1.465,43.945,-538.574,-726.562,20.996,0
1579292279.061,27.832,34.668,-369.629,-909.668,5.859,0
1579292279.058,61.523,35.645,-86.426,-583.984,54.688,0
1579292279.062,62.500,39.062,19.531,-511.230,65.430,0
1579292279.066,38.574,42.480,-118.164,-836.426,57.129,0
1579292279.070,21.973,49.805,-259.766,-1000.000,41.016,0
1579292279.074,28.809,46.875,-185.547,-820.312,10.742,0
1579292279.078,18.066,41.016,-206.543,-443.848,8.789,0
1579292279.082,-5.859,44.434,-151.855,-472.168,53.711,0
1579292279.085,-38.574,46.387,-137.695,-688.965,98.145,0
1579292279.089,-51.270,46.875,-421.875,-313.965,56.152,0
1579292279.093,-34.668,44.434,-158.203,366.211,22.949,0
1579292279.097,-49.316,42.969,183.105,537.598,25.879,0
1579292279.101,-76.660,40.527,208.008,359.863,76.172,0
1579292279.118,-76.660,37.109,143.555,532.227,99.121,0
1579292279.122,-44.922,36.621,104.492,934.082,49.805,0
1579292279.126,-21.484,38.574,245.605,-969.727,41.992,0
1579292279.130,-38.574,40.527,248.535,906.738,64.453,0
1579292279.134,-57.129,42.480,212.891,873.535,90.332,0
1579292279.138,-43.945,38.086,164.062,994.141,130.371,0
1579292279.142,-42.480,34.180,-196.289,-984.863,70.801,0
1579292279.145,-39.551,40.039,-199.707,960.938,21.973,0
1579292279.149,-42.969,40.039,101.562,825.195,63.477,0
1579292279.153,-37.109,36.621,101.562,908.691,-1.465,0
1579292279.157,-30.273,35.645,81.543,-970.215,4.883,0
1579292279.161,-44.434,35.645,3.418,941.895,46.875,0
1579292279.159,-46.875,35.645,42.480,657.227,63.965,0
1579292279.163,-38.086,35.645,61.523,698.242,54.688,0
1579292279.167,-18.066,37.109,114.746,-996.582,45.898,0
1579292279.171,-20.020,37.598,184.082,922.852,91.797,0
1579292279.175,-39.551,34.668,-10.254,525.391,62.500,0
1579292279.179,-31.738,37.109,-205.078,474.609,38.574,4
1579292279.183,-5.859,41.992,-191.406,869.629,22.949,0
1579292279.186,6.836,42.969,-12.695,975.586,32.715,0
1579292279.190,1.465,45.898,84.961,537.598,60.547,0
1579292279.194,-8.301,44.434,-264.160,261.230,1.953,0
1579292279.198,23.438,39.551,-358.887,582.520,-50.293,0
1579292279.202,55.176,41.504,-6.836,809.082,21.484,0
1579292279.198,58.594,40.527,40.527,462.402,63.477,0
1579292279.202,51.270,40.039,-108.398,15.625,68.848,0
1579292279.206,53.223,45.898,-408.203,160.156,44.922,0
1579292279.210,83.008,41.504,-356.934,489.746,13.672,0
1579292279.214,85.938,35.645,-81.055,291.016,27.832,0
1579292279.218,47.852,35.645,-251.465,-146.973,65.918,0
1579292279.222,27.344,35.645,-334.473,-113.770,81.055,0
1579292279.225,18.555,40.039,-260.254,360.352,72.266,0
1579292279.229,-16.113,45.410,-384.766,545.898,75.195,0
1579292279.233,-41.504,40.527,-201.660,345.215,52.734,0
1579292279.237,-48.340,33.691,-38.086,558.105,-37.109,0
1579292279.241,-24.414,39.062,115.234,974.121,8.301,0
1579292279.258,4.395,45.898,127.441,-970.215,36.133,0
1579292279.262,23.438,40.527,-41.016,865.234,-31.738,0
1579292279.266,58.594,35.156,45.898,573.242,43.457,0
1579292279.270,115.234,39.551,107.422,597.656,79.590,0
1579292279.274,165.039,46.875,69.336,541.992,51.758,0
1579292279.278,173.828,48.828,-138.184,115.234,90.820,0
1579292279.282,160.645,41.992,-443.359,-325.195,109.375,0
1579292279.285,175.293,39.062,-310.547,-137.695,65.918,0
1579292279.289,166.992,42.969,-62.500,273.926,1.953,0
1579292279.293,108.398,42.480,-13.672,203.613,22.461,0
1579292279.297,25.879,39.551,-110.352,8.789,94.238,0
1579292279.301,-39.551,40.527,-246.582,281.250,44.922,0
1579292279.298,-72.266,38.574,-54.688,854.492,0.488,0
1579292279.302,-110.352,28.809,165.527,-988.281,80.078,0
1579292279.306,-142.578,28.320,98.633,891.602,42.969,0
1579292279.310,-145.020,36.133,-39.551,940.918,-43.945,0
1579292279.314,-119.629,39.551,-89.355,-988.281,-41.992,0
1579292279.318,-95.703,41.992,-46.875,995.605,40.527,0
1579292279.322,-89.844,43.457,-85.938,998.535,76.172,0
1579292279.325,-77.148,38.574,-163.086,998.535,57.617,0
1579292279.329,-33.691,33.203,-65.430,999.512,55.664,0
1579292279.333,-8.301,34.668,-135.254,998.047,14.648,0
1579292279.337,-1.465,34.668,-137.207,-997.070,3.906,0
1579292279.341,0.977,32.715,15.625,989.746,27.344,0
1579292279.339,17.090,35.156,45.898,974.609,55.176,0
1579292279.343,48.828,38.574,123.047,-1000.000,31.250,0
1579292279.347,49.316,41.992,-147.461,999.023,-8.301,0
1579292279.351,50.293,47.363,-169.922,730.469,133.789,0
1579292279.355,80.566,45.410,5.371,499.512,95.215,0
1579292279.359,98.145,34.180,-142.578,704.590,-1.953,0
1579292279.363,104.980,39.062,-120.117,734.863,40.527,0
1579292279.366,97.168,46.387,-345.703,180.176,23.926,0
1579292279.370,85.449,41.992,-601.562,-118.164,24.414,0
1579292279.374,104.980,40.039,-277.344,95.215,27.832,0
1579292279.378,102.539,39.551,-108.398,165.527,63.965,0
1579292279.382,80.566,38.574,-108.887,-182.617,82.031,0
1579292279.398,52.734,44.434,-269.531,-614.258,38.086,0
1579292279.402,55.176,42.480,-316.895,-420.410,36.621,0
1579292279.406,69.336,36.621,-159.668,-199.707,22.461,0
1579292279.410,63.477,39.551,-226.074,-531.738,-22.949,0
1579292279.414,42.969,39.062,-272.949,-873.047,-1.465,0
1579292279.418,30.273,35.645,-521.484,-780.273,-17.090,0
1579292279.422,53.223,35.156,-691.406,-407.715,20.020,0
1579292279.425,75.195,44.922,-343.262,-553.711,82.031,0
1579292279.429,55.664,45.898,-189.453,-949.219,83.008,0
1579292279.433,55.176,41.504,-264.648,-992.676,30.762,0
1579292279.437,73.242,41.016,-233.398,-737.305,77.637,0
1579292279.441,73.242,33.203,-207.520,-712.402,106.445,0
1579292279.438,69.336,39.551,-206.055,-968.750,53.711,0
1579292279.442,68.848,48.340,-356.445,-973.145,36.133,0
1579292279.446,83.008,36.133,-312.500,-960.938,34.180,0
1579292279.450,93.262,34.668,-234.863,-970.215,37.598,0
1579292279.454,74.219,36.133,-348.633,-968.262,35.645,0
1579292279.458,60.059,25.879,-436.523,-968.262,31.738,0
1579292279.462,89.844,23.926,-504.395,-968.262,31.738,0
1579292279.465,114.258,24.902,-379.883,-968.262,18.555,0
1579292279.469,100.586,28.320,-223.145,-967.773,25.879,0
1579292279.473,55.176,34.668,-563.477,-961.426,44.434,0
1579292279.477,55.176,32.715,-620.117,-990.723,34.668,0
1579292279.481,88.379,32.715,-238.281,-860.352,-8.301,0
1579292279.479,85.938,36.621,-128.906,-782.715,-7.324,0
1579292279.483,69.336,37.598,-167.969,-966.309,-0.488,0
1579292279.487,66.406,39.551,-259.277,-941.406,28.809,0
1579292279.491,85.449,38.574,-70.312,-569.824,117.676,0
1579292279.495,81.055,30.273,-92.773,-334.961,36.621,0
1579292279.499,60.059,26.855,-279.785,-520.020,37.598,0
1579292279.503,52.246,29.297,-161.621,-628.906,112.305,0
1579292279.506,42.480,33.691,-337.891,-257.324,15.137,0
1579292279.510,49.316,40.527,-464.844,29.297,-55.176,0
1579292279.514,53.223,43.457,-40.039,-79.590,27.832,0
1579292279.518,39.551,40.039,34.668,-245.605,45.410,0
1579292279.522,51.758,32.715,0.977,10.254,1.465,0
1579292279.539,61.035,39.062,28.809,520.508,4.883,0
1579292279.543,53.223,48.340,55.176,457.031,21.484,0
1579292279.547,34.668,39.551,31.250,102.051,8.301,0
1579292279.551,33.203,36.621,-15.137,223.633,11.230,0
1579292279.555,56.152,43.457,135.742,695.312,48.340,0
1579292279.559,42.480,40.039,-88.867,797.363,11.719,0
1579292279.563,14.160,38.086,-267.090,414.551,30.273,0
1579292279.566,12.695,37.109,-146.484,422.363,52.246,0
1579292279.570,18.066,27.832,-48.340,868.164,23.438,0
1579292279.574,25.879,29.785,212.891,-965.820,57.617,0
1579292279.578,-1.465,36.133,80.566,930.176,99.121,0
1579292279.582,-30.762,34.668,-238.770,790.527,43.457,0
1579292279.579,-5.859,36.133,-29.785,930.664,28.809,0
1579292279.583,9.766,34.668,143.066,-980.469,41.504,0
1579292279.587,0.000,35.156,140.137,990.234,33.203,0
1579292279.591,-31.738,34.180,17.578,991.699,45.410,0
1579292279.595,-30.762,33.691,-41.016,994.629,58.594,0
1579292279.599,-2.441,37.598,-34.180,999.512,52.246,0
1579292279.603,3.906,33.203,-123.535,-996.094,6.836,0
1579292279.606,1.465,33.203,9.277,976.562,32.715,0
1579292279.610,3.418,37.109,27.832,969.727,44.922,0
1579292279.614,23.926,40.527,-314.941,994.629,10.254,0
1579292279.618,49.805,42.480,-340.820,-981.934,1.465,0
1579292279.622,50.293,40.527,-25.391,930.664,38.086,0
1579292279.619,51.270,41.504,70.801,853.516,55.176,0
1579292279.623,77.637,45.898,72.754,970.703,56.152,0
1579292279.627,87.891,45.898,74.219,-965.332,84.473,0
1579292279.631,82.520,45.410,119.629,875.488,72.754,0
1579292279.635,65.918,43.457,92.285,599.609,42.480,0
1579292279.639,57.617,34.668,-18.555,791.504,42.480,0
1579292279.643,84.473,41.992,150.391,-967.285,86.914,0
1579292279.646,67.383,37.598,21.484,957.031,70.801,0
1579292279.650,45.410,37.109,-90.820,919.434,-1.953,0
1579292279.654,51.270,40.527,391.602,993.164,44.434,0
1579292279.658,37.598,23.926,559.082,-996.582,38.574,0
1579292279.662,12.207,18.066,682.617,-999.512,81.055,0
1579292279.679,-36.133,23.438,666.992,969.727,119.141,0
1579292279.683,-62.988,28.809,623.047,972.168,19.043,0
1579292279.687,-69.824,27.344,810.059,989.258,19.531,0
1579292279.691,-88.379,26.367,836.426,-973.633,20.996,0
1579292279.695,-131.348,29.785,683.105,838.379,-18.555,0
1579292279.699,-154.297,37.598,389.648,444.336,26.855,0
1579292279.703,-133.301,40.039,229.980,503.418,45.410,0
1579292279.706,-116.699,38.086,282.715,570.312,4.883,0
1579292279.710,-114.258,50.781,323.730,131.836,39.551,0
1579292279.714,-127.441,66.895,273.926,-331.543,63.477,0
1579292279.718,-145.508,66.895,-77.148,-315.918,41.504,0
1579292279.722,-138.184,59.570,-190.918,-55.176,69.336,0
1579292279.719,-129.395,60.547,75.684,-266.113,58.105,0
1579292279.723,-137.207,67.871,-4.395,-794.922,35.645,0
1579292279.727,-117.676,72.266,-80.566,-864.746,71.289,0
1579292279.731,-85.938,66.895,-135.254,-615.723,99.121,0
1579292279.735,-78.613,62.012,-215.332,-732.422,78.125,0
1579292279.739,-99.121,56.152,-384.277,-965.820,29.297,0
1579292279.743,-94.238,51.270,-575.195,-990.723,36.621,0
1579292279.746,-52.734,49.805,-396.973,-870.117,54.688,0
1579292279.750,-47.852,54.199,-349.121,-812.500,79.102,0
1579292279.754,-54.199,66.406,-724.121,-947.754,69.336,0
1579292279.758,-25.391,67.383,-686.035,-999.512,13.672,0
1579292279.762,10.254,58.594,-440.430,-851.562,4.395,0
1579292279.759,33.203,50.293,-337.402,-636.230,22.949,0
1579292279.763,23.926,45.410,-399.414,-835.449,60.059,0
1579292279.767,6.348,44.434,-561.523,-1000.000,51.270,0
1579292279.771,15.625,43.945,-541.992,-895.508,-32.715,0
1579292279.775,37.109,42.480,-411.133,-530.273,-7.812,0
1579292279.779,43.457,41.992,-423.828,-510.742,49.316,0
1579292279.783,24.414,41.504,-668.945,-927.734,11.230,0
1579292279.786,28.809,41.504,-793.457,-875.488,-7.812,0
1579292279.790,63.965,39.551,-490.723,-368.164,25.879,0
1579292279.794,66.406,38.574,-242.188,-214.844,41.504,0
1579292279.798,46.875,41.504,-251.953,-557.129,67.871,0
1579292279.802,35.645,43.945,-303.711,-668.945,65.430,0
1579292279.819,32.227,33.691,-570.312,-202.637,-35.645,0
1579292279.823,44.434,26.367,-468.262,130.371,-41.016,0
1579292279.827,44.434,35.645,-181.641,-39.062,41.992,0
1579292279.831,40.527,36.621,-178.223,-227.051,96.191,0
1579292279.835,53.223,34.668,-157.227,86.426,74.219,0
1579292279.839,60.059,35.645,-245.605,523.926,22.949,0
1579292279.843,61.523,39.551,-357.910,354.004,9.277,0
1579292279.846,59.570,42.480,-311.523,18.555,6.348,0
1579292279.850,79.102,38.086,-220.703,164.551,17.090,0
1579292279.854,106.445,35.645,-92.773,544.922,50.293,0
1579292279.858,95.215,36.133,-260.254,565.430,87.891,0
1579292279.862,84.473,38.574,-451.172,119.629,67.871,0
1579292279.859,99.121,41.992,-187.988,111.328,82.031,0
1579292279.863,110.840,38.086,-54.199,505.859,71.777,0
1579292279.867,102.051,33.203,-73.730,484.375,6.348,0
1579292279.871,71.777,32.715,-187.988,110.352,43.457,0
1579292279.875,64.941,38.086,-274.414,-58.594,50.293,0
1579292279.879,86.426,40.039,-287.598,333.984,40.039,0
1579292279.883,90.332,35.645,-270.508,468.750,45.898,0
1579292279.886,86.914,34.668,-143.555,55.176,23.438,0
1579292279.890,72.266,36.621,-370.605,-236.816,14.160,0
1579292279.894,91.309,36.133,-654.297,-83.984,15.137,0
1579292279.898,136.719,39.062,-308.594,183.594,34.180,0
1579292279.902,129.883,41.016,-100.098,-104.492,55.664,0
1579292279.899,114.746,39.551,-253.418,-613.281,76.660,0
1579292279.903,117.676,42.969,-402.344,-506.836,40.039,0
1579292279.907,125.000,44.922,-319.824,-89.355,10.254,0
1579292279.911,125.488,39.551,-144.531,-49.805,39.062,0
1579292279.915,98.633,41.504,-285.645,-534.180,26.367,0
1579292279.919,68.848,42.480,-439.453,-708.984,10.742,0
1579292279.923,53.711,37.109,-462.402,-230.957,17.578,0
1579292279.926,39.551,43.457,-588.867,-66.406,18.066,0
1579292279.930,24.414,51.758,-448.730,-414.062,23.926,0
1579292279.934,10.254,43.457,-251.465,-659.668,24.414,0
1579292279.938,18.066,40.039,-201.172,-365.234,1.465,0
1579292279.942,20.508,42.969,-117.188,4.883,13.184,0
1579292279.961,19.043,40.527,-169.922,-262.695,42.480,0
1579292279.965,16.602,39.551,-117.188,-597.656,94.727,0
1579292279.969,50.293,36.621,-117.676,-463.379,54.688,0
1579292279.973,94.727,38.086,-116.211,-163.574,47.363,0
1579292279.977,94.727,39.551,-89.844,-249.512,49.316,0
1579292279.981,95.215,41.992,-289.551,-699.707,37.109,0
1579292279.985,125.977,45.410,-411.133,-713.379,47.852,0
1579292279.988,177.246,46.387,-179.199,-380.371,70.801,0
1579292279.992,203.125,35.156,-51.270,-428.223,62.500,0
1579292279.996,172.852,31.738,-78.125,-708.496,55.176,0
1579292280.000,128.906,38.086,-414.062,-637.207,49.805,0
1579292280.004,120.605,37.598,-411.621,23.438,29.297,0
1579292279.998,80.566,38.574,39.551,500.488,39.551,0
1579292280.002,3.906,37.109,79.590,458.984,24.902,0
1579292280.006,-41.504,34.668,33.203,657.715,-2.441,0
1579292280.010,-43.945,35.645,51.270,982.422,33.691,0
1579292280.014,-19.531,38.574,145.020,-988.770,72.266,0
1579292280.018,-12.695,33.203,54.688,976.074,57.129,0
1579292280.022,-22.949,29.297,-150.879,871.582,30.762,0
1579292280.025,8.789,28.320,10.254,944.336,24.414,0
1579292280.029,23.438,33.203,14.160,-984.375,36.621,0
1579292280.033,-2.930,39.551,-112.305,992.188,-28.320,0
1579292280.037,-39.551,32.227,60.547,-999.512,-30.273,0
1579292280.041,-59.570,25.879,125.977,999.512,40.039,0
1579292280.059,-52.246,30.762,215.332,999.023,32.227,0
1579292280.063,-81.543,32.227,39.062,999.512,42.969,0
1579292280.067,-108.398,35.156,-148.926,-998.535,76.172,0
1579292280.071,-77.637,39.062,42.969,979.980,60.547,0
1579292280.075,-37.109,36.621,53.223,992.188,-11.719,0
1579292280.079,-12.695,40.039,-18.066,943.848,-17.090,0
1579292280.083,-14.160,43.945,-193.359,393.066,84.961,0
1579292280.086,-11.719,43.945,-505.371,-322.754,84.473,0
1579292280.090,15.625,37.598,-417.480,-465.820,47.852,0
1579292280.094,4.883,31.738,-261.230,-229.980,30.273,0
1579292280.098,-42.480,37.109,-138.184,-326.172,51.270,0
1579292280.102,-121.094,39.551,-255.371,-695.801,38.574,0
1579292280.099,-182.617,38.574,-345.703,-525.879,38.574,0
1579292280.103,-216.309,39.551,-149.414,-87.402,30.762,0
1579292280.107,-258.301,39.551,-96.191,-76.172,16.602,0
1579292280.111,-294.922,38.086,-107.910,-411.133,52.246,0
1579292280.115,-305.664,34.180,-223.633,-503.906,37.109,0
1579292280.119,-271.973,33.203,-302.734,-116.211,59.082,0
1579292280.123,-230.957,35.156,-254.883,-101.562,83.984,0
1579292280.126,-195.312,35.156,-227.539,-595.215,61.523,0
1579292280.130,-138.672,36.621,-235.840,-833.008,20.996,0
1579292280.134,-70.312,33.691,-200.684,-569.336,13.672,0
1579292280.138,-18.555,41.504,-409.180,-536.133,41.504,0
1579292280.142,12.207,46.875,-609.375,-902.832,-28.320,0
1579292280.140,40.527,41.016,-476.562,-982.910,-35.645,0
1579292280.144,98.633,38.086,-260.254,-956.055,22.949,0
1579292280.148,140.137,35.156,-119.141,-970.215,55.664,0
1579292280.152,133.789,30.762,-230.469,-968.750,52.246,0
1579292280.156,124.023,32.227,-234.863,-968.262,49.316,0
1579292280.160,116.211,33.691,-336.914,-968.750,-1.953,0
1579292280.164,117.188,34.668,-321.777,-969.727,27.344,0
1579292280.167,88.867,44.434,-110.840,-965.332,40.527,0
1579292280.171,24.414,44.922,-348.633,-955.566,-18.066,0
1579292280.175,-10.742,37.109,-412.109,-996.094,-14.648,0
1579292280.179,-15.625,37.598,-65.430,-671.875,55.664,0
1579292280.183,-35.645,38.574,46.875,-298.340,50.293,0
1579292280.198,-65.918,33.691,25.879,-419.922,2.930,0
1579292280.202,-97.656,35.156,-145.020,-366.211,62.988,0
1579292280.206,-81.055,38.574,-190.430,171.387,81.543,0
1579292280.210,-37.109,37.109,107.910,687.012,43.945,0
1579292280.214,-30.273,35.645,202.637,629.883,31.250,0
1579292280.218,-35.156,36.621,50.293,438.477,31.738,0
1579292280.222,-21.484,37.598,-156.738,764.648,35.645,0
1579292280.225,-9.766,37.109,-250.488,-973.633,33.691,0
1579292280.229,-20.996,38.574,-7.324,993.164,-16.602,0
1579292280.233,-53.711,41.016,208.008,962.402,26.855,0
1579292280.237,-62.500,38.086,278.320,969.727,86.914,0
1579292280.241,-55.176,39.551,212.891,-997.070,63.965,0
1579292280.238,-52.246,41.504,154.297,-995.605,53.711,0
1579292280.242,-63.965,40.527,214.844,977.539,68.848,0
1579292280.246,-75.195,45.898,159.180,960.938,56.641,0
1579292280.250,-51.758,43.945,152.832,992.676,15.625,0
1579292280.254,-37.598,38.574,89.844,-980.469,24.414,0
1579292280.258,-53.223,43.457,-82.031,921.387,63.965,0
1579292280.262,-50.781,46.875,-146.484,815.918,69.824,0
1579292280.265,-35.156,44.922,-204.590,938.477,-8.301,0
1579292280.269,-20.020,41.992,-44.922,-971.680,-41.504,0
1579292280.273,-28.809,35.645,-9.766,919.922,-15.625,0
1579292280.277,-45.410,36.133,-264.160,556.152,16.113,0
1579292280.281,-18.066,45.410,-119.141,633.789,50.781,0
1579292280.278,4.395,47.363,100.586,993.164,62.012,0
1579292280.282,6.348,40.527,118.164,784.668,61.523,0
1579292280.286,-10.254,38.574,-62.988,202.148,35.645,0
1579292280.290,-10.254,38.574,-339.355,23.926,82.520,0
1579292280.294,21.484,37.109,-258.789,310.547,45.898,0
1579292280.298,19.531,37.598,-174.316,246.582,25.879,0
1579292280.302,-2.441,37.109,-314.453,-266.113,79.590,0
1579292280.305,0.000,37.109,-260.254,-554.199,76.172,0
1579292280.309,3.906,40.527,-512.695,-347.656,35.645,0
1579292280.313,4.395,40.039,-565.430,-137.207,-11.230,0
1579292280.317,-4.883,32.715,-145.020,-349.609,27.344,0
1579292280.321,-24.414,34.180,-78.125,-441.406,57.617,0
1579292280.339,-18.066,41.504,-62.988,55.664,1.465,0
1579292280.343,-11.230,41.992,-24.414,525.879,8.789,0
1579292280.347,-6.348,42.480,35.156,457.520,41.016,0
1579292280.351,0.977,41.504,-25.391,65.918,9.766,0
1579292280.355,34.180,40.527,-71.289,117.676,52.246,0
1579292280.359,94.238,40.039,-21.973,288.086,57.617,0
1579292280.363,121.582,40.527,-324.219,-102.051,32.715,0
1579292280.366,133.789,41.016,-568.848,-687.500,28.809,0
1579292280.370,166.016,39.551,-308.105,-812.012,16.113,0
1579292280.374,179.688,37.598,-85.449,-430.664,47.363,0
1579292280.378,163.574,33.691,-13.184,-405.762,47.363,0
1579292280.382,115.723,27.832,-211.426,-822.754,32.227,1
1579292280.378,65.918,32.227,-323.242,-821.289,18.555,0
1579292280.382,36.133,36.133,-137.207,-289.551,13.184,0
1579292280.386,-4.883,32.715,12.695,141.602,44.434,0
1579292280.390,-59.082,39.551,82.031,-0.488,84.473,0
1579292280.394,-102.539,46.387,-147.949,-166.016,16.602,0
1579292280.398,-105.469,42.480,-277.344,415.039,-16.602,0
1579292280.402,-91.797,34.180,-78.613,976.562,50.781,0
1579292280.405,-84.961,32.227,-19.531,944.824,27.832,0
1579292280.409,-70.801,38.086,45.410,643.066,14.160,0
1579292280.413,-55.176,41.992,-31.250,739.746,35.645,0
1579292280.417,-29.785,39.062,-254.883,-983.887,48.340,0
1579292280.421,6.348,40.039,-99.121,-980.469,14.160,0
1579292280.418,22.461,42.969,83.496,856.445,31.738,0
1579292280.422,36.621,34.668,86.914,728.027,71.289,0
1579292280.426,57.617,31.250,-47.852,921.875,41.504,0
1579292280.430,71.289,32.715,-89.844,-998.535,15.625,0
1579292280.434,74.707,33.203,28.320,598.145,38.574,0
1579292280.438,64.453,37.109,-175.781,255.371,67.871,0
1579292280.442,86.914,33.203,-193.359,430.176,89.844,0
1579292280.445,106.934,32.227,-12.695,570.312,73.242,0
1579292280.449,92.773,35.645,-360.840,257.324,58.594,0
1579292280.453,93.262,34.668,-502.930,-225.098,26.855,0
1579292280.457,104.980,32.715,-198.242,-62.500,29.785,0
1579292280.461,110.352,33.691,-59.082,220.215,46.875,0
1579292280.478,99.609,37.109,-117.676,-50.293,5.371,0
1579292280.482,69.824,36.133,-336.914,-496.582,-20.020,0
1579292280.486,75.684,34.668,-335.938,-504.395,-12.695,0
1579292280.490,95.703,37.598,-143.555,-93.262,42.969,0
1579292280.494,100.098,42.480,-62.988,-165.527,67.871,0
1579292280.498,87.891,42.969,-268.066,-688.965,58.594,0
1579292280.502,82.520,38.086,-629.883,-804.688,2.930,0
1579292280.505,108.398,39.062,-514.648,-466.797,-41.016,0
1579292280.509,116.699,46.875,-224.121,-394.531,-21.484,0
1579292280.513,82.031,45.410,-231.934,-784.180,30.273,0
1579292280.517,52.246,38.574,-283.203,-1000.000,16.602,0
1579292280.521,50.781,40.527,-493.164,-894.043,18.066,0
