timestamps,TP9,AF7,AF8,TP10,Right AUX,Marker0
1571369802.016,115.723,41.016,40.527,130.859,9.766,0
1571369802.020,65.918,42.480,40.527,210.938,14.648,0
1571369802.024,-52.734,40.527,39.062,-43.457,47.363,0
1571369802.028,-31.738,40.039,37.109,-180.664,56.152,0
1571369802.032,87.891,41.992,36.133,49.805,28.320,0
1571369802.036,100.586,43.457,36.621,243.652,30.762,0
1571369802.040,-15.137,42.969,36.621,51.270,-2.930,0
1571369802.043,-44.434,42.969,34.668,-187.500,-24.902,0
1571369802.047,65.918,43.945,35.156,-18.066,38.086,0
1571369802.051,131.836,44.434,34.668,237.305,61.523,0
1571369802.055,27.344,45.410,34.668,121.094,52.246,0
1571369802.059,-58.594,42.969,31.738,-161.133,4.395,0
1571369802.076,39.062,42.969,33.203,-73.242,49.805,0
1571369802.080,134.766,46.387,36.133,197.754,104.980,0
1571369802.084,51.270,48.340,32.715,180.664,52.246,0
1571369802.088,-50.781,47.852,31.250,-101.562,29.785,0
1571369802.092,8.301,45.898,32.227,-141.113,28.809,0
1571369802.096,120.605,45.898,33.691,116.211,20.996,0
1571369802.100,94.727,44.922,36.133,232.910,6.348,0
1571369802.103,-20.996,45.898,34.180,-5.371,12.695,0
1571369802.107,-4.883,47.852,30.273,-158.203,53.223,0
1571369802.111,96.680,44.434,36.621,52.246,28.809,0
1571369802.115,88.867,40.527,43.457,238.770,-15.137,0
1571369802.119,-28.809,41.016,39.551,63.965,-29.297,0
1571369802.116,-67.871,39.551,36.621,-182.617,-4.395,0
1571369802.120,46.387,36.621,37.598,-28.320,2.441,0
1571369802.124,125.000,34.180,40.039,239.746,-18.555,0
1571369802.128,24.902,35.645,40.039,145.020,27.344,0
1571369802.132,-53.711,38.574,35.645,-144.043,12.695,0
1571369802.136,34.668,37.598,36.621,-90.820,21.484,0
1571369802.140,125.977,37.109,37.598,178.223,50.781,0
1571369802.143,58.594,39.062,37.109,200.195,20.508,0
1571369802.147,-50.781,41.016,36.133,-74.707,6.836,0
1571369802.151,-10.742,39.062,36.621,-147.949,2.441,0
1571369802.155,103.516,38.086,38.086,92.773,68.848,0
1571369802.159,92.285,39.551,35.645,233.398,99.609,0
1571369802.156,-29.297,41.016,31.250,12.207,54.688,0
1571369802.160,-46.875,40.527,28.809,-185.547,69.336,0
1571369802.164,66.406,41.016,30.762,14.648,-9.766,0
1571369802.168,112.793,43.457,32.227,244.141,-19.531,0
1571369802.172,2.441,42.969,32.227,87.891,-50.781,0
1571369802.176,-53.223,43.457,32.227,-185.547,-54.199,0
1571369802.180,53.223,44.434,32.715,-54.199,4.395,0
1571369802.183,127.930,42.969,34.180,221.191,-18.555,0
1571369802.187,33.203,45.410,34.668,147.949,9.766,0
1571369802.191,-56.641,44.434,36.133,-137.695,3.906,0
1571369802.195,17.578,40.039,37.109,-107.422,5.371,0
1571369802.199,117.188,39.551,36.133,150.391,6.348,0
1571369802.216,64.941,41.992,34.668,207.031,38.574,0
1571369802.220,-42.969,42.969,33.203,-47.363,64.453,0
1571369802.224,-15.137,42.480,32.227,-157.715,49.316,0
1571369802.228,98.145,42.480,33.203,72.754,58.105,0
1571369802.232,101.562,42.480,31.250,246.094,37.109,0
1571369802.236,-15.625,44.922,27.832,43.945,-20.508,0
1571369802.240,-40.527,45.410,25.391,-188.965,-38.574,0
1571369802.243,75.195,44.434,24.902,-5.371,6.836,0
1571369802.247,129.395,44.434,25.879,245.605,2.441,0
1571369802.251,16.113,43.945,25.879,108.398,6.836,0
1571369802.255,-54.199,43.945,25.879,-164.062,43.457,0
1571369802.259,37.109,43.945,27.344,-60.547,23.926,0
1571369802.256,126.953,44.434,29.785,204.102,35.156,0
1571369802.260,50.781,44.922,30.273,160.645,-2.930,0
1571369802.264,-45.410,46.387,30.273,-120.117,0.977,0
1571369802.268,11.230,45.410,31.250,-124.023,48.340,0
1571369802.272,117.188,44.434,33.691,133.301,3.418,0
1571369802.276,78.125,45.410,33.691,222.168,-8.301,0
1571369802.280,-40.039,45.898,33.203,-23.926,35.156,0
1571369802.283,-23.926,45.898,33.203,-167.969,47.852,0
1571369802.287,94.727,44.434,31.738,56.641,30.762,0
1571369802.291,118.652,47.852,30.273,256.836,21.973,0
1571369802.295,-2.930,48.828,29.785,61.523,7.812,0
1571369802.299,-49.805,44.434,30.273,-183.105,45.898,0
1571369802.296,64.453,43.457,32.715,-8.301,-14.160,0
1571369802.300,131.348,45.898,30.762,255.371,-45.410,0
1571369802.304,21.973,48.340,26.855,140.625,-2.930,0
1571369802.308,-58.105,46.875,27.344,-145.508,49.805,0
1571369802.312,34.668,43.945,31.250,-71.777,85.449,0
1571369802.316,132.812,45.898,34.668,193.848,19.043,0
1571369802.320,57.129,46.387,36.621,186.523,1.953,0
1571369802.323,-54.688,45.898,37.109,-87.891,40.527,0
1571369802.327,-6.836,48.340,33.203,-138.184,44.922,0
1571369802.331,102.051,45.898,33.691,100.098,36.621,0
1571369802.335,73.730,41.992,36.621,223.145,38.574,0
1571369802.339,-43.945,42.969,37.109,-2.441,59.082,0
1571369802.356,-44.922,42.969,37.109,-176.270,36.621,0
1571369802.360,76.172,44.434,40.039,33.203,0.977,0
1571369802.364,117.676,46.387,40.039,251.953,-12.207,0
1571369802.368,1.953,44.922,36.133,82.520,23.438,0
1571369802.372,-51.758,43.945,35.645,-176.270,55.664,0
1571369802.376,53.223,45.410,35.156,-30.273,6.348,0
1571369802.380,127.441,45.410,35.645,232.422,35.156,0
1571369802.383,36.133,44.922,38.574,139.160,63.477,0
1571369802.387,-50.293,45.410,36.133,-144.043,44.922,0
1571369802.391,33.691,45.898,34.180,-89.355,64.941,0
1571369802.395,135.742,44.434,36.133,175.781,5.859,0
1571369802.399,65.918,45.410,34.668,199.707,-34.668,0
1571369802.396,-49.316,46.875,31.250,-75.195,11.719,0
1571369802.400,-11.230,44.434,33.203,-161.621,28.809,0
1571369802.404,110.352,42.969,34.180,85.938,30.273,0
1571369802.408,108.398,43.457,34.180,250.977,10.742,0
1571369802.412,-27.344,41.992,34.180,13.184,-53.711,0
1571369802.416,-58.594,40.527,31.250,-212.891,-44.922,0
1571369802.420,68.359,41.504,32.227,0.977,47.852,0
1571369802.423,123.047,39.551,34.668,250.000,41.992,0
1571369802.427,9.277,36.621,35.156,102.051,-11.230,0
1571369802.431,-63.477,36.621,34.668,-175.293,9.766,0
1571369802.435,26.855,36.621,35.156,-57.129,22.949,0
1571369802.439,113.281,35.156,35.156,220.703,-17.578,0
1571369802.436,26.367,37.109,33.691,167.480,27.344,0
1571369802.440,-65.918,40.527,31.738,-114.746,51.758,0
1571369802.444,9.766,42.969,33.691,-101.074,18.555,0
1571369802.448,115.234,44.434,33.691,159.668,11.230,0
1571369802.452,69.336,45.898,33.691,224.121,14.160,0
1571369802.456,-40.527,46.875,33.203,-31.738,54.688,0
1571369802.460,-6.348,47.363,30.762,-153.320,19.531,0
1571369802.463,106.445,47.852,31.738,71.777,-22.949,0
1571369802.467,102.539,47.852,34.180,246.094,39.062,0
1571369802.471,-11.719,47.852,34.180,46.875,56.641,0
1571369802.475,-44.434,45.898,33.203,-182.129,-20.020,0
1571369802.479,63.965,43.457,31.738,-3.418,-24.414,0
1571369802.497,122.559,43.457,30.273,249.023,48.340,0
1571369802.501,13.672,47.363,31.250,115.723,37.109,0
1571369802.505,-60.547,47.363,28.320,-168.457,-19.043,0
1571369802.509,32.227,46.387,29.297,-67.383,-55.664,0
1571369802.513,123.047,45.898,34.668,203.613,-20.996,0
1571369802.517,36.133,42.969,33.203,171.875,30.762,0
1571369802.521,-70.801,42.969,30.273,-116.211,15.625,0
1571369802.524,-6.836,41.992,30.762,-140.625,-5.859,0
1571369802.528,102.051,41.016,33.203,119.141,31.738,0
1571369802.532,65.918,42.480,34.180,221.191,70.312,0
1571369802.536,-45.410,42.480,34.668,-15.625,50.293,0
1571369802.540,-28.809,43.457,36.621,-173.340,43.945,0
1571369802.536,88.379,43.945,38.086,50.781,76.660,0
1571369802.540,106.934,43.945,38.086,268.555,41.992,0
1571369802.544,-10.742,42.969,38.086,82.520,0.000,0
1571369802.548,-53.711,41.504,37.598,-157.227,23.438,0
1571369802.552,56.152,40.527,38.086,3.906,73.730,0
1571369802.556,125.000,41.992,40.039,250.977,16.602,0
1571369802.560,19.043,44.922,37.109,140.137,-35.156,0
1571369802.563,-60.059,45.410,35.645,-146.484,-20.508,0
1571369802.567,33.691,44.434,38.086,-71.777,31.738,0
1571369802.571,127.441,46.875,37.598,196.777,39.062,0
1571369802.575,56.641,50.293,35.156,194.336,-11.230,0
1571369802.579,-45.898,49.805,31.738,-78.125,32.227,0
1571369802.576,4.883,46.387,30.273,-136.230,52.734,0
1571369802.580,115.723,43.945,32.227,106.934,51.270,0
1571369802.584,90.820,45.898,33.691,233.887,71.289,0
1571369802.588,-20.020,47.852,34.180,1.465,52.246,0
1571369802.592,-23.926,45.410,33.203,-181.641,30.273,0
1571369802.596,86.426,44.434,30.273,25.391,58.105,0
1571369802.600,120.605,45.410,30.273,245.605,33.203,0
1571369802.603,3.418,45.410,28.809,73.730,-1.465,0
1571369802.607,-51.270,47.852,28.809,-193.359,-22.461,0
1571369802.611,52.734,45.898,31.738,-41.504,-20.508,0
1571369802.615,129.395,43.945,33.203,229.980,-16.113,0
1571369802.619,32.715,42.969,33.691,141.602,-22.461,0
1571369802.636,-61.035,41.992,33.203,-155.762,-66.895,0
1571369802.640,14.648,42.480,35.645,-116.211,1.465,0
1571369802.644,117.188,41.504,39.062,153.809,117.188,0
1571369802.648,61.523,42.969,35.156,191.406,30.762,0
1571369802.652,-46.387,44.434,34.668,-71.777,54.688,0
1571369802.656,-11.719,41.992,35.645,-162.598,40.039,0
1571369802.660,105.469,41.992,37.109,77.148,-48.828,0
1571369802.663,103.027,41.504,35.645,237.793,23.926,0
1571369802.667,-17.578,41.504,33.691,24.414,7.812,0
1571369802.671,-39.551,40.527,35.156,-187.012,-11.719,0
1571369802.675,71.289,40.039,34.668,10.742,9.766,0
1571369802.679,119.629,40.527,35.156,254.883,6.348,0
1571369802.676,10.254,40.039,35.156,103.516,24.414,0
1571369802.680,-58.105,41.992,35.645,-174.316,4.395,0
1571369802.684,44.922,43.945,36.133,-57.617,41.504,0
1571369802.688,131.836,43.945,35.645,209.961,60.059,0
1571369802.692,38.086,44.922,35.645,160.156,-35.645,0
1571369802.696,-56.152,44.434,36.133,-127.441,-81.543,0
1571369802.700,19.531,43.945,35.645,-125.000,31.738,0
1571369802.703,122.070,46.875,34.668,129.883,70.801,0
1571369802.707,68.359,47.852,37.109,199.707,-31.738,0
1571369802.711,-49.805,48.828,37.109,-48.340,-2.441,0
1571369802.715,-27.832,46.875,37.109,-175.781,35.645,0
1571369802.719,91.797,44.434,38.574,57.129,2.930,0
1571369802.736,105.957,46.387,35.645,242.188,14.160,0
1571369802.740,-9.277,48.340,34.180,42.480,35.645,0
1571369802.744,-43.945,47.363,35.156,-185.547,33.691,0
1571369802.748,63.477,45.898,38.086,-0.977,27.832,0
1571369802.752,123.535,45.410,38.086,250.488,25.879,0
1571369802.756,11.719,44.434,37.109,117.188,-34.180,0
1571369802.760,-68.848,42.969,35.645,-164.551,-41.504,0
1571369802.763,28.320,42.480,37.598,-69.824,38.574,0
1571369802.767,124.023,40.527,40.527,198.730,69.336,0
1571369802.771,45.410,39.551,39.062,178.711,13.672,0
1571369802.775,-55.176,41.992,37.109,-95.215,33.203,0
1571369802.779,-0.977,42.480,38.574,-117.676,41.016,0
1571369802.776,104.980,40.039,40.039,140.137,-8.789,0
1571369802.780,70.312,38.574,39.062,240.723,26.367,0
1571369802.784,-51.270,39.062,34.668,-7.812,24.902,0
1571369802.788,-46.875,38.086,31.738,-176.758,56.641,0
1571369802.792,80.078,36.133,35.645,43.457,108.887,0
1571369802.796,111.816,37.598,37.598,265.137,21.484,0
1571369802.800,-3.906,39.062,34.668,79.590,0.000,0
1571369802.803,-49.316,40.039,34.180,-176.758,16.113,0
1571369802.807,54.688,41.992,33.203,-18.066,-14.160,0
1571369802.811,124.512,41.992,32.227,241.211,20.996,0
1571369802.815,21.973,42.969,30.762,137.695,35.156,0
1571369802.819,-62.988,42.969,30.762,-151.367,41.016,0
1571369802.817,28.320,42.969,32.715,-83.496,41.016,0
1571369802.821,131.836,44.922,32.715,178.223,27.344,0
1571369802.825,58.594,44.434,31.250,181.152,62.988,0
1571369802.829,-55.176,46.387,28.809,-86.914,72.266,0
1571369802.833,-11.230,47.852,27.832,-155.273,44.922,0
1571369802.837,105.957,44.434,32.227,94.238,9.766,0
1571369802.841,94.727,47.852,32.227,229.980,26.855,0
1571369802.844,-20.508,50.293,29.297,-5.859,28.809,0
1571369802.848,-28.809,49.316,28.809,-191.406,16.602,0
1571369802.852,80.566,47.852,32.715,13.672,28.809,0
1571369802.856,118.652,46.387,35.156,239.258,29.297,0
1571369802.860,4.883,45.410,34.668,78.125,14.160,0
1571369802.856,-61.035,44.922,34.180,-193.359,-11.230,0
1571369802.860,42.480,43.945,34.180,-54.688,30.273,0
1571369802.864,124.512,43.945,36.133,214.355,26.855,0
1571369802.868,27.344,44.434,37.598,139.648,2.441,0
1571369802.872,-65.430,44.922,38.574,-148.438,-5.859,0
1571369802.876,12.207,43.457,41.504,-117.676,7.812,0
1571369802.880,115.723,41.504,43.457,152.832,32.227,0
1571369802.883,56.641,42.480,41.016,195.801,11.719,0
1571369802.887,-52.246,45.898,38.574,-76.172,22.461,0
1571369802.891,-11.719,46.387,40.039,-179.688,3.906,0
1571369802.895,107.910,45.898,41.016,64.941,20.020,0
1571369802.899,105.957,46.875,38.086,240.234,14.648,0
1571369802.916,-13.184,48.828,35.645,29.297,-7.324,0
1571369802.920,-37.598,49.805,34.668,-190.430,53.223,0
1571369802.924,80.566,48.828,33.691,1.465,38.574,0
1571369802.928,131.836,47.852,33.691,246.094,1.953,0
1571369802.932,10.254,49.316,34.180,103.516,4.395,0
1571369802.936,-57.129,49.805,30.273,-171.875,15.625,0
1571369802.940,42.480,47.363,28.320,-60.059,8.789,0
1571369802.943,129.395,46.875,30.273,207.520,34.180,0
1571369802.947,45.898,47.852,30.273,165.527,-0.977,0
1571369802.951,-53.223,45.898,30.762,-113.281,-14.160,0
1571369802.955,5.371,45.898,33.203,-116.699,35.156,0
1571369802.959,105.469,45.898,36.621,141.602,18.555,0
1571369802.956,62.988,43.945,36.621,224.121,4.395,0
1571369802.960,-48.828,44.922,35.645,-30.273,-9.766,0
1571369802.964,-30.762,42.969,38.086,-166.504,46.875,0
1571369802.968,84.473,39.062,39.062,55.664,57.617,0
1571369802.972,99.121,39.062,40.039,248.047,40.039,0
1571369802.976,-23.926,36.621,39.062,51.758,35.156,0
1571369802.980,-65.430,35.645,35.156,-192.871,12.207,0
1571369802.983,47.852,35.156,36.133,-14.160,-14.648,0
1571369802.987,112.793,36.133,37.109,241.699,19.531,0
1571369802.991,7.324,37.598,33.691,114.258,54.688,0
1571369802.995,-72.266,38.574,34.180,-176.270,5.371,0
1571369802.999,25.391,41.016,31.250,-84.473,33.691,0
1571369802.996,123.535,43.945,26.855,183.594,2.930,0
1571369803.000,45.898,45.410,26.855,163.574,-26.855,0
1571369803.004,-55.176,47.852,24.902,-110.840,36.133,0
1571369803.008,0.977,49.805,25.879,-148.926,62.500,0
1571369803.012,111.328,48.340,30.762,108.398,-18.555,0
1571369803.016,80.566,49.316,32.227,225.098,-13.672,0
1571369803.020,-39.062,49.316,28.320,-17.578,72.266,0
1571369803.023,-41.504,47.852,26.367,-189.941,18.066,0
1571369803.027,77.637,50.293,30.762,23.926,-18.066,0
1571369803.031,114.258,48.340,30.762,247.070,25.391,0
1571369803.035,-9.277,46.387,29.297,67.383,40.527,0
1571369803.039,-66.406,46.875,29.785,-199.707,44.434,0
1571369803.056,38.086,42.969,31.738,-43.945,43.457,0
1571369803.060,108.887,44.434,32.715,223.145,32.715,0
1571369803.064,16.113,45.410,34.180,130.859,36.133,0
1571369803.068,-64.453,46.875,35.645,-146.484,12.695,0
1571369803.072,20.996,46.387,35.645,-85.449,13.672,0
1571369803.076,118.652,45.410,37.598,175.781,7.324,0
1571369803.080,49.316,46.875,39.551,193.359,-23.438,0
1571369803.083,-58.105,46.387,33.203,-78.125,-21.973,0
1571369803.087,-8.789,45.898,30.762,-151.855,5.371,0
1571369803.091,104.980,43.945,36.133,100.586,33.691,0
1571369803.095,89.355,42.480,35.156,240.723,19.531,0
1571369803.099,-23.438,43.457,35.645,9.277,12.695,0
1571369803.096,-32.715,43.457,41.992,-183.594,34.668,0
1571369803.100,79.102,41.992,42.480,20.996,24.414,0
1571369803.104,115.234,40.527,41.016,260.254,8.301,0
1571369803.108,0.000,39.551,38.574,102.539,-36.133,0
1571369803.112,-60.059,37.109,38.086,-172.363,-38.574,0
1571369803.116,43.457,37.109,41.504,-30.273,15.137,0
1571369803.120,127.930,40.039,41.992,239.746,-22.949,0
1571369803.123,29.297,41.016,41.504,171.387,6.836,0
1571369803.127,-73.242,41.016,41.016,-107.422,42.480,0
1571369803.131,4.883,41.992,41.016,-90.820,-25.391,0
1571369803.135,117.188,43.457,43.945,175.293,11.230,0
1571369803.139,64.941,43.945,42.480,234.375,48.828,0
1571369803.136,-49.316,45.410,36.621,-31.738,10.254,0
1571369803.140,-19.043,45.410,35.645,-151.855,13.672,0
1571369803.144,99.609,45.410,37.109,74.219,10.742,0
1571369803.148,105.469,48.340,35.645,250.488,10.254,0
1571369803.152,-17.090,49.805,31.738,42.969,44.434,0
1571369803.156,-42.480,49.805,30.273,-179.688,40.527,0
1571369803.160,73.242,50.293,33.691,8.301,47.363,0
1571369803.163,128.418,50.293,35.645,248.535,19.043,0
1571369803.167,22.461,51.758,36.621,115.723,-25.391,0
1571369803.171,-49.316,49.805,35.645,-155.762,5.371,0
1571369803.175,50.293,46.387,36.621,-42.969,46.387,0
1571369803.179,145.508,46.387,35.645,234.375,67.383,0
1571369803.196,49.805,44.434,34.180,191.895,84.961,0
1571369803.200,-68.848,41.992,36.133,-92.773,47.852,0
1571369803.204,-12.207,41.016,39.551,-115.723,31.738,0
1571369803.208,108.887,42.480,41.504,144.043,32.715,0
1571369803.212,75.684,43.457,39.551,242.188,51.758,0
1571369803.216,-44.434,41.992,37.109,-17.090,44.922,0
1571369803.220,-28.320,41.504,36.621,-156.738,-12.207,0
1571369803.223,86.914,41.992,38.086,69.824,43.945,0
1571369803.227,102.539,43.457,38.574,267.578,71.777,0
1571369803.231,-13.184,44.922,36.133,77.148,-2.441,0
1571369803.235,-53.223,47.363,34.180,-172.363,-20.996,0
1571369803.239,57.129,47.363,37.109,-3.418,-7.812,0
1571369803.236,126.953,41.504,37.598,256.836,-24.414,0
1571369803.240,20.508,41.504,34.668,144.043,6.836,0
1571369803.244,-65.918,42.969,31.738,-146.484,54.688,0
1571369803.248,26.855,39.062,32.227,-77.637,-0.488,0
1571369803.252,127.930,39.551,35.645,191.895,-22.949,0
1571369803.256,50.781,42.480,35.645,184.570,35.156,0
1571369803.260,-56.641,42.969,34.668,-92.285,46.387,0
1571369803.263,-5.859,42.969,31.738,-140.625,8.789,0
1571369803.267,105.469,43.945,31.738,107.910,2.441,0
1571369803.271,84.473,46.387,34.180,230.957,45.410,0
1571369803.275,-25.391,43.457,32.715,0.977,42.480,0
1571369803.279,-24.902,40.039,34.180,-172.852,3.418,0
1571369803.297,87.402,41.504,36.621,36.621,4.395,0
1571369803.301,118.652,44.434,35.156,253.418,14.648,0
1571369803.305,-1.953,44.434,33.203,79.102,13.672,0
1571369803.309,-56.641,42.969,32.715,-181.641,39.062,0
1571369803.313,52.246,43.457,32.227,-32.227,40.527,0
1571369803.317,121.582,45.898,31.250,229.492,28.809,0
1571369803.321,21.973,47.852,31.250,135.742,47.363,0
1571369803.324,-59.570,47.363,30.762,-151.855,11.230,0
1571369803.328,23.926,46.387,31.738,-101.074,-34.668,0
1571369803.332,121.582,44.434,33.203,171.387,-18.066,0
1571369803.336,55.664,44.434,32.715,200.684,40.527,0
1571369803.340,-57.129,44.434,33.691,-69.336,49.316,0
1571369803.336,-20.996,44.922,35.645,-148.926,16.113,0
1571369803.340,93.750,44.922,34.668,95.703,-46.875,0
1571369803.344,83.984,42.480,38.574,251.465,-17.578,0
1571369803.348,-32.715,42.480,38.574,29.297,65.918,0
1571369803.352,-44.434,46.387,33.691,-177.246,35.645,0
1571369803.356,74.219,45.898,36.621,21.973,0.488,0
1571369803.360,120.605,44.922,38.574,256.836,-30.762,0
1571369803.363,3.418,46.875,36.621,103.027,41.992,0
1571369803.367,-60.547,45.410,35.156,-170.898,91.797,0
1571369803.371,42.969,43.945,36.621,-46.387,30.273,0
1571369803.375,126.953,43.945,39.062,221.191,41.992,0
1571369803.379,40.039,43.457,36.621,158.691,-16.602,0
1571369803.377,-52.246,43.457,34.668,-125.000,-51.270,0
1571369803.381,18.555,43.457,36.621,-110.352,-4.395,0
1571369803.385,123.047,43.945,37.109,150.391,-5.371,0
1571369803.389,70.312,43.457,34.668,212.402,2.930,0
1571369803.393,-42.480,45.410,31.738,-46.387,25.391,0
1571369803.397,-13.672,45.410,29.297,-162.598,17.578,0
1571369803.401,107.422,44.434,31.250,64.941,-23.438,0
1571369803.404,115.234,42.480,34.668,248.535,-28.320,0
1571369803.408,-10.742,46.387,34.180,43.457,10.742,0
1571369803.412,-49.316,45.410,30.762,-195.801,7.324,0
1571369803.416,62.500,41.992,33.203,-7.324,-12.207,0
1571369803.420,120.117,43.945,36.133,248.047,41.016,0
1571369803.456,6.348,45.410,31.250,114.746,39.551,0
1571369803.460,-68.848,47.363,28.809,-163.574,7.812,0
1571369803.464,41.016,46.875,32.227,-62.500,53.223,0
1571369803.468,134.766,47.852,31.250,206.543,47.363,0
1571369803.472,41.016,47.852,27.832,171.387,27.832,0
1571369803.476,-62.012,47.363,27.832,-111.328,-10.254,0
1571369803.480,1.953,46.875,25.391,-126.953,-28.320,0
1571369803.483,113.281,43.457,25.391,125.000,-32.715,0
1571369803.487,81.055,44.434,28.320,222.168,-8.789,0
1571369803.491,-31.250,48.340,27.832,-28.809,63.477,0
1571369803.495,-17.090,47.852,28.809,-181.152,44.434,0
1571369803.499,95.215,44.434,32.227,46.387,50.293,0
1571369803.476,109.375,44.434,35.645,245.605,46.875,0
1571369803.480,-10.742,45.410,36.621,61.035,38.574,0
1571369803.484,-55.176,45.898,32.715,-188.477,34.668,0
1571369803.488,57.129,43.457,30.273,-18.066,45.898,0
1571369803.492,128.906,41.504,33.691,249.023,68.848,0
1571369803.496,31.250,46.387,33.203,139.648,53.711,0
1571369803.500,-50.293,44.922,32.227,-147.461,15.137,0
1571369803.503,34.180,41.992,32.715,-80.566,24.414,0
1571369803.507,127.930,43.457,33.203,186.523,7.324,0
1571369803.511,46.875,44.922,32.227,187.988,17.578,0
1571369803.515,-63.965,46.875,29.297,-89.355,44.922,0
1571369803.519,-10.742,47.363,27.344,-147.949,-20.020,0
1571369803.516,104.980,44.922,27.832,99.609,-14.160,0
1571369803.520,84.961,46.875,28.320,228.027,2.930,0
1571369803.524,-34.180,47.363,26.367,-3.906,-1.953,0
1571369803.528,-39.551,44.922,27.832,-192.871,13.184,0
1571369803.532,79.102,47.363,30.273,11.719,14.160,0
1571369803.536,117.188,48.828,33.691,240.234,60.547,0
1571369803.540,-0.488,48.340,34.180,68.359,13.672,0
1571369803.543,-60.547,46.387,33.691,-196.777,-43.457,0
1571369803.547,51.758,45.410,34.180,-57.129,-20.996,0
1571369803.551,129.395,45.410,32.227,200.195,-7.324,0
1571369803.555,28.320,46.387,31.250,109.863,25.879,0
1571369803.559,-58.105,47.363,31.250,-175.781,30.762,0
1571369803.576,20.508,45.898,34.180,-129.395,47.363,0
1571369803.580,119.629,43.457,37.598,128.418,65.430,0
1571369803.584,57.617,41.504,36.621,160.156,29.297,0
1571369803.588,-55.664,42.480,34.668,-106.934,49.805,0
1571369803.592,-23.438,43.457,35.156,-203.613,40.527,0
1571369803.596,96.191,42.480,37.109,40.527,12.207,0
1571369803.600,89.844,42.969,38.086,196.289,19.043,0
1571369803.603,-30.273,42.480,36.621,-25.879,54.688,0
1571369803.607,-43.945,41.016,34.180,-231.445,31.738,0
1571369803.611,68.848,39.551,36.621,-35.156,4.883,0
1571369803.615,115.234,38.574,38.086,202.637,0.488,0
1571369803.619,-1.953,38.086,36.133,51.270,-16.113,0
1571369803.616,-72.754,35.645,37.109,-229.004,-16.602,0
1571369803.620,32.227,35.645,37.598,-107.910,16.602,0
1571369803.624,122.070,34.668,35.156,164.551,-10.742,0
1571369803.628,30.762,34.668,34.668,109.375,10.254,0
1571369803.632,-73.242,38.086,36.133,-174.805,94.238,0
1571369803.636,-1.953,38.574,36.133,-166.504,68.359,0
1571369803.640,107.910,39.062,36.621,93.262,35.645,0
1571369803.643,58.594,41.016,35.645,158.691,13.672,0
1571369803.647,-58.594,43.457,32.227,-102.051,3.418,0
1571369803.651,-32.227,41.504,30.762,-233.887,50.293,0
1571369803.655,90.332,41.016,33.203,-0.488,23.926,0
1571369803.659,106.445,44.922,32.715,190.430,21.973,0
1571369803.656,-10.254,46.875,31.738,-9.277,37.598,0
1571369803.660,-44.434,49.316,31.738,-244.629,34.180,0
1571369803.664,69.336,48.340,30.762,-65.430,20.996,0
1571369803.668,129.883,48.340,32.227,185.059,-41.992,0
1571369803.672,22.949,49.316,30.762,55.176,-53.711,0
1571369803.676,-59.570,46.875,27.832,-220.703,17.090,0
1571369803.680,34.180,45.410,30.762,-121.582,35.645,0
1571369803.683,131.348,45.898,33.203,150.391,45.410,0
1571369803.687,48.340,47.363,31.250,124.023,-0.488,0
1571369803.691,-58.105,44.922,29.785,-154.297,-61.035,0
1571369803.695,0.000,43.945,33.203,-175.781,-63.965,0
1571369803.699,112.793,44.434,37.598,84.961,-10.254,0
1571369803.716,78.613,45.410,35.645,195.801,8.301,0
1571369803.720,-43.457,44.434,32.715,-49.316,-12.695,0
1571369803.724,-38.574,41.016,34.180,-207.031,5.371,0
1571369803.728,81.055,40.527,37.109,16.602,-1.953,0
1571369803.732,106.445,41.504,38.574,224.609,3.418,0
1571369803.736,-15.137,41.504,38.574,48.828,46.387,0
1571369803.740,-63.477,41.504,38.086,-201.660,95.215,0
1571369803.743,45.898,40.039,38.086,-46.387,47.363,0
1571369803.747,119.141,37.598,40.039,214.355,-15.625,0
1571369803.751,14.648,40.039,37.598,106.934,-27.832,0
1571369803.755,-75.684,40.039,35.645,-180.664,-36.133,0
1571369803.759,9.766,37.109,38.086,-123.535,34.668,0
1571369803.756,107.910,36.621,36.133,139.160,36.133,0
1571369803.760,36.133,40.039,35.645,154.785,-1.953,0
1571369803.764,-66.406,42.480,32.227,-117.188,-4.395,0
1571369803.768,-10.742,42.969,29.785,-179.199,3.418,0
1571369803.772,106.445,43.945,34.180,69.336,52.246,0
1571369803.776,94.727,44.922,34.668,208.984,29.785,0
1571369803.780,-16.113,46.387,33.691,-12.695,21.973,0
1571369803.783,-24.902,43.945,32.227,-200.684,76.172,0
1571369803.787,90.820,41.992,32.715,14.160,98.633,0
1571369803.791,130.371,43.457,32.715,244.629,45.898,0
1571369803.795,10.742,45.410,30.273,71.289,2.930,0
1571369803.799,-46.387,44.434,31.250,-187.500,43.945,0
1571369803.796,57.129,41.504,31.738,-45.898,48.340,0
1571369803.800,135.742,41.504,34.668,216.797,5.859,0
1571369803.804,38.086,42.480,35.156,137.695,4.395,0
1571369803.808,-59.570,40.039,32.715,-150.879,29.297,0
1571369803.812,13.184,38.086,34.180,-117.676,39.551,0
1571369803.816,109.863,38.086,35.645,146.973,25.879,0
1571369803.820,52.734,37.598,38.574,189.453,39.551,0
1571369803.823,-60.059,38.574,37.598,-77.148,58.105,0
1571369803.827,-34.180,38.086,36.621,-180.664,29.785,0
1571369803.831,81.543,37.598,37.109,59.082,15.625,0
1571369803.835,78.125,38.086,36.133,234.375,-39.551,0
1571369803.839,-41.992,37.598,31.250,21.973,-20.996,0
1571369803.856,-60.059,39.551,27.832,-206.055,27.344,0
1571369803.860,57.617,40.039,30.273,-18.555,10.742,0
1571369803.864,112.793,39.062,31.738,229.492,10.254,0
1571369803.868,5.859,41.992,30.273,85.449,6.836,0
1571369803.872,-60.059,43.945,30.273,-191.406,20.996,0
1571369803.876,41.992,43.945,30.273,-76.172,45.898,0
1571369803.880,127.441,43.457,29.297,183.594,91.797,0
1571369803.883,41.016,41.992,30.273,137.207,92.773,0
1571369803.887,-52.734,42.969,30.273,-133.301,64.941,0
1571369803.891,14.648,44.922,31.250,-123.535,103.516,0
1571369803.895,124.023,44.434,30.762,131.836,112.305,0
1571369803.899,81.055,45.898,30.273,208.496,41.992,0
1571369803.896,-35.156,47.363,31.738,-39.062,-15.625,0
1571369803.900,-21.973,45.410,31.250,-174.316,5.859,0
1571369803.904,92.773,43.457,31.250,51.758,-52.246,0
1571369803.908,109.375,45.898,33.691,246.094,-25.879,0
1571369803.912,-8.789,48.828,29.297,49.805,25.391,0
1571369803.916,-45.898,48.828,25.879,-186.035,11.230,0
1571369803.920,65.430,47.852,27.344,-6.836,41.504,0
1571369803.923,124.023,46.387,26.855,237.793,51.270,0
1571369803.927,15.137,44.434,23.926,107.422,23.926,0
1571369803.931,-67.871,44.434,22.461,-174.805,19.043,0
1571369803.935,24.902,44.922,26.855,-90.820,8.789,0
1571369803.939,122.070,43.945,28.320,180.176,-14.648,0
1571369803.936,48.340,46.387,28.320,165.039,42.969,0
1571369803.940,-49.316,48.828,27.832,-120.605,59.570,0
1571369803.944,5.859,47.363,24.902,-154.785,-3.906,0
1571369803.948,120.117,46.875,26.367,106.445,-26.855,0
1571369803.952,95.215,47.363,28.809,221.680,3.906,0
1571369803.956,-28.320,48.340,29.297,-16.602,7.324,0
1571369803.960,-26.367,49.805,31.250,-181.641,17.090,0
1571369803.963,94.727,47.363,31.738,38.086,33.203,0
1571369803.967,125.488,46.875,32.715,247.070,17.578,0
1571369803.971,12.207,48.340,34.180,67.383,6.348,0
1571369803.975,-36.621,45.898,34.180,-183.594,6.836,0
1571369803.979,71.289,41.504,34.668,-30.762,34.668,0
1571369803.996,144.531,44.922,33.203,230.469,34.668,0
1571369804.000,42.969,45.898,31.738,132.324,-1.953,0
1571369804.004,-41.504,45.898,33.691,-152.832,30.762,0
1571369804.008,37.109,46.387,33.691,-93.262,47.363,0
1571369804.012,127.441,44.922,34.180,170.410,-33.691,0
1571369804.016,58.105,46.387,32.715,193.359,27.832,0
1571369804.020,-46.875,47.852,30.762,-73.730,69.824,0
1571369804.023,-5.859,45.410,32.227,-147.461,22.461,0
1571369804.027,107.422,43.457,33.691,107.422,22.461,0
1571369804.031,102.539,44.434,32.715,253.906,-6.348,0
1571369804.035,-11.230,46.875,29.297,27.832,-0.977,0
1571369804.039,-25.391,45.898,30.762,-174.805,25.879,0
1571369804.037,83.984,41.992,33.203,29.297,8.789,0
1571369804.041,125.977,42.969,32.715,265.137,73.242,0
1571369804.045,8.789,45.410,30.762,94.727,27.344,0
1571369804.049,-49.805,45.410,28.809,-178.711,-20.020,0
1571369804.053,54.199,44.434,30.762,-44.922,58.594,0
1571369804.057,135.742,43.457,31.738,220.703,32.715,0
1571369804.061,42.969,43.945,28.809,147.461,-57.617,0
1571369804.064,-61.523,41.992,26.855,-142.578,-30.762,0
1571369804.068,13.184,40.527,28.809,-111.328,31.250,0
1571369804.072,121.582,43.457,29.297,155.762,16.602,0
1571369804.076,65.918,44.922,27.832,199.219,5.371,0
1571369804.080,-47.363,42.480,29.297,-59.570,35.645,0
1571369804.076,-12.207,42.480,31.738,-166.504,-0.488,0
1571369804.080,110.840,45.410,32.715,67.383,-32.227,0
1571369804.084,114.258,47.363,33.203,248.047,-28.809,0
1571369804.088,-7.812,48.340,31.250,38.086,54.688,0
1571369804.092,-40.527,46.875,31.250,-194.824,44.434,0
1571369804.096,70.801,43.457,33.203,-0.488,-3.418,0
1571369804.100,126.465,39.551,32.715,253.418,-9.277,0
1571369804.103,11.719,40.039,33.691,113.281,-6.348,0
1571369804.107,-61.523,41.016,35.156,-168.945,38.574,0
1571369804.111,39.551,41.992,39.062,-57.129,10.254,0
1571369804.115,129.883,41.504,39.062,218.750,-7.812,0
1571369804.119,44.922,41.504,38.086,179.688,-9.277,0
1571369804.136,-55.176,43.457,36.621,-100.098,-15.137,0
1571369804.140,8.301,41.992,33.691,-107.422,16.113,0
1571369804.144,109.375,40.039,36.133,148.438,28.809,0
1571369804.148,71.289,39.551,35.156,228.027,23.926,0
1571369804.152,-43.945,40.527,32.227,-28.809,4.883,0
1571369804.156,-34.180,41.992,30.762,-178.223,2.441,0
1571369804.160,82.520,41.504,29.297,34.668,27.832,0
1571369804.163,102.051,40.527,31.250,229.492,17.578,0
1571369804.167,-22.461,41.504,31.738,33.203,60.547,0
1571369804.171,-65.430,43.457,30.762,-214.355,99.609,0
1571369804.175,50.293,44.434,33.203,-34.668,51.758,0
1571369804.179,115.234,45.898,32.715,231.934,62.500,0
1571369804.176,13.184,46.387,30.273,113.770,34.668,0
1571369804.180,-63.965,42.480,29.297,-185.059,24.902,0
1571369804.184,24.902,40.039,28.809,-97.656,65.430,0
1571369804.188,121.094,40.527,29.785,187.500,61.035,0
1571369804.192,50.293,40.527,31.250,180.664,4.883,0
1571369804.196,-57.617,40.527,33.203,-98.145,-44.434,0
1571369804.200,-9.277,42.969,35.645,-143.066,20.020,0
1571369804.203,105.469,44.434,36.621,114.258,19.043,0
1571369804.207,80.566,43.945,35.645,236.328,33.203,0
1571369804.211,-38.574,47.363,35.156,-7.812,50.781,0
1571369804.215,-34.180,51.270,36.133,-188.477,9.766,0
1571369804.219,83.496,48.828,37.598,24.902,74.707,0
1571369804.216,113.770,47.363,34.180,245.117,80.566,0
1571369804.220,2.930,44.434,30.762,71.777,31.250,0
1571369804.224,-49.805,42.969,30.762,-191.406,-2.930,0
1571369804.228,50.293,41.992,31.738,-44.922,-11.230,0
1571369804.232,118.652,40.527,31.738,218.750,-13.184,0
1571369804.236,18.066,40.039,30.762,128.906,-72.266,0
1571369804.240,-67.383,41.504,32.227,-152.344,-19.043,0
1571369804.243,15.625,41.016,33.203,-101.562,-19.043,0
1571369804.247,116.211,38.086,33.691,161.621,13.184,0
1571369804.251,54.199,38.086,33.691,193.848,45.898,0
1571369804.255,-54.199,39.062,32.227,-68.848,3.906,0
1571369804.259,-7.812,39.551,31.250,-151.855,37.109,0
1571369804.296,103.516,41.992,30.762,96.191,27.344,0
1571369804.300,84.473,42.480,29.297,248.047,24.414,0
1571369804.304,-30.273,43.945,28.320,23.438,53.223,0
1571369804.308,-46.875,44.922,27.344,-180.664,3.418,0
1571369804.312,68.848,43.457,25.391,21.484,-1.953,0
1571369804.316,114.746,43.945,25.391,261.719,25.391,0
1571369804.320,5.859,45.898,25.391,85.938,-6.348,0
1571369804.323,-47.363,47.852,25.391,-191.406,-32.227,0
1571369804.327,53.223,45.898,25.879,-55.176,-4.395,0
1571369804.331,131.348,44.434,27.832,208.008,34.668,0
1571369804.335,34.180,44.922,27.832,144.043,18.555,0
1571369804.339,-64.453,44.922,28.320,-145.996,26.855,0
1571369804.316,10.254,45.898,32.227,-130.371,49.316,0
1571369804.320,111.328,43.945,34.180,143.066,32.715,0
1571369804.324,67.383,43.945,33.691,207.031,26.855,0
1571369804.328,-40.527,44.922,33.691,-58.594,69.336,0
1571369804.332,-25.391,42.969,30.273,-182.617,20.020,0
1571369804.336,88.379,40.527,29.297,55.176,-38.574,0
1571369804.340,97.656,40.527,32.715,245.605,-20.020,0
1571369804.343,-17.578,42.969,32.715,36.133,23.926,0
1571369804.347,-48.828,41.992,30.273,-194.336,58.594,0
1571369804.351,61.523,40.039,31.738,-10.742,74.707,0
1571369804.355,120.117,39.062,34.180,237.793,79.590,0
1571369804.359,10.742,39.062,34.668,105.469,59.082,0
1571369804.356,-64.941,41.504,36.133,-176.758,-7.324,0
1571369804.360,27.344,42.480,36.621,-66.895,0.488,0
1571369804.364,117.188,41.992,35.645,196.289,48.828,0
1571369804.368,36.133,41.992,35.156,156.250,13.672,0
1571369804.372,-67.871,42.969,34.668,-118.164,15.137,0
1571369804.376,-4.883,41.504,34.668,-141.602,49.805,0
1571369804.380,111.328,39.551,35.645,116.211,9.766,0
1571369804.383,74.707,40.527,33.691,208.984,26.855,0
1571369804.387,-48.828,39.551,32.715,-48.828,48.828,0
1571369804.391,-36.621,40.039,32.227,-193.359,-32.715,0
1571369804.395,82.031,41.504,33.203,35.645,23.438,0
1571369804.399,104.980,39.062,35.645,245.117,43.457,0
1571369804.416,-9.277,41.504,33.203,62.500,66.406,0
1571369804.420,-55.176,43.945,31.738,-185.059,59.082,0
1571369804.424,52.246,43.457,34.180,-10.742,-38.574,0
1571369804.428,122.070,43.945,35.156,244.629,-21.973,0
1571369804.432,16.602,41.992,33.691,126.465,0.000,0
1571369804.436,-66.406,41.992,33.203,-162.598,30.762,0
1571369804.440,24.414,38.574,34.180,-91.309,68.848,0
1571369804.443,124.023,35.156,35.645,189.941,46.387,0
1571369804.447,50.781,39.062,32.715,191.406,34.668,0
1571369804.451,-57.129,40.527,31.738,-90.820,44.922,0
1571369804.455,-7.812,40.039,32.227,-158.691,25.391,0
1571369804.459,104.980,41.016,33.691,87.402,24.414,0
1571369804.458,81.543,41.504,36.133,223.633,60.059,0
1571369804.462,-36.621,41.992,32.715,-11.230,37.598,0
1571369804.466,-39.551,41.504,29.297,-197.266,-16.602,0
1571369804.470,72.754,42.480,32.227,10.742,15.625,0
1571369804.474,111.328,45.898,33.203,237.793,-11.230,0
1571369804.478,1.953,45.898,30.273,73.242,2.930,0
1571369804.482,-51.270,45.410,30.762,-190.430,44.434,0
1571369804.485,51.270,44.434,35.156,-41.016,25.879,0
1571369804.489,125.000,42.480,37.598,221.191,47.363,0
1571369804.493,25.391,44.922,35.645,129.883,17.578,0
1571369804.497,-68.848,45.898,36.133,-148.438,40.527,0
1571369804.501,4.395,43.945,37.109,-101.562,24.414,0
1571369804.496,107.910,45.898,35.156,166.992,-2.930,0
1571369804.500,50.293,46.875,34.668,199.707,35.645,0
1571369804.504,-56.641,47.852,33.691,-68.359,20.996,0
1571369804.508,-17.090,47.363,34.668,-155.762,38.574,0
1571369804.512,98.633,45.410,37.598,82.520,89.844,0
1571369804.516,93.750,43.945,35.156,237.793,68.359,0
1571369804.520,-21.484,42.480,32.227,20.508,78.125,0
1571369804.523,-44.922,42.969,30.762,-195.801,54.688,0
1571369804.527,67.871,41.992,33.691,-1.953,-5.859,0
1571369804.531,113.770,40.039,36.133,245.605,-8.301,0
1571369804.535,-1.465,44.434,33.691,94.727,23.438,0
1571369804.539,-61.035,47.363,33.691,-183.594,63.477,0
1571369804.556,39.062,44.434,34.180,-62.500,22.949,0
1571369804.560,119.629,44.434,35.645,204.102,-17.578,0
1571369804.564,33.203,45.898,35.156,146.973,18.066,0
1571369804.568,-59.570,43.945,33.203,-134.277,4.395,0
1571369804.572,7.324,42.480,33.691,-125.488,-42.480,0
1571369804.576,108.398,41.016,32.715,134.277,55.176,0
1571369804.580,64.453,41.992,29.785,203.613,107.910,0
1571369804.583,-45.898,45.898,30.273,-52.734,50.781,0
1571369804.587,-24.902,44.922,29.785,-175.293,-20.020,0
1571369804.591,92.773,43.945,31.250,57.129,-38.574,0
1571369804.595,103.027,44.922,32.227,244.141,-0.488,0
1571369804.599,-14.648,46.875,31.738,46.387,-6.348,0
1571369804.596,-47.852,48.340,31.250,-180.664,-37.598,0
1571369804.600,62.012,46.875,29.785,0.000,11.719,0
1571369804.604,126.953,46.387,30.273,248.535,27.344,0
1571369804.608,19.531,47.363,28.809,121.094,40.527,0
1571369804.612,-54.688,47.363,28.809,-157.715,69.824,0
1571369804.616,38.086,46.875,28.320,-65.430,49.805,0
1571369804.620,125.000,43.945,29.785,199.707,37.598,0
1571369804.623,43.457,41.504,29.297,175.293,10.254,0
1571369804.627,-58.594,41.992,24.414,-105.957,22.949,0
1571369804.631,-3.418,41.016,24.902,-140.137,-11.230,0
1571369804.635,101.074,39.062,27.832,113.281,-56.641,0
1571369804.639,70.801,41.016,26.855,221.191,35.156,0
1571369804.656,-41.016,42.480,25.879,-18.555,50.781,0
1571369804.660,-27.832,42.480,26.367,-177.734,1.953,0
1571369804.664,88.867,43.945,27.832,39.551,14.648,0
1571369804.668,109.375,46.387,29.297,250.977,33.691,0
1571369804.672,-6.836,44.922,29.297,65.430,-7.812,0
1571369804.676,-52.246,42.969,29.785,-187.012,-24.902,0
1571369804.680,52.734,42.480,31.250,-19.531,33.691,0
1571369804.683,124.512,44.434,31.738,235.352,18.555,0
1571369804.687,20.996,45.410,30.762,130.859,-19.043,0
1571369804.691,-65.430,44.922,30.273,-144.531,36.133,0
1571369804.695,28.809,43.945,30.273,-75.195,-1.465,0
1571369804.699,132.324,44.922,33.203,192.383,3.418,0
1571369804.696,63.965,46.875,34.180,200.684,4.883,0
1571369804.700,-43.945,46.387,33.203,-71.777,16.113,0
1571369804.704,-0.977,48.828,33.691,-139.648,53.711,0
1571369804.708,107.910,49.316,33.691,100.586,9.766,0
1571369804.712,91.797,49.316,34.668,237.793,-7.324,0
1571369804.716,-24.414,51.270,33.203,5.859,15.137,0
1571369804.720,-39.551,48.828,30.762,-189.941,29.785,0
1571369804.723,76.172,44.922,31.250,11.719,-24.902,0
1571369804.727,116.211,42.480,34.180,238.770,13.672,0
1571369804.731,-0.488,41.992,33.203,78.613,22.949,0
1571369804.735,-62.500,43.945,32.227,-193.848,21.484,0
1571369804.739,36.621,46.387,36.621,-51.758,52.246,0
1571369804.737,118.164,45.410,36.621,220.215,33.203,0
1571369804.741,29.297,48.340,31.250,135.742,43.945,0
1571369804.745,-56.641,49.805,28.809,-139.160,41.504,0
1571369804.749,18.555,45.898,29.785,-99.609,75.684,0
1571369804.753,120.117,44.434,30.273,165.527,67.871,0
1571369804.757,63.965,44.434,29.297,204.102,48.340,0
1571369804.761,-48.828,46.875,29.297,-59.570,62.988,0
1571369804.764,-12.207,47.363,30.273,-150.879,17.578,0
1571369804.768,102.051,43.945,31.250,84.961,22.949,0
1571369804.772,103.027,45.410,33.203,250.488,-17.578,0
1571369804.776,-9.277,44.922,33.691,36.133,-59.082,0
1571369804.780,-34.180,42.480,33.203,-184.082,-9.277,0
1571369804.796,86.426,43.945,34.180,12.695,8.301,0
1571369804.800,136.719,46.387,33.203,257.324,6.348,0
1571369804.804,14.648,49.316,34.668,114.746,19.043,0
1571369804.808,-50.781,48.828,33.203,-164.551,36.133,0
1571369804.812,49.316,47.363,32.227,-55.664,28.809,0
1571369804.816,130.371,45.898,32.715,214.355,10.254,0
1571369804.820,45.898,47.363,30.762,167.480,50.781,0
1571369804.823,-50.781,51.758,30.762,-119.629,43.945,0
1571369804.827,22.461,51.758,32.227,-123.535,-10.742,0
1571369804.831,132.324,49.805,31.738,135.742,-13.672,0
1571369804.835,79.102,48.828,30.273,213.867,7.324,0
1571369804.839,-36.133,48.828,28.809,-34.668,-2.441,0
1571369804.836,-17.578,46.387,27.832,-168.457,-7.324,0
1571369804.840,95.703,44.922,30.762,53.711,-11.230,0
1571369804.844,112.305,44.922,32.715,247.559,40.039,0
1571369804.848,-5.859,42.480,31.250,56.152,78.613,0
1571369804.852,-43.457,42.480,30.273,-180.664,23.926,0
1571369804.856,72.266,44.922,31.250,-0.488,-13.184,0
1571369804.860,137.207,44.922,34.180,248.047,-32.227,0
1571369804.863,27.344,44.922,33.203,125.000,19.531,0
1571369804.867,-52.246,44.434,34.180,-148.926,40.039,0
1571369804.871,37.598,41.992,36.133,-60.547,1.953,0
1571369804.875,125.488,43.457,33.691,203.613,0.000,0
1571369804.879,47.852,42.969,34.180,179.688,-14.648,0
1571369804.876,-53.223,39.551,35.156,-93.750,15.625,0
1571369804.880,2.441,40.527,35.156,-120.117,32.227,0
1571369804.884,110.352,40.039,35.156,125.488,7.812,0
1571369804.888,78.613,39.551,35.156,234.863,-7.812,0
1571369804.892,-37.598,40.527,36.133,-6.348,26.367,0
1571369804.896,-31.738,41.016,32.715,-181.641,45.898,0
1571369804.900,84.473,43.457,32.715,30.273,15.625,0
1571369804.903,112.793,42.480,36.133,241.699,-0.977,0
1571369804.907,-5.371,41.016,32.227,59.570,62.012,0
1571369804.911,-56.152,43.457,30.762,-209.473,41.016,0
1571369804.915,46.875,43.457,32.227,-55.176,-1.953,0
1571369804.919,116.699,44.434,33.203,213.379,27.344,0
1571369804.936,22.461,49.805,30.273,112.793,12.695,0
1571369804.940,-59.082,52.246,24.902,-174.805,2.930,0
1571369804.944,29.785,50.293,22.949,-118.164,32.715,0
1571369804.948,127.930,49.805,25.391,147.949,52.246,0
1571369804.952,61.035,50.781,26.855,169.922,37.598,0
1571369804.956,-47.363,50.781,24.414,-95.703,64.941,0
1571369804.960,-6.836,49.805,28.320,-174.316,39.551,0
1571369804.963,104.004,48.340,31.738,56.641,14.648,0
1571369804.967,88.379,45.898,32.715,206.543,35.156,0
1571369804.971,-29.297,46.875,34.180,-12.207,42.480,0
1571369804.975,-45.898,42.969,34.180,-213.379,65.918,0
1571369804.979,63.965,41.504,33.203,-10.254,-2.930,0
1571369804.976,109.375,41.504,33.203,216.309,-29.297,0
1571369804.980,-2.441,40.527,34.668,66.406,-14.160,0
1571369804.984,-63.477,42.480,35.645,-189.941,-58.105,0
1571369804.988,44.434,42.969,36.133,-59.570,-73.730,0
1571369804.992,122.559,40.527,37.598,198.242,9.277,0
1571369804.996,22.461,40.039,35.156,112.793,1.465,0
1571369805.000,-64.453,39.551,31.250,-174.805,-11.230,0
1571369805.003,15.625,40.039,33.691,-146.973,29.297,0
1571369805.007,116.211,39.551,37.109,114.258,14.160,0
1571369805.011,57.617,40.039,34.180,161.621,45.410,0
1571369805.015,-59.082,43.945,32.227,-112.305,10.742,0
1571369805.019,-27.344,42.480,32.227,-222.656,23.926,0
1571369805.036,90.820,41.016,32.715,16.602,11.230,0
1571369805.040,95.703,43.457,34.668,188.477,-60.547,0
1571369805.044,-20.020,46.875,32.715,-20.020,6.348,0
1571369805.048,-48.828,48.340,31.250,-241.699,49.805,0
1571369805.052,59.082,46.387,33.203,-53.711,37.109,0
1571369805.056,114.746,45.898,34.180,193.848,5.371,0
1571369805.060,3.906,44.922,31.738,46.875,3.906,0
1571369805.063,-66.406,40.527,30.273,-233.887,37.598,0
1571369805.067,31.250,42.969,32.715,-122.559,64.453,0
1571369805.071,122.559,48.828,36.133,146.484,-13.672,0
1571369805.075,40.039,48.340,37.109,119.629,-62.988,0
1571369805.079,-62.500,47.363,35.156,-155.762,25.391,0
1571369805.059,6.836,48.340,32.715,-165.527,27.832,0
1571369805.063,117.676,47.852,32.227,89.355,4.395,0
1571369805.067,75.684,44.922,35.645,179.199,36.621,0
1571369805.071,-39.062,47.363,37.598,-62.988,55.176,0
1571369805.075,-18.555,50.293,35.156,-206.543,77.637,0
1571369805.079,100.586,46.875,37.109,23.438,102.539,0
1571369805.083,115.234,45.410,37.109,226.562,64.453,0
1571369805.086,-6.836,46.875,35.156,35.645,-2.441,0
1571369805.090,-48.340,45.898,36.621,-206.055,13.184,0
1571369805.094,66.895,44.922,36.621,-36.621,40.527,0
1571369805.098,132.812,44.922,35.156,219.727,-4.395,0
1571369805.102,19.043,45.898,35.156,102.539,21.973,0
1571369805.116,-58.594,45.410,35.156,-180.664,58.594,0
1571369805.120,37.109,43.457,35.156,-97.656,30.273,0
1571369805.124,130.371,41.504,34.668,170.898,58.594,0
1571369805.128,48.340,40.039,35.156,160.156,56.152,0
1571369805.132,-58.105,42.969,36.133,-125.977,3.906,0
1571369805.136,-4.883,44.434,36.621,-175.293,34.668,0
1571369805.140,109.375,41.504,39.551,77.637,47.363,0
1571369805.143,88.867,41.504,36.133,200.684,5.859,0
1571369805.147,-24.902,41.992,31.738,-35.645,47.852,0
1571369805.151,-26.855,41.992,31.738,-211.426,45.410,0
1571369805.155,83.008,43.945,30.273,-2.930,2.441,0
1571369805.159,116.211,45.898,30.273,219.727,23.926,0
1571369805.156,1.953,45.898,29.297,46.387,32.227,0
1571369805.160,-47.852,44.922,25.391,-217.285,-7.812,0
1571369805.164,60.059,44.434,26.855,-64.453,-51.270,0
1571369805.168,136.719,46.387,29.785,200.195,-7.812,0
1571369805.172,39.551,46.387,27.832,108.887,14.648,0
1571369805.176,-46.387,47.852,26.855,-176.270,8.301,0
1571369805.180,31.250,46.387,29.297,-125.977,51.758,0
1571369805.183,124.512,44.434,30.762,137.695,54.199,0
1571369805.187,56.641,45.410,27.832,159.668,26.367,0
1571369805.191,-55.176,46.387,29.785,-110.840,-16.602,0
1571369805.195,-13.672,45.410,30.273,-186.523,7.324,0
1571369805.199,101.074,43.457,28.809,65.430,61.035,0
1571369805.216,87.402,43.457,31.250,218.262,52.246,0
1571369805.220,-31.250,47.363,34.180,-7.812,13.672,0
1571369805.224,-48.340,47.852,33.203,-214.355,-15.137,0
1571369805.228,66.895,44.434,34.180,-14.160,-13.184,0
1571369805.232,117.188,42.969,36.133,223.633,-39.062,0
1571369805.236,3.906,43.457,35.156,68.848,-24.414,0
1571369805.240,-64.941,43.457,32.715,-207.031,79.590,0
1571369805.243,33.203,41.992,31.738,-80.566,72.754,0
1571369805.247,115.723,39.551,32.227,198.730,1.953,0
1571369805.251,27.344,40.039,32.227,134.277,17.090,0
1571369805.255,-63.477,41.504,32.715,-155.762,17.578,0
1571369805.259,8.301,40.039,34.668,-137.695,-19.531,0
1571369805.256,115.723,38.574,37.109,124.023,2.930,0
1571369805.260,68.359,38.086,37.109,191.895,10.254,0
1571369805.264,-49.805,39.551,34.180,-70.801,-13.184,0
1571369805.268,-29.785,39.551,33.691,-193.359,35.645,0
1571369805.272,83.984,38.086,38.086,48.340,26.367,0
1571369805.276,91.309,38.086,38.574,227.539,4.395,0
1571369805.280,-24.902,39.062,34.668,20.996,-2.930,0
1571369805.283,-50.781,42.480,33.203,-203.125,3.418,0
1571369805.287,62.500,40.527,35.156,-21.484,19.043,0
1571369805.291,110.352,40.039,34.668,229.492,-4.395,0
1571369805.295,-4.883,41.016,33.203,95.215,22.949,0
1571369805.299,-78.125,41.016,29.297,-186.523,48.340,0
1571369805.296,19.531,40.039,28.320,-84.473,56.152,0
1571369805.300,114.746,40.527,33.203,181.641,-20.020,0
1571369805.304,34.180,43.457,33.203,150.391,-10.254,0
1571369805.308,-61.035,46.387,31.738,-132.324,65.918,0
1571369805.312,9.277,45.898,32.227,-153.320,-8.789,0
1571369805.316,115.723,44.434,33.203,98.633,-23.926,0
1571369805.320,72.266,43.457,31.250,189.941,35.645,0
1571369805.323,-44.434,41.504,27.344,-51.270,49.805,0
1571369805.327,-31.738,40.039,26.367,-197.754,20.996,0
1571369805.331,87.891,40.039,28.809,33.691,-8.789,0
1571369805.335,105.957,40.527,30.273,243.164,-0.488,0
1571369805.339,-11.719,41.992,29.297,57.129,26.855,0
1571369805.356,-52.246,41.504,28.809,-183.105,51.758,0
1571369805.360,51.758,39.551,30.762,-13.672,49.316,0
1571369805.364,117.188,39.551,32.227,245.605,21.484,0
1571369805.368,16.602,41.016,31.738,133.301,43.457,0
1571369805.372,-62.500,42.969,31.250,-147.949,51.270,0
1571369805.376,30.273,43.457,31.738,-74.219,28.809,0
1571369805.380,125.000,41.504,33.203,183.594,-13.184,0
1571369805.383,49.805,42.480,34.180,181.152,-67.871,0
1571369805.387,-54.199,44.434,31.738,-91.797,-62.500,0
1571369805.391,-2.930,44.434,30.762,-147.949,-17.578,0
1571369805.395,112.305,43.457,31.250,103.027,39.551,0
1571369805.399,89.355,44.434,29.297,230.957,31.738,0
1571369805.396,-27.832,46.875,28.809,-1.953,-14.160,0
1571369805.400,-28.320,45.410,29.297,-193.848,-10.254,0
1571369805.404,86.914,46.875,29.297,7.812,-22.461,0
1571369805.408,127.930,49.316,29.785,238.281,-20.020,0
1571369805.412,10.742,48.340,29.297,68.848,9.766,0
1571369805.416,-51.270,44.922,28.320,-193.359,29.785,0
1571369805.420,55.176,42.480,27.344,-55.176,63.965,0
1571369805.423,130.371,42.969,29.297,206.055,65.918,0
1571369805.427,34.180,41.992,29.785,126.465,53.223,0
1571369805.431,-55.664,43.457,28.320,-164.551,42.969,0
1571369805.435,27.832,43.945,28.320,-125.488,12.695,0
1571369805.439,132.324,41.992,29.297,143.066,30.273,0
1571369805.436,60.059,41.992,31.250,174.805,29.297,0
1571369805.440,-59.570,41.992,33.203,-87.402,30.273,0
1571369805.444,-17.090,39.551,34.668,-173.340,65.918,0
1571369805.448,98.633,39.551,33.203,67.871,36.133,0
1571369805.452,92.285,41.504,34.180,228.516,-4.395,0
1571369805.456,-23.926,41.992,35.156,12.207,6.836,0
1571369805.460,-46.387,41.992,31.738,-197.754,15.625,0
1571369805.463,67.871,41.016,32.227,-3.418,6.836,0
1571369805.467,108.887,41.992,35.156,237.305,52.734,0
1571369805.471,-9.277,43.457,30.273,86.426,66.895,0
1571369805.475,-70.312,42.969,27.344,-181.152,62.012,0
1571369805.479,31.738,43.945,31.250,-54.199,39.551,0
1571369805.497,115.234,45.410,31.250,209.961,44.434,0
1571369805.501,35.156,46.875,31.250,151.855,60.547,0
1571369805.505,-53.223,46.875,30.762,-137.207,50.293,0
1571369805.509,18.555,44.434,30.273,-125.488,42.480,0
1571369805.513,119.141,45.410,31.250,133.301,64.453,0
1571369805.517,63.965,45.898,29.785,196.777,83.008,0
1571369805.521,-51.758,46.875,29.297,-63.477,48.340,0
1571369805.524,-25.391,48.340,30.273,-199.707,-14.160,0
1571369805.528,93.262,46.387,30.273,39.062,-0.488,0
1571369805.532,92.773,46.387,32.227,232.910,34.668,0
1571369805.536,-29.785,44.434,32.715,31.738,6.836,0
1571369805.540,-59.570,43.457,31.738,-197.754,43.457,0
1571369805.536,52.734,44.434,34.180,-17.578,36.133,0
1571369805.540,109.863,44.922,35.156,237.305,11.230,0
1571369805.544,3.418,45.410,35.156,111.816,0.488,0
1571369805.548,-65.918,44.434,32.715,-174.316,-13.672,0
1571369805.552,28.809,42.480,30.762,-80.566,20.020,0
1571369805.556,121.582,41.504,31.738,190.430,37.598,0
1571369805.560,43.457,42.480,29.785,164.551,-44.434,0
1571369805.563,-59.082,42.480,25.879,-116.211,-27.344,0
1571369805.567,1.465,40.039,28.809,-133.789,57.129,0
1571369805.571,110.840,42.480,29.297,122.070,5.371,0
1571369805.575,72.754,45.410,27.344,218.750,42.480,0
1571369805.579,-41.016,44.434,28.320,-16.602,95.703,0
1571369805.576,-28.320,43.457,28.809,-171.387,76.172,0
1571369805.580,94.238,41.016,28.809,43.945,63.477,0
1571369805.584,119.141,39.551,29.297,243.164,9.766,0
1571369805.588,-3.418,38.086,28.320,50.781,-11.719,0
1571369805.592,-54.199,36.621,28.809,-196.777,38.574,0
1571369805.596,56.152,37.598,29.785,-30.762,31.250,0
1571369805.600,125.977,35.645,30.762,227.539,-17.578,0
1571369805.603,21.484,36.133,30.762,120.605,-2.441,0
1571369805.607,-65.430,39.551,29.785,-164.551,-28.809,0
1571369805.611,24.902,37.598,33.203,-90.820,-37.598,0
1571369805.615,127.930,37.598,37.109,180.176,18.066,0
1571369805.619,57.617,39.062,36.621,185.059,49.316,0
1571369805.636,-53.711,41.016,32.715,-93.262,63.477,0
1571369805.640,-4.883,40.039,31.250,-157.715,83.496,0
1571369805.644,109.863,38.086,35.156,97.168,13.184,0
1571369805.648,87.402,40.527,36.133,229.492,0.488,0
1571369805.652,-27.344,42.480,35.645,-5.859,-44.922,0
1571369805.656,-26.855,42.480,34.180,-194.824,-84.473,0
1571369805.660,89.844,41.504,33.203,0.000,-36.621,0
1571369805.663,120.117,41.992,32.715,227.539,-26.367,0
1571369805.667,0.977,41.992,32.715,70.801,14.160,0
1571369805.671,-54.199,41.016,30.273,-196.777,27.344,0
1571369805.675,48.828,40.527,29.785,-58.105,-8.789,0
1571369805.679,122.070,40.527,32.715,204.102,13.672,0
1571369805.676,28.320,41.992,34.180,126.465,50.781,0
1571369805.680,-61.523,41.992,33.691,-148.438,51.270,0
1571369805.684,12.695,40.527,33.691,-106.934,-0.977,0
1571369805.688,115.723,42.969,35.156,159.180,7.324,0
1571369805.692,59.082,46.875,34.180,200.195,42.480,0
1571369805.696,-53.711,44.922,32.715,-63.965,21.973,0
1571369805.700,-15.137,42.969,33.203,-165.527,20.996,0
1571369805.703,102.539,44.434,37.109,66.895,5.371,0
1571369805.707,101.074,46.387,39.062,232.910,16.602,0
1571369805.711,-18.066,47.852,35.156,11.230,1.953,0
1571369805.715,-41.504,45.898,33.691,-207.520,-34.180,0
1571369805.719,73.242,42.480,36.621,0.000,-13.672,0
1571369805.716,123.047,41.992,36.133,241.699,29.785,0
1571369805.720,13.672,42.969,34.180,91.309,27.344,0
1571369805.724,-58.105,44.434,32.715,-190.918,1.465,0
1571369805.728,36.621,44.922,32.715,-76.172,4.883,0
1571369805.732,121.094,43.945,32.715,197.754,4.395,0
1571369805.736,28.320,41.016,33.203,145.020,-9.766,0
1571369805.740,-68.848,38.574,34.180,-136.719,-59.082,0
1571369805.743,1.953,39.551,32.715,-134.277,-40.039,0
1571369805.747,107.422,41.016,34.180,127.930,50.781,0
1571369805.751,67.383,41.016,33.691,210.938,13.184,0
1571369805.755,-41.992,42.480,30.762,-38.574,29.297,0
1571369805.759,-22.949,41.992,31.250,-172.363,77.148,0
1571369805.776,87.891,41.016,31.738,51.758,73.730,0
1571369805.780,100.586,41.504,32.227,240.234,15.625,0
1571369805.784,-12.207,42.480,29.785,45.898,-13.672,0
1571369805.788,-41.992,44.434,27.832,-186.523,25.879,0
1571369805.792,68.848,43.945,30.273,-9.277,13.672,0
1571369805.796,123.535,43.945,29.297,241.211,21.484,0
1571369805.800,10.254,43.945,27.832,115.234,10.254,0
1571369805.803,-67.871,42.480,27.832,-166.016,-6.836,0
1571369805.807,29.297,42.969,26.367,-75.195,-3.418,0
1571369805.811,125.000,44.922,27.344,193.848,-9.277,0
1571369805.815,46.387,45.898,27.832,180.176,-12.207,0
1571369805.819,-59.082,45.898,28.320,-86.914,-6.836,0
1571369805.817,-5.371,46.387,26.367,-119.629,39.551,0
1571369805.821,108.887,47.363,22.949,126.953,19.531,0
1571369805.825,78.613,45.410,22.949,227.539,42.480,0
1571369805.829,-41.504,47.363,22.949,-19.531,66.895,0
1571369805.833,-33.691,49.805,23.438,-181.641,76.660,0
1571369805.837,80.566,46.875,27.344,38.086,98.145,0
1571369805.841,107.422,45.898,27.344,258.301,64.453,0
1571369805.844,-8.301,47.852,26.855,74.219,36.621,0
1571369805.848,-57.617,47.852,26.855,-185.547,-1.953,0
1571369805.852,51.270,47.852,24.414,-30.273,-30.273,0
1571369805.856,120.605,47.363,29.785,222.656,23.926,0
1571369805.860,23.438,46.387,30.273,131.836,53.711,0
1571369805.856,-54.199,45.410,27.832,-155.273,27.832,0
1571369805.860,34.668,44.434,30.762,-95.215,80.566,0
1571369805.864,127.930,42.969,30.273,171.387,51.758,0
1571369805.868,55.664,43.945,29.297,174.805,-34.668,0
1571369805.872,-49.805,45.410,28.320,-90.820,32.227,0
1571369805.876,-4.883,45.410,27.832,-161.133,92.285,0
1571369805.880,109.863,44.434,29.297,82.031,76.660,0
1571369805.883,93.750,45.410,29.297,229.980,53.223,0
1571369805.887,-25.391,45.410,29.297,1.465,20.996,0
1571369805.891,-32.715,42.480,29.297,-193.359,27.832,0
1571369805.895,85.938,41.992,28.809,12.695,50.293,0
1571369805.899,119.141,43.457,29.297,240.234,1.953,0
1571369805.917,-4.883,43.457,29.297,76.172,-8.789,0
1571369805.921,-59.570,43.457,27.832,-189.941,-12.695,0
1571369805.925,45.898,43.457,28.320,-49.316,-3.906,0
1571369805.929,126.953,43.457,30.762,208.984,29.297,0
1571369805.933,36.621,43.945,30.273,129.883,-1.465,0
1571369805.937,-56.641,47.852,27.832,-148.438,-3.906,0
1571369805.941,13.184,45.410,26.855,-123.047,-4.395,0
1571369805.944,116.699,42.969,29.297,148.438,59.570,0
1571369805.948,62.988,45.898,29.785,195.312,37.598,0
1571369805.952,-48.340,46.387,27.344,-79.590,-12.695,0
1571369805.956,-19.531,44.434,27.832,-179.688,6.836,0
1571369805.960,95.703,43.457,31.738,59.082,-20.020,0
1571369805.956,101.074,44.922,32.227,227.051,-25.879,0
1571369805.960,-24.902,44.922,28.320,7.812,1.465,0
1571369805.964,-50.781,42.969,25.391,-211.426,-18.555,0
1571369805.968,62.988,42.480,25.391,-11.719,13.184,0
1571369805.972,109.863,41.992,27.832,230.469,101.562,0
1571369805.976,2.441,41.016,27.832,83.496,90.820,0
1571369805.980,-64.941,40.039,26.855,-198.730,43.457,0
1571369805.983,32.227,38.574,27.832,-88.379,18.555,0
1571369805.987,115.723,39.551,30.273,190.430,57.129,0
1571369805.991,25.391,42.480,30.762,144.043,46.387,0
1571369805.995,-68.848,41.504,30.273,-137.695,-11.230,0
1571369805.999,4.883,40.527,31.250,-138.184,-11.719,0
1571369805.996,111.328,39.062,33.691,120.605,-21.484,0
1571369806.000,70.801,41.016,33.691,208.984,18.555,0
1571369806.004,-42.969,43.457,31.250,-39.551,63.965,0
1571369806.008,-30.762,41.504,32.715,-179.688,14.648,0
1571369806.012,85.938,41.016,34.180,39.062,-26.855,0
1571369806.016,101.562,41.504,33.203,233.887,18.555,0
1571369806.020,-15.137,41.504,28.809,49.316,10.742,0
1571369806.023,-50.293,44.434,24.902,-197.266,-6.348,0
1571369806.027,64.941,44.922,28.809,-27.832,59.082,0
1571369806.031,133.301,44.434,32.715,228.027,11.230,0
1571369806.035,24.902,43.945,30.762,107.422,-32.715,0
1571369806.039,-59.570,42.969,28.809,-167.969,8.789,0
1571369806.056,27.832,40.527,31.250,-83.008,29.297,0
1571369806.060,124.023,41.016,34.180,183.594,63.965,0
1571369806.064,46.875,44.434,32.227,166.504,-17.578,0
1571369806.068,-56.152,44.434,28.809,-111.816,-31.250,0
1571369806.072,1.465,43.457,28.809,-149.414,38.574,0
1571369806.076,104.980,43.457,31.738,99.609,30.762,0
1571369806.080,71.777,42.480,32.715,211.914,-3.418,0
1571369806.083,-46.387,41.016,30.762,-31.250,-6.348,0
1571369806.087,-43.457,41.504,30.273,-194.336,38.086,0
1571369806.091,77.148,44.434,32.715,30.762,37.109,0
1571369806.095,105.469,44.434,30.273,243.652,4.395,0
1571369806.099,-9.766,42.480,27.832,60.059,40.527,0
1571369806.096,-54.199,42.480,28.320,-196.289,36.133,0
1571369806.100,50.293,42.480,29.785,-37.598,0.000,0
1571369806.104,118.164,41.016,32.227,227.539,98.145,0
1571369806.108,18.555,41.992,29.297,129.883,99.121,0
1571369806.112,-62.500,44.922,27.832,-147.949,32.227,0
1571369806.116,22.461,41.016,29.785,-87.402,3.906,0
1571369806.120,109.375,39.551,28.809,162.598,32.715,0
1571369806.123,41.992,42.969,28.320,169.922,17.578,0
1571369806.127,-57.617,42.969,28.809,-97.656,-9.766,0
1571369806.131,-13.672,43.457,24.902,-171.387,32.227,0
1571369806.135,99.121,41.504,26.367,73.730,22.949,0
1571369806.139,88.379,41.504,31.738,228.516,-15.625,0
1571369806.136,-29.297,41.992,29.785,6.348,-58.105,0
1571369806.140,-43.457,38.574,28.809,-196.777,40.039,0
1571369806.144,75.684,41.016,32.227,7.812,37.109,0
1571369806.148,120.117,43.457,31.738,242.676,15.625,0
1571369806.152,11.230,42.969,28.809,84.473,35.645,0
1571369806.156,-54.688,41.992,25.879,-186.523,8.301,0
1571369806.160,39.062,40.039,23.438,-54.199,42.969,0
1571369806.163,119.141,40.527,23.438,208.496,22.461,0
1571369806.167,27.344,40.527,23.926,139.160,9.277,0
1571369806.171,-60.059,42.480,25.391,-133.789,-10.254,0
1571369806.175,19.043,43.945,26.855,-108.398,2.441,0
1571369806.179,127.441,44.434,29.297,152.832,34.180,0
1571369806.206,71.777,45.410,29.297,209.473,27.832,0
1571369806.210,-48.828,43.457,28.809,-53.223,26.367,0
1571369806.214,-22.949,41.504,30.762,-169.922,20.996,0
1571369806.218,95.215,41.016,31.250,66.895,67.383,0
1571369806.222,100.586,40.527,30.273,246.094,8.301,0
1571369806.226,-14.648,42.969,30.762,36.621,-8.301,0
1571369806.230,-41.992,41.992,31.250,-186.523,55.664,0
1571369806.233,76.172,40.527,30.762,2.930,61.035,0
1571369806.237,132.812,43.945,29.785,256.348,35.156,0
1571369806.241,18.066,44.922,31.250,120.117,82.031,0
1571369806.245,-55.176,45.410,30.273,-167.969,83.008,0
1571369806.249,37.598,45.410,29.785,-68.848,-1.953,0
1571369806.237,123.535,42.480,32.227,209.473,-18.066,0
1571369806.241,34.180,43.457,31.738,177.246,19.043,0
1571369806.245,-65.430,45.898,31.250,-108.398,0.000,0
1571369806.249,0.977,43.945,29.785,-122.559,-43.457,0
1571369806.253,107.422,42.480,30.273,134.277,-8.301,0
1571369806.257,64.941,42.969,33.691,232.422,18.066,0
1571369806.261,-50.293,42.969,31.738,-20.020,21.484,0
1571369806.264,-29.297,43.457,28.809,-171.387,-9.766,0
1571369806.268,85.449,42.480,29.785,53.711,8.789,0
1571369806.272,109.375,42.969,32.715,254.883,75.195,0
1571369806.276,1.953,44.434,31.250,66.406,75.684,0
1571369806.280,-46.875,42.480,28.320,-184.082,14.648,0
1571369806.296,57.129,42.480,29.297,-14.648,20.996,0
1571369806.300,123.047,43.457,30.273,239.746,26.367,0
1571369806.304,20.996,43.457,29.785,119.141,-14.648,0
1571369806.308,-63.477,41.992,26.855,-165.527,-1.465,0
1571369806.312,23.926,40.039,27.344,-98.145,-53.223,0
1571369806.316,128.906,41.504,29.297,168.945,-33.203,0
1571369806.320,55.176,42.480,26.855,163.086,74.219,0
1571369806.323,-60.059,43.945,25.879,-122.559,44.434,0
1571369806.327,-10.742,42.969,29.297,-166.016,40.527,0
1571369806.331,100.586,39.062,30.762,88.379,67.871,0
1571369806.335,77.148,37.598,30.762,214.355,45.898,0
1571369806.339,-42.969,38.574,29.297,-23.438,-31.738,0
1571369806.336,-43.457,41.016,27.344,-203.125,0.000,0
1571369806.340,83.008,41.504,25.879,19.531,38.086,0
1571369806.344,117.188,39.551,30.762,242.676,-58.105,0
1571369806.348,-9.277,38.574,32.715,67.871,-11.719,0
1571369806.352,-68.848,39.062,29.785,-205.566,49.805,0
1571369806.356,37.598,37.109,32.227,-64.453,24.414,0
1571369806.360,118.164,36.621,31.738,211.914,34.180,0
1571369806.363,32.227,39.551,30.762,129.883,60.547,0
1571369806.367,-48.828,39.062,29.297,-157.227,48.340,0
1571369806.371,24.414,39.062,26.367,-108.887,-17.090,0
1571369806.375,121.094,39.551,27.832,148.438,10.742,0
1571369806.379,65.918,41.016,27.832,177.734,17.578,0
1571369806.377,-41.504,43.945,24.414,-80.078,-13.184,0
1571369806.381,-5.371,42.969,26.367,-166.992,8.789,0
1571369806.385,111.328,41.992,30.762,66.406,36.133,0
1571369806.389,105.957,41.992,31.250,217.285,26.367,0
1571369806.393,-12.695,42.480,30.273,2.441,28.809,0
1571369806.397,-37.109,42.480,32.227,-208.496,26.855,0
1571369806.401,72.266,41.992,34.180,-10.254,36.133,0
1571369806.404,117.676,40.527,34.668,226.562,51.758,0
1571369806.408,3.906,41.504,34.668,76.660,20.996,0
1571369806.412,-62.012,41.992,34.180,-187.988,22.949,0
1571369806.416,40.527,39.551,35.156,-62.012,9.277,0
1571369806.420,121.582,39.551,37.598,212.891,54.688,0
1571369806.436,26.855,41.992,35.645,153.320,103.027,0
1571369806.440,-66.895,43.457,32.715,-133.301,44.922,0
1571369806.444,7.812,41.016,30.273,-121.094,23.438,0
1571369806.448,116.211,40.039,29.297,142.578,17.090,0
1571369806.452,66.895,40.039,29.297,209.961,34.180,0
1571369806.456,-45.898,40.527,25.879,-52.246,79.102,0
1571369806.460,-16.602,41.504,26.367,-177.734,49.316,0
1571369806.463,97.168,41.504,26.855,49.316,-52.246,0
1571369806.467,105.957,41.992,27.344,233.887,-38.574,0
1571369806.471,-7.324,42.969,27.832,39.062,26.367,0
1571369806.475,-37.109,43.457,26.367,-195.801,-23.438,0
1571369806.479,73.242,43.945,26.855,-21.973,-47.852,0
1571369806.478,129.395,44.922,27.832,234.863,38.574,0
1571369806.482,20.508,45.410,27.344,102.539,70.312,0
1571369806.486,-58.594,44.434,25.879,-181.152,43.945,0
1571369806.490,39.062,42.969,30.273,-84.473,36.621,0
1571369806.494,130.859,43.457,34.180,181.152,-4.883,0
1571369806.498,43.945,45.410,33.691,152.832,-1.465,0
1571369806.502,-54.199,46.387,33.691,-127.441,0.977,0
1571369806.505,10.254,47.363,31.738,-145.996,6.836,0
1571369806.509,114.746,45.410,31.738,112.305,28.320,0
1571369806.513,72.754,41.504,32.715,209.961,41.016,0
1571369806.517,-47.363,41.016,31.250,-41.016,27.832,0
1571369806.521,-34.668,43.945,32.227,-199.707,-38.574,0
1571369806.517,84.473,43.457,36.133,32.227,-9.277,0
1571369806.521,107.910,41.992,36.621,240.234,-32.227,0
1571369806.525,-14.648,41.016,35.645,54.688,-6.348,0
1571369806.529,-60.547,41.016,33.203,-188.965,34.180,0
1571369806.533,53.711,40.527,31.738,-21.484,46.875,0
1571369806.537,122.070,41.992,32.715,241.699,14.648,0
1571369806.541,19.531,43.457,31.738,133.301,-13.184,0
1571369806.544,-58.105,41.992,30.273,-147.461,44.434,0
1571369806.548,31.738,42.480,30.273,-80.078,44.922,0
1571369806.552,125.977,43.945,30.762,179.199,-3.418,0
1571369806.556,48.828,42.480,29.297,185.547,23.438,0
1571369806.560,-57.129,43.457,26.367,-95.703,35.645,0
1571369806.578,-7.812,45.410,26.855,-163.574,13.672,0
1571369806.582,107.910,46.875,27.344,86.426,70.801,0
1571369806.586,91.309,47.363,28.320,217.285,96.191,0
1571369806.590,-29.785,45.410,26.855,-16.113,44.434,0
1571369806.594,-37.598,45.898,25.879,-204.590,53.711,0
1571369806.598,70.801,44.434,27.344,4.395,59.570,0
1571369806.602,106.934,44.434,27.344,234.375,32.227,0
1571369806.605,-3.906,45.898,26.855,67.871,-0.488,0
1571369806.609,-59.082,44.434,26.367,-192.871,-24.414,0
1571369806.613,44.434,42.480,26.367,-48.340,-3.418,0
1571369806.617,117.676,43.457,26.855,215.820,0.000,0
1571369806.621,17.090,44.434,25.391,133.301,55.176,0
1571369806.616,-75.195,41.016,21.973,-151.367,22.461,0
1571369806.620,0.977,36.621,23.438,-114.746,-18.066,0
1571369806.624,105.957,38.086,29.785,148.926,0.000,0
1571369806.628,54.688,41.992,29.297,187.500,2.441,0
1571369806.632,-59.082,41.504,29.297,-73.730,51.758,0
1571369806.636,-26.855,39.062,27.832,-170.410,52.246,0
1571369806.640,90.820,38.574,27.344,65.430,-7.324,0
1571369806.643,86.426,41.016,30.762,228.027,22.949,0
1571369806.647,-28.320,42.480,30.762,12.207,23.438,0
1571369806.651,-44.922,41.504,31.250,-199.219,35.645,0
1571369806.655,70.801,42.969,31.738,-11.719,47.852,0
1571369806.659,122.070,43.457,33.203,222.168,-19.531,0
1571369806.676,7.812,42.969,33.203,79.102,55.664,0
1571369806.680,-58.594,46.387,34.180,-197.754,120.117,0
1571369806.684,44.922,46.387,35.645,-85.449,42.969,0
1571369806.688,131.348,43.945,35.156,183.594,0.000,0
1571369806.692,43.457,43.945,32.715,134.766,13.184,0
1571369806.696,-49.805,45.410,31.250,-150.879,1.465,0
1571369806.700,22.949,46.875,29.785,-144.043,-2.930,0
1571369806.703,125.000,45.898,31.738,121.094,21.484,0
1571369806.707,70.801,46.875,33.203,189.453,47.852,0
1571369806.711,-45.898,48.828,31.738,-71.777,38.574,0
1571369806.715,-27.832,46.875,32.715,-201.172,12.207,0
1571369806.719,86.426,41.992,33.691,32.227,-58.105,0
1571369806.716,100.586,41.016,32.227,222.168,-78.613,0
1571369806.720,-15.137,42.480,32.227,21.973,10.254,0
1571369806.724,-51.758,42.969,32.227,-218.750,31.250,0
1571369806.728,55.664,42.969,33.203,-37.598,22.461,0
1571369806.732,111.816,42.969,38.086,220.703,65.430,0
1571369806.736,-1.465,43.457,37.598,92.773,24.902,0
1571369806.740,-75.684,40.527,33.203,-187.988,-12.207,0
1571369806.743,23.438,40.527,33.203,-86.914,27.344,0
1571369806.747,120.117,42.480,34.180,187.988,5.859,0
1571369806.751,44.922,42.969,33.691,171.387,-0.488,0
1571369806.755,-57.129,44.922,33.691,-106.934,14.648,0
1571369806.759,-6.348,41.504,32.715,-146.484,30.762,0
1571369806.756,104.492,40.527,35.645,95.703,23.438,0
1571369806.760,79.102,42.480,37.109,203.613,-14.648,0
1571369806.764,-40.527,42.480,33.203,-33.691,-9.766,0
1571369806.768,-33.691,40.527,31.738,-205.078,-17.090,0
1571369806.772,86.914,39.062,31.250,12.207,3.418,0
1571369806.776,118.164,42.480,30.762,231.934,77.637,0
1571369806.780,0.000,45.410,32.715,52.246,78.125,0
1571369806.783,-52.734,43.945,32.227,-200.684,50.781,0
1571369806.787,56.152,44.434,31.738,-40.527,36.621,0
1571369806.791,128.418,45.410,30.273,218.262,37.598,0
1571369806.795,25.391,45.898,31.250,109.863,31.738,0
1571369806.799,-61.035,46.387,32.715,-178.223,-28.320,0
1571369806.796,28.320,47.363,29.297,-102.539,-18.555,0
1571369806.800,125.000,47.363,31.738,173.340,41.016,0
1571369806.804,55.176,47.852,34.668,186.035,36.133,0
1571369806.808,-48.828,46.875,32.715,-86.426,-13.672,0
1571369806.812,-2.930,45.898,32.715,-157.715,1.465,0
1571369806.816,108.887,46.875,32.227,88.379,9.277,0
1571369806.820,96.191,47.363,32.227,233.398,-34.180,0
1571369806.823,-22.461,47.852,30.762,8.789,-29.297,0
1571369806.827,-40.527,47.363,30.273,-199.707,41.992,0
1571369806.831,71.289,43.945,34.180,8.789,79.590,0
1571369806.835,111.816,41.992,34.668,255.859,29.785,0
1571369806.839,-2.930,41.016,31.250,91.797,29.785,0
1571369806.856,-60.547,41.992,27.832,-176.270,45.898,0
1571369806.860,41.992,41.016,26.855,-50.293,38.086,0
1571369806.864,125.488,38.086,27.344,210.938,81.543,0
1571369806.868,33.691,40.527,25.391,142.578,52.246,3
1571369806.872,-57.617,43.945,22.949,-137.207,-0.977,0
1571369806.876,16.602,44.434,26.367,-101.074,28.320,0
1571369806.880,112.305,43.457,30.273,157.227,59.082,0
1571369806.883,57.617,44.434,30.273,200.195,59.082,0
1571369806.887,-49.805,44.922,30.762,-58.594,23.438,0
1571369806.891,-17.578,42.480,32.227,-164.062,42.480,0
1571369806.895,96.680,41.504,33.203,73.730,55.664,0
1571369806.899,93.262,43.945,33.691,242.676,29.785,0
1571369806.896,-30.273,44.434,32.715,29.297,27.832,0
1571369806.900,-50.293,42.480,31.250,-183.594,11.719,0
1571369806.904,68.359,41.992,32.715,2.930,52.246,0
1571369806.908,121.094,42.480,33.203,242.676,-6.836,0
1571369806.912,14.160,44.434,30.762,103.027,-41.016,0
1571369806.916,-58.594,44.922,30.273,-178.223,14.160,0
1571369806.920,37.598,42.969,32.715,-67.383,20.508,0
1571369806.923,126.953,41.016,32.227,199.707,14.648,0
1571369806.927,40.039,41.016,29.785,156.250,13.672,0
1571369806.931,-60.547,41.504,29.297,-133.301,51.758,0
1571369806.935,8.301,41.504,29.297,-150.879,20.996,0
1571369806.939,121.582,41.504,30.762,115.723,14.160,0
1571369806.940,74.219,44.434,32.227,208.984,40.039,0
1571369806.944,-44.434,44.434,29.785,-41.992,62.988,0
1571369806.948,-26.367,42.969,28.809,-184.082,63.965,0
1571369806.952,86.426,42.969,32.227,45.410,-6.836,0
1571369806.956,101.074,41.992,32.715,243.652,-1.465,0
1571369806.960,-13.184,43.945,32.227,45.898,79.102,0
1571369806.964,-47.363,41.016,30.273,-196.777,65.918,0
1571369806.967,63.477,39.551,30.273,-27.832,40.039,0
1571369806.971,119.141,41.016,30.762,221.191,11.230,0
1571369806.975,14.648,41.992,29.297,103.516,-31.250,0
1571369806.979,-62.500,41.992,27.832,-179.199,-8.301,0
1571369806.983,31.250,42.480,28.320,-95.703,41.504,0
1571369806.996,125.977,41.992,30.762,171.875,55.176,0
1571369807.000,46.875,41.992,32.715,153.320,70.312,0
1571369807.004,-51.270,42.969,32.715,-122.070,42.969,0
1571369807.008,2.930,42.480,33.691,-159.180,-41.504,0
1571369807.012,106.934,41.992,36.133,95.215,-21.484,0
1571369807.016,82.520,45.898,35.156,213.867,-9.766,0
1571369807.020,-33.691,47.363,32.715,-29.297,2.930,0
1571369807.023,-34.180,43.945,32.227,-205.566,0.977,0
1571369807.027,84.961,42.480,30.273,12.207,-12.207,0
1571369807.031,114.746,43.945,30.273,231.934,16.602,0
1571369807.035,-4.395,44.434,27.832,47.363,22.461,0
1571369807.039,-58.594,43.457,24.902,-210.938,17.578,0
1571369807.036,49.316,41.992,26.855,-47.852,83.984,0
1571369807.040,127.930,41.016,26.367,215.332,92.773,0
1571369807.044,26.855,43.457,25.879,115.723,18.066,0
1571369807.048,-62.988,43.457,25.879,-176.758,2.930,0
1571369807.052,15.625,42.480,27.832,-125.488,57.129,0
1571369807.056,106.934,42.480,32.227,143.066,87.891,0
1571369807.060,41.992,42.480,32.227,169.434,6.348,0
1571369807.063,-63.477,42.480,33.691,-96.680,-17.578,0
1571369807.067,-23.926,40.527,33.203,-173.828,3.418,0
1571369807.071,85.449,38.086,31.738,65.430,0.488,0
1571369807.075,81.543,41.504,32.227,206.543,41.992,0
1571369807.079,-29.297,44.922,33.203,-10.254,41.016,0
1571369807.076,-40.527,43.945,33.203,-208.496,28.809,0
1571369807.080,73.242,43.457,34.668,-8.301,-25.391,0
1571369807.084,111.328,41.504,37.109,231.934,-65.918,0
1571369807.088,0.000,41.504,35.156,79.590,-36.621,0
1571369807.092,-59.082,41.992,28.809,-196.289,-37.598,0
1571369807.096,36.621,39.551,27.832,-68.848,0.488,0
1571369807.100,117.188,41.016,32.227,200.684,55.176,0
1571369807.103,29.297,40.527,33.203,137.207,60.059,0
1571369807.107,-61.035,40.527,34.180,-152.344,42.480,0
1571369807.111,19.531,42.480,35.156,-129.395,30.762,0
1571369807.115,123.535,42.969,36.621,144.043,15.137,0
1571369807.119,68.848,42.969,37.109,202.148,-13.672,0
1571369807.137,-47.363,43.457,34.668,-60.059,27.344,0
1571369807.141,-21.973,42.969,34.180,-173.340,48.828,0
1571369807.145,95.215,40.527,34.668,62.500,19.043,0
1571369807.149,99.121,41.016,32.715,240.234,5.859,0
1571369807.153,-22.949,41.992,31.738,30.273,55.176,0
1571369807.157,-53.711,42.969,31.250,-197.266,51.758,0
1571369807.161,55.176,41.504,33.203,-11.719,23.438,0
1571369807.164,105.957,36.621,38.086,232.422,40.527,0
1571369807.168,0.000,40.039,36.133,98.145,1.953,0
1571369807.172,-67.383,40.527,32.715,-185.547,20.996,0
1571369807.176,34.180,39.551,32.715,-84.473,53.711,0
1571369807.180,126.953,41.504,34.180,187.500,28.320,0
1571369807.177,36.621,41.016,34.668,152.344,57.129,0
1571369807.181,-60.547,43.457,31.738,-128.418,8.789,0
1571369807.185,8.789,44.434,28.320,-142.578,-58.594,0
1571369807.189,113.281,42.969,30.273,114.258,-83.008,0
1571369807.193,74.707,42.480,31.250,204.590,-35.156,0
1571369807.197,-33.691,42.480,29.297,-46.875,20.020,0
1571369807.201,-24.902,43.945,30.762,-198.730,27.344,0
1571369807.204,86.914,45.410,33.691,26.367,101.562,0
1571369807.208,110.352,43.457,35.156,235.352,74.707,0
1571369807.212,-9.277,44.434,34.668,46.875,-12.695,0
1571369807.216,-53.223,47.363,33.203,-197.754,-1.465,0
1571369807.220,58.105,45.410,32.715,-25.879,5.371,0
1571369807.217,125.488,42.969,32.227,227.539,1.953,0
1571369807.221,21.973,45.410,29.297,117.188,37.598,0
1571369807.225,-63.477,45.410,25.879,-164.062,20.508,0
1571369807.229,23.926,44.434,29.297,-89.355,13.184,0
1571369807.233,125.488,43.945,31.250,183.594,13.672,0
1571369807.237,54.199,43.945,29.785,183.594,1.465,0
1571369807.241,-52.246,44.434,29.297,-87.891,2.441,0
1571369807.244,-2.441,42.969,29.297,-137.695,-21.973,0
1571369807.248,113.770,42.480,28.809,107.910,-16.602,0
1571369807.252,97.168,41.992,28.320,229.980,-5.371,0
1571369807.256,-26.855,42.480,30.762,-9.277,-55.664,0
1571369807.260,-32.227,42.969,29.785,-189.941,-8.301,0
1571369807.277,85.449,41.992,31.250,21.484,7.324,0
1571369807.281,120.117,44.922,31.738,242.188,-20.020,0
1571369807.285,9.766,47.852,30.273,71.289,30.762,0
1571369807.289,-40.527,46.875,29.785,-193.359,28.320,0
1571369807.293,63.477,44.434,29.297,-47.852,-10.254,0
1571369807.297,131.348,45.410,27.832,213.867,22.461,0
1571369807.301,31.250,46.387,27.344,121.582,41.504,0
1571369807.304,-57.617,45.410,26.367,-165.039,16.113,0
1571369807.308,26.855,46.387,25.391,-116.211,-5.371,0
1571369807.312,127.930,45.898,29.297,155.273,-19.043,0
1571369807.316,60.547,45.898,32.227,185.547,4.883,0
1571369807.320,-48.340,47.852,31.250,-86.914,30.273,0
1571369807.318,-6.348,47.363,30.273,-173.340,16.113,0
1571369807.322,104.492,45.410,32.227,65.430,34.180,0
1571369807.326,85.938,43.457,32.227,221.680,43.457,0
1571369807.330,-33.691,44.434,30.762,7.324,20.020,0
1571369807.334,-42.969,46.387,28.809,-199.219,82.031,0
1571369807.338,70.312,46.387,26.855,-5.371,56.641,0
1571369807.342,108.887,44.922,31.250,231.445,17.090,0
1571369807.345,-5.371,44.434,32.227,80.078,33.691,0
1571369807.349,-64.941,42.480,30.762,-191.895,30.762,0
1571369807.353,38.574,41.016,30.762,-67.871,15.137,0
1571369807.357,125.000,38.574,32.227,195.312,0.488,0
1571369807.361,31.738,38.086,30.762,142.578,52.734,0
1571369807.357,-58.105,39.551,28.809,-131.348,43.457,0
1571369807.361,21.484,40.039,28.809,-114.258,30.762,0
1571369807.365,126.953,42.969,29.297,146.973,58.594,0
1571369807.369,75.684,44.922,29.785,208.984,40.527,0
1571369807.373,-41.016,45.410,30.273,-54.199,40.039,0
1571369807.377,-16.602,44.922,28.320,-175.293,0.000,0
1571369807.381,102.539,42.969,29.785,60.547,-4.883,0
1571369807.384,104.004,42.969,34.668,235.840,32.227,0
1571369807.388,-17.090,44.922,33.203,22.461,41.504,0
1571369807.392,-42.969,44.922,32.227,-205.566,0.977,0
1571369807.396,73.730,44.434,33.691,-18.555,-3.906,0
1571369807.400,134.766,44.922,33.691,235.352,62.988,0
1571369807.417,26.367,45.898,27.344,98.145,58.105,0
1571369807.421,-48.340,47.852,25.391,-186.035,48.340,0
1571369807.425,39.551,46.387,30.762,-81.055,44.922,0
1571369807.429,124.023,42.969,31.250,190.430,11.230,0
1571369807.433,40.527,45.410,27.344,158.691,6.348,0
1571369807.437,-71.777,45.898,26.855,-119.629,32.715,0
1571369807.441,-12.695,42.969,26.367,-147.461,36.133,0
1571369807.444,100.586,40.039,25.879,107.910,61.035,0
1571369807.448,68.359,41.504,26.855,219.238,43.945,0
1571369807.452,-44.434,42.969,26.367,-24.902,-0.977,0
1571369807.456,-39.551,42.969,28.320,-180.176,-13.672,0
1571369807.460,72.754,40.527,31.738,40.039,12.207,0
1571369807.457,94.238,38.574,32.227,243.164,8.789,0
1571369807.461,-19.043,40.527,31.250,62.988,-2.930,0
1571369807.465,-54.199,42.480,31.250,-191.406,-10.254,0
1571369807.469,54.688,42.480,31.738,-34.668,-20.020,0
1571369807.473,119.141,43.945,29.297,219.238,-12.695,0
1571369807.477,20.020,45.898,28.320,111.816,-5.859,0
1571369807.481,-60.547,44.434,31.250,-162.598,19.043,0
1571369807.484,21.973,43.945,34.668,-90.332,11.230,0
1571369807.488,116.211,44.434,37.109,174.805,14.160,0
1571369807.492,47.363,45.898,37.109,171.875,26.855,0
1571369807.496,-60.059,45.410,38.574,-99.121,28.809,0
1571369807.500,-13.184,41.992,39.551,-149.902,55.664,0
1571369807.497,101.562,41.992,38.574,96.680,35.156,0
1571369807.501,89.355,43.945,37.598,225.586,35.156,0
1571369807.505,-24.414,47.363,37.598,-8.301,-11.719,0
1571369807.509,-35.645,46.387,38.086,-194.336,-48.828,0
1571369807.513,74.219,43.945,39.062,16.602,-28.320,0
1571369807.517,113.281,44.434,39.062,243.164,2.930,0
1571369807.521,-0.488,45.898,38.574,76.660,29.297,0
1571369807.524,-60.059,47.852,39.062,-193.359,38.086,0
1571369807.528,47.363,46.875,40.039,-53.711,46.875,0
1571369807.532,127.441,45.898,41.016,219.238,30.762,0
1571369807.536,30.762,47.363,37.598,138.184,29.785,0
1571369807.540,-60.547,43.945,34.180,-151.855,-0.977,0
1571369807.556,20.020,41.504,34.668,-120.117,37.598,0
1571369807.560,123.047,42.969,37.109,146.973,69.824,0
1571369807.564,50.781,41.992,38.574,193.848,17.090,0
1571369807.568,-62.012,41.992,36.621,-67.871,-17.578,0
1571369807.572,-25.879,41.016,36.621,-167.480,46.875,0
1571369807.576,83.008,41.016,37.109,62.988,64.941,0
1571369807.580,84.961,41.016,36.621,225.586,26.855,0
1571369807.583,-31.738,41.504,37.598,16.113,41.504,0
1571369807.587,-48.828,42.969,35.645,-203.125,62.988,0
1571369807.591,69.336,41.504,35.645,-7.812,78.125,0
1571369807.595,114.746,40.527,37.598,234.863,40.527,0
1571369807.599,6.836,41.992,36.133,87.891,5.859,0
1571369807.597,-61.035,43.457,35.156,-182.129,14.160,0
1571369807.601,35.645,44.922,34.180,-63.477,24.902,0
1571369807.605,125.000,44.434,35.156,204.102,36.133,0
1571369807.609,40.039,42.969,35.156,147.949,20.508,0
1571369807.613,-58.105,42.480,31.250,-134.766,17.090,0
1571369807.617,8.301,43.457,30.273,-132.324,7.324,0
1571369807.621,118.164,45.410,33.203,122.070,-16.602,0
1571369807.624,71.777,45.410,34.668,196.289,-26.855,0
1571369807.628,-46.875,44.922,31.250,-63.965,0.000,0
1571369807.632,-27.344,45.410,30.273,-197.754,8.789,0
1571369807.636,91.309,44.922,34.180,41.504,-35.645,0
1571369807.640,103.027,44.922,32.227,228.516,-55.176,0
1571369807.637,-13.672,45.410,31.250,20.508,-54.688,0
1571369807.641,-55.176,44.922,30.762,-207.520,-32.227,0
1571369807.645,49.805,43.945,27.832,-34.668,-17.090,0
1571369807.649,112.305,43.457,27.832,221.191,33.203,0
1571369807.653,10.742,43.945,29.297,105.957,66.406,0
1571369807.657,-59.082,46.875,28.809,-173.828,52.246,0
1571369807.661,36.133,45.898,30.762,-81.543,87.402,0
1571369807.664,126.465,44.434,36.621,187.500,88.867,0
1571369807.668,45.898,44.922,40.527,174.316,44.922,0
1571369807.672,-59.570,43.457,39.062,-98.633,-3.418,0
1571369807.676,-2.930,41.992,40.527,-133.301,26.855,0
1571369807.680,107.910,41.992,41.016,116.211,71.289,0
1571369807.697,77.637,43.945,41.016,227.539,24.414,0
1571369807.701,-38.574,42.969,40.039,-15.625,34.668,0
1571369807.705,-36.133,41.016,35.645,-186.035,24.902,0
1571369807.709,83.984,41.992,37.109,37.109,-16.113,0
1571369807.713,110.352,41.016,40.527,250.000,32.227,0
1571369807.717,-11.719,41.016,36.133,66.406,15.137,0
1571369807.721,-58.105,41.504,32.715,-187.988,33.691,0
1571369807.724,51.270,39.062,31.738,-32.715,62.500,0
1571369807.728,126.465,41.504,32.715,222.168,14.648,0
1571369807.732,24.902,44.434,32.715,122.070,59.570,0
1571369807.736,-61.523,45.410,32.227,-157.715,2.441,0
1571369807.740,31.738,47.363,35.156,-87.891,-53.223,0
1571369807.737,134.766,46.875,35.156,179.688,13.672,0
1571369807.741,65.430,46.387,34.180,191.406,63.965,0
1571369807.745,-51.270,46.387,34.180,-78.125,61.035,0
1571369807.749,-16.113,46.875,33.691,-152.832,35.645,0
1571369807.753,96.191,45.898,34.668,83.496,19.531,0
1571369807.757,83.008,44.922,36.133,221.680,37.109,0
1571369807.761,-34.180,46.387,34.180,-2.441,54.199,0
1571369807.764,-39.062,46.387,34.180,-195.312,43.945,0
1571369807.768,82.520,47.363,35.645,10.254,40.039,0
1571369807.772,120.117,49.805,36.133,240.723,20.020,0
1571369807.776,4.883,48.340,35.156,81.543,-15.625,0
1571369807.780,-51.758,45.898,31.738,-183.105,13.672,0
1571369807.777,51.270,44.434,33.203,-46.387,18.555,0
1571369807.781,121.582,44.434,35.645,215.820,-3.418,0
1571369807.785,24.902,44.434,36.133,137.695,21.973,0
1571369807.789,-56.152,44.434,37.109,-145.508,18.066,0
1571369807.793,22.949,42.480,37.109,-115.723,5.371,0
1571369807.797,119.141,41.992,34.180,145.020,11.719,0
1571369807.801,65.430,43.457,32.715,201.660,29.297,0
1571369807.804,-50.781,43.457,30.273,-72.266,17.578,0
1571369807.808,-34.668,41.016,30.273,-197.754,-12.695,0
1571369807.812,80.078,41.504,31.738,50.781,1.465,0
1571369807.816,85.449,43.457,33.203,230.957,37.109,0
1571369807.820,-31.250,43.457,33.203,17.090,51.270,0
1571369807.856,-49.316,41.992,31.738,-206.055,40.039,0
1571369807.860,66.406,42.969,34.180,-15.625,33.203,0
1571369807.864,119.141,43.457,35.645,229.004,38.574,0
1571369807.868,10.742,42.480,34.180,79.102,1.465,0
1571369807.872,-57.617,42.480,31.738,-195.801,-52.734,0
1571369807.876,43.945,42.969,34.668,-76.172,-18.066,0
1571369807.880,136.719,45.410,37.598,198.730,-13.184,0
1571369807.883,51.270,44.434,34.180,151.367,-13.184,0
1571369807.887,-47.852,43.457,29.785,-133.301,-1.465,0
1571369807.891,19.043,44.434,28.809,-127.441,64.941,0
1571369807.895,114.746,45.898,28.809,124.512,70.801,0
1571369807.899,65.430,46.875,27.344,200.195,26.367,0
1571369807.878,-48.340,47.363,26.367,-51.270,4.395,0
1571369807.882,-30.273,46.387,27.832,-188.965,-11.719,0
1571369807.886,84.961,44.434,32.227,42.480,5.371,0
1571369807.890,95.215,42.480,32.715,231.934,-12.695,0
1571369807.894,-22.461,42.969,29.785,31.738,-6.836,0
1571369807.898,-59.082,41.504,29.297,-213.867,61.035,0
1571369807.902,48.828,40.039,30.762,-41.016,52.734,0
1571369807.905,111.328,40.039,32.227,221.191,-20.508,0
1571369807.909,8.789,38.086,30.762,100.586,-29.785,0
1571369807.913,-66.406,40.039,32.227,-183.594,11.230,0
1571369807.917,23.438,40.527,33.203,-94.727,44.434,0
1571369807.921,115.723,40.039,32.227,177.734,57.129,0
1571369807.956,39.062,42.480,32.715,172.852,69.336,0
1571369807.960,-64.453,42.480,29.785,-109.863,31.250,0
1571369807.964,-4.883,43.457,29.785,-149.902,27.344,0
1571369807.968,106.445,44.434,32.715,112.793,46.875,0
1571369807.972,78.125,43.457,33.203,225.586,11.230,0
1571369807.976,-37.109,43.457,30.273,-15.137,-32.715,0
1571369807.980,-41.504,41.992,28.809,-183.594,24.414,0
1571369807.983,72.266,41.992,31.250,29.785,41.016,0
1571369807.987,108.398,41.992,32.227,246.094,3.418,0
1571369807.991,-5.859,41.016,31.250,69.824,48.828,0
1571369807.995,-50.293,41.992,31.250,-187.988,75.684,0
1571369807.999,57.129,43.945,34.180,-34.180,81.543,0
1571369807.976,126.953,44.922,35.645,225.098,32.227,0
1571369807.980,26.855,43.457,33.203,121.094,10.742,0
1571369807.984,-57.617,43.457,28.320,-160.645,-2.930,0
1571369807.988,32.715,44.434,27.832,-97.656,-12.695,0
1571369807.992,130.371,44.922,29.297,168.457,38.574,0
1571369807.996,58.594,44.434,28.320,189.453,35.156,0
1571369808.000,-57.617,43.457,28.320,-86.426,26.367,0
1571369808.003,-20.996,40.039,29.297,-163.574,90.820,0
1571369808.007,94.238,37.598,31.250,88.867,59.082,0
1571369808.011,80.566,37.598,30.273,235.352,-14.160,0
1571369808.015,-39.551,36.621,29.297,9.277,-23.438,0
1571369808.019,-52.734,36.621,27.344,-192.871,18.066,0
1571369808.016,64.941,39.062,29.785,7.812,38.574,0
1571369808.020,109.375,39.062,35.645,247.559,37.598,0
1571369808.024,0.000,39.062,36.621,86.914,21.484,0
1571369808.028,-59.082,43.457,35.156,-189.453,9.277,0
1571369808.032,42.480,42.480,35.156,-55.664,10.742,0
1571369808.036,125.000,42.969,34.180,218.750,22.949,0
1571369808.040,30.273,44.434,33.203,148.438,48.340,0
1571369808.043,-60.547,43.945,33.203,-134.766,16.113,0
1571369808.047,13.184,43.945,32.227,-110.840,45.410,0
1571369808.051,114.746,41.992,33.691,143.555,36.133,0
1571369808.055,64.941,42.480,36.621,202.148,22.461,0
1571369808.059,-47.852,43.945,34.668,-52.734,-6.836,0
1571369808.076,-20.996,44.922,33.203,-166.016,22.461,1
1571369808.080,94.727,46.387,35.156,67.383,-5.859,0
1571369808.084,94.727,44.922,37.109,234.863,8.789,0
1571369808.088,-24.414,43.457,34.668,26.367,71.777,0
1571369808.092,-48.340,44.922,31.738,-188.965,13.672,0
1571369808.096,67.383,46.387,32.227,-4.883,-1.953,0
1571369808.100,119.141,46.875,34.180,235.352,18.066,0
1571369808.103,10.742,44.922,34.668,94.727,48.340,0
1571369808.107,-54.199,44.434,35.645,-176.758,32.715,0
1571369808.111,42.480,46.387,34.180,-64.941,15.137,0
1571369808.115,126.953,46.875,35.156,206.543,-1.953,0
1571369808.119,41.992,47.363,36.621,170.410,39.062,0
1571369808.117,-59.082,46.387,34.668,-120.605,56.641,0
1571369808.121,2.930,43.945,33.203,-133.789,52.734,0
1571369808.125,110.352,42.969,34.180,133.789,12.207,0
1571369808.129,73.730,43.457,36.133,225.098,0.488,0
1571369808.133,-38.086,41.016,34.180,-28.320,27.832,0
1571369808.137,-22.461,40.527,31.738,-178.223,0.488,0
1571369808.141,84.473,41.504,34.180,44.922,-3.906,0
1571369808.144,93.262,41.016,37.109,248.535,14.648,0
1571369808.148,-21.973,43.945,36.621,60.547,26.855,0
1571369808.152,-56.152,44.922,34.180,-183.105,55.176,0
1571369808.156,57.129,43.457,33.203,-21.484,36.621,0
1571369808.160,126.953,42.480,34.668,233.887,-59.570,0
1571369808.156,24.414,42.480,34.668,130.371,-117.188,0
1571369808.160,-57.129,43.945,34.180,-143.555,-65.430,0
1571369808.164,35.156,42.480,33.691,-62.012,-31.250,0
1571369808.168,128.418,41.016,35.156,198.730,12.207,0
1571369808.172,53.223,41.504,34.180,189.941,50.781,0
1571369808.176,-50.781,43.457,30.762,-84.473,-45.410,0
1571369808.180,6.348,44.434,29.297,-134.277,-29.297,0
1571369808.183,120.117,42.969,32.227,114.746,39.062,0
1571369808.187,91.309,46.875,30.273,229.004,55.664,0
1571369808.191,-27.344,49.805,26.367,-11.230,32.227,0
1571369808.195,-27.344,50.293,25.879,-184.570,-33.691,0
1571369808.199,88.867,50.293,25.879,26.367,-7.812,0
1571369808.217,120.117,50.293,29.297,247.070,48.340,0
1571369808.221,2.441,51.270,29.785,72.754,50.781,0
1571369808.225,-46.387,53.223,28.320,-189.453,42.480,0
1571369808.229,60.547,52.246,27.832,-41.016,33.203,0
1571369808.233,133.301,51.270,27.832,219.727,-1.953,0
1571369808.237,33.691,53.223,28.320,129.395,1.953,0
1571369808.241,-61.523,50.781,28.320,-157.715,4.883,0
1571369808.244,16.113,47.363,28.320,-110.840,-36.621,0
1571369808.248,115.234,45.898,28.809,154.297,0.000,0
1571369808.252,55.664,44.922,30.762,187.012,78.613,0
1571369808.256,-49.316,45.898,30.273,-74.707,62.012,0
1571369808.260,-19.531,42.969,29.785,-159.668,36.621,0
1571369808.257,96.191,43.457,32.715,82.520,43.457,0
1571369808.261,92.773,45.410,35.156,241.211,57.129,0
1571369808.265,-29.297,43.945,35.156,26.367,49.316,0
1571369808.269,-42.969,44.922,36.621,-177.246,33.203,0
1571369808.273,71.777,43.945,36.621,12.695,76.172,0
1571369808.277,105.957,43.457,37.598,241.699,16.113,0
1571369808.281,-9.766,44.922,36.621,91.309,-21.484,0
1571369808.284,-67.871,43.457,33.203,-180.176,40.039,0
1571369808.288,39.551,42.480,31.738,-50.781,21.973,0
1571369808.292,122.070,42.480,32.715,216.309,32.715,0
1571369808.296,29.785,45.898,32.715,148.438,33.691,0
1571369808.300,-62.500,44.922,30.762,-133.301,3.418,0
1571369808.297,9.766,41.992,29.297,-117.676,37.598,0
1571369808.301,118.164,42.969,30.273,136.230,42.480,0
1571369808.305,68.848,44.922,30.273,194.824,22.949,0
1571369808.309,-46.875,46.387,33.691,-60.059,-5.859,0
1571369808.313,-21.484,46.875,35.156,-176.758,36.621,0
1571369808.317,97.168,48.340,34.668,61.523,10.742,0
1571369808.321,103.027,46.387,38.086,243.652,5.859,0
1571369808.324,-15.137,45.410,35.156,38.086,37.109,0
1571369808.328,-45.410,43.945,31.738,-190.430,15.137,0
1571369808.332,71.289,41.992,33.691,-7.324,73.242,0
1571369808.336,124.023,41.504,33.203,244.629,46.387,0
1571369808.340,6.348,41.504,32.715,112.305,26.367,0
1571369808.357,-65.430,41.504,34.180,-160.645,56.152,0
1571369808.361,29.785,41.016,36.133,-55.664,1.465,0
1571369808.365,119.141,38.574,37.598,208.984,-13.184,0
1571369808.369,39.551,39.062,40.039,176.270,27.832,0
1571369808.373,-62.988,40.039,37.598,-101.074,74.219,0
1571369808.377,-2.930,38.086,33.691,-122.559,71.289,0
1571369808.381,110.840,38.086,33.691,122.070,-1.465,0
1571369808.384,78.613,39.551,34.180,218.262,-37.598,0
1571369808.388,-44.434,38.574,32.227,-22.949,3.418,0
1571369808.392,-37.598,37.109,30.762,-198.242,49.805,0
1571369808.396,79.590,38.086,31.738,8.789,25.391,0
1571369808.400,99.609,38.574,30.762,214.844,-21.973,0
1571369808.397,-1.953,41.992,26.855,31.250,6.836,0
1571369808.401,-42.969,42.480,25.391,-216.797,8.789,0
1571369808.405,48.828,39.062,30.273,-62.988,25.391,0
1571369808.409,113.281,39.551,33.691,198.242,18.555,0
1571369808.413,13.672,39.551,34.180,97.656,12.695,0
1571369808.417,-67.871,40.527,31.738,-187.012,42.480,0
1571369808.421,20.020,40.527,31.738,-111.328,-13.184,0
1571369808.424,112.305,40.527,33.203,149.414,-9.766,0
1571369808.428,46.387,43.945,31.738,147.461,71.777,0
1571369808.432,-51.758,46.875,28.809,-117.188,62.988,0
1571369808.436,-2.930,46.387,28.320,-175.781,-5.859,0
1571369808.440,114.258,46.387,31.250,74.219,-21.484,0
1571369808.437,89.844,46.875,33.203,205.566,-22.461,0
1571369808.441,-33.691,47.363,31.250,-26.855,-36.133,0
1571369808.445,-41.504,48.340,29.297,-204.102,-42.969,0
1571369808.449,71.777,46.875,28.809,2.930,-33.691,0
1571369808.453,107.422,44.922,27.832,228.027,32.227,0
1571369808.457,-14.160,42.969,26.855,59.082,24.414,0
1571369808.461,-68.848,41.992,27.832,-202.637,-30.762,0
1571369808.464,45.898,41.504,26.367,-46.875,33.203,0
1571369808.468,121.094,39.062,24.414,211.426,87.402,0
1571369808.472,25.879,40.039,26.855,125.000,5.859,0
1571369808.476,-60.059,42.969,29.297,-149.414,-48.340,0
1571369808.480,20.020,41.992,29.297,-104.004,9.277,0
1571369808.497,124.512,41.504,29.297,158.691,49.316,0
1571369808.501,64.941,41.504,26.855,192.871,24.414,0
1571369808.505,-45.410,43.457,22.949,-64.453,58.594,0
1571369808.509,-8.789,44.922,24.414,-156.250,25.391,0
1571369808.513,105.957,43.457,30.762,80.078,-6.348,0
1571369808.517,103.516,46.875,28.320,246.582,43.945,0
1571369808.521,-11.719,50.293,25.391,32.715,40.039,0
1571369808.524,-35.645,45.898,26.367,-176.758,81.543,0
1571369808.528,81.055,44.922,25.879,16.113,77.637,0
1571369808.532,132.812,46.387,28.320,253.418,27.832,0
1571369808.536,19.043,50.293,29.297,115.723,10.742,0
1571369808.540,-46.387,51.270,29.297,-160.156,-31.738,0
1571369808.537,54.199,47.852,30.762,-40.527,10.254,0
1571369808.541,143.066,47.363,31.250,229.004,73.242,0
1571369808.545,46.875,47.852,31.250,166.992,30.762,0
1571369808.549,-55.664,48.340,28.809,-111.328,-16.113,0
1571369808.553,16.602,48.340,30.762,-106.445,64.453,0
1571369808.557,121.094,49.316,33.203,150.391,70.312,0
1571369808.561,74.219,49.316,32.715,218.750,49.805,0
1571369808.564,-46.387,47.363,31.250,-40.039,36.133,0
1571369808.568,-27.832,43.457,28.809,-161.133,14.648,0
1571369808.572,91.797,41.504,32.227,70.801,-13.672,0
1571369808.576,96.680,41.016,35.645,250.488,-10.254,0
1571369808.580,-24.902,43.457,34.668,53.223,44.434,0
1571369808.577,-53.711,45.410,33.203,-172.852,28.320,0
1571369808.581,59.082,41.992,35.156,4.395,-13.672,0
1571369808.585,120.117,41.016,36.133,252.441,-3.418,0
1571369808.589,13.184,42.969,31.738,128.418,-2.441,0
1571369808.593,-64.453,43.457,27.832,-154.297,21.484,0
1571369808.597,29.785,42.480,27.832,-59.082,8.301,0
1571369808.601,126.465,40.527,28.320,206.543,-3.906,0
1571369808.604,49.316,41.992,26.855,181.641,38.574,0
1571369808.608,-56.641,42.969,27.832,-88.379,-3.906,0
1571369808.612,0.000,39.551,27.344,-120.605,-48.828,0
1571369808.616,111.816,41.016,28.809,130.371,14.160,0
1571369808.620,80.078,43.945,29.785,236.816,35.645,0
1571369808.637,-35.645,43.457,27.344,-5.859,9.277,0
1571369808.641,-29.297,42.480,29.297,-166.992,-18.066,0
1571369808.645,90.332,44.922,31.738,42.969,-39.551,0
1571369808.649,121.582,47.852,32.715,249.512,-36.133,0
1571369808.653,0.977,46.387,29.297,76.172,-34.668,0
1571369808.657,-49.316,46.387,27.344,-171.387,-40.039,0
1571369808.661,60.547,45.898,30.762,-20.020,12.695,0
1571369808.664,128.906,45.898,33.691,232.910,33.203,0
1571369808.668,21.973,46.875,33.203,137.695,22.949,0
1571369808.672,-60.547,47.363,32.227,-142.090,56.641,0
1571369808.676,23.926,46.387,33.691,-75.684,41.504,0
1571369808.680,122.070,45.898,37.109,189.453,24.414,0
1571369808.677,55.176,44.434,37.598,189.453,18.066,0
1571369808.681,-51.270,43.945,35.645,-75.684,21.484,0
1571369808.685,-4.395,44.922,35.156,-139.648,52.246,0
1571369808.689,105.957,42.969,35.645,101.074,68.359,0
1571369808.693,82.520,43.945,35.156,234.375,72.266,0
1571369808.697,-35.645,44.922,35.645,6.348,34.180,0
1571369808.701,-35.156,45.410,37.598,-182.617,55.664,0
1571369808.704,83.496,44.922,37.109,22.461,38.574,0
1571369808.708,120.605,41.992,38.574,250.488,-20.996,0
1571369808.712,1.953,45.410,37.598,83.984,20.020,0
1571369808.716,-58.105,47.363,33.691,-185.547,16.113,0
1571369808.720,50.781,45.898,32.227,-42.969,39.062,0
1571369808.737,132.812,46.875,33.203,221.680,66.895,0
1571369808.741,32.227,46.387,34.180,144.531,64.453,0
1571369808.745,-63.477,44.922,31.738,-140.137,23.926,0
1571369808.749,20.020,46.387,28.809,-113.770,-32.227,0
1571369808.753,128.906,47.363,27.344,145.996,-5.371,0
1571369808.757,69.336,46.387,30.273,192.871,40.039,0
1571369808.761,-44.434,46.875,31.250,-61.523,65.430,0
1571369808.764,-9.277,48.340,31.250,-160.645,80.566,0
1571369808.768,105.957,48.340,33.691,69.336,10.742,0
1571369808.772,101.074,45.898,34.180,239.258,-4.395,0
1571369808.776,-19.531,45.410,33.691,30.273,41.016,0
1571369808.780,-45.410,45.898,32.715,-192.383,14.160,0
1571369808.777,66.406,42.480,32.715,-2.930,20.020,0
1571369808.781,117.676,42.480,34.180,234.863,12.695,0
1571369808.785,-0.977,44.434,35.156,91.797,11.719,0
1571369808.789,-69.336,42.969,33.203,-180.664,16.113,0
1571369808.793,26.855,43.945,29.785,-73.242,-8.301,0
1571369808.797,109.863,42.969,27.344,187.500,9.766,0
1571369808.801,30.273,41.992,27.344,139.648,36.621,0
1571369808.804,-62.500,44.922,26.367,-139.648,60.059,0
1571369808.808,11.230,47.363,28.809,-136.230,67.871,0
1571369808.812,125.977,48.828,33.691,125.000,36.133,0
1571369808.816,81.055,47.852,31.738,202.637,28.809,0
1571369808.820,-46.387,47.363,27.832,-57.129,-7.324,0
1571369808.817,-30.273,46.387,30.273,-190.918,-41.504,0
1571369808.821,88.867,45.898,33.203,39.062,-42.480,0
1571369808.825,101.562,46.875,32.715,228.027,-27.832,0
1571369808.829,-17.090,47.363,30.762,39.062,-11.719,0
1571369808.833,-54.199,47.852,29.785,-198.730,-38.574,0
1571369808.837,58.594,47.852,31.738,-28.320,-24.902,0
1571369808.841,121.582,46.387,32.715,222.168,-18.555,0
1571369808.844,10.254,42.969,29.785,103.027,7.324,0
1571369808.848,-73.730,41.992,28.809,-171.875,52.734,0
1571369808.852,20.508,42.480,28.320,-93.750,82.520,0
1571369808.856,110.352,41.504,27.344,168.457,57.129,0
1571369808.860,26.855,39.551,29.785,156.738,10.254,0
1571369808.877,-74.707,41.016,32.227,-113.770,-16.113,0
1571369808.881,-16.113,41.016,31.250,-149.902,68.848,0
1571369808.885,95.215,41.016,29.785,90.820,108.398,0
1571369808.889,66.895,41.016,30.273,206.055,47.363,0
1571369808.893,-43.945,38.574,31.250,-19.531,48.340,0
1571369808.897,-33.203,39.551,30.273,-187.012,20.996,0
1571369808.901,80.566,41.504,33.203,14.648,-4.395,0
1571369808.904,107.910,39.551,36.133,225.098,28.809,0
1571369808.908,-4.883,38.574,33.691,60.547,81.055,0
1571369808.912,-50.781,41.504,31.250,-193.359,103.516,0
1571369808.916,59.082,42.480,32.715,-44.922,132.812,0
1571369808.920,132.812,39.062,35.156,209.961,123.535,0
1571369808.917,30.762,43.457,31.738,110.840,29.297,0
1571369808.921,-54.199,46.875,30.273,-172.363,1.953,0
1571369808.925,38.574,43.945,31.738,-114.258,40.527,0
1571369808.929,136.230,43.457,31.738,151.367,52.734,0
1571369808.933,62.500,44.922,32.715,171.387,54.688,0
1571369808.937,-47.852,44.922,32.715,-92.285,61.523,0
1571369808.941,-2.930,44.922,31.250,-167.969,51.270,0
1571369808.944,114.746,45.898,32.227,69.336,46.387,0
1571369808.948,100.586,48.340,34.180,216.309,46.875,0
1571369808.952,-20.020,49.316,32.715,-5.859,47.852,0
1571369808.956,-34.180,47.363,29.785,-203.125,55.664,0
1571369808.960,83.008,45.410,31.738,-5.859,43.457,0
1571369808.957,123.047,45.410,34.668,222.168,18.066,0
1571369808.961,5.859,46.875,36.133,71.289,0.000,0
1571369808.965,-52.246,47.363,36.133,-193.848,19.043,0
1571369808.969,48.340,44.434,34.180,-62.012,30.273,0
1571369808.973,126.465,44.434,33.691,200.195,-28.809,0
1571369808.977,33.691,43.945,35.156,128.906,-3.418,0
1571369808.981,-59.570,43.457,33.691,-145.508,0.000,0
1571369808.984,17.578,43.457,31.738,-124.023,-20.996,0
1571369808.988,123.535,41.504,35.645,131.836,-3.906,0
1571369808.992,65.430,42.480,38.574,189.453,1.953,0
1571369808.996,-49.316,42.969,36.621,-70.801,32.227,0
1571369809.000,-20.508,43.457,35.645,-179.199,-12.207,0
1571369808.997,98.145,46.875,35.156,50.781,-12.207,0
1571369809.001,100.586,46.387,33.203,215.332,23.438,0
1571369809.005,-19.531,44.434,29.297,14.160,37.598,0
1571369809.009,-42.480,44.434,28.809,-203.613,41.992,0
1571369809.013,72.754,43.457,29.785,-20.020,62.988,0
1571369809.017,121.094,42.969,28.320,221.680,59.570,0
1571369809.021,3.906,42.480,29.785,89.355,32.227,0
1571369809.024,-66.406,42.480,29.785,-183.594,-3.906,0
1571369809.028,33.691,41.504,27.832,-79.590,15.137,0
1571369809.032,124.023,37.598,28.809,187.500,53.711,0
1571369809.036,41.992,40.527,30.273,150.391,21.973,0
1571369809.040,-54.688,41.504,30.762,-120.605,1.953,0
1571369809.057,4.395,37.109,32.715,-126.465,-13.672,0
1571369809.061,110.840,35.645,35.156,122.070,-11.230,0
1571369809.065,73.242,37.109,35.156,210.449,-17.090,0
1571369809.069,-44.434,36.621,33.691,-31.250,-44.922,0
1571369809.073,-32.227,39.551,30.762,-176.758,-9.277,0
1571369809.077,81.543,41.016,30.762,39.551,-0.977,0
1571369809.081,97.656,41.992,30.273,227.539,4.883,0
1571369809.084,-15.625,44.434,30.273,43.457,13.672,0
1571369809.088,-58.594,42.969,29.297,-196.777,-15.137,0
1571369809.092,48.828,43.457,27.832,-41.016,-19.043,0
1571369809.096,115.723,45.410,29.785,211.914,-20.508,0
1571369809.100,9.766,43.945,28.320,100.586,11.719,0
1571369809.096,-64.453,42.969,25.879,-166.992,34.668,0
1571369809.100,29.297,42.480,25.391,-86.426,47.852,0
1571369809.104,125.000,42.969,24.902,165.527,49.316,0
1571369809.108,59.082,45.898,24.902,157.715,32.227,0
1571369809.112,-44.922,50.781,23.926,-104.004,14.160,0
1571369809.116,3.418,50.293,22.949,-147.461,6.836,0
1571369809.120,119.629,49.316,26.855,87.891,55.176,0
1571369809.123,93.262,50.781,30.273,206.055,25.391,0
1571369809.127,-35.645,50.293,30.762,-13.184,-20.996,0
1571369809.131,-41.992,49.316,31.250,-192.383,-71.289,0
1571369809.135,75.195,47.852,33.691,16.113,-79.590,0
1571369809.139,105.469,47.852,33.691,232.910,-11.719,0
1571369809.137,-8.301,48.828,31.250,64.941,-5.371,0
1571369809.141,-59.570,46.875,31.250,-183.594,52.246,0
1571369809.145,48.340,44.922,31.738,-41.992,78.613,0
1571369809.149,129.883,45.410,32.715,215.820,43.457,0
1571369809.153,27.832,46.875,34.180,124.023,59.082,0
1571369809.157,-63.477,46.875,33.203,-155.273,50.781,0
1571369809.161,16.113,43.457,34.180,-104.980,56.641,0
1571369809.164,115.234,42.969,33.203,145.996,-1.953,0
1571369809.168,52.246,43.945,32.715,171.387,0.488,0
1571369809.172,-49.805,44.434,33.203,-87.402,-1.465,0
1571369809.176,-8.301,44.922,30.273,-172.363,-64.941,0
1571369809.180,101.562,43.457,28.809,60.059,-0.488,0
1571369809.197,92.773,43.457,29.785,215.332,59.570,0
1571369809.201,-24.902,42.969,28.809,12.695,69.824,0
1571369809.205,-37.598,44.922,26.855,-189.941,38.574,0
1571369809.209,76.172,45.410,29.297,1.953,-4.395,0
1571369809.213,121.582,44.922,31.250,239.258,-8.301,0
1571369809.217,10.742,45.898,29.297,94.727,-33.203,0
1571369809.221,-56.152,46.875,27.832,-171.387,-21.484,0
1571369809.224,42.480,47.852,30.273,-53.711,27.832,0
1571369809.228,126.953,48.340,33.203,208.008,43.945,0
1571369809.232,38.086,46.875,33.203,145.508,70.312,0
1571369809.236,-56.641,46.387,30.762,-132.324,94.727,0
1571369809.240,15.137,48.340,30.762,-115.723,71.777,0
1571369809.236,122.070,48.828,32.715,132.812,14.648,0
1571369809.240,76.172,48.340,30.762,196.777,-57.617,0
1571369809.244,-37.109,45.410,27.344,-48.828,-16.113,0
1571369809.248,-23.926,45.898,26.855,-169.922,63.477,4
1571369809.252,91.309,43.945,28.809,57.617,87.891,0
1571369809.256,99.121,42.969,28.809,236.328,26.367,0
1571369809.260,-24.902,43.945,28.809,31.738,-43.945,0
1571369809.263,-50.781,44.434,30.762,-187.988,24.414,0
1571369809.267,64.453,45.410,30.762,-9.277,39.551,0
1571369809.271,120.605,43.945,30.273,216.309,-8.301,0
1571369809.275,11.230,42.969,31.250,86.914,-12.695,0
1571369809.279,-63.965,44.434,29.785,-179.688,-62.988,0
1571369809.296,29.297,42.969,30.273,-80.566,-36.133,0
1571369809.300,116.211,45.898,29.785,178.223,43.457,0
1571369809.304,33.203,47.852,27.832,141.602,46.875,0
1571369809.308,-62.012,44.922,29.785,-122.070,47.363,0
1571369809.312,1.465,45.898,28.320,-134.766,33.203,0
1571369809.316,105.957,45.410,26.855,108.887,-2.441,0
1571369809.320,66.406,42.969,27.344,198.730,-21.973,0
1571369809.323,-53.711,42.480,26.855,-38.086,-8.789,0
1571369809.327,-39.062,43.945,27.832,-182.617,55.664,0
1571369809.331,84.961,44.434,29.785,38.086,49.316,0
1571369809.335,106.934,45.898,30.273,243.164,-25.879,0
1571369809.339,-3.906,47.852,28.320,61.523,-31.250,0
1571369809.337,-41.504,48.340,28.320,-183.105,22.949,0
1571369809.341,64.453,45.898,27.344,-23.438,15.137,0
1571369809.345,127.930,44.434,29.297,228.027,10.742,0
1571369809.349,22.461,45.410,30.273,119.629,-0.488,0
1571369809.353,-56.641,47.363,29.785,-150.391,-15.625,0
1571369809.357,27.344,44.922,32.227,-83.496,7.812,0
1571369809.361,121.582,44.434,32.715,167.969,31.250,0
1571369809.364,51.270,47.852,29.297,169.434,-10.254,0
1571369809.368,-57.129,47.852,28.320,-99.609,5.371,0
1571369809.372,-5.371,47.363,29.785,-150.879,15.137,0
1571369809.376,107.910,49.316,31.738,84.961,38.574,0
1571369809.380,78.613,48.828,31.738,203.125,47.852,0
1571369809.376,-40.039,46.875,32.227,-9.277,-2.441,0
1571369809.380,-39.551,42.969,33.691,-185.059,-3.418,0
1571369809.384,74.219,39.062,32.715,12.695,13.184,0
1571369809.388,107.910,41.504,32.227,230.469,65.430,0
1571369809.392,-5.859,42.480,33.203,66.895,43.945,0
1571369809.396,-56.152,43.945,31.738,-184.082,4.395,0
1571369809.400,49.805,42.480,33.203,-41.992,16.113,0
1571369809.403,119.141,38.574,33.691,214.844,14.648,0
1571369809.407,18.066,41.992,29.297,126.465,26.855,0
1571369809.411,-70.312,44.922,29.297,-159.180,21.484,0
1571369809.415,12.207,42.969,31.738,-108.887,12.695,0
1571369809.419,115.723,42.969,32.227,153.320,34.180,0
1571369809.437,59.082,44.434,31.738,190.430,41.992,0
1571369809.441,-48.340,45.898,30.762,-62.988,56.641,0
1571369809.445,-11.719,45.898,30.273,-156.250,34.668,0
1571369809.449,100.098,45.410,32.715,76.172,60.547,0
1571369809.453,92.773,48.340,31.250,229.980,26.367,0
1571369809.457,-25.391,48.340,28.320,20.996,-16.602,0
1571369809.461,-43.945,48.340,25.879,-186.523,14.648,0
1571369809.464,70.801,50.293,20.996,-2.441,6.836,0
1571369809.468,122.070,49.316,22.461,233.398,-41.016,0
1571369809.472,12.207,49.805,22.949,89.844,-60.547,0
1571369809.476,-51.758,48.340,20.508,-170.898,-0.488,0
1571369809.480,43.945,46.387,21.484,-51.270,53.223,0
1571369809.477,122.559,44.434,24.902,208.496,102.051,0
1571369809.481,30.762,41.992,24.414,155.762,72.754,0
1571369809.485,-61.523,45.410,23.926,-117.676,-1.465,0
1571369809.489,7.812,41.992,26.855,-109.863,-11.719,0
1571369809.493,107.422,38.574,28.809,138.672,20.996,0
1571369809.497,65.430,41.992,29.297,208.984,31.738,0
1571369809.501,-49.316,42.480,31.250,-30.273,28.809,0
1571369809.504,-25.391,41.992,33.203,-154.785,28.809,0
1571369809.508,92.773,40.039,34.668,60.547,-42.969,0
1571369809.512,94.238,39.062,34.668,236.328,-13.672,0
1571369809.516,-26.367,42.969,30.762,45.898,2.441,0
1571369809.520,-50.293,44.922,30.273,-178.711,-21.484,0
1571369809.518,63.477,42.969,31.738,-10.254,32.715,0
1571369809.522,121.582,42.969,29.785,231.445,52.246,0
1571369809.526,17.578,43.945,27.832,101.074,84.473,0
1571369809.530,-56.152,44.434,27.344,-173.340,83.984,0
1571369809.534,37.109,45.410,27.344,-72.266,40.527,0
1571369809.538,125.000,45.898,28.320,187.500,12.695,0
1571369809.542,49.805,47.852,27.832,166.504,-20.020,0
1571369809.545,-49.316,49.316,29.785,-100.586,-62.500,0
1571369809.549,3.906,48.828,31.738,-128.906,-5.371,0
1571369809.553,116.211,48.340,32.227,115.723,10.742,0
1571369809.557,87.402,45.898,32.227,220.215,-1.465,0
1571369809.561,-27.344,45.898,30.273,-6.348,25.879,0
1571369809.577,-22.461,45.898,29.297,-163.086,28.320,0
1571369809.581,81.055,42.480,30.273,41.016,26.367,0
1571369809.585,98.633,41.992,32.227,241.211,81.055,0
1571369809.589,-11.230,46.387,30.273,64.941,65.430,0
1571369809.593,-53.223,48.828,28.320,-176.758,29.785,0
1571369809.597,54.688,45.898,30.273,-23.926,3.418,0
1571369809.601,125.977,47.363,31.250,226.074,-0.977,0
1571369809.604,17.090,47.852,31.738,119.141,5.859,0
1571369809.608,-63.965,45.898,33.691,-147.949,1.465,0
1571369809.612,24.902,44.434,33.691,-71.777,65.918,0
1571369809.616,119.629,41.504,34.180,177.734,63.477,0
1571369809.620,51.758,40.039,35.645,177.246,6.836,0
1571369809.623,-53.711,39.551,36.133,-80.078,7.812,0
1571369809.627,-6.348,40.039,36.133,-138.672,18.066,0
1571369809.631,104.980,40.527,38.574,100.586,30.273,0
1571369809.635,93.750,40.039,39.062,230.957,41.992,0
1571369809.639,-25.879,39.551,36.133,7.812,25.391,0
1571369809.643,-40.039,41.992,34.180,-177.734,2.441,0
1571369809.647,80.566,46.387,33.691,17.090,-5.371,0
1571369809.650,118.652,46.875,33.691,234.863,22.461,0
1571369809.654,5.371,47.363,32.715,76.172,2.441,0
1571369809.658,-46.387,49.316,32.715,-175.293,-9.766,0
1571369809.662,58.105,49.805,33.691,-41.992,32.715,0
1571369809.666,135.254,48.340,31.250,210.938,12.207,0
1571369809.677,37.598,49.805,27.832,139.160,3.906,0
1571369809.681,-56.641,48.340,28.320,-140.137,43.945,0
1571369809.685,13.672,47.363,27.832,-111.328,20.508,0
1571369809.689,114.746,46.387,30.273,143.555,8.789,0
1571369809.693,60.059,44.922,34.180,191.406,-30.762,0
1571369809.697,-54.688,44.922,33.691,-60.059,-86.426,0
1571369809.701,-21.973,42.969,33.691,-166.016,-10.742,0
1571369809.704,96.680,42.480,34.668,67.383,49.805,0
1571369809.708,93.750,41.992,35.645,229.980,39.062,0
1571369809.712,-24.414,42.480,35.645,17.090,14.160,0
1571369809.716,-47.852,41.016,33.203,-183.594,-2.930,0
1571369809.720,64.941,41.016,35.645,1.465,39.551,0
1571369809.717,118.652,43.457,35.156,233.887,29.297,0
1571369809.721,6.836,42.969,31.738,91.797,30.762,0
1571369809.725,-62.500,41.016,29.785,-176.270,20.508,0
1571369809.729,41.504,41.504,30.273,-62.988,-19.531,0
1571369809.733,123.047,40.527,34.668,194.336,-3.418,0
1571369809.737,26.367,38.574,34.668,149.414,33.203,0
1571369809.741,-68.359,39.062,32.715,-125.488,52.246,0
1571369809.744,5.859,40.039,35.645,-126.953,58.105,0
1571369809.748,116.699,38.574,36.621,122.070,64.453,0
1571369809.752,70.801,39.551,33.203,190.918,28.809,0
1571369809.756,-38.574,41.992,32.715,-46.875,-1.465,0
1571369809.760,-12.207,43.945,29.785,-169.434,41.016,0
1571369809.757,98.633,42.969,31.250,42.969,3.906,0
1571369809.761,98.633,45.410,32.715,218.750,-9.766,0
1571369809.765,-24.414,46.875,28.320,21.484,-8.301,0
1571369809.769,-49.805,46.387,27.832,-196.289,-20.508,0
1571369809.773,61.035,45.410,28.809,-19.531,47.852,0
1571369809.777,123.535,44.922,30.273,229.980,69.336,0
1571369809.781,23.438,47.363,29.297,114.258,38.574,0
1571369809.784,-54.199,46.875,28.320,-166.992,49.805,0
1571369809.788,40.527,44.922,28.320,-77.148,16.602,0
1571369809.792,137.207,47.852,27.832,186.035,-35.156,0
1571369809.796,51.758,48.340,30.762,161.133,-39.551,0
1571369809.800,-56.641,46.387,33.691,-99.121,-43.457,0
1571369809.797,0.977,48.340,31.250,-124.023,-51.270,0
1571369809.801,112.305,49.316,32.715,118.652,-29.785,0
1571369809.805,81.543,47.852,35.156,233.398,17.578,0
1571369809.809,-34.180,47.363,32.227,11.719,18.066,0
1571369809.813,-24.902,46.387,32.715,-150.879,-17.578,0
1571369809.817,88.867,45.410,34.180,50.293,14.648,0
1571369809.821,115.723,45.410,33.203,252.441,27.344,0
1571369809.824,-0.488,44.434,35.156,82.520,28.320,0
1571369809.828,-52.734,46.387,36.133,-168.945,30.762,0
1571369809.832,52.246,46.387,35.645,-23.926,20.508,0
1571369809.836,123.047,43.945,33.691,230.469,13.184,0
1571369809.840,19.531,44.922,32.715,138.672,10.254,0
1571369809.857,-63.965,45.898,33.203,-132.812,-33.691,0
1571369809.861,23.926,44.434,38.086,-77.148,-4.883,0
1571369809.865,120.605,41.016,39.062,178.223,77.148,0
1571369809.869,52.734,42.480,34.668,192.383,58.105,0
1571369809.873,-56.641,44.434,32.227,-73.730,39.062,0
1571369809.877,-14.648,42.480,30.762,-144.531,49.805,0
1571369809.881,98.145,41.992,30.762,87.402,3.418,0
1571369809.884,91.309,42.480,35.645,225.098,41.016,0
1571369809.888,-24.902,42.480,33.203,7.812,71.289,0
1571369809.892,-37.109,44.922,30.762,-187.500,2.930,0
1571369809.896,83.984,45.410,32.227,4.883,11.230,0
1571369809.900,118.652,45.898,31.738,227.539,79.102,0
1571369809.897,1.465,46.875,32.227,75.684,78.613,0
1571369809.901,-58.105,47.852,31.250,-181.152,31.250,0
1571369809.905,42.480,47.363,31.250,-52.246,19.043,0
1571369809.909,124.512,45.898,33.203,203.125,69.824,0
1571369809.913,31.250,48.340,33.203,133.789,45.410,0
1571369809.917,-57.129,48.340,32.227,-145.020,-9.277,0
1571369809.921,17.578,45.898,33.691,-124.023,1.465,0
1571369809.924,110.352,44.922,35.645,134.766,12.695,0
1571369809.928,54.199,45.898,38.574,186.523,4.883,0
1571369809.932,-56.641,46.387,39.062,-61.523,22.949,0
1571369809.936,-26.367,44.922,37.598,-171.875,7.324,0
1571369809.940,90.820,42.480,37.109,55.176,-41.992,0
1571369809.937,97.656,42.969,36.133,233.398,-34.180,0
1571369809.941,-16.602,44.434,33.691,34.668,21.484,0
1571369809.945,-40.527,43.457,30.762,-178.711,24.902,0
1571369809.949,71.289,40.527,33.691,-4.883,-0.977,0
1571369809.953,120.605,40.039,36.133,227.051,12.207,0
1571369809.957,10.742,44.922,31.250,95.703,-7.812,0
1571369809.961,-59.570,44.434,30.762,-172.852,29.297,0
1571369809.964,35.645,40.527,33.691,-64.453,49.805,0
1571369809.968,125.000,41.504,36.133,187.012,19.043,0
1571369809.972,40.039,42.480,35.645,141.113,26.367,0
1571369809.976,-64.941,41.992,33.203,-125.488,26.855,0
1571369809.980,-3.418,41.992,34.180,-130.371,11.719,0
1571369809.997,107.910,42.969,32.715,118.652,16.602,0
1571369810.001,63.965,43.457,29.297,192.871,107.422,0
1571369810.005,-52.246,41.992,28.320,-50.781,73.730,0
1571369810.009,-28.320,40.527,28.809,-182.129,41.016,0
1571369810.013,88.379,42.969,30.273,40.527,95.703,0
1571369810.017,104.492,43.457,31.250,234.375,52.246,0
1571369810.021,-16.602,42.969,28.320,31.250,3.418,0
1571369810.024,-52.246,44.434,29.297,-212.402,-18.555,0
1571369810.028,58.594,43.457,33.691,-31.738,-18.555,0
1571369810.032,118.652,43.945,36.133,220.703,-1.465,0
1571369810.036,10.742,44.922,35.645,107.422,-35.645,0
1571369810.040,-70.801,43.945,33.691,-171.875,-4.883,0
1571369810.037,22.461,41.992,33.691,-93.750,7.812,0
1571369810.041,117.188,42.480,38.086,169.434,-41.504,0
1571369810.045,42.969,45.410,38.574,159.668,-17.578,0
1571369810.049,-53.711,43.457,36.133,-106.934,6.836,0
1571369810.053,0.000,41.992,34.668,-153.320,15.625,0
1571369810.057,106.934,42.480,32.715,88.867,10.742,0
1571369810.061,75.684,40.039,30.762,206.055,26.367,0
1571369810.064,-44.434,39.551,28.320,-25.879,28.809,0
1571369810.068,-41.504,38.086,29.297,-195.312,17.090,0
1571369810.072,74.219,39.062,31.250,2.441,-0.977,0
1571369810.076,103.027,39.062,33.203,215.820,-18.555,0
1571369810.080,-11.230,39.551,31.738,53.711,-28.320,0
1571369810.077,-61.523,41.016,29.785,-195.312,-38.574,0
1571369810.081,44.434,39.062,32.227,-47.852,50.293,0
1571369810.085,119.629,38.574,31.738,199.219,83.496,0
1571369810.089,19.043,41.016,27.832,102.539,3.906,0
1571369810.093,-67.871,40.039,26.855,-166.504,29.297,0
1571369810.097,18.066,38.086,25.391,-114.258,52.734,0
1571369810.101,122.070,38.574,24.414,145.508,79.102,0
1571369810.104,62.500,40.039,23.926,170.898,106.445,0
1571369810.108,-49.316,41.016,24.414,-95.703,69.824,0
1571369810.112,-14.648,39.551,27.344,-170.410,35.645,0
1571369810.116,97.168,38.574,27.832,67.871,32.715,0
1571369810.120,84.473,39.551,27.344,217.773,33.691,0
1571369810.137,-29.297,41.504,27.832,-1.465,60.547,0
1571369810.141,-40.527,41.992,26.855,-205.566,16.602,0
1571369810.145,75.195,41.992,28.320,-3.418,22.461,0
1571369810.149,118.652,41.504,30.762,227.539,5.371,0
1571369810.153,7.324,41.504,30.762,74.707,13.184,0
1571369810.157,-54.199,42.969,27.832,-193.848,25.391,0
1571369810.161,41.992,42.969,28.320,-75.195,-16.602,0
1571369810.164,121.582,39.062,31.250,187.012,-18.066,0
1571369810.168,33.203,39.062,31.250,134.766,14.648,0
1571369810.172,-57.617,40.527,30.762,-137.695,25.879,0
1571369810.176,14.160,39.062,30.273,-125.488,20.508,0
1571369810.180,118.652,40.527,29.785,128.418,41.016,0
1571369810.176,74.219,41.992,31.738,191.895,83.984,0
1571369810.180,-37.109,42.969,35.156,-59.082,34.668,0
1571369810.184,-20.020,40.527,32.227,-175.293,1.953,0
1571369810.188,89.844,38.574,30.762,47.363,-1.465,0
1571369810.192,98.145,39.062,33.203,221.191,-46.875,0
1571369810.196,-18.555,41.992,34.668,23.926,-39.551,0
1571369810.200,-45.410,44.434,33.691,-194.824,0.000,0
1571369810.203,70.312,43.457,33.691,-18.555,0.977,0
1571369810.207,126.953,41.504,36.133,214.844,-37.598,0
1571369810.211,18.555,44.922,31.738,80.566,-19.531,0
1571369810.215,-47.852,46.387,28.320,-187.012,-1.953,0
1571369810.219,43.945,42.969,31.250,-80.566,-17.090,0
1571369810.217,126.465,41.992,34.668,185.059,18.066,0
1571369810.221,40.527,41.504,33.203,148.438,53.711,0
1571369810.225,-60.547,40.527,31.738,-129.883,7.812,0
1571369810.229,5.371,41.016,32.227,-140.625,-6.836,0
1571369810.233,113.281,39.551,32.715,110.352,16.113,0
1571369810.237,76.172,40.527,32.227,199.219,-10.254,0
1571369810.241,-36.133,41.016,32.715,-43.945,-28.320,0
1571369810.244,-27.832,39.551,33.691,-188.477,-19.531,0
1571369810.248,83.984,40.039,34.180,30.762,-22.949,0
1571369810.252,104.492,40.527,35.156,230.957,-40.039,0
1571369810.256,-14.648,40.039,34.668,50.781,4.395,0
1571369810.260,-55.664,41.016,31.738,-190.430,20.508,0
1571369810.276,54.199,41.016,31.250,-30.273,-18.555,0
1571369810.280,119.629,38.086,34.180,223.145,26.855,0
1571369810.284,21.973,36.621,31.738,114.746,45.410,0
1571369810.288,-58.594,38.086,28.809,-163.086,64.941,0
1571369810.292,20.996,37.598,30.762,-92.285,83.008,0
1571369810.296,114.746,37.598,33.203,162.598,40.039,0
1571369810.300,46.387,41.504,32.715,154.297,15.625,0
1571369810.303,-55.664,40.527,32.715,-111.328,0.000,0
1571369810.307,-1.953,41.504,32.715,-156.250,56.152,0
1571369810.311,113.281,44.922,33.203,83.008,67.871,0
1571369810.315,89.844,45.410,33.691,205.078,8.301,0
1571369810.319,-27.344,43.457,33.203,-20.508,-9.277,0
1571369810.317,-28.809,42.480,31.738,-194.824,41.016,0
1571369810.321,81.055,41.992,33.203,13.184,32.227,0
1571369810.325,110.352,41.016,35.156,228.516,6.836,0
1571369810.329,-5.371,42.480,32.715,60.059,20.996,0
1571369810.333,-58.105,41.992,29.297,-194.824,30.762,0
1571369810.337,53.223,41.504,28.320,-47.852,21.484,0
1571369810.341,130.371,43.457,30.762,208.496,35.645,0
1571369810.344,32.715,44.922,32.227,121.094,40.039,1
1571369810.348,-51.270,44.434,32.715,-145.508,-6.348,0
1571369810.352,23.438,43.945,34.180,-102.051,-1.953,0
1571369810.356,121.582,43.457,35.156,144.043,1.953,0
1571369810.360,64.453,41.992,35.156,181.152,43.945,0
1571369810.356,-47.363,43.945,32.227,-75.684,61.523,0
1571369810.360,-12.207,41.504,31.738,-164.551,-7.812,0
1571369810.364,99.121,39.551,30.762,67.383,-65.918,0
1571369810.368,94.727,41.504,28.809,221.680,14.160,0
1571369810.372,-20.996,41.504,28.809,12.695,96.191,0
1571369810.376,-41.504,42.480,28.809,-194.824,46.387,0
1571369810.380,70.312,42.480,30.762,-2.441,34.668,0
1571369810.383,116.211,43.457,33.203,232.910,-36.621,0
1571369810.387,5.859,43.457,34.668,88.867,-4.883,0
1571369810.391,-51.758,43.457,34.668,-175.293,69.824,0
1571369810.395,44.434,44.922,33.691,-59.570,-11.719,0
1571369810.399,124.512,44.434,33.691,201.172,32.227,0
1571369810.416,37.598,45.898,32.715,146.484,45.410,0
1571369810.420,-59.570,43.945,31.738,-132.812,8.789,0
1571369810.424,9.277,42.480,30.273,-127.930,-49.316,0
1571369810.428,113.770,40.527,30.762,125.977,-36.621,0
1571369810.432,63.965,39.062,30.762,200.684,32.715,0
1571369810.436,-50.781,42.969,27.832,-48.340,40.039,0
1571369810.440,-21.484,43.457,27.344,-174.316,56.152,0
1571369810.443,99.609,41.992,31.738,53.711,13.672,0
1571369810.447,109.375,41.992,31.250,230.957,-19.043,0
1571369810.451,-7.324,42.969,28.809,32.715,60.547,0
1571369810.455,-46.387,44.922,28.320,-194.336,86.914,0
1571369810.459,60.547,41.992,29.785,-16.113,8.301,0
1571369810.456,121.582,40.527,29.297,231.445,26.367,0
1571369810.460,13.672,43.457,27.832,102.539,41.016,0
1571369810.464,-62.012,43.457,25.391,-172.363,28.809,0
1571369810.468,30.762,42.480,26.367,-78.125,34.668,0
1571369810.472,124.023,43.457,30.762,185.059,30.762,0
1571369810.476,43.457,43.945,30.273,153.809,65.918,0
1571369810.480,-56.641,40.527,27.344,-125.488,67.871,0
1571369810.483,3.418,38.086,28.809,-143.066,66.406,0
1571369810.487,107.910,41.016,29.297,105.957,-13.184,0
1571369810.491,73.730,44.434,27.832,198.242,-10.254,0
1571369810.495,-41.016,42.480,30.273,-39.551,7.324,0
1571369810.499,-25.879,39.062,29.785,-187.988,5.859,0
1571369810.497,92.285,40.039,27.832,32.227,3.418,0
1571369810.501,113.770,41.016,30.273,238.770,-15.137,0
1571369810.505,0.000,42.480,29.297,62.988,-11.719,0
1571369810.509,-47.852,43.945,27.832,-185.059,-3.418,0
1571369810.513,54.688,41.016,29.785,-32.227,34.180,0
1571369810.517,125.000,40.039,30.762,216.797,55.176,0
1571369810.521,26.855,43.457,31.250,112.793,80.566,0
1571369810.524,-56.152,43.945,31.738,-161.133,24.414,0
1571369810.528,38.574,42.969,33.691,-92.285,-22.461,0
1571369810.532,139.648,44.922,37.598,169.922,27.344,0
1571369810.536,63.477,45.898,37.109,179.199,62.500,0
1571369810.540,-45.898,44.434,33.691,-85.938,67.383,0
1571369810.557,-1.465,42.480,32.715,-147.949,28.809,0
1571369810.561,101.562,41.504,35.645,80.566,-0.977,0
1571369810.565,81.055,41.504,37.598,212.402,-13.672,0
1571369810.569,-37.109,42.480,39.551,-5.859,-8.301,0
1571369810.573,-47.363,42.480,39.551,-199.219,-20.508,0
1571369810.577,70.312,42.480,38.086,-3.906,-2.441,0
1571369810.581,111.328,41.992,39.062,213.379,33.691,0
1571369810.584,-1.465,41.016,38.086,56.152,21.973,0
1571369810.588,-60.059,41.504,37.109,-191.895,-3.418,0
