timestamps,TP9,AF7,AF8,TP10,Right AUX,Marker0
1572310127.087,85.449,55.664,43.457,62.988,8.301,0
1572310127.091,23.438,55.664,43.457,32.715,46.875,0
1572310127.095,-116.699,54.688,42.969,0.000,93.262,0
1572310127.099,-78.613,53.223,45.410,26.855,75.195,0
1572310127.103,66.895,53.223,46.387,55.664,-2.930,0
1572310127.107,61.035,53.711,44.922,43.457,9.766,0
1572310127.111,-83.496,54.199,46.875,12.207,44.922,0
1572310127.114,-111.816,53.711,49.316,15.137,-10.254,0
1572310127.118,26.367,52.246,49.316,48.340,27.832,0
1572310127.122,84.961,52.246,46.875,55.176,27.344,0
1572310127.126,-42.480,55.176,48.340,25.391,27.344,0
1572310127.130,-132.324,57.129,51.270,7.812,61.523,0
1572310127.148,-6.348,56.641,50.293,50.293,8.301,0
1572310127.152,88.379,56.641,51.270,64.941,-26.367,0
1572310127.156,-6.836,58.105,49.805,36.621,21.484,0
1572310127.160,-125.977,58.594,50.293,8.301,102.539,0
1572310127.164,-37.109,56.641,51.758,39.062,67.871,0
1572310127.168,88.867,58.594,52.246,67.383,30.273,0
1572310127.172,38.086,62.012,52.246,51.270,-10.254,0
1572310127.175,-104.004,59.082,49.316,10.254,5.371,0
1572310127.179,-75.684,60.059,45.898,28.320,55.176,0
1572310127.183,67.871,60.547,44.434,62.012,0.488,0
1572310127.187,67.871,59.082,44.434,55.176,-3.418,0
1572310127.191,-78.613,63.965,44.434,14.160,51.758,0
1572310127.191,-115.234,63.477,44.434,12.695,36.621,0
1572310127.195,24.902,59.082,46.387,54.688,20.020,0
1572310127.199,81.543,57.617,47.363,52.246,-29.785,0
1572310127.203,-43.457,57.617,46.387,20.020,-35.645,0
1572310127.207,-134.766,59.570,46.387,0.977,39.062,0
1572310127.211,-13.184,60.547,46.875,42.969,72.754,0
1572310127.215,94.238,62.012,46.875,58.105,46.875,0
1572310127.218,9.277,62.988,45.898,31.250,17.578,0
1572310127.222,-121.582,63.477,47.852,1.465,58.594,0
1572310127.226,-47.852,62.500,46.387,30.273,76.172,0
1572310127.230,80.078,61.523,42.969,53.711,24.414,0
1572310127.234,41.992,61.035,41.504,43.457,56.641,0
1572310127.227,-102.051,58.594,41.504,8.789,51.758,0
1572310127.231,-98.145,56.152,42.969,18.066,4.883,0
1572310127.235,45.410,56.641,45.898,57.129,41.016,0
1572310127.239,73.242,57.617,47.363,57.129,49.316,0
1572310127.243,-54.199,55.664,45.410,27.832,23.926,0
1572310127.247,-104.980,55.664,42.480,24.902,7.324,0
1572310127.251,19.043,56.641,46.875,57.617,17.090,0
1572310127.254,86.426,56.152,51.758,54.199,26.855,0
1572310127.258,-27.344,58.594,47.363,24.414,23.438,0
1572310127.262,-130.371,59.082,45.898,11.230,-7.812,0
1572310127.266,-23.438,58.105,47.363,44.922,12.207,0
1572310127.270,83.496,58.594,48.340,58.105,55.176,0
1572310127.287,13.184,59.570,46.875,36.621,31.738,0
1572310127.291,-116.699,60.059,46.875,4.883,47.852,0
1572310127.295,-56.152,56.152,44.434,29.785,72.754,0
1572310127.299,83.008,56.641,42.969,54.688,36.621,0
1572310127.303,59.082,60.059,48.340,47.852,-8.789,0
1572310127.307,-85.938,62.012,47.363,8.789,-41.504,0
1572310127.311,-90.820,61.523,41.016,14.160,68.359,0
1572310127.314,50.293,58.105,43.945,54.199,96.191,0
1572310127.318,87.402,59.082,44.434,50.293,13.184,0
1572310127.322,-45.898,60.547,44.434,18.555,7.812,0
1572310127.326,-122.070,61.523,49.805,7.324,35.645,0
1572310127.330,9.277,62.012,46.875,46.387,29.297,0
1572310127.327,98.145,58.594,47.852,57.129,76.660,0
1572310127.331,-4.883,57.617,52.734,29.297,73.242,0
1572310127.335,-117.676,61.035,49.805,8.301,18.066,0
1572310127.339,-25.391,63.965,47.363,44.434,25.391,0
1572310127.343,91.309,62.988,50.781,66.406,38.086,0
1572310127.347,25.879,58.105,51.758,42.480,65.430,0
1572310127.351,-119.141,57.617,54.199,0.977,78.125,0
1572310127.354,-75.684,60.059,55.664,30.273,35.156,0
1572310127.358,63.965,62.988,52.734,63.477,18.066,0
1572310127.362,63.477,62.500,54.199,45.898,8.789,0
1572310127.366,-74.219,62.500,54.199,10.254,25.879,0
1572310127.370,-103.516,62.012,52.734,19.043,71.289,0
1572310127.367,35.645,60.547,52.734,62.012,33.691,0
1572310127.371,86.426,63.477,53.223,60.059,-4.883,0
1572310127.375,-41.016,68.359,54.199,27.832,-26.855,0
1572310127.379,-122.559,69.336,53.711,12.207,-12.207,0
1572310127.383,1.953,67.871,54.199,52.734,26.367,0
1572310127.387,101.562,67.383,53.223,67.383,46.875,0
1572310127.391,8.301,67.871,54.688,42.480,89.844,0
1572310127.394,-114.746,70.312,57.617,9.766,66.406,0
1572310127.398,-25.879,73.242,56.152,41.504,1.465,0
1572310127.402,97.168,72.266,55.664,72.754,46.875,0
1572310127.406,41.504,72.266,54.199,56.641,133.789,0
1572310127.410,-100.098,71.289,53.711,17.578,93.262,0
1572310127.427,-69.824,69.824,54.688,33.691,21.973,0
1572310127.431,75.195,71.289,53.711,65.430,-22.949,0
1572310127.435,87.891,73.730,53.223,59.082,-41.504,0
1572310127.439,-47.852,72.266,52.246,25.391,9.277,0
1572310127.443,-91.309,69.336,51.758,23.438,26.855,0
1572310127.447,40.039,71.777,52.246,63.477,18.555,0
1572310127.451,99.121,71.289,50.781,59.570,66.406,0
1572310127.454,-20.020,71.289,49.316,26.855,53.223,0
1572310127.458,-119.141,72.266,47.852,10.742,6.348,0
1572310127.462,-5.859,70.312,48.340,44.434,9.766,0
1572310127.466,94.727,69.336,52.246,53.711,51.758,0
1572310127.470,10.254,68.359,54.688,31.738,37.598,0
1572310127.467,-114.258,67.383,55.664,4.395,-18.066,0
1572310127.471,-42.969,65.430,55.664,40.527,-17.090,0
1572310127.475,102.539,60.059,53.711,84.961,40.527,0
1572310127.479,69.824,64.453,49.316,67.871,62.012,0
1572310127.483,-106.445,66.895,50.781,-2.930,13.184,0
1572310127.487,-95.703,64.453,52.246,6.836,51.758,0
1572310127.491,67.383,68.359,48.828,65.430,78.125,0
1572310127.494,89.355,68.359,51.758,61.523,21.973,0
1572310127.498,-48.828,65.430,56.641,20.508,-2.930,0
1572310127.502,-101.562,62.500,54.199,15.137,44.922,0
1572310127.506,36.621,62.988,52.734,62.012,67.383,0
1572310127.510,109.375,64.453,52.734,74.219,41.504,0
1572310127.527,-4.395,65.918,48.828,45.410,0.488,0
1572310127.531,-113.281,67.383,48.340,19.531,45.898,0
1572310127.535,-9.277,67.383,45.898,49.805,86.426,0
1572310127.539,107.422,69.824,43.945,66.895,50.781,0
1572310127.543,40.039,69.824,43.457,45.410,34.668,0
1572310127.547,-94.727,69.824,42.969,4.395,55.664,0
1572310127.551,-41.504,70.312,41.992,24.902,91.797,0
1572310127.554,86.426,68.848,40.527,50.293,59.082,0
1572310127.558,65.918,68.848,40.039,37.109,-9.766,0
1572310127.562,-76.660,69.824,38.086,4.883,18.066,0
1572310127.566,-87.402,66.895,37.109,19.043,56.152,0
1572310127.570,56.152,64.941,37.598,59.570,59.082,0
1572310127.567,92.285,66.895,40.039,54.199,80.566,0
1572310127.571,-40.039,64.941,42.969,21.484,30.273,0
1572310127.575,-115.723,62.500,41.016,11.230,14.160,0
1572310127.579,13.184,61.523,42.480,48.340,44.434,0
1572310127.583,104.980,58.105,43.945,59.082,78.613,0
1572310127.587,3.906,60.547,43.945,28.809,54.688,0
1572310127.591,-120.605,62.500,43.457,0.000,22.461,0
1572310127.594,-30.762,61.035,41.992,40.039,48.340,0
1572310127.598,96.191,62.500,41.016,62.988,22.461,0
1572310127.602,40.527,64.941,41.992,45.898,14.648,0
1572310127.606,-101.562,64.941,44.434,5.859,69.824,0
1572310127.610,-58.594,62.988,44.434,23.438,-6.836,0
1572310127.607,81.543,61.523,41.504,55.664,39.062,0
1572310127.611,73.730,62.012,41.016,46.875,113.770,0
1572310127.615,-70.312,62.012,41.992,11.719,54.688,0
1572310127.619,-99.609,62.012,41.992,8.301,25.391,0
1572310127.623,43.457,64.941,43.457,53.223,-50.293,0
1572310127.627,94.238,66.406,42.480,61.035,-18.555,0
1572310127.631,-32.715,67.383,42.480,27.832,63.965,0
1572310127.634,-114.258,68.359,41.016,17.090,49.805,0
1572310127.638,8.301,67.871,41.504,53.711,56.641,0
1572310127.642,102.051,63.965,41.016,61.035,44.434,0
1572310127.646,10.742,63.477,38.086,40.039,20.020,0
1572310127.650,-117.676,66.895,38.574,12.695,46.387,0
1572310127.667,-35.156,64.941,40.527,42.480,62.988,0
1572310127.671,92.773,64.941,40.527,63.965,42.969,0
1572310127.675,43.457,65.918,42.969,48.828,26.855,0
1572310127.679,-102.051,64.453,45.410,15.625,3.418,0
1572310127.683,-79.590,63.477,41.504,28.809,40.039,0
1572310127.687,64.453,60.059,41.504,61.523,24.414,0
1572310127.691,77.148,59.082,43.945,51.270,34.668,0
1572310127.694,-63.477,62.988,40.527,7.324,61.523,0
1572310127.698,-103.516,63.477,38.574,7.324,26.855,0
1572310127.702,34.668,63.477,39.551,51.270,7.324,0
1572310127.706,98.145,64.453,39.551,51.270,-13.672,0
1572310127.710,-21.484,63.477,41.016,16.113,26.855,0
1572310127.707,-116.211,62.500,42.480,-2.441,36.621,0
1572310127.711,5.859,60.547,40.039,38.574,-5.859,0
1572310127.715,111.816,61.035,37.109,54.199,40.039,0
1572310127.719,29.785,62.500,38.574,31.738,61.035,0
1572310127.723,-103.516,65.430,35.645,-8.789,65.430,0
1572310127.727,-33.691,64.941,33.691,20.508,90.332,0
1572310127.731,100.098,64.941,35.645,57.617,33.691,0
1572310127.734,63.965,65.918,36.621,41.016,59.082,0
1572310127.738,-81.543,66.406,35.156,0.488,113.770,0
1572310127.742,-77.148,67.383,33.203,13.184,39.551,0
1572310127.746,63.477,62.500,34.668,52.734,12.207,0
1572310127.750,91.797,61.523,38.086,49.805,26.367,0
1572310127.747,-43.945,62.988,35.645,11.719,65.918,0
1572310127.751,-100.586,62.500,30.762,0.977,82.520,0
1572310127.755,37.598,62.012,30.273,40.039,12.695,0
1572310127.759,114.258,61.523,32.227,48.828,2.441,0
1572310127.763,-2.441,63.965,39.551,21.484,-11.230,0
1572310127.767,-116.699,67.383,39.062,-0.977,-8.789,0
1572310127.771,-4.395,63.477,38.086,35.156,3.418,0
1572310127.774,111.816,58.105,41.016,51.270,-9.766,0
1572310127.778,37.598,60.547,41.992,27.832,10.254,0
1572310127.782,-99.609,61.035,41.992,-6.836,29.297,0
1572310127.786,-47.363,56.152,43.945,20.508,30.762,0
1572310127.790,92.285,60.059,45.410,49.316,24.414,0
1572310127.807,85.449,62.500,43.457,37.598,21.484,0
1572310127.811,-60.547,62.012,45.410,4.883,6.836,0
1572310127.815,-83.496,62.988,46.387,16.113,-31.738,0
1572310127.819,55.664,62.012,42.969,55.664,-30.762,0
1572310127.823,95.703,62.500,41.016,49.805,-1.465,0
1572310127.827,-36.133,60.547,39.551,9.766,-12.207,0
1572310127.831,-112.305,57.617,41.016,0.000,-2.930,0
1572310127.834,20.996,58.594,41.992,43.945,46.875,0
1572310127.838,116.211,61.035,41.504,57.617,57.617,0
1572310127.842,15.137,62.988,42.969,30.273,33.203,0
1572310127.846,-99.609,62.500,41.992,2.930,36.621,0
1572310127.850,-0.977,64.941,41.016,41.504,102.539,0
1572310127.847,119.629,67.383,42.480,66.406,83.008,0
1572310127.851,59.082,65.918,42.969,50.781,19.531,0
1572310127.855,-81.543,65.430,44.434,13.672,23.926,0
1572310127.859,-41.992,66.895,41.992,32.227,34.668,0
1572310127.863,97.168,65.918,39.551,65.918,13.184,0
1572310127.867,94.727,67.383,39.551,52.734,64.941,0
1572310127.871,-45.410,69.824,39.062,14.648,85.449,0
1572310127.874,-77.637,66.895,37.598,16.602,22.461,0
1572310127.878,63.477,64.941,37.598,54.688,13.672,0
1572310127.882,116.211,66.406,40.039,57.129,1.465,0
1572310127.886,-12.207,69.336,40.039,24.902,52.246,0
1572310127.890,-99.609,68.848,37.109,6.836,60.059,0
1572310127.887,20.508,66.895,37.598,42.480,37.109,0
1572310127.891,122.070,67.383,38.086,51.270,87.891,0
1572310127.895,31.738,66.895,39.551,29.297,66.406,0
1572310127.899,-95.703,66.895,40.527,0.488,41.504,0
1572310127.903,-7.324,67.871,39.062,34.668,37.598,0
1572310127.907,121.094,68.848,40.039,61.523,16.113,0
1572310127.911,71.289,69.336,39.062,41.016,-30.273,0
1572310127.914,-74.707,67.871,35.156,4.883,-22.461,0
1572310127.918,-61.523,67.871,33.691,19.531,13.672,0
1572310127.922,84.473,66.406,35.156,53.223,12.695,0
1572310127.926,103.516,65.918,37.109,49.805,41.504,0
1572310127.930,-41.992,66.895,38.574,11.230,88.867,0
1572310127.947,-88.867,65.918,40.527,10.254,43.457,0
1572310127.951,49.805,68.848,40.039,53.223,-7.324,0
1572310127.955,118.164,70.801,40.527,55.664,18.066,0
1572310127.959,-0.977,69.824,40.527,18.066,61.035,0
1572310127.963,-106.445,70.801,40.039,0.000,75.195,0
1572310127.967,2.930,67.871,41.016,43.945,22.461,0
1572310127.971,107.422,62.012,42.480,55.176,28.320,0
1572310127.974,25.391,63.477,41.504,28.320,60.059,0
1572310127.978,-105.957,63.965,41.992,-5.371,28.809,0
1572310127.982,-38.574,61.035,40.527,20.020,56.152,0
1572310127.986,100.098,64.453,40.039,51.270,46.875,0
1572310127.990,75.684,68.359,41.992,39.551,35.645,0
1572310127.987,-66.406,67.871,41.992,1.953,40.039,0
1572310127.991,-58.105,67.871,40.527,14.160,-11.230,0
1572310127.995,89.844,67.871,41.016,52.246,20.020,0
1572310127.999,115.234,65.430,42.969,46.387,20.996,0
1572310128.003,-20.508,68.359,43.457,8.789,26.367,0
1572310128.007,-79.590,69.336,44.922,2.930,29.297,0
1572310128.011,55.176,68.359,46.387,44.434,34.180,0
1572310128.014,135.742,70.312,45.898,54.199,11.230,0
1572310128.018,23.438,67.383,46.387,32.715,-18.555,0
1572310128.022,-94.238,67.383,45.410,4.883,45.410,0
1572310128.026,9.766,70.312,42.480,30.273,82.031,0
1572310128.030,130.371,70.312,44.434,47.852,73.730,0
1572310128.027,62.500,72.266,46.387,28.809,42.480,0
1572310128.031,-79.590,71.289,45.410,-7.324,47.852,0
1572310128.035,-33.203,68.359,41.992,14.160,64.453,0
1572310128.039,102.539,70.312,40.527,45.410,31.250,0
1572310128.043,85.938,71.777,39.551,38.086,81.055,0
1572310128.047,-59.570,71.289,39.551,5.371,97.168,0
1572310128.051,-70.312,69.336,40.039,15.625,55.664,0
1572310128.054,76.172,67.871,38.086,56.641,71.777,0
1572310128.058,116.211,68.359,41.016,51.270,28.809,0
1572310128.062,-12.695,68.848,43.945,17.090,-28.809,0
1572310128.066,-83.984,68.359,40.527,12.695,28.809,0
1572310128.070,44.922,67.871,42.969,54.688,62.988,0
1572310128.087,136.230,70.312,45.410,64.941,31.250,0
1572310128.091,36.621,75.684,42.969,40.039,14.648,0
1572310128.095,-84.961,73.730,45.898,9.766,33.203,0
1572310128.099,13.672,68.359,44.434,43.945,29.297,0
1572310128.103,140.625,67.871,41.992,67.383,22.949,0
1572310128.107,76.660,69.824,45.898,49.316,4.883,0
1572310128.111,-69.336,69.824,47.363,7.812,18.555,0
1572310128.114,-28.809,70.801,43.945,21.484,36.621,0
1572310128.118,120.605,71.289,41.504,60.059,17.578,0
1572310128.122,116.211,70.801,41.504,53.223,11.719,0
1572310128.126,-37.109,69.824,41.016,10.742,13.672,0
1572310128.130,-66.895,67.871,41.016,12.207,27.832,0
1572310128.127,80.078,68.359,38.574,54.688,32.715,0
1572310128.131,138.672,70.312,38.086,56.152,17.578,0
1572310128.135,6.348,72.266,42.480,22.461,20.020,0
1572310128.139,-85.938,72.754,42.969,6.348,9.766,0
1572310128.143,42.480,71.289,41.504,49.805,10.742,0
1572310128.147,141.113,70.801,43.457,61.035,39.062,0
1572310128.151,46.875,72.754,46.387,38.574,68.359,0
1572310128.154,-83.008,71.777,45.898,2.930,61.035,0
1572310128.158,-6.348,68.359,41.016,33.203,48.340,0
1572310128.162,119.141,66.406,39.551,62.012,76.172,0
1572310128.166,72.266,67.383,40.527,38.086,42.969,0
1572310128.170,-71.289,66.406,42.480,6.348,55.176,0
1572310128.167,-48.340,64.453,41.504,25.879,41.504,0
1572310128.171,95.703,65.918,38.574,64.453,10.742,0
1572310128.175,107.910,66.406,39.551,61.035,40.039,0
1572310128.179,-30.762,65.918,41.992,22.461,32.715,0
1572310128.183,-73.730,66.895,42.969,19.043,14.648,0
1572310128.187,67.871,69.336,40.039,60.547,30.762,0
1572310128.191,130.371,69.824,39.551,67.383,9.277,0
1572310128.194,4.883,69.824,40.039,34.180,-20.996,0
1572310128.198,-100.586,69.824,41.992,8.301,49.805,0
1572310128.202,10.742,68.359,41.504,47.363,93.262,0
1572310128.206,121.582,67.383,41.992,66.895,63.477,0
1572310128.210,41.992,67.871,43.457,44.434,64.453,0
1572310128.227,-92.773,68.848,41.992,9.766,41.992,0
1572310128.231,-23.926,66.406,40.039,31.250,-4.883,0
1572310128.235,112.305,65.430,39.551,59.082,-7.812,0
1572310128.239,79.102,66.406,37.598,47.363,-2.930,0
1572310128.243,-75.195,65.430,36.133,9.766,26.855,0
1572310128.247,-81.543,64.453,38.574,20.508,79.102,0
1572310128.251,63.477,65.918,40.039,57.129,46.875,0
1572310128.254,96.191,65.430,37.598,54.199,39.062,0
1572310128.258,-44.434,63.477,36.621,17.090,78.125,0
1572310128.262,-105.469,61.035,36.621,5.371,52.734,0
1572310128.266,31.250,59.570,34.180,49.316,-13.672,0
1572310128.270,106.934,59.570,38.086,51.758,16.602,0
1572310128.267,-6.836,62.012,39.062,22.461,53.223,0
1572310128.271,-115.723,65.918,35.156,2.441,22.949,0
1572310128.275,-5.371,62.988,39.062,41.016,19.043,0
1572310128.279,108.398,60.059,41.504,65.430,42.480,0
1572310128.283,33.691,61.035,41.016,44.434,87.402,0
1572310128.287,-108.887,63.965,41.016,6.348,31.250,0
1572310128.291,-56.152,62.988,40.039,26.367,37.109,0
1572310128.294,85.449,61.035,39.551,54.688,33.203,0
1572310128.298,68.848,64.453,40.039,47.363,19.043,0
1572310128.302,-72.754,65.918,41.016,7.812,80.566,0
1572310128.306,-86.914,64.941,40.039,9.277,52.246,0
1572310128.310,53.223,64.941,37.598,52.246,73.242,0
1572310128.307,91.309,65.918,38.086,52.246,106.934,0
1572310128.311,-42.480,64.453,40.527,20.508,32.227,0
1572310128.315,-118.164,64.453,40.039,7.812,3.418,0
1572310128.319,10.742,64.453,40.039,46.387,23.438,0
1572310128.323,104.492,64.941,40.527,58.105,20.020,0
1572310128.327,6.836,67.383,40.039,36.133,6.348,0
1572310128.331,-114.746,69.824,38.574,8.301,8.301,0
1572310128.334,-24.414,67.871,37.109,41.504,37.109,0
1572310128.338,100.586,66.895,35.645,62.988,13.672,0
1572310128.342,47.852,65.918,37.598,47.363,42.969,0
1572310128.346,-94.727,64.941,41.992,14.160,30.762,0
1572310128.350,-62.012,65.430,40.527,27.344,4.883,0
1572310128.367,76.660,65.918,40.527,62.012,55.176,0
1572310128.371,79.590,67.871,46.387,61.523,37.598,0
1572310128.375,-66.895,67.383,47.852,19.531,17.578,0
1572310128.379,-96.191,66.895,47.852,15.625,23.438,0
1572310128.383,53.711,68.848,44.922,53.711,15.625,0
1572310128.387,109.375,67.383,41.504,55.664,36.621,0
1572310128.391,-17.090,66.895,43.457,19.043,73.730,0
1572310128.394,-104.492,71.289,41.504,-0.488,82.520,0
1572310128.398,16.602,72.266,37.109,46.875,83.984,0
1572310128.402,108.887,68.848,38.574,59.570,49.805,0
1572310128.406,13.672,66.895,42.969,30.762,67.383,0
1572310128.410,-112.305,65.918,41.504,-1.953,28.809,0
1572310128.407,-22.949,64.453,39.551,34.180,-49.805,0
1572310128.411,117.188,64.941,41.504,69.824,-3.906,0
1572310128.415,60.059,65.430,42.969,45.898,-9.766,0
1572310128.419,-111.328,67.871,42.480,-14.648,23.926,0
1572310128.423,-88.379,66.406,45.410,5.859,10.254,0
1572310128.427,69.336,62.500,46.387,56.152,-5.859,0
1572310128.431,84.961,59.082,45.410,43.945,31.250,0
1572310128.434,-55.664,59.570,46.875,5.371,63.477,0
1572310128.438,-105.469,60.547,45.410,6.836,67.383,0
1572310128.442,34.180,60.059,43.945,50.293,39.551,0
1572310128.446,113.281,61.523,43.945,54.688,16.602,0
1572310128.450,2.441,64.453,43.457,30.762,28.809,0
1572310128.447,-102.051,66.895,44.922,11.719,27.344,0
1572310128.451,10.742,68.359,42.480,44.434,10.254,0
1572310128.455,116.211,66.895,40.527,60.059,-14.648,0
1572310128.459,25.879,66.406,43.945,41.016,0.000,0
1572310128.463,-107.910,69.824,45.410,9.766,20.508,0
1572310128.467,-41.016,65.918,44.434,33.203,45.898,0
1572310128.471,92.285,62.988,43.457,60.547,58.594,0
1572310128.474,62.988,65.918,43.945,48.340,-5.371,0
1572310128.478,-81.055,68.359,44.922,4.883,0.488,0
1572310128.482,-74.707,68.359,43.945,13.184,24.414,0
1572310128.486,69.336,67.383,41.016,42.969,19.531,0
1572310128.490,97.656,67.383,38.574,40.039,29.785,0
1572310128.507,-37.598,68.359,38.574,8.789,27.832,0
1572310128.511,-103.027,68.359,38.574,-0.488,35.156,0
1572310128.515,34.180,68.359,38.086,41.504,14.648,0
1572310128.519,121.094,71.289,39.551,48.340,24.414,0
1572310128.523,10.742,70.312,38.086,20.020,33.691,0
1572310128.527,-108.887,65.918,37.109,-3.418,28.320,0
1572310128.531,-0.977,65.918,40.039,31.738,70.801,0
1572310128.534,125.488,67.871,40.039,54.199,99.609,0
1572310128.538,58.594,66.406,38.574,36.621,82.031,0
1572310128.542,-83.008,62.500,40.527,1.953,36.621,0
1572310128.546,-36.133,62.012,41.504,27.832,39.551,0
1572310128.550,101.562,62.012,40.039,58.594,7.812,0
1572310128.547,86.914,61.523,41.504,47.852,-0.977,0
1572310128.551,-60.547,64.453,42.969,7.324,23.438,0
1572310128.555,-79.590,65.430,41.504,15.625,20.020,0
1572310128.559,64.453,64.941,39.551,58.594,99.609,0
1572310128.563,107.422,64.453,40.039,55.176,102.539,0
1572310128.567,-30.273,65.430,40.039,15.625,-10.742,0
1572310128.571,-116.699,66.895,36.133,-2.441,-7.324,0
1572310128.574,9.277,63.965,37.109,39.062,59.570,0
1572310128.578,102.539,61.035,38.086,51.758,73.730,0
1572310128.582,1.465,64.941,38.086,16.113,46.387,0
1572310128.586,-115.234,66.895,40.039,-9.277,-17.090,0
1572310128.590,-11.719,66.895,37.598,29.785,-0.488,0
1572310128.587,113.770,65.918,36.133,46.875,50.781,0
1572310128.591,60.059,64.941,35.156,33.203,87.402,0
1572310128.595,-85.449,66.406,29.297,-2.441,89.355,0
1572310128.599,-58.594,65.918,25.879,10.742,-21.484,0
1572310128.603,87.402,64.941,28.809,45.410,32.227,0
1572310128.607,95.703,63.965,31.738,39.062,97.656,0
1572310128.611,-45.410,63.477,34.180,7.324,-12.695,0
1572310128.614,-79.102,66.406,36.621,16.113,-17.578,0
1572310128.618,65.430,65.430,38.086,56.641,46.387,0
1572310128.622,125.977,62.988,34.668,56.152,60.547,0
1572310128.626,0.488,64.941,31.738,27.344,41.504,0
1572310128.630,-97.168,63.477,33.203,10.254,26.855,0
1572310128.647,19.043,60.547,32.227,49.805,29.297,0
1572310128.651,122.559,60.547,30.762,62.500,55.664,0
1572310128.655,33.691,63.477,32.715,32.715,81.055,0
1572310128.659,-93.750,62.988,32.715,2.441,69.336,0
1572310128.663,-16.113,60.547,31.250,32.227,46.387,0
1572310128.667,111.816,62.988,33.691,55.176,56.641,0
1572310128.671,69.824,63.477,34.668,34.180,74.707,0
1572310128.674,-69.824,62.500,31.738,-3.418,103.027,0
1572310128.678,-54.688,62.012,29.785,16.602,136.719,0
1572310128.682,87.891,57.129,32.227,55.176,43.945,0
1572310128.686,109.375,59.082,31.738,48.340,77.148,0
1572310128.690,-34.668,61.523,31.738,12.207,155.762,0
1572310128.687,-85.449,59.082,30.273,6.348,71.777,0
1572310128.691,59.570,57.617,28.320,51.758,23.438,0
1572310128.695,133.301,56.641,26.367,59.082,-9.277,0
1572310128.699,10.254,57.617,25.391,20.508,-2.441,0
1572310128.703,-100.098,55.664,27.832,-1.953,5.859,0
1572310128.707,14.648,51.758,29.785,39.551,-29.297,0
1572310128.711,129.883,50.781,27.344,55.176,12.207,0
1572310128.714,51.270,52.734,25.879,32.227,13.672,0
1572310128.718,-84.473,55.664,28.809,0.488,-11.230,0
1572310128.722,-20.020,59.570,29.785,19.531,-6.348,0
1572310128.726,121.582,59.570,29.297,45.410,2.930,0
1572310128.730,102.051,57.617,32.715,36.621,6.348,0
1572310128.727,-49.316,57.617,30.762,-1.953,-1.465,0
1572310128.731,-55.176,58.105,25.879,14.160,16.602,0
1572310128.735,92.285,57.129,27.832,55.664,28.809,0
1572310128.739,122.070,55.176,27.832,46.387,-20.020,0
1572310128.743,-18.066,55.664,26.367,11.719,11.719,0
1572310128.747,-85.938,55.176,29.297,3.906,57.129,0
1572310128.751,45.898,53.711,31.250,44.922,4.883,0
1572310128.754,125.977,53.223,30.762,47.363,17.578,0
1572310128.758,17.090,54.688,29.297,11.230,16.113,0
1572310128.762,-93.262,54.199,27.344,-2.930,2.930,0
1572310128.766,3.418,52.246,27.832,39.062,59.570,0
1572310128.770,121.582,51.270,29.785,57.129,73.242,0
1572310128.787,56.152,54.199,29.297,31.738,25.879,0
1572310128.791,-88.379,53.223,29.297,-10.742,14.160,0
1572310128.795,-33.203,49.316,26.855,14.160,11.230,0
1572310128.799,113.281,51.758,23.438,45.898,32.227,0
1572310128.803,100.586,52.734,28.809,35.156,21.484,0
1572310128.807,-47.363,51.270,31.250,-7.812,52.246,0
1572310128.811,-68.848,52.246,28.320,-8.789,47.852,0
1572310128.814,78.125,50.293,27.832,35.156,0.488,0
1572310128.818,125.488,51.758,30.273,35.645,35.156,0
1572310128.822,-2.930,55.176,30.273,1.953,65.918,0
1572310128.826,-76.660,54.688,28.320,-8.789,41.992,0
1572310128.830,57.129,53.223,29.785,33.691,30.762,0
1572310128.827,151.855,51.270,28.320,47.363,42.969,0
1572310128.831,45.410,48.340,30.273,21.973,47.852,0
1572310128.835,-80.566,49.316,32.715,-10.254,9.766,0
1572310128.839,13.184,51.758,30.762,23.438,4.883,0
1572310128.843,142.090,53.223,30.273,46.875,38.574,0
1572310128.847,90.820,56.152,31.738,29.297,21.484,0
1572310128.851,-56.152,58.594,31.250,-7.324,22.461,0
1572310128.854,-30.273,55.176,31.738,17.090,91.797,0
1572310128.858,113.281,51.758,34.180,58.594,85.449,0
1572310128.862,121.582,51.270,32.227,48.340,53.711,0
1572310128.866,-19.531,52.246,31.738,10.254,68.359,0
1572310128.870,-57.129,51.270,30.762,11.719,0.488,0
1572310128.867,84.473,54.199,31.738,48.828,-21.484,0
1572310128.871,145.020,60.059,34.180,49.805,36.621,0
1572310128.875,22.461,61.523,35.156,12.695,67.383,0
1572310128.879,-68.359,61.523,34.668,-7.812,1.953,0
1572310128.883,49.316,61.523,34.668,36.133,8.789,0
1572310128.887,145.996,61.035,35.645,51.758,78.613,0
1572310128.891,56.641,62.500,36.621,29.785,57.617,0
1572310128.894,-66.406,63.965,37.598,-1.953,37.109,0
1572310128.898,15.137,61.523,35.645,23.438,12.695,0
1572310128.902,145.508,62.988,37.109,55.176,22.949,0
1572310128.906,108.887,66.406,38.086,48.828,19.043,0
1572310128.910,-33.691,66.406,38.086,7.812,47.363,0
1572310128.927,-18.066,67.383,41.504,19.531,56.641,0
1572310128.931,127.930,62.500,41.992,64.941,21.484,0
1572310128.935,138.672,58.594,41.016,62.012,22.949,0
1572310128.939,-12.207,57.617,42.969,19.043,-1.465,0
1572310128.943,-65.430,58.105,42.969,14.160,4.395,0
1572310128.947,80.566,61.523,41.016,51.758,59.082,0
1572310128.951,152.832,63.965,39.062,54.199,40.527,0
1572310128.954,34.668,62.012,38.086,21.484,-41.992,0
1572310128.958,-66.895,61.035,40.039,-0.977,11.230,0
1572310128.962,47.363,63.477,39.062,35.156,67.383,0
1572310128.966,158.691,60.059,37.598,45.410,6.836,0
1572310128.970,83.008,60.547,38.574,25.879,35.156,0
1572310128.967,-54.688,64.941,37.109,-1.953,74.219,0
1572310128.971,3.906,63.965,36.621,28.320,31.250,0
1572310128.975,141.113,64.941,36.621,60.059,49.316,0
1572310128.979,115.723,66.406,35.156,45.898,78.125,0
1572310128.983,-28.320,66.406,39.062,10.254,19.043,0
1572310128.987,-32.715,66.895,40.039,20.508,-26.367,0
1572310128.991,108.887,65.430,39.062,59.082,96.191,0
1572310128.994,148.926,65.430,41.016,51.758,71.289,0
1572310128.998,8.301,67.383,39.551,14.160,-51.758,0
1572310129.002,-73.242,67.871,39.551,0.977,-25.879,0
1572310129.006,66.895,68.848,40.527,45.898,32.227,0
1572310129.010,155.273,67.871,41.504,63.965,41.992,0
1572310129.007,41.016,67.383,39.551,29.297,64.941,0
1572310129.011,-77.148,67.383,39.062,2.441,56.641,0
1572310129.015,23.438,65.918,39.551,45.410,45.410,0
1572310129.019,141.113,65.430,41.016,63.965,17.090,0
1572310129.023,79.590,66.406,41.016,51.270,-10.742,0
1572310129.027,-58.105,70.312,38.086,20.508,3.906,0
1572310129.031,-11.719,69.336,40.527,42.969,-8.301,0
1572310129.034,113.770,67.871,42.969,52.246,22.461,0
1572310129.038,97.656,67.871,40.039,33.203,57.617,0
1572310129.042,-36.621,65.430,41.992,17.090,27.832,0
1572310129.046,-57.617,69.824,41.992,20.996,21.484,0
1572310129.050,79.102,67.383,39.551,56.641,35.156,0
1572310129.067,126.465,64.453,39.062,60.547,24.414,0
1572310129.071,0.488,69.336,41.016,27.344,-19.043,0
1572310129.075,-75.684,71.289,41.992,17.090,-10.742,0
1572310129.079,55.664,69.824,44.434,58.594,46.387,0
1572310129.083,148.438,69.336,45.410,70.801,53.711,0
1572310129.087,53.223,70.312,44.922,45.898,57.617,0
1572310129.091,-68.848,70.801,45.898,14.160,69.336,0
1572310129.094,20.020,70.801,45.410,49.316,72.754,0
1572310129.098,146.484,70.312,41.016,67.383,31.250,0
1572310129.102,96.191,72.266,38.086,44.922,45.410,0
1572310129.106,-44.434,74.707,40.039,12.207,78.613,0
1572310129.110,-10.742,74.707,41.016,34.180,59.570,0
1572310129.107,137.207,73.730,42.969,78.125,60.547,0
1572310129.111,145.996,72.266,45.898,72.754,33.691,0
1572310129.115,0.977,71.777,45.410,37.109,-8.789,0
1572310129.119,-45.410,72.266,42.480,39.062,0.977,0
1572310129.123,94.727,72.754,41.016,72.754,-15.625,0
1572310129.127,156.738,69.336,42.969,73.242,-14.160,0
1572310129.131,31.738,70.312,42.969,40.039,28.809,0
1572310129.134,-63.477,72.266,41.504,16.113,44.922,0
1572310129.138,53.711,69.824,40.527,49.805,53.223,0
1572310129.142,161.133,70.801,41.504,58.105,55.664,0
1572310129.146,78.125,71.289,43.945,35.645,29.297,0
1572310129.150,-54.199,70.801,41.504,3.418,-1.953,0
1572310129.167,20.996,68.848,40.039,34.668,4.883,0
1572310129.171,150.879,65.430,39.062,63.965,39.062,0
1572310129.175,110.352,66.895,39.551,49.316,56.152,0
1572310129.179,-37.109,69.336,41.992,11.719,61.035,0
1572310129.183,-25.391,69.824,39.551,20.508,56.641,0
1572310129.187,114.746,70.312,38.086,56.152,10.254,0
1572310129.191,126.953,69.824,40.527,50.781,-40.527,0
1572310129.194,-15.625,69.336,42.969,9.766,25.391,0
1572310129.198,-71.289,68.359,43.457,4.395,110.840,0
1572310129.202,66.406,66.895,44.434,46.875,43.457,0
1572310129.206,140.625,66.895,44.434,52.734,24.902,0
1572310129.210,20.020,68.848,44.922,23.438,29.297,0
1572310129.207,-89.844,69.824,42.480,0.977,-11.719,0
1572310129.211,26.367,67.871,38.086,41.504,-26.855,0
1572310129.215,143.066,68.848,39.062,59.570,50.293,0
1572310129.219,66.406,70.312,41.504,39.062,52.734,0
1572310129.223,-68.359,71.777,41.504,11.719,-30.273,0
1572310129.227,-5.371,72.754,41.992,36.133,20.996,0
1572310129.231,131.348,74.219,42.969,68.848,18.555,0
1572310129.234,119.629,73.242,41.992,69.824,5.371,0
1572310129.238,-11.230,75.195,39.551,36.133,39.062,0
1572310129.242,-34.668,77.637,39.062,25.879,52.734,0
1572310129.246,88.867,75.195,39.551,43.457,29.297,0
1572310129.250,134.766,72.754,37.109,52.246,70.801,0
1572310129.247,12.207,75.195,36.133,25.391,94.238,0
1572310129.251,-56.641,72.754,38.086,9.277,-3.906,0
1572310129.255,76.660,67.871,38.574,50.781,5.859,0
1572310129.259,158.203,69.824,36.133,58.105,73.242,0
1572310129.263,44.434,71.289,36.621,29.297,74.707,0
1572310129.267,-73.242,67.871,35.645,2.441,59.570,0
1572310129.271,32.715,66.406,35.645,41.504,89.355,0
1572310129.274,154.297,67.383,38.574,65.430,88.867,0
1572310129.278,84.473,66.895,39.062,35.645,49.805,0
1572310129.282,-59.082,65.430,36.621,-5.859,40.039,0
1572310129.286,-13.184,62.500,38.086,18.555,59.570,0
1572310129.290,124.023,61.523,40.527,48.828,83.984,0
1572310129.307,118.164,62.012,41.016,44.434,39.551,0
1572310129.311,-22.949,63.965,42.480,10.254,9.766,0
1572310129.315,-41.992,65.430,41.504,7.812,58.105,0
1572310129.319,104.980,66.406,39.062,47.363,0.000,0
1572310129.323,150.879,64.453,38.086,48.340,-6.348,0
1572310129.327,20.996,63.965,37.598,13.184,10.742,0
1572310129.331,-59.570,62.988,40.039,6.836,44.922,0
1572310129.334,69.824,62.988,40.039,50.781,69.336,0
1572310129.338,168.457,63.965,37.109,65.430,29.297,0
1572310129.342,71.289,64.941,36.133,44.434,35.645,0
1572310129.346,-60.547,62.988,33.691,14.648,15.137,0
1572310129.350,22.461,59.082,35.645,45.410,44.922,0
1572310129.347,155.273,59.570,34.668,65.918,58.105,0
1572310129.351,104.980,61.523,32.227,46.387,3.906,0
1572310129.355,-42.969,61.035,30.273,9.277,5.859,0
1572310129.359,-10.254,58.105,29.297,24.414,-17.090,0
1572310129.363,131.348,58.105,28.809,54.199,-25.391,0
1572310129.367,137.695,59.082,26.855,43.945,48.340,0
1572310129.371,-0.977,59.082,27.344,4.395,19.043,0
1572310129.374,-41.016,59.082,25.391,0.977,32.227,0
1572310129.378,93.750,59.570,21.973,41.016,55.176,0
1572310129.382,156.250,58.594,23.438,46.387,71.289,0
1572310129.386,34.180,59.570,24.414,13.184,125.488,0
1572310129.390,-65.430,59.082,24.902,-13.184,64.941,0
1572310129.387,55.176,57.129,25.391,27.344,28.320,0
1572310129.391,159.668,56.152,26.855,44.922,92.773,0
1572310129.395,69.824,55.176,27.832,16.602,73.242,0
1572310129.399,-61.523,54.199,25.879,-15.137,23.438,0
1572310129.403,12.207,54.688,25.879,15.625,20.020,0
1572310129.407,137.695,54.688,26.367,42.969,15.137,0
1572310129.411,95.703,54.199,27.344,31.250,-0.488,0
1572310129.414,-45.410,53.711,25.879,-2.441,12.695,0
1572310129.418,-30.273,56.152,24.902,7.324,57.129,0
1572310129.422,117.676,59.570,26.367,43.457,30.762,0
1572310129.426,143.555,57.617,27.344,48.340,52.246,0
1572310129.430,3.418,57.129,30.762,11.719,60.547,0
1572310129.447,-50.781,58.105,28.320,3.906,92.285,0
1572310129.451,84.473,57.129,26.855,41.504,90.820,0
1572310129.455,156.250,58.594,28.320,47.852,34.668,0
1572310129.459,41.016,56.641,25.391,21.484,24.902,0
1572310129.463,-66.895,54.688,23.926,-4.395,62.012,0
1572310129.467,40.039,56.641,24.902,34.180,8.301,0
1572310129.471,147.949,57.129,27.344,47.363,-21.484,0
1572310129.474,68.848,54.688,28.320,18.066,6.836,0
1572310129.478,-69.336,53.711,27.344,-10.254,10.742,0
1572310129.482,-20.508,53.223,26.367,13.672,32.227,0
1572310129.486,107.422,51.758,26.855,40.039,21.973,0
1572310129.490,87.891,54.688,25.879,22.949,6.836,0
1572310129.487,-56.641,56.152,21.973,-16.602,20.996,0
1572310129.491,-63.477,53.223,25.391,-1.953,17.578,0
1572310129.495,79.102,53.223,25.879,33.691,-23.438,0
1572310129.499,112.305,54.199,25.391,32.227,10.742,0
1572310129.503,-21.973,53.711,27.832,3.906,53.223,0
1572310129.507,-92.773,52.246,28.809,-2.930,8.301,0
1572310129.511,36.133,51.758,24.902,44.922,37.598,0
1572310129.514,123.047,53.223,23.438,60.547,131.836,0
1572310129.518,17.090,51.758,28.320,29.297,97.168,0
1572310129.522,-105.469,50.293,28.809,-0.977,84.961,0
1572310129.526,-3.418,51.270,25.879,30.762,42.480,0
1572310129.530,122.070,49.805,26.367,48.340,-19.043,0
1572310129.527,61.523,51.758,27.832,30.273,26.855,0
1572310129.531,-78.125,55.176,25.879,-8.301,-11.230,0
1572310129.535,-31.738,55.664,24.902,10.742,15.625,0
1572310129.539,111.816,53.711,26.367,44.922,1.953,0
1572310129.543,104.980,53.711,27.344,36.621,27.832,0
1572310129.547,-37.598,54.688,27.344,0.000,33.691,0
1572310129.551,-55.664,54.688,27.344,4.883,-12.695,0
1572310129.554,94.238,52.246,27.344,42.480,46.875,0
1572310129.558,144.043,52.246,30.273,36.621,89.844,0
1572310129.562,13.672,56.152,31.250,2.441,30.273,0
1572310129.566,-64.941,54.199,24.902,-3.418,-12.695,0
1572310129.570,64.941,51.270,23.926,38.086,42.969,0
1572310129.588,149.414,52.734,23.926,39.062,66.406,0
1572310129.592,43.945,53.223,25.391,10.742,68.359,0
1572310129.596,-84.473,54.199,26.855,-14.160,25.391,0
1572310129.600,-0.977,57.617,24.902,16.602,36.133,0
1572310129.604,127.441,55.176,25.879,43.457,25.879,0
1572310129.608,80.078,54.199,29.785,30.762,26.855,0
1572310129.612,-66.895,58.594,28.320,-7.812,77.637,0
1572310129.615,-40.527,55.176,26.367,11.719,2.930,0
1572310129.619,116.211,52.734,27.832,54.688,25.391,0
1572310129.623,124.023,55.176,26.367,53.223,49.316,0
1572310129.627,-27.832,56.152,27.344,12.207,23.926,0
1572310129.631,-62.988,56.641,26.367,14.160,60.059,0
1572310129.627,83.984,57.617,24.414,56.152,75.195,0
1572310129.631,142.090,59.082,26.367,50.781,42.480,0
1572310129.635,19.043,56.152,26.855,17.090,-22.949,0
1572310129.639,-71.289,55.176,28.320,-6.836,-14.160,0
1572310129.643,46.387,60.059,28.809,27.344,19.043,0
1572310129.647,146.484,58.594,26.367,41.992,32.227,0
1572310129.651,61.035,56.152,29.785,19.043,27.344,0
1572310129.654,-66.895,61.035,30.273,-14.160,35.645,0
1572310129.658,10.254,57.617,27.832,15.137,42.969,0
1572310129.662,146.973,55.176,28.809,43.457,11.230,0
1572310129.666,109.863,59.570,29.297,22.461,37.598,0
1572310129.670,-29.297,61.035,31.738,-15.137,28.320,0
1572310129.667,-13.672,60.059,29.785,4.395,5.859,0
1572310129.671,131.836,60.547,32.227,41.504,33.691,0
1572310129.675,156.738,64.941,35.156,42.969,72.754,0
1572310129.679,16.602,67.383,34.180,13.184,86.914,0
1572310129.683,-35.156,66.406,35.645,8.301,29.297,0
1572310129.687,101.562,62.988,38.574,49.316,-20.508,0
1572310129.691,171.875,61.523,40.527,52.734,-1.953,0
1572310129.694,62.988,62.988,40.527,24.414,41.992,0
1572310129.698,-49.805,65.918,40.527,0.000,81.543,0
1572310129.702,41.992,63.965,39.551,30.762,104.004,0
1572310129.706,148.926,62.988,36.133,53.223,84.473,0
1572310129.710,76.172,68.848,35.645,31.738,52.246,0
1572310129.728,-68.848,70.801,40.527,0.488,37.598,0
1572310129.732,-12.207,67.871,41.504,32.715,30.273,0
1572310129.736,129.883,66.406,41.016,65.430,16.113,0
1572310129.740,107.422,67.871,41.504,50.781,26.855,0
1572310129.744,-34.180,67.871,44.922,9.766,70.312,0
1572310129.748,-34.180,66.895,42.969,22.461,42.480,0
1572310129.752,108.887,68.848,40.039,54.688,-16.113,0
1572310129.755,142.578,66.895,41.504,49.805,17.090,0
1572310129.759,11.230,67.871,42.480,25.391,3.906,0
1572310129.763,-62.988,70.801,41.504,12.207,-6.836,0
1572310129.767,63.965,68.359,40.527,53.223,19.531,0
1572310129.771,147.461,67.383,43.945,64.453,0.977,0
1572310129.768,38.574,68.848,44.434,31.250,30.762,0
1572310129.772,-82.520,66.406,40.039,1.465,22.949,0
1572310129.776,17.578,67.383,38.086,30.762,-30.273,0
1572310129.780,140.625,69.824,38.086,46.875,-27.344,0
1572310129.784,68.359,72.266,38.574,24.414,30.762,0
1572310129.788,-82.520,72.266,38.574,-12.207,21.973,0
1572310129.792,-42.969,69.336,36.133,7.812,-31.250,0
1572310129.795,93.262,66.406,33.203,39.551,28.809,0
1572310129.799,88.379,64.453,35.156,36.133,4.395,0
1572310129.803,-59.082,67.383,36.621,0.977,-1.953,0
1572310129.807,-89.844,68.848,37.598,7.812,10.742,0
1572310129.811,57.129,67.871,39.062,54.199,29.785,0
1572310129.808,111.816,68.848,41.992,57.617,36.133,0
1572310129.812,-20.996,68.848,44.922,27.344,-41.992,0
1572310129.816,-108.887,67.871,42.969,18.066,-9.766,0
1572310129.820,20.996,68.359,42.969,58.105,35.156,0
1572310129.824,118.652,66.895,44.434,68.848,69.824,0
1572310129.828,20.508,68.848,45.410,40.039,60.059,0
1572310129.832,-104.004,70.801,44.922,5.859,44.434,0
1572310129.835,-16.113,69.824,42.480,34.668,9.766,0
1572310129.839,113.770,68.848,41.992,55.664,18.555,0
1572310129.843,65.430,68.848,41.504,39.551,34.180,0
1572310129.847,-83.496,67.383,40.527,0.488,42.969,0
1572310129.851,-60.547,68.359,39.062,24.902,38.574,0
1572310129.867,75.195,69.336,38.574,63.477,12.207,0
1572310129.871,77.637,65.430,39.551,55.176,43.457,0
1572310129.875,-63.965,61.523,41.016,17.578,70.801,0
1572310129.879,-104.004,62.500,40.039,13.184,47.852,0
1572310129.883,44.434,62.012,39.062,57.617,9.277,0
1572310129.887,108.887,61.035,41.992,64.941,21.973,0
1572310129.891,-17.578,64.941,45.410,30.762,42.969,0
1572310129.894,-108.887,64.453,48.340,14.648,48.340,0
1572310129.898,15.137,63.965,44.434,61.523,31.250,0
1572310129.902,136.230,62.500,43.457,86.426,-12.207,0
1572310129.906,61.035,63.965,42.480,70.312,44.434,0
1572310129.910,-88.867,67.383,43.457,16.602,49.316,0
1572310129.908,-26.855,61.035,48.340,26.367,23.926,0
1572310129.912,118.164,59.570,44.922,59.082,-8.301,0
1572310129.916,87.891,62.012,43.945,51.758,-73.242,0
1572310129.920,-64.453,65.918,45.898,15.625,-51.270,0
1572310129.924,-58.105,66.406,41.992,20.996,-13.672,0
1572310129.928,89.355,62.012,38.574,54.688,-8.789,0
1572310129.932,118.164,62.012,40.039,52.246,9.277,0
1572310129.935,-18.555,64.941,42.969,18.555,16.602,0
1572310129.939,-73.730,63.965,42.480,15.137,9.766,0
1572310129.943,62.012,62.988,39.551,52.734,4.883,0
1572310129.947,134.766,63.477,41.992,47.363,17.578,0
1572310129.951,20.508,65.430,41.016,14.648,33.691,0
1572310129.967,-92.285,65.918,36.621,-4.395,58.105,0
1572310129.971,13.184,64.453,35.645,34.180,69.824,0
1572310129.975,127.441,64.941,38.086,49.316,69.336,0
1572310129.979,52.734,67.871,39.062,23.926,61.523,0
1572310129.983,-84.473,67.871,38.086,-9.766,4.883,0
1572310129.987,-20.996,64.941,39.062,22.949,-8.789,0
1572310129.991,121.582,65.430,38.574,59.082,43.945,0
1572310129.994,103.516,69.336,36.133,43.945,48.828,0
1572310129.998,-43.457,71.777,36.133,2.930,39.551,0
1572310130.002,-51.758,67.383,38.574,14.160,61.035,0
1572310130.006,93.262,67.871,39.551,57.617,37.598,0
1572310130.010,132.324,66.895,38.574,54.688,25.391,0
1572310130.007,-0.977,64.453,43.945,21.973,65.918,0
1572310130.011,-74.707,64.453,44.922,11.719,48.828,0
1572310130.015,57.617,61.035,40.527,52.246,67.383,0
1572310130.019,145.996,62.012,41.992,70.312,64.941,0
1572310130.023,49.316,63.965,41.016,41.504,4.395,0
1572310130.027,-65.430,62.988,38.086,10.254,-6.836,0
1572310130.031,23.438,63.477,37.109,40.527,60.547,0
1572310130.034,140.137,62.988,36.133,55.664,57.129,0
1572310130.038,79.590,64.941,36.133,40.039,77.637,0
1572310130.042,-62.500,65.918,37.109,7.812,51.270,0
1572310130.046,-26.855,63.965,32.715,25.879,4.395,0
1572310130.050,110.840,64.941,30.273,49.316,31.250,0
1572310130.047,104.492,66.895,30.762,35.645,-2.441,0
1572310130.051,-46.387,66.895,28.809,-1.465,-20.020,0
1572310130.055,-81.543,64.941,31.250,5.371,4.395,0
1572310130.059,56.641,64.453,33.691,47.852,-0.977,0
1572310130.063,105.957,65.430,33.691,41.504,-6.836,0
1572310130.067,-21.973,66.895,35.156,8.789,57.129,0
1572310130.071,-110.840,66.406,35.645,0.000,51.758,0
1572310130.074,11.230,62.988,29.785,36.621,31.250,0
1572310130.078,115.723,63.965,28.809,50.293,40.039,0
1572310130.082,19.043,64.453,32.227,21.973,67.871,0
1572310130.086,-109.863,61.523,30.762,-10.254,75.684,0
1572310130.090,-25.391,60.547,27.344,32.715,91.309,0
1572310130.087,99.121,61.035,26.367,58.105,69.824,0
1572310130.091,47.363,60.547,26.855,38.086,37.109,0
1572310130.095,-96.191,59.082,24.414,0.977,26.367,0
1572310130.099,-68.848,57.129,21.973,15.625,34.668,0
1572310130.103,76.660,56.152,20.996,50.293,16.602,0
1572310130.107,89.844,57.617,20.996,41.504,-37.109,0
1572310130.111,-53.711,60.059,23.926,0.488,-17.090,0
1572310130.114,-105.957,60.547,23.926,-4.883,13.672,0
1572310130.118,32.715,60.059,23.438,35.645,61.035,0
1572310130.122,102.539,58.594,21.973,43.457,31.250,0
1572310130.126,-21.484,60.059,20.996,16.113,-15.137,0
1572310130.130,-124.023,57.617,20.020,-3.906,14.648,0
1572310130.147,-11.719,54.688,19.531,29.297,72.266,0
1572310130.151,94.727,53.223,21.484,44.434,19.531,0
1572310130.155,8.789,53.223,22.949,20.996,-16.602,0
1572310130.159,-127.930,56.641,23.438,-12.695,30.273,0
1572310130.163,-52.734,57.129,24.414,20.996,4.395,0
1572310130.167,79.590,59.082,22.461,49.805,88.867,0
1572310130.171,46.387,60.059,20.996,30.273,74.707,0
1572310130.174,-90.332,60.547,21.484,0.000,6.348,0
1572310130.178,-81.543,61.035,21.973,15.137,-13.672,0
1572310130.182,60.547,58.594,25.391,48.340,-20.020,0
1572310130.186,86.426,57.617,26.367,45.410,5.371,0
1572310130.190,-52.246,57.617,27.344,8.301,8.789,0
1572310130.187,-113.281,53.711,27.832,0.000,-23.438,0
1572310130.191,19.531,52.246,24.414,39.551,-10.742,0
1572310130.195,94.727,54.199,24.902,45.410,42.969,0
1572310130.199,-19.043,57.129,27.832,11.230,22.461,0
1572310130.203,-132.812,55.176,26.855,-16.113,33.691,0
1572310130.207,-19.531,54.199,26.367,26.367,48.340,0
1572310130.211,105.469,57.129,27.344,48.340,39.062,0
1572310130.214,38.574,58.105,27.832,28.320,56.152,0
1572310130.218,-97.168,57.617,27.832,0.977,11.719,0
1572310130.222,-45.898,60.059,26.855,26.367,-6.348,0
1572310130.226,71.289,62.012,27.832,33.203,28.809,0
1572310130.230,46.875,58.594,29.297,19.531,36.133,0
1572310130.227,-81.543,59.570,29.785,0.000,39.062,0
1572310130.231,-89.844,58.594,27.832,4.883,81.055,0
1572310130.235,48.340,55.176,29.785,41.992,71.777,0
1572310130.239,89.355,56.641,32.227,47.852,70.312,0
1572310130.243,-39.551,59.082,32.227,15.137,73.242,0
1572310130.247,-112.793,60.059,29.785,2.930,28.809,0
1572310130.251,14.648,59.570,27.832,43.945,17.578,0
1572310130.254,104.492,59.082,28.320,51.758,28.809,0
1572310130.258,1.953,58.105,29.785,19.043,45.410,0
1572310130.262,-119.629,54.199,32.227,-10.742,70.801,0
1572310130.266,-24.414,54.688,33.691,26.367,74.219,0
1572310130.270,95.215,57.129,32.227,44.922,9.277,0
1572310130.287,37.109,57.617,29.297,23.926,10.254,0
1572310130.291,-103.516,58.105,26.855,-5.371,30.762,0
1572310130.295,-70.801,55.664,24.902,19.531,17.090,0
1572310130.299,68.848,56.152,27.832,56.641,57.617,0
1572310130.303,64.453,57.617,32.715,51.270,60.059,0
1572310130.307,-82.031,59.082,35.645,15.625,75.195,0
1572310130.311,-109.375,57.129,33.691,20.996,64.941,0
1572310130.314,37.109,58.105,29.297,65.918,42.969,0
1572310130.318,93.262,63.477,27.832,66.895,5.371,0
1572310130.322,-33.691,67.383,27.832,30.762,-85.938,0
1572310130.326,-126.465,69.336,26.855,12.695,-44.922,0
1572310130.330,-8.789,69.824,28.320,48.340,20.996,0
1572310130.327,83.008,69.824,29.785,56.641,21.973,0
1572310130.331,-16.113,69.336,29.785,29.297,13.184,0
1572310130.335,-139.160,67.383,30.273,5.371,16.602,0
1572310130.339,-56.152,69.336,28.809,37.109,30.273,0
1572310130.343,74.707,73.730,30.273,55.664,28.320,0
1572310130.347,33.691,72.754,33.691,38.574,59.570,0
1572310130.351,-112.305,72.754,33.691,2.441,72.266,0
1572310130.354,-89.355,72.754,34.180,18.555,68.848,0
1572310130.358,52.734,71.289,33.691,55.664,24.902,0
1572310130.362,62.988,71.777,32.227,43.457,-6.348,0
1572310130.366,-77.148,70.312,33.691,8.301,0.488,0
1572310130.370,-116.211,69.824,35.645,14.648,10.742,0
1572310130.367,29.297,70.312,33.691,50.293,23.926,0
1572310130.371,99.609,70.312,30.762,53.223,33.203,0
1572310130.375,-13.672,71.777,35.156,28.809,12.695,0
1572310130.379,-115.234,68.848,37.109,8.789,74.219,0
1572310130.383,-3.906,63.965,37.598,44.434,118.164,0
1572310130.387,99.609,63.477,37.109,59.082,63.477,0
1572310130.391,13.184,65.430,39.551,38.086,30.273,0
1572310130.394,-124.512,63.477,42.480,2.441,46.387,0
1572310130.398,-54.199,62.988,41.504,31.250,59.570,0
1572310130.402,83.008,64.453,41.504,62.012,22.949,0
1572310130.406,50.293,65.918,39.062,44.434,-21.484,0
1572310130.410,-88.379,63.965,39.062,7.812,-8.789,0
1572310130.427,-78.613,62.012,40.527,20.020,71.777,0
1572310130.431,58.594,64.453,41.504,57.617,52.246,0
1572310130.435,79.102,65.430,39.551,55.664,56.152,0
1572310130.439,-56.641,66.895,35.156,22.949,99.609,0
1572310130.443,-111.328,67.383,34.668,19.043,31.250,0
1572310130.447,32.715,68.359,36.621,62.988,22.949,0
1572310130.451,123.047,68.359,32.715,80.078,96.191,0
1572310130.454,14.160,68.848,33.691,45.898,49.316,0
1572310130.458,-114.746,68.359,37.109,-5.859,48.340,1
1572310130.462,-14.648,67.383,36.133,28.809,86.914,0
1572310130.466,108.398,71.289,32.227,56.641,50.781,0
1572310130.470,34.668,74.219,32.715,32.227,33.691,0
1572310130.467,-101.562,74.707,35.156,2.930,55.176,0
1572310130.471,-43.457,75.195,33.203,28.320,35.645,0
1572310130.475,90.820,70.801,32.715,61.523,-31.250,0
1572310130.479,64.453,69.824,30.273,52.734,35.156,0
1572310130.483,-86.914,68.848,30.762,11.230,51.758,0
1572310130.487,-96.191,65.918,30.762,21.973,8.789,0
1572310130.491,46.875,66.895,31.250,64.453,30.273,0
1572310130.494,77.637,69.824,33.203,62.500,11.719,0
1572310130.498,-62.500,71.289,32.715,24.414,30.762,0
1572310130.502,-138.672,66.406,33.203,9.766,47.852,0
1572310130.506,-5.859,62.500,33.691,54.199,12.695,0
1572310130.510,83.984,61.523,37.109,66.895,17.090,0
1572310130.527,-18.555,63.477,39.551,40.039,22.949,0
1572310130.531,-134.277,63.965,37.109,9.277,26.367,0
1572310130.535,-35.645,58.594,32.715,37.109,37.598,0
1572310130.539,82.520,58.594,28.320,54.199,36.133,0
1572310130.543,19.043,59.082,28.320,36.133,-3.906,0
1572310130.547,-119.629,59.570,29.785,2.441,43.457,0
1572310130.551,-80.078,63.477,26.367,19.531,85.449,0
1572310130.554,60.059,64.453,27.832,44.922,45.898,0
1572310130.558,62.988,64.453,27.832,37.598,39.551,0
1572310130.562,-78.125,64.941,24.414,3.906,3.906,0
1572310130.566,-108.398,63.477,25.879,5.371,-32.715,0
1572310130.570,33.203,62.500,28.809,43.945,3.906,0
1572310130.567,87.402,63.477,26.855,46.387,38.086,0
1572310130.571,-40.527,65.918,24.902,13.184,41.992,0
1572310130.575,-131.836,67.871,24.414,-2.441,22.949,0
1572310130.579,-7.324,68.848,23.438,41.992,11.719,0
1572310130.583,91.309,69.336,24.414,57.129,33.691,0
1572310130.587,-8.789,68.848,24.414,32.227,3.418,0
1572310130.591,-133.301,66.406,24.414,-3.418,2.930,0
1572310130.594,-41.504,64.453,24.414,27.344,44.922,0
1572310130.598,84.961,64.941,23.926,53.223,14.160,0
1572310130.602,32.227,65.918,25.879,36.133,-1.465,0
1572310130.606,-116.211,67.871,28.809,-0.977,0.000,0
1572310130.610,-94.727,64.453,31.250,10.742,-20.020,0
1572310130.607,55.176,62.500,28.809,52.246,-15.137,0
1572310130.611,69.824,63.965,28.809,53.711,3.418,0
1572310130.615,-66.895,64.941,31.250,20.020,-1.465,0
1572310130.619,-106.445,62.988,30.273,19.531,39.062,0
1572310130.623,28.320,59.082,28.809,57.129,117.676,0
1572310130.627,85.938,60.059,27.832,58.594,69.336,0
1572310130.631,-37.109,62.500,29.297,30.762,11.719,0
1572310130.634,-133.789,60.547,31.738,13.184,4.883,0
1572310130.638,-16.113,61.035,32.715,54.199,12.695,0
1572310130.642,85.938,58.105,32.715,63.477,76.660,0
1572310130.646,-0.488,54.688,31.738,34.180,20.020,0
1572310130.650,-129.395,57.129,28.809,2.441,1.465,0
1572310130.667,-65.430,57.617,27.344,25.879,54.199,0
1572310130.671,57.129,57.129,29.785,50.781,85.938,0
1572310130.675,23.438,57.617,31.738,32.227,114.258,0
1572310130.679,-123.535,58.594,31.250,-10.742,90.820,0
1572310130.683,-111.328,62.012,30.762,0.977,60.059,0
1572310130.687,37.109,64.941,29.297,38.086,43.945,0
1572310130.691,58.594,64.453,28.809,35.645,47.363,0
1572310130.694,-77.148,64.453,27.344,-5.859,63.477,0
1572310130.698,-129.883,64.941,28.809,-11.230,62.500,0
1572310130.702,7.812,63.477,30.762,38.574,91.797,0
1572310130.706,91.309,60.059,28.320,46.387,100.098,0
1572310130.710,-17.578,62.012,28.320,19.531,60.059,0
1572310130.707,-133.789,62.988,29.297,-2.441,57.617,0
1572310130.711,-30.762,60.059,30.273,36.133,70.801,0
1572310130.715,90.820,60.059,26.855,59.570,44.922,0
1572310130.719,19.043,61.035,26.367,43.457,33.691,0
1572310130.723,-125.000,60.547,29.297,8.789,72.754,0
1572310130.727,-72.754,58.594,27.832,31.738,37.109,0
1572310130.731,64.941,57.129,28.809,62.988,-16.113,0
1572310130.734,49.316,58.105,30.273,54.199,25.391,0
1572310130.738,-101.562,57.129,34.180,15.625,-12.695,0
1572310130.742,-117.676,56.152,34.180,26.367,-5.859,0
1572310130.746,27.344,59.570,32.227,60.547,20.020,0
1572310130.750,74.219,60.059,34.180,56.152,-7.812,0
1572310130.747,-57.617,58.105,31.738,25.879,13.672,0
1572310130.751,-136.230,56.641,30.273,13.184,23.926,0
1572310130.755,1.953,55.176,30.273,54.688,59.570,0
1572310130.759,93.750,56.152,29.297,59.570,83.008,0
1572310130.763,-10.742,59.570,30.762,31.738,49.316,0
1572310130.767,-122.070,62.500,33.691,7.324,32.715,0
1572310130.771,-26.855,61.523,36.133,39.551,10.742,0
1572310130.774,89.355,63.477,34.180,62.988,22.461,0
1572310130.778,27.344,66.406,32.227,41.504,97.656,0
1572310130.782,-112.793,64.453,35.156,-0.488,80.078,0
1572310130.786,-74.219,63.965,34.668,22.461,3.906,0
1572310130.790,67.871,63.965,33.691,61.523,29.297,0
1572310130.807,62.988,63.477,34.668,57.129,46.387,0
1572310130.811,-81.055,63.965,33.691,17.578,0.977,0
1572310130.815,-105.469,63.965,30.273,19.531,-5.371,0
1572310130.819,37.598,66.406,27.344,60.547,13.184,0
1572310130.823,85.449,66.895,28.809,61.035,37.109,0
1572310130.827,-44.922,64.941,30.762,27.344,39.551,0
1572310130.831,-130.859,64.941,33.203,5.859,20.508,0
1572310130.834,-4.883,62.500,32.227,43.457,48.340,0
1572310130.838,95.703,62.012,31.738,60.547,4.883,0
1572310130.842,0.977,62.012,35.156,38.086,-33.203,0
1572310130.846,-127.930,62.988,35.156,5.371,-46.875,0
1572310130.850,-44.434,63.965,33.691,36.133,-24.902,0
1572310130.847,84.961,63.965,32.715,63.965,-8.301,0
1572310130.851,37.598,61.523,34.180,46.387,15.137,0
1572310130.855,-110.840,59.082,36.621,5.859,49.316,0
1572310130.859,-94.727,57.617,37.598,24.902,74.219,0
1572310130.863,43.457,54.688,37.109,58.594,57.129,0
1572310130.867,52.734,54.199,37.109,51.758,27.344,0
1572310130.871,-86.914,53.711,39.062,18.066,36.133,0
1572310130.874,-130.859,50.781,36.621,7.324,55.176,0
1572310130.878,9.766,51.758,33.691,46.387,113.281,0
1572310130.882,78.125,56.641,35.156,55.664,101.074,0
1572310130.886,-42.969,57.129,35.645,18.066,20.020,0
1572310130.890,-134.277,56.152,37.109,-4.395,39.062,0
1572310130.887,-13.184,58.105,35.645,37.598,70.801,0
1572310130.891,86.426,62.012,30.273,55.176,78.125,0
1572310130.895,-0.977,62.500,31.738,28.320,58.594,0
1572310130.899,-131.836,62.012,34.668,-4.395,-1.953,0
1572310130.903,-64.941,61.035,31.738,29.785,-23.438,0
1572310130.907,63.477,60.547,31.738,58.594,39.062,0
1572310130.911,31.250,62.012,33.203,44.434,43.457,0
1572310130.914,-111.816,60.059,28.809,6.348,20.508,0
1572310130.918,-107.910,57.129,29.297,16.113,35.156,0
1572310130.922,38.574,57.129,33.691,55.664,-0.977,0
1572310130.926,68.848,58.105,34.180,58.105,4.395,0
1572310130.930,-71.777,58.594,31.738,23.438,59.082,0
1572310130.948,-132.812,58.105,30.273,11.719,44.922,0
1572310130.952,4.883,56.152,29.785,48.340,-10.742,0
1572310130.956,81.543,56.152,30.762,53.223,-46.387,0
1572310130.960,-32.715,57.129,30.273,22.461,23.926,0
1572310130.964,-145.508,57.129,27.344,-4.395,67.871,0
1572310130.968,-41.016,58.105,26.855,29.297,6.836,0
1572310130.972,77.148,58.594,30.762,48.340,42.480,0
1572310130.975,10.742,59.570,30.273,23.438,95.703,0
1572310130.979,-123.535,61.523,28.809,-8.301,18.555,0
1572310130.983,-73.730,59.082,30.762,22.949,30.762,0
1572310130.987,62.012,56.152,32.715,53.711,121.582,0
1572310130.991,43.945,57.617,30.762,43.457,100.098,0
1572310130.988,-101.074,61.523,26.855,2.441,38.574,0
1572310130.992,-108.887,59.570,25.391,11.230,8.301,0
1572310130.996,43.945,61.035,23.926,57.129,15.137,0
1572310131.000,81.543,64.453,24.414,48.340,21.973,0
1572310131.004,-67.871,61.523,28.809,2.441,-8.301,0
1572310131.008,-140.625,61.035,31.738,-8.301,-28.320,0
1572310131.012,-0.977,61.523,27.832,37.109,0.488,0
1572310131.015,92.285,59.082,25.391,47.363,62.012,0
1572310131.019,-16.113,58.594,28.809,19.531,69.336,0
1572310131.023,-142.090,58.594,29.785,-10.254,49.805,0
1572310131.027,-41.016,57.129,30.762,18.066,60.547,0
1572310131.031,77.637,59.570,32.227,47.363,38.086,0
1572310131.027,13.184,59.570,33.203,35.645,77.637,0
1572310131.031,-126.953,59.570,31.250,-2.930,70.801,0
1572310131.035,-91.309,59.082,26.855,19.531,35.645,0
1572310131.039,47.363,56.641,28.320,48.828,98.633,0
1572310131.043,47.852,57.617,30.762,38.086,131.348,0
1572310131.047,-96.191,58.594,30.273,4.395,51.270,0
1572310131.051,-128.906,55.664,31.250,9.277,57.617,0
1572310131.054,9.766,56.152,32.715,51.758,25.879,0
1572310131.058,64.453,58.105,34.180,43.457,29.297,0
1572310131.062,-59.082,54.688,31.738,6.348,62.012,0
1572310131.066,-148.438,50.293,30.273,-4.883,17.090,0
1572310131.070,-26.855,50.293,32.227,38.086,55.664,0
1572310131.087,78.125,52.246,27.832,51.270,60.059,0
1572310131.091,-10.254,49.805,31.250,22.461,40.039,0
1572310131.095,-133.301,47.852,35.645,-7.324,41.016,0
1572310131.099,-51.270,51.270,29.297,18.555,73.242,0
1572310131.103,70.801,51.270,22.949,38.574,83.008,0
1572310131.107,22.461,52.734,20.508,23.926,49.805,0
1572310131.111,-122.559,53.223,18.555,-19.043,20.020,0
1572310131.114,-104.004,52.734,18.555,-8.301,26.855,0
1572310131.118,40.039,53.223,21.484,29.785,48.828,0
1572310131.122,54.688,53.711,23.438,23.926,20.996,0
1572310131.126,-87.402,54.688,23.438,-5.371,77.148,0
1572310131.130,-135.742,54.199,25.391,-7.324,82.031,0
1572310131.127,8.789,52.246,26.367,32.715,2.930,0
1572310131.131,83.496,52.734,24.902,38.086,15.137,0
1572310131.135,-41.016,51.270,23.926,4.395,8.301,0
1572310131.139,-147.949,52.734,25.391,-9.766,-11.719,0
1572310131.143,-32.715,54.199,28.320,27.344,25.391,0
1572310131.147,78.613,51.758,29.785,40.039,56.152,0
1572310131.151,10.742,50.293,26.855,27.832,19.043,0
1572310131.154,-119.629,46.875,26.855,-4.395,24.902,0
1572310131.158,-71.777,45.410,34.180,7.812,37.598,0
1572310131.162,50.781,48.828,34.668,28.809,71.777,0
1572310131.166,29.297,50.293,35.645,24.414,72.266,0
1572310131.170,-99.121,52.246,37.109,2.441,15.625,0
1572310131.168,-96.680,52.734,37.598,16.113,-16.602,0
1572310131.172,37.598,52.246,38.086,56.641,-9.277,0
1572310131.176,64.941,56.641,38.086,55.176,75.195,0
1572310131.180,-72.754,58.594,37.598,12.207,82.520,0
1572310131.184,-133.789,55.664,35.645,1.465,41.992,0
1572310131.188,9.766,53.711,35.156,45.410,-17.578,0
1572310131.192,91.797,54.688,35.156,59.082,27.832,0
1572310131.195,-26.855,56.152,32.227,28.809,101.562,0
1572310131.199,-144.531,54.199,31.250,1.953,35.156,0
1572310131.203,-43.945,50.781,30.273,36.621,20.508,0
1572310131.207,73.242,52.246,30.273,53.711,46.387,0
1572310131.211,4.395,54.688,31.738,36.133,14.648,0
1572310131.227,-142.090,49.805,30.762,1.953,54.688,0
1572310131.231,-95.215,47.363,27.832,26.367,73.730,0
1572310131.235,44.922,51.758,26.367,56.152,35.156,0
1572310131.239,33.691,54.688,26.855,45.410,66.406,0
1572310131.243,-112.305,55.176,25.879,10.742,86.426,0
1572310131.247,-126.953,55.664,24.902,17.578,-1.465,0
1572310131.251,22.461,55.176,26.367,52.246,-57.617,0
1572310131.254,71.777,54.688,27.344,42.480,21.973,0
1572310131.258,-61.035,51.270,27.344,8.789,8.301,0
1572310131.262,-145.508,46.875,28.809,-0.977,4.883,0
1572310131.266,-14.160,46.387,30.273,38.574,32.715,0
1572310131.270,78.125,46.387,27.832,47.852,-47.363,0
1572310131.267,-33.203,43.457,28.320,19.531,-45.410,0
1572310131.271,-155.273,44.434,28.809,-5.859,30.762,0
1572310131.275,-55.176,44.922,24.902,33.203,14.160,0
1572310131.279,77.637,42.969,22.949,66.895,-22.949,0
1572310131.283,32.227,40.527,22.461,60.547,-4.883,0
1572310131.287,-122.559,36.621,25.391,8.789,42.480,0
1572310131.291,-114.746,37.109,27.832,9.277,67.383,0
1572310131.294,27.832,41.016,26.367,41.992,52.246,0
1572310131.298,45.898,42.480,26.855,42.480,13.184,0
1572310131.302,-97.656,42.969,29.297,5.371,19.531,0
1572310131.306,-136.719,42.480,29.785,-4.883,-25.391,0
1572310131.310,12.695,45.410,26.367,37.598,-45.410,0
1572310131.308,80.078,44.922,22.461,45.898,84.473,0
1572310131.312,-44.434,45.898,22.461,7.812,100.586,0
1572310131.316,-134.766,48.340,22.949,-12.695,18.066,0
1572310131.320,-2.441,44.922,21.484,24.414,-1.953,0
1572310131.324,101.562,44.434,22.461,38.086,21.973,0
1572310131.328,1.953,46.387,23.438,13.672,51.758,0
1572310131.332,-121.582,45.410,19.043,-13.184,23.926,0
1572310131.335,-40.527,44.922,17.578,23.926,19.043,0
1572310131.339,87.891,44.922,20.508,45.898,44.434,0
1572310131.343,46.387,44.922,20.508,36.133,59.570,0
1572310131.347,-104.980,44.922,19.531,6.836,33.691,0
1572310131.351,-84.473,45.898,18.555,20.508,29.785,0
1572310131.367,62.012,46.387,18.555,53.711,72.754,0
1572310131.371,69.824,44.922,18.066,40.039,59.570,0
1572310131.375,-79.102,47.363,17.090,-2.930,36.133,0
1572310131.379,-126.953,49.805,14.160,-5.371,32.227,0
1572310131.383,16.113,46.875,13.184,41.016,7.812,0
1572310131.387,82.520,46.875,16.602,47.852,-18.066,0
1572310131.391,-37.109,46.875,19.531,13.184,29.297,0
1572310131.394,-134.766,43.457,20.508,-8.301,22.461,0
1572310131.398,-18.066,44.922,22.461,31.738,17.090,0
1572310131.402,95.215,46.875,25.391,48.340,27.832,0
1572310131.406,12.695,45.898,25.879,23.438,28.320,0
1572310131.410,-126.953,48.828,24.414,-10.254,20.996,0
1572310131.407,-54.688,49.805,23.926,21.973,48.828,0
1572310131.411,90.820,50.781,22.949,54.199,38.574,0
1572310131.415,65.918,54.199,22.461,44.922,13.672,0
1572310131.419,-80.566,55.176,25.879,11.230,55.176,0
1572310131.423,-82.031,53.711,28.320,18.066,57.129,0
1572310131.427,57.617,52.246,24.902,52.246,20.508,0
1572310131.431,79.102,51.270,23.438,45.410,32.227,0
1572310131.434,-63.965,52.246,24.902,0.000,62.500,0
1572310131.438,-128.906,50.293,22.949,-14.160,71.289,0
1572310131.442,-3.906,48.340,20.020,18.066,41.504,0
1572310131.446,65.430,49.316,19.531,16.602,-10.742,0
1572310131.450,-47.363,45.898,23.438,-11.230,41.992,0
1572310131.447,-159.180,42.969,26.367,-31.738,61.523,0
1572310131.451,-52.734,42.480,24.414,7.324,6.348,0
1572310131.455,66.406,41.992,25.391,28.809,41.992,0
1572310131.459,7.812,38.574,23.926,23.438,42.480,0
1572310131.463,-113.281,38.574,20.996,11.230,-0.488,0
1572310131.467,-72.754,47.852,20.508,18.066,12.695,0
1572310131.471,50.781,47.363,17.090,28.809,46.387,0
1572310131.474,35.645,46.875,16.113,21.484,11.230,0
1572310131.478,-108.398,48.340,17.578,-7.324,35.645,0
1572310131.482,-110.840,45.410,17.090,13.672,126.465,0
1572310131.486,38.086,44.922,17.578,54.688,98.145,0
1572310131.490,83.008,41.504,20.508,53.223,56.641,0
1572310131.507,-42.969,41.504,22.949,22.949,-4.883,0
1572310131.511,-118.652,43.945,24.902,9.766,-29.297,0
1572310131.515,12.207,43.457,24.414,51.758,88.379,0
1572310131.519,102.051,42.969,23.926,62.500,102.051,0
1572310131.523,-3.418,42.480,25.391,25.391,-5.371,0
1572310131.527,-133.301,39.551,28.320,-7.324,-17.578,0
1572310131.531,-51.270,38.574,27.832,23.438,15.137,0
1572310131.534,70.801,39.062,21.973,36.621,-3.418,0
1572310131.538,16.602,39.551,22.461,16.602,41.992,0
1572310131.542,-128.906,40.527,22.461,-20.996,51.758,0
1572310131.546,-96.191,42.480,17.578,-1.465,-24.414,0
1572310131.550,47.363,42.969,16.113,35.645,-12.695,0
1572310131.548,51.270,44.922,20.020,28.809,82.520,0
1572310131.552,-93.750,49.316,22.949,-7.324,71.777,0
1572310131.556,-123.047,49.805,19.531,-1.953,26.855,0
1572310131.560,13.672,48.828,17.578,39.062,17.578,0
1572310131.564,62.988,50.781,20.020,30.762,36.133,0
1572310131.568,-56.641,54.199,20.020,-3.418,73.242,0
1572310131.572,-147.949,51.758,19.043,-20.508,18.555,0
1572310131.575,-28.320,44.922,18.555,16.113,25.391,0
1572310131.579,75.195,46.387,17.578,30.762,-3.906,0
1572310131.583,-19.043,49.316,19.043,5.371,14.648,0
1572310131.587,-144.043,47.852,20.020,-26.855,79.102,0
1572310131.591,-57.617,43.945,17.578,6.836,67.871,0
1572310131.587,72.754,43.945,18.555,33.203,40.039,0
1572310131.591,29.785,45.898,18.555,17.578,37.109,0
1572310131.595,-117.188,48.828,17.090,-16.113,58.594,0
1572310131.599,-98.633,46.387,18.555,0.977,40.527,0
1572310131.603,50.293,41.992,19.043,44.434,7.812,0
1572310131.607,68.848,44.922,18.555,44.434,24.414,0
1572310131.611,-74.219,43.945,20.020,9.277,40.527,0
1572310131.614,-126.953,40.039,20.020,5.371,16.602,0
1572310131.618,16.113,41.504,18.066,44.922,27.344,2
1572310131.622,92.773,44.434,20.508,56.152,43.945,0
1572310131.626,-30.762,47.852,22.949,26.367,57.617,0
1572310131.630,-139.648,47.852,20.996,4.395,5.371,0
1572310131.648,-28.809,44.434,19.531,43.945,18.555,0
1572310131.652,81.055,45.410,19.531,57.129,91.309,0
1572310131.656,2.441,47.852,19.043,32.227,97.168,0
1572310131.660,-135.742,45.410,20.996,-6.836,84.961,0
1572310131.664,-71.777,44.922,22.949,18.555,23.926,0
1572310131.668,66.895,50.293,20.996,45.898,-28.809,0
1572310131.672,41.016,54.199,21.484,23.926,-26.855,0
1572310131.675,-100.586,53.711,19.531,-16.113,17.578,0
1572310131.679,-102.539,50.293,15.625,-9.766,55.664,0
1572310131.683,35.156,47.852,15.137,21.484,27.832,0
1572310131.687,69.824,47.852,16.113,23.926,4.395,0
1572310131.691,-62.988,50.781,19.531,-11.719,24.414,0
1572310131.687,-128.906,53.223,19.531,-20.020,34.668,0
1572310131.691,7.812,51.270,19.531,23.438,10.742,0
1572310131.695,97.656,51.758,20.996,34.180,-4.395,0
1572310131.699,-10.254,52.246,22.949,11.230,55.664,0
1572310131.703,-120.117,51.270,23.926,-11.719,51.270,0
1572310131.707,-15.137,51.758,25.391,28.320,29.785,0
1572310131.711,92.773,48.828,25.879,53.711,91.309,0
1572310131.714,22.949,49.805,23.926,32.227,71.777,0
1572310131.718,-111.328,50.781,24.414,-3.906,-28.320,0
1572310131.722,-65.430,47.363,25.879,13.184,7.324,0
1572310131.726,68.359,50.781,24.414,42.480,32.715,0
1572310131.730,57.129,49.805,26.367,40.039,65.430,0
1572310131.727,-91.309,46.875,28.320,0.977,48.828,0
1572310131.731,-107.422,44.922,25.391,6.836,-46.875,0
1572310131.735,41.992,42.969,22.949,47.852,22.461,0
1572310131.739,88.379,43.945,23.438,47.363,59.082,0
1572310131.743,-45.410,47.363,24.414,11.719,-23.438,0
1572310131.747,-132.812,49.316,21.973,-7.324,-12.695,0
1572310131.751,-2.441,47.363,21.973,33.203,61.035,0
1572310131.754,91.309,48.340,21.973,38.574,52.734,0
1572310131.758,-7.812,49.805,20.020,11.719,28.320,0
1572310131.762,-127.930,47.852,16.602,-7.324,88.379,0
1572310131.766,-38.086,46.387,16.113,24.902,82.031,0
1572310131.770,95.215,45.898,18.066,50.781,30.762,0
1572310131.787,44.922,49.316,17.578,37.109,47.363,0
1572310131.791,-104.492,50.781,17.578,-0.977,83.008,0
1572310131.795,-71.289,46.875,17.578,15.625,46.875,0
1572310131.799,72.266,46.875,19.531,53.711,37.109,0
1572310131.803,69.336,46.875,18.555,48.340,62.012,0
1572310131.807,-75.684,48.828,18.066,0.977,60.547,0
1572310131.811,-108.398,48.340,20.508,-4.883,98.145,0
1572310131.814,32.715,44.922,21.484,31.738,50.293,0
1572310131.818,89.844,46.875,23.438,35.156,67.871,0
1572310131.822,-39.062,47.363,25.879,1.953,79.590,0
1572310131.826,-129.883,45.410,25.879,-24.414,-11.719,0
1572310131.830,-8.301,41.992,25.879,13.672,-74.707,0
1572310131.827,91.309,44.434,25.879,28.320,-25.879,0
1572310131.831,-3.906,48.340,24.414,3.906,54.688,0
1572310131.835,-135.254,47.363,22.949,-27.832,33.691,0
1572310131.839,-53.223,48.340,20.996,0.000,-13.184,0
1572310131.843,75.195,49.805,22.461,20.508,-14.160,0
1572310131.847,33.203,48.828,24.902,4.395,-9.277,0
1572310131.851,-112.793,47.852,26.855,-22.461,-3.418,0
1572310131.854,-94.238,48.340,24.414,-3.418,14.648,0
1572310131.858,55.176,46.387,25.391,36.621,36.133,0
1572310131.862,75.684,47.852,29.297,30.762,41.016,0
1572310131.866,-64.453,48.340,27.832,-3.418,42.969,0
1572310131.870,-119.629,45.898,29.297,4.883,27.344,0
1572310131.867,17.090,47.852,31.250,53.711,56.641,0
1572310131.871,84.961,47.852,30.273,60.059,89.844,0
1572310131.875,-40.527,46.387,31.250,28.809,45.898,0
1572310131.879,-145.996,47.363,30.762,10.254,61.523,0
1572310131.883,-26.855,48.828,29.785,47.363,29.785,0
1572310131.887,77.637,50.293,26.855,58.594,2.930,0
1572310131.891,-4.883,49.316,26.367,39.551,-1.465,0
1572310131.894,-133.789,48.340,29.297,5.371,30.762,0
1572310131.898,-69.824,48.828,29.297,26.367,74.219,0
1572310131.902,62.988,48.340,28.320,57.129,46.387,0
1572310131.906,38.574,46.875,30.273,43.457,50.293,0
1572310131.910,-100.586,47.363,33.691,6.836,39.062,0
1572310131.927,-103.516,47.363,31.250,16.113,81.543,0
1572310131.931,36.133,45.898,25.879,44.434,56.152,0
1572310131.935,69.336,44.922,24.414,40.527,-15.137,0
1572310131.939,-62.500,48.828,23.438,4.883,35.156,0
1572310131.943,-123.535,49.805,23.438,-5.371,27.832,0
1572310131.947,10.254,45.410,25.879,33.691,-10.254,0
1572310131.951,87.402,47.363,24.414,36.621,20.020,0
1572310131.954,-20.508,50.293,25.391,7.324,35.645,0
1572310131.958,-133.789,48.828,27.344,-14.160,47.363,0
1572310131.962,-31.738,52.246,24.414,21.973,43.945,0
1572310131.966,82.520,52.246,24.902,35.156,37.598,0
1572310131.970,20.020,51.758,26.855,14.648,38.574,0
1572310131.967,-112.305,55.176,24.414,-11.719,23.438,0
1572310131.971,-67.871,53.223,27.832,15.137,14.160,0
1572310131.975,69.336,49.316,30.762,44.434,21.973,0
1572310131.979,59.570,50.781,30.762,32.715,18.555,0
1572310131.983,-91.797,51.270,27.344,-11.719,41.016,0
1572310131.987,-110.840,49.805,26.367,-6.836,101.562,0
1572310131.991,34.180,49.805,27.344,35.645,42.969,0
1572310131.994,76.172,50.293,23.926,34.668,3.906,0
1572310131.998,-57.129,52.734,22.949,1.465,87.891,0
1572310132.002,-137.207,53.223,22.949,-16.602,50.781,0
1572310132.006,-6.836,47.852,20.996,24.414,-14.648,0
1572310132.010,82.520,47.363,21.484,41.016,-0.977,0
1572310132.028,-16.113,48.828,20.508,12.695,1.465,0
1572310132.032,-133.301,50.293,21.973,-19.043,-12.695,0
1572310132.036,-41.992,52.734,21.973,20.996,53.711,0
1572310132.040,83.008,50.781,19.043,50.781,50.293,0
1572310132.044,29.785,50.293,20.996,32.227,-2.930,0
1572310132.048,-107.910,52.734,24.414,0.000,34.180,0
1572310132.052,-71.777,52.734,23.926,22.461,58.105,0
1572310132.055,74.707,54.688,22.949,52.734,75.195,0
1572310132.059,80.078,54.688,21.973,40.039,25.879,0
1572310132.063,-62.012,52.246,20.996,2.441,-51.270,0
1572310132.067,-91.309,51.270,22.461,5.859,17.090,0
1572310132.071,51.758,53.711,21.973,45.898,46.875,0
1572310132.067,101.562,52.246,21.484,43.457,54.688,0
1572310132.071,-25.391,48.828,23.926,14.648,90.820,0
1572310132.075,-114.746,50.293,23.438,-3.418,52.734,0
1572310132.079,6.348,52.246,22.461,31.250,-36.133,0
1572310132.083,104.004,53.711,24.902,41.016,-16.113,0
1572310132.087,10.254,55.176,27.344,13.672,59.570,0
1572310132.091,-121.582,54.199,24.414,-18.066,43.457,0
1572310132.094,-43.945,52.734,23.926,8.301,35.645,0
1572310132.098,88.867,53.223,26.855,32.715,23.926,0
1572310132.102,54.199,52.734,24.902,20.020,30.762,0
1572310132.106,-88.867,54.688,24.414,-24.414,22.461,0
1572310132.110,-77.148,54.688,22.949,-10.254,-23.438,0
1572310132.107,65.918,51.270,22.461,37.109,11.230,0
1572310132.111,83.496,50.293,24.414,37.109,27.344,0
1572310132.115,-60.547,49.805,24.414,4.395,48.340,0
1572310132.119,-110.840,48.340,21.973,3.906,63.477,0
1572310132.123,29.297,47.363,22.949,46.875,85.938,0
1572310132.127,103.516,47.852,25.391,55.664,45.898,0
1572310132.131,-9.277,50.293,25.879,29.297,-14.648,0
1572310132.134,-106.934,53.223,25.879,6.836,42.969,0
1572310132.138,7.812,54.199,23.438,42.969,63.477,0
1572310132.142,113.770,53.711,23.926,58.105,-7.324,0
1572310132.146,30.762,52.734,25.391,33.203,3.906,0
1572310132.150,-108.398,53.711,25.391,-3.906,-0.977,0
1572310132.167,-39.062,55.664,24.902,22.461,-30.273,0
1572310132.171,94.727,52.734,25.391,51.758,17.578,0
1572310132.175,62.500,53.223,22.949,34.668,28.320,0
1572310132.179,-82.520,53.711,22.461,-7.812,-43.945,0
1572310132.183,-83.496,51.270,23.926,0.000,-26.367,0
1572310132.187,64.453,54.688,24.902,35.156,-17.090,0
1572310132.191,99.121,56.641,26.367,32.227,6.836,0
1572310132.194,-46.875,55.664,24.902,-10.742,61.035,0
1572310132.198,-119.141,50.781,21.484,-22.949,89.355,0
1572310132.202,17.578,49.805,21.973,27.344,85.449,0
1572310132.206,95.703,52.246,22.461,34.668,40.527,0
1572310132.210,-15.137,49.805,22.949,7.324,62.988,0
1572310132.207,-125.977,48.828,26.855,-9.277,103.027,0
1572310132.211,-22.461,47.852,28.809,27.344,81.055,0
1572310132.215,92.773,46.875,25.391,47.363,69.824,0
1572310132.219,25.879,46.875,22.949,26.855,62.988,0
1572310132.223,-108.887,45.898,23.926,-4.883,2.441,0
1572310132.227,-57.129,45.410,25.391,19.043,-43.457,0
1572310132.231,77.637,45.410,24.414,44.434,-3.418,0
1572310132.234,63.965,44.922,27.344,40.039,37.109,0
1572310132.238,-74.707,47.363,29.297,2.441,-11.230,0
1572310132.242,-88.379,50.293,28.320,6.836,1.465,0
1572310132.246,53.711,49.805,27.344,44.434,29.785,0
1572310132.250,97.656,48.340,27.832,40.039,43.945,0
1572310132.247,-32.227,50.293,28.320,10.254,88.867,0
1572310132.251,-114.258,47.852,25.879,-10.742,60.059,0
1572310132.255,13.672,45.410,25.391,29.297,23.926,0
1572310132.259,104.492,49.805,24.902,45.410,42.480,0
1572310132.263,2.930,52.246,24.414,13.184,42.969,0
1572310132.267,-122.070,50.781,25.391,-13.672,42.969,0
1572310132.271,-33.691,47.852,24.414,20.020,61.035,0
1572310132.274,95.703,48.828,23.438,40.527,56.641,0
1572310132.278,40.039,50.781,23.438,21.973,45.898,0
1572310132.282,-107.422,49.805,22.949,-15.625,74.219,0
1572310132.286,-75.195,48.340,21.484,7.812,104.492,0
1572310132.290,65.430,46.387,21.484,40.527,64.941,0
1572310132.327,75.195,48.340,22.949,35.156,7.812,0
1572310132.331,-61.523,49.805,25.879,1.953,23.926,0
1572310132.335,-102.539,49.316,26.855,2.441,31.738,0
1572310132.339,34.668,49.805,26.855,42.969,41.504,0
1572310132.343,91.309,49.805,29.785,44.922,12.207,0
1572310132.347,-36.621,49.316,29.297,12.695,21.973,0
1572310132.351,-128.418,48.340,27.832,-3.418,120.605,0
1572310132.354,-4.883,48.828,29.785,37.109,82.031,0
1572310132.358,103.027,49.805,29.297,48.828,31.738,0
1572310132.362,19.043,48.340,29.785,23.926,14.160,0
1572310132.366,-110.352,46.387,30.273,-9.277,-26.855,0
1572310132.370,-41.504,46.875,27.832,16.113,-4.883,0
1572310132.347,85.938,45.410,27.832,41.016,91.309,0
1572310132.351,49.805,43.945,27.832,25.391,109.863,0
1572310132.355,-92.285,45.898,25.391,-15.137,90.332,0
1572310132.359,-71.289,44.922,23.926,-7.324,48.828,0
1572310132.363,73.730,45.410,20.508,27.832,26.855,0
1572310132.367,86.426,49.805,16.602,23.926,85.449,0
1572310132.371,-51.758,52.246,18.066,-15.137,0.977,0
1572310132.374,-99.121,51.758,19.531,-20.508,-25.879,0
1572310132.378,41.992,51.270,18.066,21.973,23.926,0
1572310132.382,114.258,50.781,13.672,31.738,4.883,0
1572310132.386,-6.836,51.270,13.672,9.766,50.781,0
1572310132.390,-109.863,51.758,15.625,-9.766,51.758,0
1572310132.387,0.000,53.711,15.625,23.926,15.137,0
1572310132.391,104.980,55.176,18.066,40.039,7.812,0
1572310132.395,24.902,53.711,19.531,18.066,22.461,0
1572310132.399,-114.258,51.270,21.973,-13.672,24.902,0
1572310132.403,-44.434,49.316,24.902,19.043,-10.254,0
1572310132.407,95.703,47.852,21.484,47.852,-1.953,0
1572310132.411,60.547,46.387,18.066,26.855,23.438,0
1572310132.414,-88.867,47.363,20.020,-8.301,36.133,0
1572310132.418,-95.215,46.875,22.461,1.465,67.383,0
1572310132.422,46.387,44.922,23.438,38.086,58.105,0
1572310132.426,84.473,43.945,23.438,34.668,41.504,0
1572310132.430,-44.434,44.922,24.414,-2.441,42.480,0
1572310132.447,-111.816,43.457,25.391,-7.812,32.227,0
1572310132.451,20.508,42.480,23.926,31.250,18.066,0
1572310132.455,98.145,44.434,25.391,31.738,19.531,0
1572310132.459,-11.719,46.387,23.438,4.395,13.184,0
1572310132.463,-121.094,48.340,20.508,-18.066,-21.973,0
1572310132.467,-19.531,47.363,19.043,16.602,-33.203,0
1572310132.471,89.355,49.805,18.555,34.180,-33.203,0
1572310132.474,20.996,53.711,20.020,13.672,-38.086,0
1572310132.478,-114.258,54.688,17.578,-17.578,38.574,0
1572310132.482,-67.383,53.223,16.602,6.836,76.660,0
1572310132.486,74.707,53.223,15.137,38.086,5.371,0
1572310132.490,63.477,56.152,16.113,27.344,-37.598,0
1572310132.487,-82.031,54.688,16.113,-7.324,53.711,0
1572310132.491,-94.238,54.199,11.719,-3.418,69.336,0
1572310132.495,56.152,55.664,10.742,36.133,46.387,0
1572310132.499,100.098,51.758,14.648,43.457,83.496,0
1572310132.503,-29.785,50.293,16.113,22.949,87.891,0
1572310132.507,-106.934,52.246,16.113,16.113,88.379,0
1572310132.511,11.230,57.129,14.160,41.016,84.961,0
1572310132.514,93.750,53.223,13.184,41.016,47.363,0
1572310132.518,-7.324,49.316,14.160,19.531,30.762,0
1572310132.522,-123.047,53.223,14.160,-2.441,37.598,0
1572310132.526,-29.297,52.246,14.648,28.320,67.871,0
1572310132.530,95.703,48.340,17.090,44.922,56.152,0
1572310132.527,45.898,47.363,20.020,31.250,25.879,0
1572310132.531,-95.215,49.805,20.996,-4.395,55.664,0
1572310132.535,-66.406,47.363,20.996,14.160,54.688,0
1572310132.539,71.289,45.410,20.508,48.340,20.508,0
1572310132.543,69.824,45.410,20.020,33.203,33.691,0
1572310132.547,-75.195,46.387,20.996,-5.371,35.156,0
1572310132.551,-108.398,45.410,20.020,-5.859,21.973,0
1572310132.554,32.715,44.434,17.578,29.785,-20.020,0
1572310132.558,88.867,47.852,16.113,33.203,52.734,0
1572310132.562,-34.668,50.781,16.602,4.883,80.078,0
1572310132.566,-119.629,50.293,16.602,-3.906,-10.254,0
1572310132.570,6.348,50.293,13.184,37.109,5.371,0
1572310132.587,107.422,51.270,13.184,47.363,33.691,0
1572310132.591,15.625,52.734,16.113,19.531,56.641,0
1572310132.595,-110.352,53.711,16.113,-12.695,57.617,0
1572310132.599,-32.227,51.758,15.625,22.949,21.484,0
1572310132.603,98.145,51.270,14.648,48.828,50.781,0
1572310132.607,60.547,52.246,15.137,37.598,28.809,0
1572310132.611,-84.961,55.176,18.066,-2.930,-6.836,0
1572310132.614,-69.336,53.711,17.578,7.812,43.457,0
1572310132.618,82.520,50.293,18.555,57.617,81.543,0
1572310132.622,104.004,52.246,18.555,58.105,33.203,0
1572310132.626,-44.922,52.246,17.090,20.508,-5.371,0
1572310132.630,-105.469,47.852,14.160,13.672,34.180,0
1572310132.627,33.691,46.875,12.695,50.781,-0.977,0
1572310132.631,105.469,47.363,16.113,56.152,-9.766,0
1572310132.635,-15.625,46.875,16.602,23.926,26.855,0
1572310132.639,-123.535,44.922,12.207,-3.418,63.477,0
1572310132.643,-11.230,44.434,9.766,33.203,75.684,0
1572310132.647,95.703,46.875,11.719,48.340,14.160,0
1572310132.651,13.184,48.828,10.742,27.832,37.598,0
1572310132.654,-113.281,49.805,7.812,-9.766,17.090,0
1572310132.658,-48.828,48.340,9.766,12.695,-12.695,0
1572310132.662,77.637,44.434,10.254,39.062,69.336,0
1572310132.666,46.387,47.363,7.812,11.719,83.496,0
1572310132.670,-99.609,50.293,6.348,-23.926,2.930,0
1572310132.667,-100.586,49.805,3.906,-11.230,43.945,0
1572310132.671,43.945,48.828,-0.977,25.879,98.633,0
1572310132.675,75.195,45.410,-3.418,23.438,66.406,0
1572310132.679,-59.570,46.875,-0.488,-12.207,71.777,0
1572310132.683,-123.047,50.293,1.953,-18.066,60.059,0
1572310132.687,10.254,49.805,5.371,21.484,25.391,0
1572310132.691,93.262,44.922,9.277,34.668,8.301,0
1572310132.694,-13.184,44.922,9.277,7.324,74.707,0
1572310132.698,-133.789,49.316,9.277,-22.949,70.312,0
1572310132.702,-36.621,46.387,15.137,23.438,2.441,0
1572310132.706,85.938,43.457,13.184,51.270,2.441,0
1572310132.710,21.973,45.898,10.742,36.133,-41.504,0
1572310132.727,-114.746,47.363,16.113,4.395,1.465,0
1572310132.731,-63.477,44.922,19.043,26.367,23.926,0
1572310132.735,77.148,44.434,18.066,61.035,-2.930,0
1572310132.739,68.359,47.363,18.555,51.758,69.824,0
1572310132.743,-78.125,46.875,19.043,10.254,30.273,0
1572310132.747,-94.727,46.387,17.578,15.625,30.762,0
1572310132.751,54.199,47.852,16.113,48.828,41.504,0
1572310132.754,96.680,47.363,15.625,45.410,-3.418,0
1572310132.758,-39.062,48.340,18.066,19.043,23.438,0
1572310132.762,-121.582,47.363,19.043,4.395,19.531,0
1572310132.766,3.418,44.922,16.113,39.551,18.555,0
1572310132.770,89.355,47.363,12.695,46.387,44.434,0
1572310132.767,-10.254,50.781,11.230,21.973,35.645,0
1572310132.771,-126.465,50.781,13.184,-7.812,39.062,0
1572310132.775,-35.645,51.270,13.672,21.973,-12.207,4
1572310132.779,91.309,55.664,10.254,40.527,21.484,0
1572310132.783,39.062,55.176,9.766,17.090,70.801,0
1572310132.787,-108.398,53.223,9.766,-15.625,17.090,0
1572310132.791,-77.148,54.199,9.277,10.742,4.883,0
1572310132.794,64.453,53.223,8.789,43.945,43.945,0
1572310132.798,66.895,49.805,12.695,39.062,63.477,0
1572310132.802,-75.195,51.270,16.602,5.859,51.758,0
1572310132.806,-113.770,53.223,17.578,7.812,67.871,0
1572310132.810,30.273,52.246,15.137,48.340,91.797,0
1572310132.807,87.891,49.316,14.160,43.945,82.031,0
1572310132.811,-37.109,46.875,16.113,10.742,21.484,0
1572310132.815,-127.930,46.387,18.555,-7.324,12.207,0
1572310132.819,-11.719,45.898,19.531,31.250,67.383,0
1572310132.823,89.355,46.875,16.602,49.316,73.730,0
1572310132.827,-1.953,48.340,18.066,26.855,7.324,0
1572310132.831,-133.789,46.875,19.043,-5.371,28.809,0
1572310132.834,-53.223,46.875,13.672,27.832,101.562,0
1572310132.838,80.078,48.340,13.672,49.316,21.973,0
1572310132.842,42.480,46.387,15.625,34.668,-63.965,0
1572310132.846,-100.586,47.852,14.648,5.371,4.395,0
1572310132.850,-86.426,48.828,16.602,14.160,39.551,0
1572310132.867,54.688,50.781,16.602,46.387,-6.348,0
1572310132.871,74.707,52.734,14.648,42.969,-40.527,0
1572310132.875,-65.918,51.758,13.672,5.371,-45.410,0
1572310132.879,-117.676,51.270,13.184,0.977,8.789,0
1572310132.883,21.484,47.363,13.672,39.062,59.570,0
1572310132.887,92.773,50.293,12.695,45.410,75.195,0
1572310132.891,-20.020,53.223,11.719,14.648,40.039,0
1572310132.894,-123.047,51.758,10.742,-12.207,98.145,0
1572310132.898,-13.184,51.270,10.254,27.344,165.527,0
1572310132.902,100.586,51.270,11.719,43.945,86.426,0
1572310132.906,26.367,52.246,12.207,24.414,6.836,0
1572310132.910,-113.770,53.223,11.719,-11.230,22.949,0
1572310132.907,-58.594,49.805,11.230,12.207,42.969,0
1572310132.911,80.078,45.898,13.184,44.922,29.785,0
1572310132.915,58.105,49.316,13.672,35.156,46.387,0
1572310132.919,-82.031,51.270,15.137,0.977,59.082,0
1572310132.923,-86.914,50.781,19.531,14.160,26.367,0
1572310132.927,51.758,51.270,18.555,53.711,51.758,0
1572310132.931,90.332,51.758,15.625,49.316,47.852,0
1572310132.934,-46.387,51.270,15.137,10.254,27.344,0
1572310132.938,-111.816,48.828,13.672,0.000,41.992,0
1572310132.942,23.438,47.363,12.207,37.598,55.664,0
1572310132.946,100.586,49.316,13.184,39.551,65.430,0
1572310132.950,-4.883,52.246,15.137,17.090,38.086,0
1572310132.947,-120.117,50.293,11.230,-11.230,28.809,0
1572310132.951,-16.113,49.316,7.812,21.973,33.203,0
1572310132.955,103.027,49.805,8.789,44.922,7.324,0
1572310132.959,31.738,50.293,10.742,22.949,2.930,0
1572310132.963,-106.445,52.246,11.719,-15.625,27.832,0
1572310132.967,-60.547,51.758,10.742,2.930,70.312,0
1572310132.971,79.102,50.293,11.719,34.668,62.988,0
1572310132.974,71.777,52.734,11.719,24.902,21.973,0
1572310132.978,-80.078,52.734,13.672,-17.578,20.996,0
1572310132.982,-109.375,49.805,16.113,-10.254,-1.465,0
1572310132.986,35.645,48.340,15.625,34.668,-6.836,0
1572310132.990,85.449,45.410,14.160,39.062,-0.977,0
1572310133.007,-50.293,43.945,18.555,8.301,13.672,0
1572310133.011,-133.301,43.945,19.043,-7.324,59.570,0
1572310133.015,0.488,45.898,14.648,33.203,85.449,0
1572310133.019,101.074,48.340,14.648,47.363,22.461,0
1572310133.023,3.418,47.363,16.113,18.555,-26.367,0
1572310133.027,-121.582,50.293,17.090,-6.836,-5.859,0
1572310133.031,-33.203,53.223,20.508,28.320,0.488,0
1572310133.034,94.238,50.293,20.508,51.758,-1.465,0
1572310133.038,42.969,52.246,19.043,36.133,-8.789,0
1572310133.042,-101.074,56.152,19.531,1.465,-24.902,0
1572310133.046,-72.266,55.664,19.043,13.672,36.621,0
1572310133.050,65.918,54.688,19.043,42.480,58.105,0
1572310133.047,74.219,55.176,20.508,37.598,10.254,0
1572310133.051,-67.871,54.688,21.484,-0.977,7.324,0
1572310133.055,-111.816,53.223,21.484,-5.371,-29.297,0
1572310133.059,27.832,54.199,18.555,33.691,10.254,0
1572310133.063,84.473,53.711,18.555,35.645,71.777,0
1572310133.067,-40.527,54.688,20.996,2.930,9.766,0
1572310133.071,-130.859,54.199,20.020,-15.137,7.812,0
1572310133.074,-10.254,50.781,22.949,22.949,36.133,0
1572310133.078,92.773,50.781,27.832,40.039,-37.598,0
1572310133.082,1.953,50.293,27.832,18.555,-29.785,0
1572310133.086,-126.465,49.805,26.367,-14.160,21.484,0
1572310133.090,-43.945,49.316,25.391,16.113,16.602,0
1572310133.087,94.727,50.293,24.902,47.363,68.848,0
1572310133.091,54.688,48.340,28.320,35.156,47.363,0
1572310133.095,-97.168,49.316,28.320,-2.441,57.617,0
1572310133.099,-83.496,50.781,25.879,9.766,36.133,0
1572310133.103,65.918,50.781,27.344,43.457,13.672,0
1572310133.107,87.402,52.734,25.391,40.527,25.879,0
1572310133.111,-55.176,53.711,24.414,5.859,-26.367,0
1572310133.114,-114.258,51.270,26.367,-6.836,40.527,0
1572310133.118,23.926,51.270,25.879,26.855,92.773,0
1572310133.122,104.492,50.781,26.367,36.621,57.129,0
1572310133.126,-12.207,48.828,25.391,10.254,1.953,0
1572310133.130,-122.070,48.340,23.438,-8.301,21.484,0
1572310133.147,-11.230,48.340,25.391,28.809,86.914,0
1572310133.151,97.168,50.293,28.320,43.945,79.102,0
1572310133.155,19.043,51.758,29.297,24.902,53.711,0
1572310133.159,-114.258,50.781,27.344,-3.906,19.531,0
1572310133.163,-49.805,47.363,27.344,24.902,12.695,0
1572310133.167,81.543,46.875,29.785,55.664,49.316,0
1572310133.171,52.734,49.805,29.785,37.109,70.312,0
1572310133.174,-86.914,50.781,29.785,0.977,50.293,0
1572310133.178,-85.938,49.805,29.297,23.926,26.367,0
1572310133.182,56.152,50.293,30.762,63.965,17.090,0
1572310133.186,89.844,51.270,31.250,61.035,31.250,0
1572310133.190,-41.016,51.270,28.320,21.973,27.832,0
1572310133.187,-101.074,49.316,29.297,10.254,23.438,0
1572310133.191,32.227,48.340,27.832,57.129,18.066,0
1572310133.195,108.398,49.316,22.461,58.105,-10.742,0
1572310133.199,-1.465,49.805,20.996,25.391,-39.062,0
1572310133.203,-115.234,50.293,21.484,0.000,1.953,0
1572310133.207,-16.602,50.293,21.973,34.668,0.488,0
1572310133.211,105.957,48.340,21.973,55.664,-25.391,0
1572310133.214,46.387,48.828,21.484,35.156,40.039,0
1572310133.218,-95.215,52.734,22.949,-0.488,47.852,0
1572310133.222,-52.734,53.711,24.414,13.184,44.922,0
1572310133.226,88.867,53.711,23.438,41.504,64.453,0
1572310133.230,81.055,53.711,20.508,44.434,34.668,0
1572310133.227,-70.312,53.711,20.996,8.301,45.898,0
1572310133.231,-91.797,55.176,22.949,11.230,62.988,0
1572310133.235,52.734,55.176,20.020,46.875,101.562,0
1572310133.239,98.633,53.223,14.648,39.062,57.617,0
1572310133.243,-32.715,49.316,14.160,11.719,16.602,0
1572310133.247,-118.652,46.875,14.648,-1.465,37.109,0
1572310133.251,8.301,46.387,12.695,39.551,84.473,0
1572310133.254,102.051,48.340,10.254,42.969,105.469,0
1572310133.258,1.953,51.270,12.695,10.742,56.641,0
1572310133.262,-115.234,50.293,13.184,-7.324,27.832,0
1572310133.266,-27.832,45.898,6.836,21.973,35.645,0
1572310133.270,92.773,43.945,7.324,43.457,62.012,0
1572310133.287,43.945,45.898,11.230,29.785,105.957,0
1572310133.291,-95.703,51.758,13.672,-9.766,53.223,0
1572310133.295,-64.941,49.316,18.066,10.742,34.668,0
1572310133.299,81.543,46.875,14.648,42.480,79.590,0
1572310133.303,93.262,50.293,10.254,30.273,55.664,0
1572310133.307,-52.734,52.734,13.672,-11.719,81.543,0
1572310133.311,-90.820,54.199,16.113,-16.113,50.781,0
1572310133.314,58.594,51.758,11.719,30.762,22.949,0
1572310133.318,119.629,53.223,13.672,40.527,45.898,0
1572310133.322,-9.277,56.641,17.578,6.836,3.418,0
1572310133.326,-108.398,55.664,16.113,-16.602,28.320,0
1572310133.330,10.254,56.641,13.184,23.438,63.965,0
1572310133.327,112.793,58.594,13.184,41.016,6.348,0
1572310133.331,28.320,57.617,18.555,20.020,12.207,0
1572310133.335,-98.633,58.594,20.020,-9.766,21.484,0
1572310133.339,-26.855,55.664,19.043,18.066,5.371,0
1572310133.343,104.492,54.688,20.508,48.828,19.043,0
1572310133.347,65.430,57.129,21.973,40.039,52.734,0
1572310133.351,-83.496,54.688,23.438,2.930,79.102,0
1572310133.354,-69.824,51.758,20.996,13.184,91.797,0
1572310133.358,67.383,50.781,19.531,43.945,74.707,0
1572310133.362,78.613,50.293,22.949,37.598,68.848,0
1572310133.366,-59.570,49.316,23.438,8.789,58.594,0
1572310133.370,-110.840,44.922,23.926,11.230,63.477,0
1572310133.367,31.738,45.410,23.926,55.664,65.430,0
1572310133.371,106.934,47.852,22.949,60.547,32.227,0
1572310133.375,-10.742,48.828,23.438,28.320,3.906,0
1572310133.379,-117.188,48.340,18.066,9.277,21.484,0
1572310133.383,-4.395,48.340,17.090,45.410,28.809,0
1572310133.387,108.887,52.246,20.996,62.012,20.996,0
1572310133.391,37.109,52.246,20.508,39.062,31.250,0
1572310133.394,-101.074,53.223,17.578,-3.418,66.406,0
1572310133.398,-47.852,51.758,15.625,16.602,41.504,0
1572310133.402,87.402,48.340,15.137,48.828,-0.488,0
1572310133.406,63.477,49.805,16.113,39.551,-37.109,0
1572310133.410,-80.078,50.781,16.113,-1.465,-11.230,0
1572310133.427,-86.914,50.781,15.137,2.930,15.137,0
1572310133.431,52.734,48.828,16.602,40.039,-2.930,0
1572310133.435,88.379,47.363,17.090,36.621,-5.859,0
1572310133.439,-49.805,49.316,17.090,-1.953,-7.812,0
1572310133.443,-120.605,46.875,16.113,-12.207,71.777,0
1572310133.447,12.207,45.898,14.160,26.855,66.895,0
1572310133.451,95.215,44.922,13.672,30.762,-6.836,0
1572310133.454,-15.137,43.457,13.184,4.395,-50.293,0
1572310133.458,-133.789,46.387,12.695,-18.555,-13.672,0
1572310133.462,-30.273,45.898,15.137,19.531,-10.742,0
1572310133.466,89.355,44.434,16.602,42.480,16.602,0
1572310133.470,28.320,46.387,16.602,20.996,100.098,0
1572310133.467,-108.887,47.852,17.578,-15.137,102.539,0
1572310133.471,-66.895,43.945,20.020,9.766,71.289,0
1572310133.475,77.148,43.457,17.578,41.992,27.832,0
1572310133.479,76.172,47.852,16.113,37.109,3.906,0
1572310133.483,-64.941,48.828,19.043,0.488,18.066,0
1572310133.487,-91.797,48.828,16.602,6.348,53.711,0
1572310133.491,51.270,50.293,12.207,57.129,46.875,0
1572310133.494,102.051,50.781,15.137,57.617,9.277,0
1572310133.498,-43.457,50.781,15.137,8.789,42.969,0
1572310133.502,-138.672,51.758,16.602,-18.066,51.270,0
1572310133.506,-9.277,45.898,20.020,23.438,8.789,0
1572310133.510,89.844,45.410,16.602,39.062,19.531,0
1572310133.508,-11.719,48.828,12.207,11.230,36.621,0
1572310133.512,-134.277,44.434,12.207,-14.648,42.969,0
1572310133.516,-40.039,43.457,13.184,19.043,41.992,0
1572310133.520,85.938,44.434,12.695,42.969,27.832,0
1572310133.524,31.250,44.922,11.719,27.832,34.180,0
1572310133.528,-114.258,46.387,15.137,-11.719,56.152,0
1572310133.532,-81.543,45.410,18.066,5.371,73.242,0
1572310133.535,62.988,45.410,16.602,33.203,29.297,0
1572310133.539,66.406,46.875,14.648,23.438,10.254,0
1572310133.543,-69.824,46.875,16.602,-6.348,53.223,0
1572310133.547,-102.051,46.387,19.043,-1.953,37.109,0
1572310133.551,38.574,46.387,20.996,39.551,14.648,0
1572310133.568,98.633,47.852,22.949,44.434,31.738,0
1572310133.572,-24.902,48.340,21.484,16.602,28.809,0
1572310133.576,-123.047,47.363,20.996,-8.789,40.527,0
1572310133.580,-4.395,49.805,18.555,23.438,64.941,0
1572310133.584,96.680,50.781,14.648,37.109,14.160,0
1572310133.588,6.348,51.270,16.113,8.789,3.906,0
1572310133.592,-120.117,51.758,19.043,-21.484,15.625,0
1572310133.595,-42.969,47.852,19.531,9.277,-15.625,0
1572310133.599,93.262,46.875,17.578,32.715,61.523,0
1572310133.603,61.523,49.316,19.043,23.438,64.453,0
1572310133.607,-83.008,50.781,20.996,-14.648,15.625,0
1572310133.611,-67.871,49.805,17.578,-0.977,13.672,0
1572310133.607,76.172,49.316,15.625,42.480,-6.348,0
1572310133.611,91.309,49.805,17.578,41.504,12.695,0
1572310133.615,-48.340,51.758,20.996,16.113,48.340,0
1572310133.619,-105.957,52.734,21.973,15.625,41.016,0
1572310133.623,25.391,50.293,20.020,54.199,2.930,0
1572310133.627,103.516,50.781,18.066,61.035,21.973,0
1572310133.631,-11.719,51.758,18.555,33.691,104.004,0
1572310133.634,-120.117,49.805,20.996,13.672,88.379,0
1572310133.638,-9.277,49.316,18.555,43.945,-2.441,0
1572310133.642,102.539,49.805,19.531,54.199,-15.625,0
1572310133.646,30.762,48.340,20.020,32.715,54.199,0
1572310133.650,-105.469,47.852,19.531,2.930,69.824,0
1572310133.667,-42.480,49.805,18.555,34.668,89.355,0
1572310133.671,97.168,49.805,16.602,62.500,50.781,0
1572310133.675,72.266,50.781,16.113,48.828,-8.789,0
1572310133.679,-73.730,53.223,16.602,9.766,14.160,0
1572310133.683,-74.219,53.223,16.602,16.602,31.738,0
1572310133.687,67.383,49.316,17.090,58.105,26.855,0
1572310133.691,101.562,49.316,17.090,53.223,32.715,0
1572310133.694,-29.785,51.270,18.066,12.695,62.988,0
1572310133.698,-101.074,49.316,19.043,-1.953,46.875,0
1572310133.702,22.949,47.363,20.508,35.645,44.434,0
1572310133.706,102.051,48.828,18.066,49.805,55.176,0
1572310133.710,-5.859,47.363,19.043,22.949,53.223,0
1572310133.707,-125.977,45.898,20.996,-9.277,76.660,0
1572310133.711,-25.879,46.387,19.043,23.438,95.215,0
1572310133.715,92.773,43.945,20.996,41.992,62.012,0
1572310133.719,36.621,45.898,20.508,20.996,85.449,0
1572310133.723,-98.145,47.852,17.090,-20.508,26.855,0
1572310133.727,-55.664,45.898,20.020,-4.395,-48.340,0
1572310133.731,81.055,43.457,20.020,24.414,-2.441,0
1572310133.734,73.730,46.387,16.113,16.602,-7.812,0
1572310133.738,-71.289,50.781,17.090,-17.578,4.395,0
1572310133.742,-94.727,46.875,17.578,-13.672,46.875,0
1572310133.746,46.875,45.898,21.484,24.902,39.062,0
1572310133.750,101.074,46.875,22.949,24.902,13.672,0
1572310133.747,-24.902,47.852,21.484,0.488,32.715,0
1572310133.751,-111.328,46.875,21.973,-2.441,61.523,0
1572310133.755,17.578,46.875,22.949,44.922,50.781,0
1572310133.759,110.840,47.852,20.508,61.523,37.109,0
1572310133.763,9.766,48.340,20.020,30.273,57.129,0
1572310133.767,-117.188,47.852,20.996,-2.930,47.363,0
1572310133.771,-29.297,47.363,16.113,33.691,30.762,0
1572310133.774,99.121,50.293,13.672,59.570,36.621,0
1572310133.778,38.086,51.270,17.578,40.039,14.160,0
1572310133.782,-107.422,51.758,21.484,2.930,53.711,0
1572310133.786,-68.359,50.781,21.973,18.066,75.684,0
1572310133.790,74.219,49.805,18.066,47.363,49.805,0
1572310133.807,81.055,47.852,16.113,41.992,80.566,0
1572310133.811,-60.059,46.875,18.066,4.395,65.918,0
1572310133.815,-96.191,49.316,16.113,-5.859,14.160,0
1572310133.819,51.270,49.316,15.625,32.715,20.508,0
1572310133.823,111.816,49.805,18.555,41.992,51.758,0
1572310133.827,-7.812,51.758,20.508,20.996,69.824,0
1572310133.831,-102.051,50.293,20.996,8.301,41.504,0
1572310133.834,17.090,47.852,19.531,39.551,20.020,0
1572310133.838,124.023,46.387,16.602,43.457,27.832,0
1572310133.842,34.180,47.363,17.090,11.230,21.484,0
1572310133.846,-98.633,48.828,17.578,-24.414,-7.812,0
1572310133.850,-26.367,45.410,17.578,5.371,10.254,0
1572310133.847,103.516,45.410,20.020,33.203,52.246,0
1572310133.851,66.406,48.828,20.996,23.438,59.082,0
1572310133.855,-79.102,47.363,17.090,-6.836,64.941,0
1572310133.859,-68.359,44.922,16.113,6.348,113.770,0
1572310133.863,75.684,42.969,19.043,45.410,82.031,0
1572310133.867,97.656,42.969,21.484,43.945,49.316,0
1572310133.871,-35.645,46.387,22.461,9.277,61.035,1
1572310133.874,-92.285,44.922,20.996,0.488,42.480,0
1572310133.878,35.645,42.480,17.090,39.551,27.344,0
1572310133.882,111.328,42.969,17.090,50.781,54.688,0
1572310133.886,-3.418,46.875,16.602,13.184,39.551,0
1572310133.890,-108.887,46.875,11.719,-17.578,34.180,0
1572310133.887,4.395,46.387,11.719,24.902,54.688,0
1572310133.891,116.699,49.805,13.184,45.898,43.945,0
1572310133.895,42.480,48.340,12.695,23.926,30.762,0
1572310133.899,-84.961,48.340,10.742,-14.648,42.480,0
1572310133.903,-16.602,50.781,10.742,15.137,23.438,0
1572310133.907,113.770,54.199,11.719,51.758,23.926,0
1572310133.911,83.008,53.711,8.789,35.156,18.066,0
1572310133.914,-65.430,50.781,7.324,-1.953,10.742,0
1572310133.918,-75.195,52.246,7.812,1.953,39.062,0
1572310133.922,68.848,53.711,8.789,34.668,8.789,0
1572310133.926,103.516,53.711,8.789,34.180,-21.973,0
1572310133.930,-34.180,52.734,9.277,-2.441,-0.488,0
1572310133.947,-103.027,51.270,12.207,-6.836,40.039,0
1572310133.951,28.320,50.293,11.230,30.762,73.730,0
1572310133.955,117.188,49.805,8.301,35.645,-33.691,0
1572310133.959,14.160,50.293,12.207,12.695,-91.797,0
1572310133.963,-106.934,46.875,14.648,-10.742,14.160,0
1572310133.967,-11.230,42.969,13.184,28.809,2.930,0
1572310133.971,108.398,40.527,13.184,50.293,20.996,0
1572310133.974,41.992,42.480,15.137,27.832,50.293,0
1572310133.978,-91.797,45.898,14.160,0.488,0.977,0
1572310133.982,-37.109,45.410,12.207,29.297,18.555,0
1572310133.986,104.004,45.898,12.207,62.988,45.410,0
1572310133.990,92.285,46.875,13.672,52.734,65.918,0
1572310133.987,-54.688,49.805,16.602,11.230,17.090,0
1572310133.991,-71.777,49.316,17.578,16.113,-46.875,0
1572310133.995,69.824,48.828,18.066,55.176,-4.395,0
1572310133.999,118.164,52.246,14.648,45.898,26.855,0
1572310134.003,-13.672,54.199,13.672,3.906,29.297,0
1572310134.007,-98.145,54.199,13.184,-16.113,35.156,0
1572310134.011,32.227,52.246,8.789,20.508,-15.137,0
1572310134.014,126.465,54.199,6.836,31.250,-23.438,0
1572310134.018,28.809,56.152,9.277,6.836,25.879,0
1572310134.022,-93.750,55.176,7.812,-19.043,64.453,0
1572310134.026,-2.441,57.617,6.836,13.184,96.680,0
1572310134.030,121.582,55.176,8.789,38.086,52.246,0
1572310134.027,64.941,54.688,9.766,20.996,4.395,0
1572310134.031,-78.613,52.734,6.836,-15.625,13.184,0
1572310134.035,-52.734,47.363,5.859,1.465,6.836,0
1572310134.039,90.332,47.363,7.812,40.039,65.430,0
1572310134.043,101.562,50.781,9.766,41.992,94.238,0
1572310134.047,-39.551,52.246,9.766,6.836,18.555,0
1572310134.051,-78.613,50.293,5.859,3.418,5.371,0
1572310134.054,61.035,48.340,2.441,46.387,79.102,0
1572310134.058,119.629,53.223,3.418,43.457,44.434,0
1572310134.062,-3.418,51.758,6.836,5.859,-18.066,0
1572310134.066,-99.121,45.898,4.395,-7.324,40.039,0
1572310134.070,24.414,49.316,2.930,29.785,83.008,0
1572310134.087,126.465,50.293,3.906,38.574,60.547,0
1572310134.091,32.227,48.340,4.883,13.672,44.434,0
1572310134.095,-94.727,49.316,6.348,-20.508,14.648,0
1572310134.099,-18.066,45.898,6.348,5.859,38.574,0
1572310134.103,112.793,41.992,7.812,33.691,64.453,0
1572310134.107,68.359,41.992,5.859,18.066,20.020,0
1572310134.111,-84.961,42.969,6.348,-26.367,-4.395,0
1572310134.114,-73.730,45.410,8.301,-14.648,-24.414,0
1572310134.118,77.148,43.457,8.789,35.156,18.555,0
1572310134.122,104.004,46.875,10.254,39.062,37.598,0
1572310134.126,-32.715,50.781,10.742,0.977,12.207,0
1572310134.130,-82.031,47.363,7.324,-6.348,-4.883,0
1572310134.127,58.594,45.410,5.371,37.598,29.297,0
1572310134.131,129.883,48.340,7.324,42.480,87.891,0
1572310134.135,13.672,50.293,11.719,11.230,60.059,0
1572310134.139,-94.238,51.758,10.742,-12.695,36.133,0
1572310134.143,14.648,51.270,8.301,20.996,-2.930,0
1572310134.147,129.883,51.270,8.789,44.922,41.504,0
1572310134.151,57.617,52.246,9.766,29.785,63.965,0
1572310134.154,-77.637,50.781,12.207,-2.441,22.461,0
1572310134.158,-22.461,45.898,12.207,20.996,25.391,0
1572310134.162,113.281,45.898,8.301,48.828,38.574,0
1572310134.166,85.449,48.828,7.324,34.180,22.949,0
1572310134.170,-71.289,50.293,8.789,-4.883,30.273,0
1572310134.167,-82.031,52.246,7.324,0.977,48.828,0
1572310134.171,61.035,50.293,5.859,34.180,41.992,0
1572310134.175,96.680,49.805,8.301,35.645,25.879,0
1572310134.179,-35.156,49.805,12.695,9.277,20.020,0
1572310134.183,-102.051,45.898,14.160,7.324,27.832,0
1572310134.187,30.762,45.410,14.160,50.781,51.270,0
1572310134.191,122.070,48.828,14.648,61.035,71.777,0
1572310134.194,10.742,49.805,15.137,38.086,46.387,0
1572310134.198,-119.629,46.387,16.602,8.789,39.551,0
1572310134.202,-18.555,43.945,19.043,40.527,56.152,0
1572310134.206,114.258,46.387,19.531,62.012,75.684,0
1572310134.210,49.805,51.270,20.996,43.945,16.113,0
1572310134.227,-98.633,53.711,18.066,10.742,20.508,0
1572310134.231,-48.828,53.223,15.137,27.832,49.805,0
1572310134.235,104.004,54.688,17.578,61.523,71.289,0
1572310134.239,99.121,55.176,18.555,54.199,74.707,0
1572310134.243,-53.711,54.688,18.555,11.719,6.836,0
1572310134.247,-76.172,54.199,18.066,15.137,19.043,0
1572310134.251,69.824,56.152,15.137,48.828,51.758,0
1572310134.254,121.094,53.711,13.672,41.016,52.734,0
1572310134.258,-10.742,51.758,11.719,2.930,72.754,0
1572310134.262,-99.121,55.176,7.812,-14.160,69.336,0
1572310134.266,23.438,55.664,8.789,31.250,12.695,0
1572310134.270,110.840,50.293,11.230,43.945,42.480,0
1572310134.267,13.672,48.828,9.277,14.648,16.113,0
1572310134.271,-108.398,49.805,9.277,-15.625,-15.625,0
1572310134.275,-28.809,47.363,7.324,14.160,31.738,0
1572310134.279,90.332,46.387,8.789,40.039,31.738,0
1572310134.283,38.086,47.363,13.184,27.832,-2.930,0
1572310134.287,-107.910,50.293,12.207,-13.672,5.371,0
1572310134.291,-78.125,51.758,13.184,4.395,78.125,0
1572310134.294,72.266,50.293,12.207,45.898,88.867,0
1572310134.298,81.055,48.828,13.672,41.992,20.020,0
1572310134.302,-57.617,51.270,14.160,6.348,12.695,0
1572310134.306,-93.750,54.199,11.719,7.324,40.039,0
1572310134.310,51.758,50.293,13.672,48.828,16.602,0
1572310134.307,118.652,47.363,15.137,57.617,29.297,0
1572310134.311,0.977,47.852,13.184,28.320,47.852,0
1572310134.315,-92.773,53.223,10.254,1.953,65.918,0
1572310134.319,18.066,54.199,11.230,37.109,92.285,0
1572310134.323,116.699,52.246,11.719,48.828,52.734,0
1572310134.327,25.879,54.688,12.207,19.043,46.875,0
1572310134.331,-108.398,54.688,11.230,-8.301,54.199,0
1572310134.334,-34.668,51.758,13.184,29.297,25.879,0
1572310134.338,102.051,51.270,16.602,56.641,42.969,0
1572310134.342,68.359,51.758,16.602,35.645,45.410,0
1572310134.346,-71.289,52.246,14.648,-6.348,18.555,0
1572310134.350,-49.316,54.199,10.742,3.418,-0.977,0
1572310134.367,98.145,52.734,12.207,37.598,-39.062,0
1572310134.371,115.723,54.688,11.230,33.203,-65.918,0
1572310134.375,-29.297,53.223,10.254,2.441,-39.062,0
1572310134.379,-86.914,51.270,9.766,1.465,39.551,0
1572310134.383,55.176,52.246,7.324,44.922,67.871,0
1572310134.387,131.348,50.781,8.301,50.781,44.434,0
1572310134.391,16.602,53.223,7.812,17.578,15.137,0
1572310134.394,-83.496,51.758,9.277,-8.789,42.969,0
1572310134.398,32.715,47.852,11.230,32.715,112.305,0
1572310134.402,147.461,48.828,6.348,53.223,46.387,0
1572310134.406,66.895,49.805,5.859,28.809,-2.441,0
1572310134.410,-72.754,47.852,9.277,-5.371,-18.066,0
1572310134.407,-8.789,48.828,8.301,25.879,4.395,0
1572310134.411,130.859,49.805,9.766,60.059,19.531,0
1572310134.415,107.422,46.875,9.277,43.945,8.301,0
1572310134.419,-41.016,48.828,6.836,0.977,13.184,0
1572310134.423,-45.898,51.758,7.812,6.836,21.973,0
1572310134.427,103.027,51.758,9.766,43.457,50.293,0
1572310134.431,143.555,51.758,9.766,37.109,38.574,0
1572310134.434,10.742,48.340,13.184,-1.465,35.645,0
1572310134.438,-62.012,42.969,15.137,-9.277,82.520,0
1572310134.442,62.988,40.527,13.672,28.320,63.965,0
1572310134.446,145.020,41.992,14.160,25.879,4.395,0
1572310134.450,43.945,45.898,13.672,3.418,45.898,0
1572310134.447,-71.777,47.363,12.695,-16.113,54.688,0
1572310134.451,23.926,46.387,10.742,19.043,72.754,0
1572310134.455,141.113,46.875,13.184,47.363,121.582,0
1572310134.459,76.172,48.828,14.648,32.227,66.406,0
1572310134.463,-61.523,49.805,17.090,0.000,-35.156,0
1572310134.467,-9.277,49.316,20.508,28.809,14.160,0
1572310134.471,126.953,47.852,19.043,60.547,85.938,0
1572310134.474,105.957,45.898,19.043,42.969,57.617,0
1572310134.478,-41.016,47.852,18.066,4.883,20.996,0
1572310134.482,-58.594,48.340,18.555,15.137,9.277,0
1572310134.486,87.891,48.340,20.996,53.223,33.203,0
1572310134.490,143.066,48.340,18.066,55.176,30.273,0
1572310134.507,17.578,45.898,15.625,25.391,33.691,0
1572310134.511,-66.406,47.852,17.090,9.766,52.246,0
1572310134.515,61.523,49.316,16.113,47.852,-13.184,0
1572310134.519,158.203,51.270,16.602,59.082,-98.145,0
1572310134.523,58.594,52.734,19.531,34.668,47.363,0
1572310134.527,-70.801,52.246,21.484,2.441,92.285,0
1572310134.531,17.090,51.758,20.020,26.367,25.879,0
1572310134.534,148.438,52.246,18.555,49.316,46.387,0
1572310134.538,96.680,54.199,20.020,32.227,45.898,0
1572310134.542,-45.898,54.688,21.973,-9.277,65.430,0
1572310134.546,-17.578,52.246,24.902,5.371,61.523,0
1572310134.550,119.629,50.293,22.949,33.203,106.445,0
1572310134.547,128.418,49.805,22.949,26.367,87.891,0
1572310134.551,-15.625,49.805,26.367,-6.836,54.688,0
1572310134.555,-62.012,49.805,25.879,-11.719,64.941,0
1572310134.559,77.637,50.293,23.438,29.297,47.363,0
1572310134.563,137.695,49.805,21.484,32.227,21.484,0
1572310134.567,12.695,48.828,22.949,0.977,73.730,0
1572310134.571,-84.473,48.828,25.391,-15.137,96.680,0
1572310134.574,38.574,47.363,22.461,23.438,49.316,0
1572310134.578,149.414,45.410,19.043,37.109,19.531,0
1572310134.582,61.035,47.852,21.484,8.301,-1.465,0
1572310134.586,-67.383,51.270,20.996,-20.508,0.977,0
1572310134.590,17.578,50.293,20.020,23.926,17.090,0
1572310134.587,145.508,47.852,20.996,53.711,17.090,0
1572310134.591,92.773,45.410,17.578,39.062,32.227,0
1572310134.595,-57.617,43.945,15.137,7.324,67.383,0
1572310134.599,-43.945,44.922,14.160,19.531,26.367,0
1572310134.603,97.168,46.875,13.184,57.129,-5.859,0
1572310134.607,120.605,46.875,11.719,55.176,39.062,0
1572310134.611,-16.602,45.898,10.254,17.090,28.320,0
1572310134.614,-72.754,44.434,10.254,7.324,25.391,0
1572310134.618,62.012,43.457,10.254,42.480,62.012,0
1572310134.622,135.254,43.945,7.812,44.922,37.109,0
1572310134.626,20.020,46.875,5.859,11.719,18.066,0
1572310134.630,-92.285,45.410,4.883,-8.301,52.734,0
1572310134.647,14.648,43.457,0.977,25.879,73.730,0
1572310134.651,126.465,44.434,-1.953,40.039,34.180,0
1572310134.655,49.805,47.852,-2.441,23.438,-29.297,0
1572310134.659,-82.031,49.316,-0.488,-6.836,5.859,0
1572310134.663,-20.508,45.410,1.953,22.461,20.508,0
1572310134.667,111.816,45.410,3.906,54.199,-5.371,0
1572310134.671,89.355,46.387,4.883,42.969,27.344,0
1572310134.674,-55.664,48.828,6.836,11.719,58.594,0
1572310134.678,-56.641,47.363,8.301,26.855,63.477,0
1572310134.682,85.449,43.945,7.812,61.523,25.391,0
1572310134.686,117.188,46.875,7.812,48.828,30.762,0
1572310134.690,-13.672,49.316,5.371,8.301,112.305,0
1572310134.687,-83.496,47.852,4.883,-7.812,66.406,0
1572310134.691,50.293,48.340,7.812,25.391,28.809,0
1572310134.695,143.555,50.781,7.812,30.762,72.754,0
1572310134.699,38.574,50.293,8.789,-3.418,54.199,0
1572310134.703,-83.984,47.363,9.766,-35.645,37.109,0
1572310134.707,5.371,47.363,8.789,-3.418,-1.465,0
1572310134.711,122.559,47.363,8.301,21.973,17.090,0
1572310134.714,58.105,46.387,10.254,-4.395,76.172,0
1572310134.718,-87.402,45.898,11.719,-49.316,44.434,0
1572310134.722,-47.852,46.387,14.648,-31.250,61.523,0
1572310134.726,87.891,48.828,11.719,-7.812,40.039,0
1572310134.730,82.031,47.363,12.695,-10.742,8.301,0
1572310134.727,-61.035,48.340,17.578,-44.434,64.941,0
1572310134.731,-80.078,50.293,16.602,-37.598,57.617,0
1572310134.735,65.430,47.363,14.648,7.812,-8.301,0
1572310134.739,115.234,47.363,15.625,13.672,31.250,0
1572310134.743,-10.742,50.293,18.066,-10.254,55.664,0
1572310134.747,-93.262,52.246,18.066,-23.926,-16.602,0
1572310134.751,38.086,52.734,16.113,17.578,-34.668,0
1572310134.754,130.859,54.199,18.066,33.203,-51.270,0
1572310134.758,29.785,55.176,21.973,6.836,-33.203,0
1572310134.762,-94.727,51.758,21.484,-19.531,5.859,0
1572310134.766,-7.324,51.758,17.090,14.160,28.809,0
1572310134.770,120.117,52.734,16.602,40.527,45.898,0
1572310134.787,57.617,50.781,18.555,32.227,80.078,0
1572310134.791,-94.238,52.246,20.020,6.836,103.027,0
1572310134.795,-62.988,56.152,19.531,28.320,86.426,0
1572310134.799,76.172,56.152,16.602,57.129,69.824,0
1572310134.803,80.078,54.199,14.648,52.734,39.062,0
1572310134.807,-57.129,53.223,15.137,23.926,50.781,0
1572310134.811,-90.332,49.805,16.113,23.438,71.289,0
1572310134.814,54.199,48.340,16.602,72.754,102.539,0
1572310134.818,113.281,48.828,15.625,81.543,90.820,0
1572310134.822,-8.789,50.293,16.602,52.246,28.320,0
1572310134.826,-97.656,52.246,18.555,41.504,54.199,0
1572310134.830,26.855,51.270,16.602,84.961,105.469,0
1572310134.827,136.719,49.805,14.160,102.539,61.035,0
1572310134.831,52.734,45.898,11.230,70.312,7.324,0
1572310134.835,-75.195,44.922,14.160,35.156,-17.578,0
1572310134.839,3.418,48.828,17.090,63.965,-20.020,0
1572310134.843,136.230,50.293,17.090,84.961,26.367,0
1572310134.847,103.516,48.828,19.043,69.336,49.316,0
1572310134.851,-43.945,49.316,19.043,27.832,76.172,0
1572310134.854,-34.668,52.734,19.531,41.992,70.312,0
1572310134.858,112.305,52.246,20.996,84.473,12.207,0
1572310134.862,129.883,52.246,22.461,75.684,-29.785,0
1572310134.866,-11.719,52.734,24.414,36.133,7.324,0
1572310134.870,-64.453,53.223,23.926,21.484,48.340,0
1572310134.867,74.707,51.270,25.391,49.316,6.348,0
1572310134.871,147.461,50.293,27.344,49.805,-33.691,0
1572310134.875,28.809,51.270,25.879,14.160,-26.855,0
1572310134.879,-75.195,49.805,22.949,-11.230,7.324,0
1572310134.883,37.598,47.363,22.949,24.414,11.719,0
1572310134.887,142.090,44.434,23.438,40.039,4.883,0
1572310134.891,62.012,45.898,16.602,19.531,30.273,0
1572310134.894,-69.336,47.852,12.695,-19.531,39.062,0
1572310134.898,-7.324,45.410,13.184,0.488,22.461,0
1572310134.902,131.836,47.363,12.207,34.668,31.250,0
1572310134.906,111.816,46.387,9.277,25.391,44.434,0
1572310134.910,-30.273,43.457,4.883,-12.207,42.480,0
1572310134.927,-41.016,43.457,0.488,-11.230,25.391,4
1572310134.931,89.844,43.457,-1.465,21.484,-0.488,0
1572310134.935,123.535,45.898,-3.418,17.578,26.367,0
1572310134.939,-13.184,45.410,-1.953,-19.531,41.016,0
1572310134.943,-88.867,43.945,0.000,-28.809,51.758,0
1572310134.947,41.016,43.945,-0.977,10.742,14.160,0
1572310134.951,128.418,41.504,-2.930,20.508,-10.254,0
1572310134.954,23.926,40.039,-2.930,-3.906,40.039,0
1572310134.958,-97.168,42.480,-4.395,-28.809,77.148,0
1572310134.962,2.441,42.969,-5.859,6.836,57.129,0
1572310134.966,127.441,44.434,-3.418,28.809,41.016,0
1572310134.970,61.035,46.875,-0.977,5.859,-8.301,0
1572310134.967,-86.914,47.852,-1.953,-27.832,13.184,0
1572310134.971,-40.039,44.922,-2.930,-3.906,61.035,0
1572310134.975,104.980,46.387,-2.441,23.926,41.016,0
1572310134.979,93.750,53.711,-1.465,14.648,4.883,0
1572310134.983,-55.176,56.641,0.977,-18.555,19.531,0
1572310134.987,-81.055,54.688,0.000,-9.766,35.645,0
1572310134.991,57.129,51.270,0.000,33.691,23.438,0
1572310134.994,103.027,51.758,4.883,36.621,7.812,0
1572310134.998,-25.879,51.270,8.789,14.648,2.930,0
1572310135.002,-112.305,47.363,6.348,7.812,17.090,0
1572310135.006,8.789,46.875,5.859,43.945,52.734,0
1572310135.010,99.121,44.922,8.301,58.105,29.785,0
1572310135.007,1.465,45.410,9.277,33.691,2.441,0
1572310135.011,-123.535,50.781,8.301,-0.488,-1.465,0
1572310135.015,-36.133,50.293,7.324,28.809,25.391,0
1572310135.019,94.238,48.340,6.348,54.199,26.367,0
1572310135.023,41.016,51.270,5.859,34.180,55.664,0
1572310135.027,-104.004,48.340,5.371,-6.348,122.070,0
1572310135.031,-66.406,43.457,5.371,10.254,59.570,0
1572310135.034,75.195,45.898,4.883,34.668,18.066,0
1572310135.038,76.660,48.828,5.859,23.926,90.332,0
1572310135.042,-59.082,49.805,9.277,-6.836,6.348,0
1572310135.046,-92.773,50.293,9.766,-5.371,-36.621,0
1572310135.050,46.387,48.828,6.836,35.156,34.668,0
1572310135.067,111.328,49.805,6.836,41.992,44.922,0
1572310135.071,-9.277,51.758,11.230,13.672,26.367,0
1572310135.075,-102.539,51.758,12.695,1.465,10.254,0
1572310135.079,20.020,49.316,12.695,51.758,-13.672,0
1572310135.083,127.930,50.293,14.160,64.941,-16.602,0
1572310135.087,43.457,53.223,16.602,35.645,35.645,0
1572310135.091,-94.238,54.199,15.625,8.301,62.500,0
1572310135.094,-23.926,53.223,12.207,42.969,95.215,0
1572310135.098,110.840,52.734,10.742,69.336,69.336,0
1572310135.102,77.148,52.246,9.277,54.688,-1.465,0
1572310135.106,-69.824,52.734,7.324,13.184,25.879,0
1572310135.110,-57.129,53.711,6.348,23.438,78.613,0
1572310135.108,89.355,55.176,9.766,65.918,46.387,0
1572310135.112,109.375,55.664,11.719,62.500,44.434,0
1572310135.116,-32.715,54.688,8.789,20.996,51.758,0
1572310135.120,-95.215,54.199,6.348,5.859,-14.648,0
1572310135.124,34.668,52.246,6.836,41.016,46.387,0
1572310135.128,109.375,52.246,7.812,47.363,38.086,0
1572310135.132,-3.906,55.176,7.812,16.113,-45.898,0
1572310135.135,-114.258,53.223,7.812,-3.906,35.645,0
1572310135.139,-5.371,53.711,6.348,32.227,64.941,0
1572310135.143,107.910,53.223,5.371,46.387,34.668,0
1572310135.147,33.691,53.223,6.836,26.855,18.555,0
1572310135.151,-101.074,54.199,7.324,-5.371,12.207,0
1572310135.147,-42.480,51.758,6.348,18.555,71.777,0
1572310135.151,94.238,50.781,7.324,44.434,52.246,0
1572310135.155,69.824,53.223,11.719,30.762,31.738,0
1572310135.159,-78.125,55.664,11.719,-8.301,39.062,0
1572310135.163,-83.496,53.223,11.230,3.418,23.438,0
1572310135.167,63.965,53.223,14.160,40.527,65.918,0
1572310135.171,103.516,56.152,11.719,36.133,40.527,0
1572310135.174,-29.785,55.664,11.230,-3.418,-13.184,0
1572310135.178,-98.633,56.152,13.184,-19.043,-0.977,0
1572310135.182,36.621,56.152,10.742,32.227,35.645,0
1572310135.186,124.512,56.641,9.766,47.852,0.977,0
1572310135.190,19.043,58.105,10.742,18.555,4.395,0
1572310135.207,-98.633,56.641,10.742,-3.418,55.176,0
1572310135.211,-6.836,52.734,9.766,37.598,32.227,0
1572310135.215,111.328,51.270,8.301,60.547,8.301,0
1572310135.219,49.316,52.734,3.906,42.969,-1.465,0
1572310135.223,-93.750,50.293,-1.953,4.883,25.391,0
1572310135.227,-46.387,50.293,-1.465,22.461,-4.395,0
1572310135.231,100.586,54.199,1.465,55.176,19.531,0
1572310135.234,95.703,52.734,2.930,49.316,18.555,0
1572310135.238,-53.223,53.711,3.906,9.277,-9.766,0
1572310135.242,-80.566,56.641,0.488,4.883,54.688,0
1572310135.246,62.988,57.617,-0.977,38.086,57.617,0
1572310135.250,114.746,58.105,3.906,38.574,31.250,0
1572310135.247,-7.812,60.059,5.371,7.324,45.410,0
1572310135.251,-89.844,60.547,6.348,-9.766,38.574,0
1572310135.255,35.156,56.641,8.789,28.809,78.125,0
1572310135.259,133.301,56.152,8.301,41.016,86.914,0
1572310135.263,36.621,58.594,5.859,19.531,44.922,0
1572310135.267,-102.051,57.617,11.230,-9.277,23.438,0
1572310135.271,-20.020,54.688,17.578,25.879,15.137,0
1572310135.274,107.910,57.617,14.648,51.270,18.555,0
1572310135.278,55.176,59.570,13.184,34.180,52.246,0
1572310135.282,-88.379,56.152,15.625,0.488,20.996,0
1572310135.286,-62.500,53.223,13.672,18.555,-1.465,0
1572310135.290,81.055,55.664,6.348,47.363,24.414,0
1572310135.308,89.844,58.594,4.883,34.668,44.434,0
1572310135.312,-58.105,58.105,7.324,3.418,37.109,0
1572310135.316,-106.934,57.617,7.812,7.812,53.223,0
1572310135.320,35.645,57.617,4.395,48.340,62.988,0
1572310135.324,104.980,57.617,2.441,57.129,59.082,0
1572310135.328,-19.043,56.152,3.906,23.438,92.285,0
1572310135.332,-118.652,55.664,4.395,-1.465,53.223,0
1572310135.335,1.953,56.152,0.977,36.621,-11.230,0
1572310135.339,110.840,52.246,-0.488,54.688,50.781,0
1572310135.343,25.391,52.246,2.930,34.668,56.641,0
1572310135.347,-111.328,55.664,4.883,5.859,3.418,0
1572310135.351,-40.527,53.711,7.324,38.574,30.762,0
1572310135.347,94.238,52.734,9.277,70.312,7.324,0
1572310135.351,63.477,55.176,9.277,62.988,61.035,0
1572310135.355,-79.102,55.176,6.836,25.391,124.512,0
1572310135.359,-74.219,52.734,5.371,27.832,66.895,0
1572310135.363,65.918,48.828,8.301,62.988,39.551,0
1572310135.367,89.355,52.246,7.812,63.477,14.160,0
1572310135.371,-49.316,52.734,7.324,25.879,1.953,0
1572310135.374,-105.469,49.316,8.301,22.949,31.738,0
1572310135.378,38.086,49.316,5.859,62.988,18.066,0
1572310135.382,110.840,51.270,6.348,63.477,0.977,0
1572310135.386,-12.207,54.199,6.836,29.297,44.922,0
1572310135.390,-118.652,54.199,4.395,1.953,13.672,0
1572310135.387,-9.277,51.270,1.953,37.598,12.695,0
1572310135.391,106.934,52.734,2.930,53.711,32.715,0
1572310135.395,35.645,54.199,4.883,28.320,22.949,0
1572310135.399,-101.074,53.223,5.371,-10.742,46.387,0
1572310135.403,-43.945,51.270,5.371,9.277,40.039,0
1572310135.407,92.285,50.293,5.371,38.086,51.758,0
1572310135.411,78.125,50.293,2.441,27.344,74.219,0
1572310135.414,-57.617,51.758,1.465,-9.277,58.105,0
1572310135.418,-66.895,54.199,4.395,4.395,50.293,0
1572310135.422,71.777,53.711,6.836,41.992,16.113,0
1572310135.426,116.699,54.199,6.348,43.945,17.090,0
1572310135.430,-12.207,54.688,7.812,12.207,25.391,0
1572310135.447,-87.402,52.734,9.766,2.930,-9.277,0
1572310135.451,46.875,52.734,8.789,50.781,14.160,0
1572310135.455,137.207,52.734,8.789,68.359,34.180,0
1572310135.459,33.203,54.688,10.742,48.828,32.227,0
1572310135.463,-81.055,53.711,12.207,23.926,77.148,0
1572310135.467,17.578,54.199,9.766,55.664,45.898,0
1572310135.471,129.883,56.641,11.719,68.359,18.066,0
1572310135.474,62.012,53.223,16.113,36.621,29.297,0
1572310135.478,-72.754,54.199,14.648,3.906,80.566,0
1572310135.482,-26.855,53.711,12.207,21.973,85.449,0
1572310135.486,114.746,51.270,14.648,47.363,21.484,0
1572310135.490,104.492,51.758,15.137,39.062,12.695,0
1572310135.487,-44.922,51.758,12.695,1.953,20.020,0
1572310135.491,-63.477,51.758,12.695,6.836,59.082,0
1572310135.495,86.426,51.758,14.160,44.434,98.633,0
1572310135.499,143.066,52.246,13.184,46.875,82.520,0
1572310135.503,11.230,53.711,15.625,19.043,49.805,0
1572310135.507,-84.961,52.246,15.625,4.395,35.645,0
1572310135.511,44.922,51.758,12.207,47.363,-0.977,0
1572310135.514,148.926,51.270,12.695,62.988,28.320,0
1572310135.518,53.711,50.781,14.648,36.621,57.129,0
1572310135.522,-69.336,50.293,16.113,9.277,-5.859,0
1572310135.526,11.719,48.828,15.625,36.133,-24.414,0
1572310135.530,136.719,48.828,14.160,53.223,25.879,0
1572310135.528,91.309,47.852,16.113,33.691,43.945,0
1572310135.532,-52.246,48.828,16.113,-6.836,27.832,0
1572310135.536,-22.461,49.805,18.555,10.254,32.715,0
1572310135.540,126.465,48.828,17.090,47.852,35.645,0
1572310135.544,132.324,48.340,14.160,41.992,18.555,0
1572310135.548,-20.508,48.340,16.602,2.930,5.859,0
1572310135.552,-58.594,48.828,16.602,-2.930,-30.273,0
1572310135.555,86.426,45.898,17.090,35.156,-14.160,0
1572310135.559,145.508,44.922,19.043,35.156,22.949,0
1572310135.563,20.508,47.852,18.066,0.488,38.574,0
1572310135.567,-75.684,51.758,16.113,-13.184,31.738,0
1572310135.571,37.109,51.270,17.090,31.250,68.848,0
1572310135.587,137.695,44.434,18.066,50.293,51.270,0
1572310135.591,48.340,42.969,18.066,27.344,-41.504,0
1572310135.595,-95.703,41.992,16.602,-5.859,3.418,0
1572310135.599,-29.785,41.504,13.672,19.531,27.344,0
1572310135.603,103.027,43.945,13.184,45.898,6.348,0
1572310135.607,67.383,45.898,16.113,30.273,47.363,0
1572310135.611,-76.172,50.781,18.066,-12.695,77.637,0
1572310135.614,-64.941,51.758,17.578,-4.395,61.035,0
1572310135.618,79.102,47.363,15.625,32.715,14.160,0
1572310135.622,99.609,47.852,16.113,32.227,45.898,0
1572310135.626,-35.645,49.316,17.090,-1.953,59.082,0
1572310135.630,-97.168,50.293,19.043,-9.277,24.414,0
1572310135.628,35.645,51.758,19.531,33.691,70.801,0
1572310135.632,114.258,51.270,21.484,42.480,98.633,0
1572310135.636,-5.371,51.270,23.926,17.578,55.176,0
1572310135.640,-112.305,52.734,20.508,-0.488,33.691,0
1572310135.644,1.465,51.758,19.531,34.668,60.059,0
1572310135.648,116.699,53.223,21.484,51.270,93.262,0
1572310135.652,40.039,55.664,19.531,32.227,19.043,0
1572310135.655,-97.656,55.176,19.531,0.000,-29.785,0
1572310135.659,-38.574,50.781,24.414,28.320,4.395,0
1572310135.663,93.750,51.758,24.902,57.617,14.160,0
1572310135.667,64.941,53.711,23.438,35.156,8.301,0
1572310135.671,-86.914,55.664,21.973,-8.301,10.742,0
1572310135.668,-92.285,55.176,21.484,7.812,41.504,0
1572310135.672,55.176,54.688,23.438,47.363,48.340,0
1572310135.676,91.309,54.688,23.926,42.480,37.598,0
1572310135.680,-43.945,51.758,22.949,7.812,-0.488,0
1572310135.684,-110.352,49.316,20.020,-5.371,-10.254,0
1572310135.688,26.855,52.246,16.602,37.109,-0.977,0
1572310135.692,108.887,52.734,16.602,43.945,2.441,0
1572310135.695,-5.371,48.828,15.625,12.695,56.641,0
1572310135.699,-128.418,50.781,12.695,-20.508,77.637,0
1572310135.703,-27.344,51.758,10.742,8.789,-3.906,0
1572310135.707,91.309,49.316,10.742,36.621,-25.879,0
1572310135.711,23.926,50.293,14.648,24.902,-10.254,0
1572310135.727,-116.211,48.340,15.137,-9.766,-1.465,0
1572310135.731,-74.219,47.363,12.207,11.719,58.105,0
1572310135.735,64.453,46.875,9.766,45.898,74.219,0
1572310135.739,62.988,44.434,11.719,43.945,55.176,0
1572310135.743,-74.219,44.434,13.184,9.277,38.086,0
1572310135.747,-103.516,45.410,12.695,6.836,13.672,0
1572310135.751,28.320,44.922,16.113,42.969,-0.488,0
1572310135.754,84.961,44.922,20.020,44.922,9.766,0
1572310135.758,-38.086,48.340,19.531,15.137,40.039,0
1572310135.762,-124.023,48.828,20.996,0.977,29.297,0
1572310135.766,1.953,48.828,21.484,41.992,65.430,0
1572310135.770,88.867,47.363,19.531,51.270,121.582,0
1572310135.767,-12.207,44.434,17.090,20.020,110.352,0
1572310135.771,-130.859,44.922,16.113,-7.812,55.176,0
1572310135.775,-44.434,43.457,16.602,22.461,-19.531,0
1572310135.779,71.289,41.504,18.555,44.434,39.062,0
1572310135.783,13.672,41.016,20.996,26.855,83.008,0
1572310135.787,-125.488,41.992,21.973,-7.812,58.594,0
1572310135.791,-92.773,43.457,21.973,15.625,20.508,0
1572310135.794,52.246,43.945,17.578,45.410,35.156,0
1572310135.798,65.430,44.922,14.160,37.109,91.309,0
1572310135.802,-74.707,45.410,18.066,6.836,25.391,0
1572310135.806,-112.793,43.945,19.531,0.488,9.766,0
1572310135.810,38.086,43.457,17.578,40.527,68.848,0
1572310135.807,98.633,46.875,18.066,42.480,90.820,0
1572310135.811,-27.344,48.828,18.066,11.719,57.617,0
1572310135.815,-124.023,49.316,13.184,-4.395,32.715,0
1572310135.819,-12.207,50.781,11.230,30.762,9.277,0
1572310135.823,89.355,51.270,12.207,46.875,-14.648,0
1572310135.827,1.465,51.758,11.719,20.508,54.688,0
1572310135.831,-128.906,48.340,9.766,-14.648,73.242,0
