timestamps,TP9,AF7,AF8,TP10,Right AUX,Marker0
1579292421.979,140.137,39.062,0.488,273.438,58.594,0
1579292421.983,136.230,28.320,-78.613,-285.156,56.152,0
1579292421.987,134.766,29.785,-114.746,-557.617,83.008,0
1579292421.991,166.992,41.016,38.574,-200.684,121.582,0
1579292421.995,151.367,37.598,93.750,-29.785,106.445,0
1579292421.999,70.312,38.574,-56.152,-229.492,75.195,0
1579292422.003,-11.230,45.410,-380.859,-206.055,62.988,0
1579292422.006,-23.438,42.969,-376.465,386.719,70.312,0
1579292422.010,-22.949,37.598,104.980,966.797,84.961,0
1579292422.014,-63.965,41.504,227.051,895.996,45.898,0
1579292422.018,-87.891,38.086,168.457,704.102,43.945,0
1579292422.022,-78.125,29.297,59.082,888.672,8.301,0
1579292422.019,-34.668,31.250,104.492,-980.957,24.414,0
1579292422.023,-30.273,35.645,290.527,990.234,85.449,0
1579292422.027,-69.336,40.039,144.531,988.770,53.223,0
1579292422.031,-68.848,39.062,75.684,998.047,42.969,0
1579292422.035,-59.570,38.086,138.184,-999.512,54.199,0
1579292422.039,-109.863,36.133,93.750,998.535,98.145,0
1579292422.043,-165.039,36.621,41.504,999.512,93.262,0
1579292422.046,-182.617,39.551,-13.672,999.512,19.043,0
1579292422.050,-146.973,39.062,195.801,999.512,35.156,0
1579292422.054,-138.672,39.551,209.473,999.512,56.641,0
1579292422.058,-244.141,40.039,-172.363,999.512,30.273,0
1579292422.062,-226.074,42.480,-98.145,-999.023,9.766,0
1579292422.059,-86.426,41.992,158.203,987.793,0.977,0
1579292422.063,-97.168,35.645,234.863,-984.863,6.836,0
1579292422.067,-120.117,34.180,204.590,944.336,38.086,0
1579292422.071,-111.328,36.133,63.965,641.113,77.637,0
1579292422.075,-161.133,40.039,75.195,709.473,88.867,0
1579292422.079,-159.668,39.551,24.902,975.586,24.902,0
1579292422.083,-159.180,40.527,-108.887,999.023,-73.242,0
1579292422.086,-227.539,35.645,-145.020,769.531,-44.434,0
1579292422.090,-223.145,35.156,-348.633,774.414,25.879,0
1579292422.094,-144.531,40.527,-179.688,994.629,52.246,0
1579292422.098,-142.578,43.457,215.820,-972.656,59.570,0
1579292422.102,-158.691,39.551,210.449,865.723,47.852,0
1579292422.119,-126.953,38.086,116.699,645.508,35.645,0
1579292422.123,-62.988,44.922,57.129,860.352,35.156,0
1579292422.127,-0.977,42.969,158.203,894.531,53.711,0
1579292422.131,12.207,32.715,145.020,382.812,45.898,0
1579292422.135,16.602,30.762,32.227,-51.758,52.734,0
1579292422.139,52.246,39.551,-107.422,-40.039,57.617,0
1579292422.143,80.566,40.039,-243.652,34.668,73.242,0
1579292422.146,89.844,36.133,-161.133,-460.938,75.195,0
1579292422.150,67.383,42.480,-215.332,-967.773,16.113,0
1579292422.154,73.242,48.828,-258.301,-965.820,-8.789,0
1579292422.158,102.051,44.922,-70.312,-956.055,10.254,0
1579292422.162,74.707,34.668,-211.914,-972.168,45.410,0
1579292422.159,42.969,34.180,-352.051,-968.750,9.277,0
1579292422.163,42.969,34.180,-182.617,-968.262,-25.391,0
1579292422.167,56.152,28.809,-73.242,-968.262,19.531,0
1579292422.171,41.992,31.738,18.555,-969.727,50.781,0
1579292422.175,-11.719,34.668,-126.953,-961.426,42.480,0
1579292422.179,-32.227,35.645,-296.875,-980.469,43.945,0
1579292422.183,-0.488,36.133,-224.609,-933.594,48.828,0
1579292422.186,18.555,34.180,-62.012,-787.109,52.734,0
1579292422.190,4.395,38.086,42.969,-866.211,2.930,0
1579292422.194,-32.715,39.062,-184.570,-997.559,-17.090,0
1579292422.198,-8.789,35.156,-401.367,-762.207,22.461,0
1579292422.202,43.945,39.062,-154.785,-328.125,20.996,0
1579292422.199,35.156,44.434,133.789,-237.793,55.176,0
1579292422.203,3.906,36.133,253.418,-497.559,101.074,0
1579292422.207,-6.836,28.809,106.445,-376.953,37.109,0
1579292422.211,6.836,35.156,150.391,55.176,41.504,0
1579292422.215,3.906,30.762,329.590,124.023,30.762,0
1579292422.219,-40.039,27.832,154.297,-86.426,35.156,0
1579292422.223,-61.523,33.691,170.410,-17.578,119.629,0
1579292422.226,-47.363,36.133,260.742,490.234,28.320,0
1579292422.230,-66.895,38.086,-9.766,737.793,-17.578,0
1579292422.234,-97.656,35.156,119.141,535.156,59.082,0
1579292422.238,-129.395,32.715,329.102,549.316,31.738,0
1579292422.242,-111.328,36.621,412.109,899.902,47.852,0
1579292422.259,-83.984,34.668,425.781,-975.586,45.898,0
1579292422.263,-99.121,24.902,269.043,965.332,30.273,0
1579292422.267,-113.281,16.602,204.102,954.102,56.152,0
1579292422.271,-72.754,20.996,218.262,-1000.000,32.227,0
1579292422.275,-22.461,32.227,344.238,998.535,50.293,0
1579292422.279,-41.504,34.180,166.992,-995.605,14.160,0
1579292422.283,-69.336,33.203,-139.160,978.516,-35.645,0
1579292422.286,-32.715,36.621,-1.465,958.984,-1.465,0
1579292422.290,12.695,39.551,211.914,992.188,14.648,0
1579292422.294,11.230,35.156,195.801,-977.051,11.719,0
1579292422.298,-16.113,29.785,78.125,770.996,11.230,0
1579292422.302,-38.086,37.598,-204.102,502.441,39.062,0
1579292422.299,-28.809,39.062,-181.152,807.129,21.484,0
1579292422.303,-44.434,35.645,173.828,-957.520,41.016,0
1579292422.307,-103.516,36.621,210.449,932.129,55.176,0
1579292422.311,-127.930,32.715,169.434,910.645,39.062,0
1579292422.315,-110.352,35.645,64.941,-996.582,44.922,0
1579292422.319,-88.867,37.598,-70.312,-998.535,41.016,0
1579292422.323,-65.918,31.250,-107.910,996.582,28.320,0
1579292422.326,-48.340,23.926,-86.914,999.512,45.898,0
1579292422.330,19.531,28.809,114.258,988.281,56.641,0
1579292422.334,89.355,33.203,-40.039,992.676,40.039,0
1579292422.338,120.605,33.691,-282.715,844.727,60.059,0
1579292422.342,153.809,32.227,-111.816,364.258,39.551,0
1579292422.339,187.012,30.273,-105.957,192.383,-16.602,0
1579292422.343,200.684,34.668,-94.727,506.348,-52.734,0
1579292422.347,173.828,35.645,-65.430,520.020,28.809,0
1579292422.351,128.418,40.039,-145.508,136.719,46.875,0
1579292422.355,57.129,41.992,-118.652,52.734,43.457,0
1579292422.359,-3.906,33.691,-119.141,467.285,104.004,0
1579292422.363,-40.527,33.203,-65.430,743.652,106.934,0
1579292422.366,-103.516,35.156,-177.734,440.918,62.500,0
1579292422.370,-142.090,34.668,-326.660,202.637,70.312,0
1579292422.374,-111.328,38.086,-118.164,554.199,24.902,0
1579292422.378,-83.496,36.621,34.668,958.984,-3.418,0
1579292422.382,-65.918,32.227,100.586,907.715,12.207,0
1579292422.399,-69.824,33.691,-60.547,621.094,25.879,0
1579292422.403,-58.594,34.180,-195.801,800.293,75.684,0
1579292422.407,-8.789,29.785,0.977,-972.168,27.832,0
1579292422.411,5.371,29.785,87.891,990.234,-14.648,0
1579292422.415,-8.789,33.203,32.227,997.070,-23.926,0
1579292422.419,2.441,31.738,-18.555,-1000.000,43.945,0
1579292422.423,31.250,34.668,-365.234,999.512,25.879,0
1579292422.426,69.824,39.551,-370.117,999.512,-58.105,0
1579292422.430,74.707,33.203,16.602,999.512,-23.438,0
1579292422.434,45.898,23.926,121.582,-999.512,30.273,0
1579292422.438,62.012,28.809,66.895,988.770,32.715,0
1579292422.442,67.871,36.133,-9.766,-986.816,21.484,0
1579292422.439,43.457,26.855,99.609,948.730,37.598,0
1579292422.443,30.273,24.902,68.848,663.574,30.273,0
1579292422.447,49.805,31.738,13.184,714.844,6.348,0
1579292422.451,57.617,29.297,118.164,916.992,59.082,0
1579292422.455,38.574,36.133,26.367,630.371,58.105,0
1579292422.459,15.625,43.457,-201.172,142.578,31.250,0
1579292422.463,8.301,35.156,-275.879,110.352,62.500,0
1579292422.466,47.363,35.645,-158.691,391.113,83.496,0
1579292422.470,79.102,41.504,71.289,242.188,95.215,0
1579292422.474,43.945,39.062,-290.039,-335.449,64.453,0
1579292422.478,49.316,39.062,-584.473,-587.402,72.266,0
1579292422.482,112.793,38.574,-211.914,-327.637,74.219,0
1579292422.479,125.488,32.715,-76.660,-305.664,25.391,0
1579292422.483,94.727,33.691,-225.098,-740.723,23.926,0
1579292422.487,69.336,36.621,-435.547,-1000.000,32.715,0
1579292422.491,94.238,39.551,-310.547,-828.125,55.664,0
1579292422.495,109.375,40.039,-214.355,-679.688,28.809,0
1579292422.499,85.938,33.691,-365.234,-881.836,-3.906,0
1579292422.503,64.941,31.738,-450.684,-983.398,-5.371,0
1579292422.506,69.824,33.691,-609.375,-966.797,-38.574,0
1579292422.510,86.914,29.297,-638.672,-929.199,10.742,0
1579292422.514,90.820,22.949,-291.992,-932.129,43.945,0
1579292422.518,55.176,22.461,-185.059,-975.098,8.301,0
1579292422.522,46.875,32.715,-179.688,-966.797,-0.488,0
1579292422.539,79.102,30.762,-190.430,-968.262,28.809,0
1579292422.543,82.520,29.297,-149.902,-968.750,89.355,0
1579292422.547,41.992,35.156,-124.023,-966.309,38.574,0
1579292422.551,31.250,34.180,-181.152,-973.145,-0.977,0
1579292422.555,59.082,32.715,-193.359,-955.078,-7.324,0
1579292422.559,39.551,33.691,-312.988,-938.965,36.133,0
1579292422.563,10.742,32.715,-488.281,-962.891,24.414,0
1579292422.566,23.438,35.156,-304.688,-975.098,9.766,0
1579292422.570,43.457,38.086,-117.188,-935.547,16.602,0
1579292422.574,56.641,34.180,-26.367,-745.117,17.578,0
1579292422.578,27.832,35.645,-16.602,-729.492,56.641,0
1579292422.582,-4.395,39.551,-296.387,-928.223,47.852,0
1579292422.579,9.277,35.156,-141.602,-594.238,80.078,0
1579292422.583,20.996,32.715,171.387,-17.090,105.469,0
1579292422.587,0.000,34.180,189.453,47.363,58.594,0
1579292422.591,-44.434,41.504,60.059,-139.160,13.672,0
1579292422.595,-47.852,49.316,-69.824,2.441,-1.953,0
1579292422.599,-18.555,40.527,-39.062,539.551,-2.930,0
1579292422.603,-22.461,35.645,40.527,779.785,43.457,0
1579292422.606,-49.805,35.156,-18.555,484.375,36.621,0
1579292422.610,-77.148,31.738,-13.184,508.301,31.738,0
1579292422.614,-78.125,34.668,5.371,891.602,41.016,0
1579292422.618,-60.059,39.062,135.254,-963.379,46.387,0
1579292422.622,-74.707,43.945,354.004,922.852,117.188,0
1579292422.618,-115.723,37.598,303.711,744.629,134.277,0
1579292422.622,-109.375,29.297,300.781,898.926,97.656,0
1579292422.626,-105.469,30.273,113.281,-963.867,55.176,0
1579292422.630,-122.559,31.738,-1.465,912.598,-4.395,0
1579292422.634,-132.812,36.133,127.441,530.762,20.020,0
1579292422.638,-132.812,40.039,-26.855,498.535,60.547,0
1579292422.642,-96.680,39.062,57.129,890.137,51.270,0
1579292422.645,-113.770,37.109,-29.297,834.961,28.320,0
1579292422.649,-138.184,40.039,-280.762,404.785,11.719,0
1579292422.653,-101.562,45.410,13.184,296.875,53.223,0
1579292422.657,-78.125,39.062,112.793,630.859,71.777,0
1579292422.661,-70.312,32.715,201.660,809.570,46.387,0
1579292422.679,-106.445,31.250,107.910,438.965,87.891,0
1579292422.683,-127.441,29.785,-138.184,166.992,20.020,0
1579292422.687,-80.566,35.156,43.945,422.363,-10.254,0
1579292422.691,-45.898,37.598,158.203,606.445,10.254,0
1579292422.695,-55.176,34.180,219.727,375.977,45.410,0
1579292422.699,-92.773,37.598,-42.480,-5.371,106.934,0
1579292422.703,-69.336,40.039,-278.809,93.262,54.199,0
1579292422.706,-33.691,31.738,19.043,281.738,2.441,0
1579292422.710,-58.594,26.855,157.715,-17.578,49.805,0
1579292422.714,-75.195,31.250,109.863,-489.746,75.195,0
1579292422.718,-79.102,33.691,-190.918,-630.859,15.625,0
1579292422.722,-68.848,36.621,-316.895,-421.875,-34.668,0
1579292422.719,-85.449,34.668,-26.367,-600.586,14.648,0
1579292422.723,-129.883,31.250,-98.633,-964.844,30.762,0
1579292422.727,-141.602,39.062,-95.703,-971.680,47.363,0
1579292422.731,-132.324,42.480,-36.133,-958.008,43.457,0
1579292422.735,-135.742,35.156,-120.605,-971.191,2.930,0
1579292422.739,-166.016,34.668,-153.809,-968.262,4.883,0
1579292422.743,-193.848,34.668,-234.375,-968.262,15.137,0
1579292422.746,-150.391,31.250,-115.234,-968.262,-2.930,0
1579292422.750,-125.977,37.598,54.688,-968.262,11.719,0
1579292422.754,-190.430,42.480,-280.762,-968.262,20.996,0
1579292422.758,-206.055,37.109,-342.285,-968.262,12.695,0
1579292422.762,-165.039,35.156,67.383,-968.750,77.637,0
1579292422.759,-150.879,39.551,166.504,-968.750,72.754,0
1579292422.763,-160.645,32.715,117.676,-968.750,32.715,0
1579292422.767,-166.504,31.250,11.230,-967.285,61.035,0
1579292422.771,-146.973,35.645,30.762,-971.680,59.570,0
1579292422.775,-127.930,34.668,-17.090,-958.496,4.395,0
1579292422.779,-120.117,38.086,-151.367,-950.195,-20.020,0
1579292422.783,-124.512,36.133,-109.863,-966.309,46.875,0
1579292422.786,-146.973,34.668,-317.871,-977.539,67.871,0
1579292422.790,-122.070,43.457,-288.086,-916.992,89.355,0
1579292422.794,-104.004,41.992,61.035,-876.953,30.762,0
1579292422.798,-144.043,34.180,56.641,-943.848,-39.551,0
1579292422.802,-169.922,33.203,51.758,-990.723,-6.836,0
1579292422.819,-163.086,30.762,34.668,-905.273,34.668,0
1579292422.823,-133.301,32.715,64.453,-849.609,36.621,0
1579292422.827,-136.719,37.109,89.355,-958.984,9.277,0
1579292422.831,-159.180,39.062,50.293,-974.121,33.691,0
1579292422.835,-131.348,41.504,93.262,-963.867,49.805,0
1579292422.839,-110.352,41.504,-125.488,-965.820,33.691,0
1579292422.843,-103.516,42.480,-303.223,-967.773,19.531,0
1579292422.846,-104.980,40.527,-174.805,-968.750,-0.488,0
1579292422.850,-84.473,36.133,-54.199,-968.262,11.230,0
1579292422.854,-19.531,35.645,128.418,-968.750,46.387,0
1579292422.858,-24.414,34.668,4.883,-968.262,78.125,0
1579292422.862,-56.152,34.180,-147.461,-968.262,108.398,0
1579292422.859,-35.156,40.039,8.301,-968.750,72.754,0
1579292422.863,-16.113,39.551,62.500,-968.262,53.711,0
1579292422.867,-17.578,32.715,128.906,-968.262,75.195,0
1579292422.871,-67.871,29.297,-70.801,-968.262,9.766,0
1579292422.875,-121.582,26.855,-236.328,-968.750,-23.438,0
1579292422.879,-103.516,29.297,-135.254,-969.238,38.086,0
1579292422.883,-86.426,31.738,-153.809,-960.449,61.523,0
1579292422.886,-94.238,33.691,-76.172,-961.914,4.395,0
1579292422.890,-112.793,38.086,-20.508,-967.773,43.945,0
1579292422.894,-110.840,36.621,-340.332,-979.980,69.336,0
1579292422.898,-61.035,28.320,-283.691,-871.094,16.113,0
1579292422.902,-37.109,35.645,90.332,-872.070,56.641,0
1579292422.899,-44.434,40.039,145.508,-981.445,80.078,0
1579292422.903,-30.762,20.996,29.297,-965.820,33.203,0
1579292422.907,30.273,23.926,-81.055,-966.797,-19.531,0
1579292422.911,60.059,51.270,25.391,-968.750,3.906,0
1579292422.915,5.371,47.363,5.371,-968.262,31.250,0
1579292422.919,-38.574,37.109,-111.328,-968.262,16.113,0
1579292422.923,-36.133,41.016,-91.309,-968.262,24.414,0
1579292422.926,-89.355,47.363,-294.434,-970.215,18.066,0
1579292422.930,-154.297,45.898,-300.293,-956.543,-17.090,0
1579292422.934,-187.500,44.922,46.387,-983.398,20.020,0
1579292422.938,-189.453,47.852,64.941,-907.715,0.000,0
1579292422.942,-151.367,42.480,123.535,-552.734,-12.695,0
1579292422.958,-143.555,40.527,-1.953,-599.121,-4.883,0
1579292422.962,-140.625,46.387,-163.086,-964.844,-3.906,0
1579292422.966,-98.633,43.457,-7.812,-781.738,10.254,0
1579292422.970,-48.828,40.039,205.078,-166.016,40.527,0
1579292422.974,-64.453,45.410,341.797,165.039,59.570,0
1579292422.978,-112.305,46.387,123.047,46.875,41.016,0
1579292422.982,-121.582,39.062,57.129,354.492,83.008,0
1579292422.985,-100.586,33.691,328.613,911.621,71.289,0
1579292422.989,-92.285,35.645,417.480,-958.984,33.691,0
1579292422.993,-91.309,39.551,407.227,783.203,21.973,0
1579292422.997,-102.539,44.434,92.773,280.273,70.801,0
1579292423.001,-62.988,46.875,-161.133,235.840,52.246,0
1579292422.999,-19.043,39.062,159.180,252.930,50.781,0
1579292423.003,-55.176,35.156,183.594,-296.387,62.500,0
1579292423.007,-88.379,34.668,8.789,-891.113,37.598,0
1579292423.011,-87.402,36.133,-150.391,-921.875,42.969,0
1579292423.015,-95.215,40.527,-233.887,-787.109,18.066,0
1579292423.019,-134.277,36.133,-297.363,-916.016,-43.457,0
1579292423.023,-197.754,32.227,-395.508,-983.398,13.184,0
1579292423.026,-224.121,39.062,-255.859,-961.914,73.242,0
1579292423.030,-237.305,41.016,-219.727,-969.238,74.219,0
1579292423.034,-266.602,36.133,-441.406,-968.750,106.445,0
1579292423.038,-273.438,36.621,-338.379,-968.750,55.664,0
1579292423.042,-291.504,37.109,-168.457,-968.750,34.180,0
1579292423.059,-242.676,37.109,-72.754,-968.262,77.637,0
1579292423.063,-205.078,37.109,-176.270,-968.750,17.090,0
1579292423.067,-227.051,43.457,-301.758,-968.262,-10.254,0
1579292423.071,-212.402,46.387,-165.527,-969.238,48.340,0
1579292423.075,-138.184,43.457,-153.809,-967.773,17.090,0
1579292423.079,-84.473,47.363,-177.246,-964.355,68.848,0
1579292423.083,-83.008,45.410,-293.945,-967.773,99.609,0
1579292423.086,-65.430,36.133,-435.547,-969.238,39.551,0
1579292423.090,11.719,29.297,-209.961,-968.262,59.570,0
1579292423.094,74.219,34.180,-73.730,-968.750,15.625,0
1579292423.098,92.285,40.039,-124.023,-968.750,-46.387,0
1579292423.102,82.031,41.992,-180.176,-968.262,-39.551,0
1579292423.098,67.871,45.410,-333.984,-968.262,10.742,0
1579292423.102,87.402,41.504,-214.355,-968.750,39.062,0
1579292423.106,77.637,39.062,-72.266,-968.750,3.418,0
1579292423.110,34.180,43.457,-41.992,-955.566,64.941,0
1579292423.114,-10.742,43.945,-5.371,-992.676,120.605,0
1579292423.118,-30.273,48.828,-199.707,-838.379,44.434,0
1579292423.122,-55.176,49.805,-205.566,-522.461,65.430,0
1579292423.125,-82.031,41.504,-31.738,-602.539,94.727,0
1579292423.129,-106.445,38.086,-20.508,-798.340,64.941,0
1579292423.133,-126.465,46.875,-57.617,-507.812,35.156,0
1579292423.137,-144.043,44.434,-231.934,5.371,75.684,0
1579292423.141,-157.227,38.086,-279.297,-56.152,75.684,0
1579292423.138,-150.391,40.527,-10.742,-339.355,57.129,0
1579292423.142,-141.602,38.574,79.590,-199.219,58.594,0
1579292423.146,-122.070,39.062,125.000,155.273,13.672,0
1579292423.150,-119.629,44.922,147.949,225.098,60.059,0
1579292423.154,-143.066,43.457,61.035,-211.914,54.199,0
1579292423.158,-142.090,32.227,-138.184,-354.980,-6.348,0
1579292423.162,-95.703,30.762,-107.422,-46.875,56.641,0
1579292423.165,-83.984,36.133,185.547,-3.418,90.820,0
1579292423.169,-140.625,32.715,-30.762,-311.035,61.035,0
1579292423.173,-159.668,34.668,-434.570,-566.895,15.137,0
1579292423.177,-106.934,35.645,-148.438,-248.047,2.441,0
1579292423.181,-93.750,32.715,154.785,-3.418,45.410,0
1579292423.198,-104.492,38.086,7.812,-323.242,-4.883,0
1579292423.202,-123.535,38.574,-141.113,-577.637,20.508,0
1579292423.206,-105.957,29.785,-71.289,-371.582,55.176,0
1579292423.210,-69.824,28.809,53.711,-28.809,-14.160,0
1579292423.214,-69.336,34.180,82.520,-180.664,-2.441,0
1579292423.218,-68.359,33.691,-43.945,-596.680,57.129,0
1579292423.222,-32.715,38.574,-196.777,-476.562,95.703,0
1579292423.225,23.438,44.434,-335.449,-126.465,65.918,0
1579292423.229,53.223,38.574,-103.027,-161.133,56.152,0
1579292423.233,39.062,37.109,79.102,-652.344,69.336,0
1579292423.237,60.059,39.062,-76.660,-914.062,-13.672,0
1579292423.241,113.770,38.086,-94.727,-602.539,4.395,0
1579292423.238,139.160,37.109,-73.730,-558.594,58.105,0
1579292423.242,146.484,36.621,-25.879,-836.914,44.922,0
1579292423.246,98.633,34.668,-62.988,-1000.000,33.203,0
1579292423.250,62.012,35.156,-104.980,-654.297,-2.930,0
1579292423.254,57.617,37.598,93.262,-36.621,39.551,0
1579292423.258,7.324,40.039,109.375,2.930,47.852,0
1579292423.262,-37.598,41.504,-54.688,-122.559,2.930,0
1579292423.265,-18.555,42.480,97.168,215.332,79.102,0
1579292423.269,9.277,40.039,333.008,620.117,83.984,0
1579292423.273,2.930,29.785,441.406,518.066,65.430,0
1579292423.277,-62.012,32.227,10.254,-41.504,62.500,0
1579292423.281,-53.223,34.668,-159.180,-164.551,70.312,0
1579292423.278,17.090,31.738,329.102,89.355,151.367,0
1579292423.282,-5.859,31.250,368.164,-40.527,95.215,0
1579292423.286,-67.871,29.297,225.586,-422.852,51.270,0
1579292423.290,-101.074,37.109,76.660,-569.336,65.430,0
1579292423.294,-88.867,41.016,86.914,-166.992,35.156,0
1579292423.298,-124.023,38.086,110.840,84.961,22.461,0
1579292423.302,-182.617,37.109,-27.344,-203.125,31.738,0
1579292423.305,-235.840,37.598,-15.137,-366.211,37.109,0
1579292423.309,-289.551,40.039,-30.273,-18.066,50.293,0
1579292423.313,-297.363,37.598,47.363,366.211,30.762,0
1579292423.317,-294.434,32.715,219.727,195.312,-11.719,0
1579292423.321,-362.793,34.668,175.293,-43.457,16.602,0
1579292423.339,-380.371,41.504,304.199,277.344,19.043,0
1579292423.343,-333.008,43.457,194.336,740.234,9.277,0
1579292423.347,-342.773,38.086,158.203,804.199,70.312,0
1579292423.351,-349.609,37.109,329.590,395.996,67.383,0
1579292423.355,-328.613,33.691,147.949,324.707,-17.090,0
1579292423.359,-317.383,29.785,183.594,752.441,14.648,0
1579292423.363,-315.918,36.133,106.445,768.555,40.039,0
1579292423.366,-316.895,42.969,-154.297,305.664,9.277,0
1579292423.370,-311.523,36.133,-8.789,12.695,48.828,0
1579292423.374,-290.527,25.879,158.203,297.363,66.895,0
1579292423.378,-283.203,31.250,285.156,490.234,19.531,0
1579292423.382,-294.922,39.062,211.426,135.742,29.785,0
1579292423.378,-312.012,37.109,103.516,-194.336,89.844,0
1579292423.382,-310.059,40.527,45.898,-87.891,47.852,0
1579292423.386,-289.062,42.480,-23.926,161.621,-1.953,0
1579292423.390,-279.785,33.203,45.410,4.395,29.297,0
1579292423.394,-306.641,28.809,-117.676,-450.195,63.965,0
1579292423.398,-294.922,30.762,-284.180,-453.125,69.824,0
1579292423.402,-255.371,32.715,-296.875,-228.027,10.254,0
1579292423.405,-243.652,35.645,-166.016,-318.359,37.109,0
1579292423.409,-278.320,38.574,4.395,-735.352,100.586,0
1579292423.413,-285.645,36.133,-157.715,-948.242,15.625,0
1579292423.417,-243.652,36.621,-531.250,-673.828,-45.410,0
1579292423.421,-223.633,39.551,-464.355,-706.543,-30.762,0
1579292423.418,-239.258,37.598,-286.133,-964.355,-43.457,0
1579292423.422,-200.195,34.180,-132.812,-991.211,26.855,0
1579292423.426,-113.770,36.621,35.645,-881.836,93.262,0
1579292423.430,-104.980,44.434,-34.180,-792.969,63.965,0
1579292423.434,-119.141,43.945,-33.203,-938.477,22.949,0
1579292423.438,-122.070,38.574,-122.070,-979.492,70.312,0
1579292423.442,-121.582,36.133,-235.840,-961.914,16.113,0
1579292423.445,-128.418,36.133,12.207,-969.727,18.066,0
1579292423.449,-121.582,40.527,-212.402,-968.262,71.289,0
1579292423.453,-60.059,44.434,-460.938,-968.750,26.367,0
1579292423.457,-16.113,42.969,-121.582,-968.262,10.742,0
1579292423.461,-8.789,33.691,20.996,-968.262,28.809,0
1579292423.478,7.812,32.715,59.082,-968.750,46.387,0
1579292423.482,-6.836,32.715,-58.594,-968.262,16.602,0
1579292423.486,-19.531,29.297,-168.457,-968.750,10.742,0
1579292423.490,20.996,32.227,-47.852,-968.750,83.008,0
1579292423.494,46.387,36.133,84.473,-968.262,96.191,0
1579292423.498,13.184,33.691,-109.863,-968.262,-10.254,0
1579292423.502,-5.859,30.762,-395.996,-968.750,21.973,0
1579292423.505,26.367,37.109,-396.484,-968.750,44.922,0
1579292423.509,50.293,39.062,-62.012,-968.750,-0.488,0
1579292423.513,11.719,31.250,67.871,-968.750,35.156,0
1579292423.517,-11.230,32.715,67.871,-968.750,51.758,0
1579292423.521,-8.789,36.621,-2.930,-968.750,80.566,0
1579292423.519,6.348,34.180,8.301,-968.262,110.840,0
1579292423.523,21.973,34.180,90.332,-968.750,55.176,0
1579292423.527,-2.930,42.969,33.691,-963.867,27.832,0
1579292423.531,-2.441,39.062,51.270,-981.934,37.109,0
1579292423.535,15.625,34.668,-31.738,-914.062,0.488,0
1579292423.539,-0.488,39.062,-188.965,-855.957,-4.395,0
1579292423.543,-22.949,35.645,-163.574,-962.891,67.383,0
1579292423.546,-25.391,32.715,-163.086,-802.734,86.426,0
1579292423.550,19.531,31.250,-14.160,-186.035,35.156,0
1579292423.554,12.695,34.180,147.461,282.715,36.133,0
1579292423.558,-43.457,40.039,24.414,155.762,41.992,0
1579292423.562,-55.176,40.527,185.547,80.078,92.773,0
1579292423.559,-76.172,39.551,316.406,550.781,77.148,0
1579292423.563,-97.168,37.598,345.703,958.496,3.418,0
1579292423.567,-133.789,33.691,352.539,996.094,56.152,0
1579292423.571,-170.898,36.621,122.559,909.668,85.449,0
1579292423.575,-160.645,40.527,195.312,960.449,55.664,0
1579292423.579,-161.621,41.016,192.383,-988.770,15.625,0
1579292423.583,-166.016,43.457,128.906,994.629,29.785,0
1579292423.586,-195.312,34.668,305.664,-1000.000,72.266,0
1579292423.590,-236.816,27.832,-18.555,999.512,90.820,0
1579292423.594,-194.336,34.180,-188.965,999.512,12.207,0
1579292423.598,-158.691,40.527,252.441,999.512,38.086,0
1579292423.602,-206.055,39.551,350.586,999.512,75.195,0
1579292423.619,-235.352,31.738,249.023,999.512,22.461,0
1579292423.623,-208.984,34.668,149.902,999.512,-9.277,0
1579292423.627,-205.078,40.039,245.117,999.512,35.645,0
1579292423.631,-234.375,34.668,297.852,999.512,41.992,0
1579292423.635,-228.516,35.156,165.039,999.512,-31.738,0
1579292423.639,-196.289,40.527,78.613,999.512,-20.508,0
1579292423.643,-177.246,40.039,-139.648,999.512,32.715,0
1579292423.646,-163.086,40.527,-207.520,999.512,12.695,0
1579292423.650,-180.664,39.551,66.406,999.512,-19.043,0
1579292423.654,-160.645,36.621,167.969,999.512,-14.160,0
1579292423.658,-128.906,37.598,284.180,999.512,61.523,0
1579292423.662,-141.113,35.156,223.633,999.512,104.980,0
1579292423.658,-138.672,33.203,138.184,999.512,87.402,0
1579292423.662,-121.582,35.645,133.789,999.512,5.371,0
1579292423.666,-99.609,42.969,125.488,999.512,-20.508,0
1579292423.670,-72.266,46.387,193.359,999.512,14.160,0
1579292423.674,-64.453,43.457,74.707,999.512,24.902,0
1579292423.678,-72.754,39.062,-67.383,-998.047,51.758,0
1579292423.682,-18.555,31.250,-64.453,978.516,40.039,0
1579292423.685,40.039,34.180,5.371,-963.867,26.855,0
1579292423.689,77.637,42.480,160.645,850.098,32.715,0
1579292423.693,91.797,46.387,-56.152,414.551,17.090,0
1579292423.697,120.605,46.387,-393.555,526.367,8.789,0
1579292423.701,171.387,36.133,-74.219,755.859,50.293,0
1579292423.699,173.340,34.180,221.680,496.582,120.117,0
1579292423.703,161.621,42.480,84.961,-148.926,68.848,0
1579292423.707,158.203,45.410,-205.078,-337.402,13.184,0
1579292423.711,177.734,43.457,-182.129,43.457,35.645,0
1579292423.715,154.785,38.574,55.176,38.574,51.758,0
1579292423.719,90.820,37.109,-169.922,-431.152,36.621,0
1579292423.723,98.633,40.527,-274.902,-658.691,55.664,0
1579292423.726,117.188,39.551,-119.141,-351.562,46.875,0
1579292423.730,113.770,42.480,-409.180,-148.926,-25.879,0
1579292423.734,106.445,40.527,-337.402,-460.449,27.344,0
1579292423.738,101.074,32.715,-90.332,-696.289,39.062,0
1579292423.742,154.297,34.668,4.395,-415.039,60.547,0
1579292423.758,179.199,39.062,85.449,-137.695,62.988,0
1579292423.762,158.691,44.922,-63.965,-292.480,-8.301,0
1579292423.766,174.316,43.945,-62.500,-592.773,5.371,0
1579292423.770,210.938,41.504,5.371,-429.199,46.387,0
1579292423.774,246.094,38.086,21.973,-203.125,43.945,0
1579292423.778,248.047,34.180,-69.336,-512.695,8.301,0
1579292423.782,238.281,39.062,-475.098,-902.832,12.207,0
1579292423.785,280.762,36.621,-510.742,-970.215,3.418,0
1579292423.789,311.523,27.832,-83.008,-742.676,36.133,0
1579292423.793,281.738,29.297,64.453,-734.375,94.238,0
1579292423.797,201.172,34.180,7.324,-966.797,63.965,0
1579292423.801,127.441,39.062,-167.480,-942.383,18.066,0
1579292423.799,110.352,37.109,-102.051,-406.738,10.742,0
1579292423.803,80.566,32.715,164.551,265.625,48.828,0
1579292423.807,27.344,36.133,186.035,327.637,49.805,0
1579292423.811,6.836,31.250,177.246,401.855,65.430,0
1579292423.815,39.062,31.738,188.477,875.488,74.219,0
1579292423.819,96.191,41.992,104.980,-979.004,16.602,0
1579292423.823,107.910,38.086,32.715,982.910,-14.160,0
1579292423.826,106.934,31.250,22.949,-1000.000,-1.465,0
1579292423.830,152.344,32.227,134.766,999.023,1.953,0
1579292423.834,166.992,32.715,95.215,999.512,58.105,0
1579292423.838,136.719,38.086,-85.938,999.512,50.293,0
1579292423.842,86.426,39.551,94.727,999.512,-7.812,0
1579292423.839,32.227,37.598,185.059,999.512,-53.223,0
1579292423.843,20.996,43.945,268.066,999.512,-15.137,0
1579292423.847,-27.832,43.945,325.195,999.512,104.492,0
1579292423.851,-71.777,41.992,229.980,999.512,79.590,0
1579292423.855,-51.270,43.945,270.020,999.512,38.574,0
1579292423.859,-27.832,38.574,166.504,999.512,78.613,0
1579292423.863,-11.230,39.062,133.301,999.512,62.500,0
1579292423.866,-2.441,48.340,132.812,999.512,25.879,0
1579292423.870,-10.254,40.039,-178.711,999.512,24.414,0
1579292423.874,10.742,26.855,-14.160,999.512,21.484,0
1579292423.878,0.000,36.621,215.332,999.512,37.598,0
1579292423.882,-66.406,44.922,173.340,999.512,47.852,0
1579292423.899,-132.812,39.551,92.285,999.512,-16.113,0
1579292423.903,-141.113,38.086,104.492,999.512,26.367,0
1579292423.907,-105.469,41.504,267.578,999.512,47.852,0
1579292423.911,-102.051,41.504,236.328,999.512,-13.672,0
1579292423.915,-98.145,48.828,217.773,999.512,1.465,0
1579292423.919,-59.570,50.781,105.469,999.512,44.434,0
1579292423.923,12.695,40.527,-13.672,999.512,63.477,0
1579292423.926,85.449,36.621,160.156,999.512,49.805,0
1579292423.930,99.609,37.109,218.750,999.512,15.625,0
1579292423.934,131.348,41.016,178.223,-999.023,13.672,0
1579292423.938,210.938,42.480,229.492,988.770,24.902,0
1579292423.942,231.445,38.086,18.066,-987.793,15.137,0
1579292423.938,267.090,37.109,28.809,961.914,34.668,0
1579292423.942,279.297,35.645,168.457,634.277,58.594,0
1579292423.946,272.949,40.039,9.277,744.141,13.184,0
1579292423.950,302.734,43.945,135.742,-950.195,26.855,0
1579292423.954,294.434,37.109,184.570,778.809,59.570,0
1579292423.958,269.531,32.715,-18.066,385.254,62.012,0
1579292423.962,291.504,40.527,-54.199,365.723,111.816,0
1579292423.965,334.473,43.945,32.227,704.102,37.598,0
1579292423.969,323.242,38.574,216.797,858.887,-8.789,0
1579292423.973,255.371,37.109,-19.531,514.648,76.172,0
1579292423.977,237.305,34.180,-301.758,535.156,76.172,0
1579292423.981,290.039,41.016,55.176,956.543,30.273,0
1579292423.979,301.758,44.434,255.859,-988.281,39.062,0
1579292423.983,273.926,43.457,257.812,985.840,55.664,0
1579292423.987,251.953,48.828,124.512,-998.535,41.992,0
1579292423.991,282.227,47.852,84.473,999.512,3.906,0
1579292423.995,301.270,44.434,139.648,999.512,19.043,0
1579292423.999,270.996,29.297,-38.086,999.512,13.672,0
1579292424.003,249.023,25.879,-95.703,999.512,3.418,0
1579292424.006,268.555,44.434,-181.641,999.512,26.855,0
1579292424.010,315.918,45.898,-117.188,999.512,63.965,0
1579292424.014,292.480,33.691,156.738,999.512,77.637,0
1579292424.018,235.352,34.668,161.621,999.512,83.984,0
1579292424.022,236.816,33.203,173.340,999.512,72.266,0
1579292424.038,245.605,27.832,19.043,999.512,23.926,0
1579292424.042,233.398,32.715,-81.055,999.512,91.797,0
1579292424.046,216.309,36.133,73.242,999.512,97.168,0
1579292424.050,209.473,36.133,68.359,999.512,45.898,0
1579292424.054,243.652,41.504,118.652,999.512,60.059,0
1579292424.058,237.305,42.969,-59.570,999.512,-6.348,0
1579292424.062,212.891,36.621,-490.723,999.512,-31.250,0
1579292424.065,240.723,39.551,-410.156,999.512,22.949,0
1579292424.069,293.457,42.480,-4.395,999.023,72.266,0
1579292424.073,324.219,38.086,117.188,997.070,31.738,0
1579292424.077,314.453,34.180,9.766,-991.699,-20.508,0
1579292424.081,297.363,36.621,-92.773,949.707,23.926,0
1579292424.078,327.637,49.316,-4.883,941.895,47.363,0
1579292424.082,347.168,45.410,43.945,-996.582,17.090,0
1579292424.086,320.801,34.668,23.438,-992.188,-8.301,0
1579292424.090,261.719,35.645,-34.180,936.035,6.348,0
1579292424.094,216.797,37.109,-141.602,940.430,-4.395,0
1579292424.098,215.332,41.016,-153.809,-990.723,-20.508,0
1579292424.102,184.570,41.504,-137.207,997.070,15.625,0
1579292424.105,147.949,36.133,-146.484,999.023,-14.160,0
1579292424.109,162.109,37.109,42.969,999.512,26.855,0
1579292424.113,185.547,41.016,-114.258,999.512,100.586,0
1579292424.117,218.262,45.898,-329.102,999.512,71.777,0
1579292424.121,241.699,46.875,-110.352,999.512,28.809,0
1579292424.118,232.910,37.109,18.555,999.512,32.227,0
1579292424.122,277.344,29.785,150.879,999.512,97.168,0
1579292424.126,313.965,32.227,98.633,999.512,87.402,0
1579292424.130,314.941,35.645,108.398,999.512,113.281,0
1579292424.134,277.344,36.621,118.652,-999.512,80.078,0
1579292424.138,246.582,33.203,-167.969,994.629,-27.832,0
1579292424.142,269.531,35.156,-101.562,-998.535,8.301,0
1579292424.145,228.516,41.992,-98.633,-995.117,87.891,0
1579292424.149,149.902,40.527,-419.434,823.730,27.344,0
1579292424.153,123.535,39.062,-191.895,855.469,-0.977,0
1579292424.157,118.164,43.457,63.477,-981.445,57.617,0
1579292424.161,100.098,43.945,122.559,996.582,68.359,0
1579292424.178,60.059,42.969,0.488,991.211,56.641,0
1579292424.182,39.062,40.039,-153.320,987.305,56.641,0
1579292424.186,87.402,39.062,-65.430,999.512,23.438,0
1579292424.190,120.117,41.992,41.504,-1000.000,43.945,0
1579292424.194,117.676,41.016,36.133,999.023,78.125,0
1579292424.198,117.676,39.551,-206.543,999.512,62.012,0
1579292424.202,144.531,41.504,-466.309,999.512,40.527,0
1579292424.205,208.008,41.016,-157.227,999.512,47.363,0
1579292424.209,223.633,40.527,104.980,999.512,89.844,0
1579292424.213,192.871,42.480,64.453,999.512,63.965,0
1579292424.217,182.129,46.875,-41.504,999.023,50.781,0
1579292424.221,213.379,50.293,-80.078,982.422,46.875,0
1579292424.219,216.309,45.410,83.984,-962.402,81.055,0
1579292424.223,169.922,42.969,95.215,789.551,123.535,0
1579292424.227,156.250,40.527,-53.711,443.359,47.363,0
1579292424.231,189.941,39.551,-94.238,585.449,58.594,0
1579292424.235,195.801,37.109,-156.738,561.523,96.191,0
1579292424.239,156.250,37.598,-378.906,87.891,-10.254,0
1579292424.243,131.348,35.645,-506.836,-327.637,-26.855,0
1579292424.246,150.391,36.621,-315.430,-153.809,15.137,0
1579292424.250,141.602,43.457,-188.477,-7.324,1.953,0
1579292424.254,90.332,41.016,-346.191,-349.609,45.898,0
1579292424.258,73.242,37.598,-325.195,-682.129,88.867,0
1579292424.262,80.078,38.086,-237.793,-611.816,40.039,0
1579292424.258,92.773,41.016,-167.969,-236.328,21.973,0
1579292424.262,91.797,43.945,-83.008,-316.895,55.176,0
1579292424.266,41.504,36.133,-422.363,-797.852,6.348,0
1579292424.270,24.902,28.320,-432.129,-734.375,35.645,0
1579292424.274,70.312,34.180,-192.871,-337.402,63.477,0
1579292424.278,102.539,38.086,-327.637,-390.137,43.945,0
1579292424.282,99.121,42.480,-339.844,-802.246,70.801,0
1579292424.285,47.852,41.504,-555.176,-1000.000,62.988,0
1579292424.289,48.828,36.621,-672.363,-764.160,51.758,0
1579292424.293,93.750,43.457,-218.750,-605.469,54.688,0
1579292424.297,48.828,43.945,-85.938,-866.211,43.457,0
1579292424.301,7.812,38.086,-198.730,-1000.000,3.418,0
1579292424.318,26.367,42.480,-222.656,-919.922,47.363,0
1579292424.322,51.270,44.434,-137.695,-833.984,76.660,0
1579292424.326,45.898,40.527,-107.910,-923.340,25.879,0
1579292424.330,19.531,41.992,-165.039,-976.074,32.227,0
1579292424.334,30.273,39.551,-108.398,-978.516,39.551,0
1579292424.338,33.203,42.969,-335.449,-888.672,13.184,0
1579292424.342,17.578,50.293,-479.980,-859.375,9.277,0
1579292424.345,11.230,43.945,-212.891,-977.051,14.160,0
1579292424.349,24.414,41.016,-151.367,-963.379,17.578,0
1579292424.353,66.895,43.457,-53.223,-675.781,15.625,0
1579292424.357,49.805,47.363,-156.738,-415.527,25.879,0
1579292424.361,0.000,42.480,-327.148,-551.270,-17.578,0
1579292424.359,-11.719,29.785,-193.359,-555.664,-75.195,0
1579292424.363,13.672,30.273,-21.973,2.930,-23.438,0
1579292424.367,40.527,37.598,188.965,381.836,46.875,0
1579292424.371,12.207,37.598,129.395,292.969,60.059,0
1579292424.375,-8.301,33.691,-2.930,240.723,47.363,0
1579292424.379,6.348,35.156,-7.812,630.859,17.578,0
1579292424.383,17.578,41.016,5.859,-970.703,21.973,0
1579292424.386,20.020,41.504,155.273,915.039,25.391,0
1579292424.390,-10.254,40.039,152.344,742.188,13.672,0
1579292424.394,-25.879,39.062,-241.211,883.789,-13.672,0
1579292424.398,16.113,43.945,-133.789,-983.398,24.414,0
1579292424.402,25.391,44.922,185.547,993.652,-1.953,0
1579292424.398,-6.836,39.551,193.848,989.746,0.977,0
1579292424.402,-29.297,34.668,66.895,995.605,41.504,0
1579292424.406,-6.836,32.715,11.230,-999.512,18.066,0
1579292424.410,23.438,39.062,177.734,999.023,13.184,0
1579292424.414,-3.906,41.016,170.898,999.512,-3.418,0
1579292424.418,-38.086,37.598,-45.410,997.070,-11.719,0
1579292424.422,-12.207,40.039,-18.555,998.535,11.719,0
1579292424.425,-13.184,39.551,-167.969,999.512,12.695,0
1579292424.429,-28.809,36.133,-256.836,999.023,-2.930,0
1579292424.433,-36.133,34.668,128.418,999.512,75.684,0
1579292424.437,-38.574,33.691,204.102,999.512,91.309,0
1579292424.441,-5.371,39.551,207.520,999.512,51.758,0
1579292424.458,-16.113,36.133,129.883,999.512,55.176,0
1579292424.462,-41.992,31.250,43.945,999.512,24.414,0
1579292424.466,-20.996,36.621,115.234,999.512,47.363,0
1579292424.470,8.301,44.922,163.086,999.512,68.359,0
1579292424.474,-8.789,41.992,91.309,999.512,76.172,0
1579292424.478,-36.133,33.691,-75.684,999.512,81.055,0
1579292424.482,-32.715,35.156,-162.598,-1000.000,41.992,0
1579292424.485,7.324,37.598,-0.977,995.605,29.297,0
1579292424.489,20.508,36.133,143.555,-993.652,50.781,0
1579292424.493,3.418,36.133,177.734,982.910,49.805,0
1579292424.497,-18.555,35.645,-63.965,939.453,51.270,0
1579292424.501,16.602,37.109,-156.738,973.145,53.223,0
1579292424.499,59.570,42.480,85.449,-969.238,16.602,0
1579292424.503,38.086,42.480,66.406,861.328,6.348,0
1579292424.507,12.207,38.574,75.684,491.699,79.102,0
1579292424.511,-2.441,35.156,-127.441,507.324,60.059,0
1579292424.515,32.715,34.668,-192.871,736.328,56.152,0
1579292424.519,46.387,41.016,-4.883,604.492,129.883,0
1579292424.523,-2.441,41.504,-228.516,106.445,67.871,0
1579292424.526,-1.953,36.133,-311.523,88.379,25.391,0
1579292424.530,27.832,38.574,-212.402,562.500,73.730,0
1579292424.534,34.180,39.062,-304.199,615.234,89.355,0
1579292424.538,39.062,42.480,-194.336,202.148,47.852,0
1579292424.542,35.645,41.504,-56.152,-17.090,38.574,0
1579292424.539,78.125,38.574,-3.418,296.875,16.113,0
1579292424.543,105.957,43.945,27.344,482.422,31.738,0
1579292424.547,97.168,46.875,-63.477,109.375,62.012,0
1579292424.551,99.121,45.410,-82.520,-249.023,44.434,0
1579292424.555,118.652,41.992,-55.176,-97.168,61.523,0
1579292424.559,126.953,38.574,-122.070,182.129,48.828,0
1579292424.563,97.656,39.551,-200.195,-8.789,50.781,0
1579292424.566,34.668,45.898,-507.812,-434.082,59.082,0
1579292424.570,34.668,43.457,-474.609,-323.730,18.555,0
1579292424.574,60.547,38.574,-143.066,104.492,-0.488,0
1579292424.578,27.344,36.133,-146.973,119.141,-37.109,0
1579292424.582,-8.789,42.969,-87.402,-197.266,-7.324,0
1579292424.599,-4.883,54.199,-89.355,-187.500,64.453,0
1579292424.603,39.062,47.363,70.801,272.949,92.773,0
1579292424.607,51.758,39.551,150.879,358.398,35.645,0
1579292424.611,47.363,43.457,78.125,39.062,30.273,0
1579292424.615,51.758,39.551,-46.875,-104.980,27.832,0
1579292424.619,79.102,35.156,-192.383,186.523,-17.578,0
1579292424.623,111.816,41.504,-110.352,451.660,44.434,0
1579292424.626,145.996,40.527,20.508,104.980,56.152,0
1579292424.630,188.477,33.203,-29.785,-317.871,25.391,0
1579292424.634,232.422,38.086,29.297,-223.633,44.434,0
1579292424.638,235.352,47.852,-133.789,-24.414,88.379,0
1579292424.642,231.934,50.781,-283.203,-310.059,87.402,0
1579292424.638,212.402,48.340,-156.738,-749.512,77.637,0
1579292424.642,168.457,46.875,-139.160,-554.199,57.617,0
1579292424.646,151.367,45.410,63.965,46.387,38.086,0
1579292424.650,81.055,41.504,106.445,277.344,62.500,0
1579292424.654,13.672,39.551,-20.996,42.969,23.438,0
1579292424.658,8.301,42.480,-142.578,27.832,11.719,0
1579292424.662,22.949,43.457,-189.453,516.602,25.879,0
1579292424.665,44.434,40.039,10.254,728.516,11.719,0
1579292424.669,9.766,41.016,-42.969,375.000,30.762,0
1579292424.673,-19.531,35.645,-417.969,57.129,-35.156,0
1579292424.677,26.855,28.809,-148.438,390.625,-45.898,0
1579292424.681,30.762,40.039,253.906,933.105,28.809,0
1579292424.699,-23.926,44.434,309.570,983.887,10.254,0
1579292424.703,-86.914,42.480,208.496,944.824,35.156,0
1579292424.707,-93.750,42.969,159.180,-1000.000,44.922,0
1579292424.711,-86.426,37.598,210.449,990.723,31.250,0
1579292424.715,-105.957,41.504,257.324,-977.539,73.242,0
1579292424.719,-130.859,40.527,127.441,796.387,52.734,0
1579292424.723,-137.207,40.039,-68.848,552.246,57.617,0
1579292424.726,-104.492,39.551,-253.906,572.266,51.270,0
1579292424.730,-53.223,39.062,-67.871,324.707,72.266,0
1579292424.734,-64.941,45.898,94.727,-178.711,56.641,0
1579292424.738,-76.172,44.434,24.414,-427.734,39.551,0
1579292424.742,-71.289,42.969,-5.371,-130.859,19.531,0
1579292424.738,-107.910,39.551,-66.406,8.789,-15.625,0
1579292424.742,-167.480,34.668,-7.812,-291.016,9.766,0
1579292424.746,-233.398,34.180,-36.621,-441.406,28.320,0
1579292424.750,-240.723,35.156,67.871,-91.309,91.309,0
1579292424.754,-245.117,41.992,172.852,262.207,104.004,0
1579292424.758,-286.133,41.016,-14.648,-39.062,70.801,0
1579292424.762,-305.176,33.691,-280.273,-479.492,-12.695,0
1579292424.765,-293.945,36.621,-324.707,-235.352,-38.086,0
1579292424.769,-239.746,35.156,-78.613,220.703,-6.348,0
1579292424.773,-199.219,30.762,149.902,176.758,2.441,0
1579292424.777,-209.961,35.645,-199.219,-304.688,52.734,0
1579292424.781,-144.043,41.992,-407.715,-458.008,40.527,0
1579292424.779,-42.480,41.504,-13.672,-72.266,1.953,0
1579292424.783,-27.832,39.062,157.227,-97.168,32.715,0
1579292424.787,-48.340,36.621,127.930,-623.047,67.383,0
1579292424.791,-35.645,37.598,-32.715,-978.516,73.730,0
1579292424.795,11.719,41.992,-15.625,-783.691,62.988,0
1579292424.799,13.672,37.598,5.371,-597.656,38.574,0
1579292424.803,-18.066,34.180,-148.438,-844.238,24.414,0
1579292424.806,-32.715,40.527,-65.430,-993.164,6.348,0
1579292424.810,-31.738,39.551,-160.156,-916.992,22.461,0
1579292424.814,-20.508,40.527,-342.773,-681.641,27.344,0
1579292424.818,-12.695,49.805,-47.363,-651.367,29.785,0
1579292424.822,-28.809,48.828,128.418,-865.723,58.105,0
1579292424.839,-24.414,41.992,198.242,-601.562,64.453,0
1579292424.843,-18.066,42.480,215.820,-96.191,51.758,0
1579292424.847,-24.902,40.039,265.625,8.301,71.289,0
1579292424.851,-47.852,40.039,344.727,-167.969,93.262,0
1579292424.855,-59.082,36.133,292.480,-129.883,78.613,0
1579292424.859,-27.832,28.809,239.258,372.559,49.805,0
1579292424.863,-22.461,34.180,84.961,551.758,28.809,0
1579292424.866,-28.320,44.434,-4.395,222.656,0.000,0
1579292424.870,-24.414,40.527,209.473,218.262,19.531,0
1579292424.874,-28.809,28.809,294.434,631.836,-3.418,0
1579292424.878,-31.250,29.297,416.992,923.828,12.695,0
1579292424.882,-77.148,32.715,312.500,617.188,66.406,0
1579292424.879,-112.305,34.180,-90.332,236.816,36.133,0
1579292424.883,-79.590,32.715,67.383,554.688,47.852,0
1579292424.887,-62.988,29.785,310.059,895.020,67.383,0
1579292424.891,-84.961,28.809,287.598,693.848,44.434,0
1579292424.895,-133.789,27.344,125.977,249.512,53.711,0
1579292424.899,-143.066,27.832,-53.711,295.410,87.891,0
1579292424.903,-103.027,34.668,-62.988,711.914,42.480,0
1579292424.906,-84.473,40.527,7.812,683.594,17.578,0
1579292424.910,-86.426,42.480,118.164,316.406,69.336,0
1579292424.914,-77.637,40.039,79.102,126.953,56.641,0
1579292424.918,-58.594,35.645,-271.973,468.750,31.738,0
1579292424.922,-20.508,35.645,-250.000,689.453,24.414,0
1579292424.920,-3.906,36.133,38.086,307.617,39.062,0
1579292424.924,-11.719,37.598,-32.227,15.137,35.156,0
1579292424.928,17.090,37.598,-87.402,198.730,3.418,0
1579292424.932,27.344,36.133,-146.484,432.617,-26.367,0
1579292424.936,3.906,36.133,-106.445,219.727,7.324,0
1579292424.940,-23.438,31.738,-275.391,-171.387,32.715,0
1579292424.944,-3.418,41.504,-375.488,-45.410,35.156,0
1579292424.947,20.020,44.434,-113.281,268.555,53.223,0
1579292424.951,-29.785,33.691,-219.238,207.031,63.477,0
1579292424.955,-62.988,33.203,-283.203,-30.273,84.961,0
1579292424.959,-62.500,40.527,-116.699,171.875,45.410,0
1579292424.963,-64.941,40.527,-8.301,788.574,32.715,0
1579292424.979,-69.824,39.551,100.098,-998.535,21.973,0
1579292424.983,-103.027,44.922,-161.133,799.805,14.648,0
1579292424.987,-101.562,41.016,-306.641,794.434,6.836,0
1579292424.991,-29.785,40.039,10.254,978.027,66.406,0
1579292424.995,5.859,42.480,117.676,-978.027,85.449,0
1579292424.999,0.977,38.574,-164.551,621.582,-26.367,0
1579292425.003,12.695,37.109,-519.043,149.414,5.859,0
1579292425.006,75.195,45.898,-452.148,206.055,25.879,0
1579292425.010,132.812,51.758,-131.348,296.387,-2.930,0
1579292425.014,122.070,47.852,-82.520,-20.508,40.039,0
1579292425.018,83.496,42.969,-147.461,-543.457,34.668,0
1579292425.022,53.223,37.598,-301.758,-459.473,74.219,0
1579292425.019,15.625,25.879,-478.516,-44.434,40.527,0
1579292425.023,-24.414,26.367,-276.855,-96.191,-22.461,0
1579292425.027,-68.848,28.320,-152.344,-425.293,27.832,0
1579292425.031,-84.473,37.109,-143.066,-393.555,63.477,0
1579292425.035,-49.805,48.340,-180.176,140.137,53.223,0
1579292425.039,-27.832,35.645,-193.359,420.410,49.316,0
1579292425.043,-31.738,30.273,-149.902,212.402,57.129,0
1579292425.046,-8.301,35.645,-92.285,215.332,16.113,0
1579292425.050,38.574,31.250,64.941,681.152,9.277,0
1579292425.054,65.918,26.855,99.609,-991.211,39.062,0
1579292425.058,79.102,38.086,-35.156,955.078,41.992,0
1579292425.062,111.328,28.809,118.652,929.199,25.391,0
1579292425.059,129.395,25.391,413.086,-996.582,18.555,0
1579292425.063,100.098,34.668,512.695,-999.023,-2.441,0
1579292425.067,29.297,31.250,537.109,997.070,16.602,0
1579292425.071,-46.387,29.785,475.098,999.512,37.598,0
1579292425.075,-55.664,26.367,645.508,-1000.000,48.828,0
1579292425.079,-44.922,39.062,645.996,993.652,44.434,0
1579292425.083,-75.195,41.992,624.512,-985.352,67.871,0
1579292425.086,-114.746,47.852,707.520,938.965,61.523,0
1579292425.090,-126.953,57.129,502.930,897.949,25.879,0
1579292425.094,-90.332,57.617,579.590,992.188,31.738,0
1579292425.098,-90.820,61.523,808.105,-975.098,41.504,0
1579292425.102,-148.926,54.688,620.605,699.707,34.668,0
1579292425.119,-176.270,55.176,416.504,352.539,35.156,0
1579292425.123,-179.688,56.641,215.820,523.438,9.766,0
1579292425.127,-162.598,55.176,238.770,589.355,26.367,0
1579292425.131,-162.109,54.199,414.062,115.234,64.941,0
1579292425.135,-195.801,37.598,208.008,-466.797,39.551,0
1579292425.139,-174.316,27.344,35.645,-437.012,54.688,0
1579292425.143,-155.762,26.855,-261.719,-362.305,55.176,0
1579292425.146,-155.273,24.902,-459.961,-789.062,34.668,0
1579292425.150,-140.137,26.855,-273.926,-991.699,35.645,0
1579292425.154,-124.512,33.691,-310.547,-955.078,-50.293,0
1579292425.158,-93.750,37.598,-303.223,-967.285,-55.176,0
1579292425.162,-98.633,41.992,-379.883,-969.238,-36.133,0
1579292425.160,-129.395,42.480,-407.227,-968.262,23.926,0
1579292425.164,-122.070,37.598,-281.250,-968.750,85.938,0
1579292425.168,-85.449,39.062,-340.332,-968.750,96.680,0
1579292425.172,-59.082,46.875,-326.660,-968.750,96.680,0
1579292425.176,-58.105,44.434,-383.789,-968.750,83.984,0
1579292425.180,-62.500,36.133,-604.980,-968.262,42.969,0
1579292425.184,-11.230,37.109,-593.750,-968.262,57.617,0
1579292425.187,20.020,33.691,-538.574,-968.262,29.785,0
1579292425.191,7.324,33.203,-416.016,-968.262,-12.695,0
1579292425.195,-23.438,36.133,-477.051,-968.262,51.758,0
1579292425.199,-3.906,31.738,-688.965,-968.262,-4.395,0
1579292425.203,75.195,36.621,-413.574,-968.750,29.785,0
1579292425.199,97.168,46.875,-301.270,-968.750,60.059,0
1579292425.203,88.867,43.457,-326.172,-968.750,39.062,0
1579292425.207,89.355,33.203,-424.805,-968.262,41.992,0
1579292425.211,116.211,38.086,-538.086,-968.750,64.941,0
1579292425.215,142.578,38.574,-332.520,-968.750,94.727,0
1579292425.219,105.469,36.133,-416.992,-968.262,56.152,0
1579292425.223,79.102,46.387,-569.336,-968.750,24.902,0
1579292425.226,105.469,40.039,-436.035,-968.262,84.961,0
1579292425.230,84.473,34.180,-681.152,-969.727,49.805,0
1579292425.234,65.918,34.180,-702.637,-953.125,16.113,0
1579292425.238,74.707,33.691,-397.461,-996.094,28.809,0
1579292425.242,99.121,41.016,-270.508,-850.586,15.625,0
1579292425.259,114.746,36.133,-138.672,-508.301,34.668,0
1579292425.263,79.102,24.414,-229.492,-615.723,10.254,0
1579292425.267,61.035,29.297,-278.320,-952.637,1.953,0
1579292425.271,80.566,40.039,-288.574,-833.984,-41.504,0
1579292425.275,106.934,34.180,-185.547,-370.605,-23.438,0
1579292425.279,96.680,27.344,-201.660,-370.117,-1.465,0
1579292425.283,50.293,30.762,-581.543,-710.938,17.090,0
1579292425.286,46.387,31.738,-590.820,-687.500,62.988,0
1579292425.290,82.031,31.250,-190.918,-216.797,80.078,0
1579292425.294,73.730,35.645,-15.625,43.457,69.336,0
1579292425.298,39.551,38.574,-37.109,-266.602,4.883,0
1579292425.302,15.625,35.156,-191.895,-349.121,-7.324,0
1579292425.299,55.664,38.574,-104.004,70.801,38.574,0
1579292425.303,85.449,40.527,65.918,367.676,41.504,0
1579292425.307,65.430,36.133,43.945,238.770,37.109,0
1579292425.311,63.477,37.109,6.348,39.062,63.477,0
1579292425.315,85.938,40.527,-38.086,369.141,86.914,0
1579292425.319,103.516,39.062,-21.484,735.840,137.695,0
1579292425.323,94.238,34.180,-72.754,525.879,90.820,0
1579292425.326,77.148,37.109,-161.621,237.305,19.043,0
1579292425.330,97.168,44.434,16.602,432.617,61.035,0
1579292425.334,100.586,46.875,-110.352,854.004,21.973,0
1579292425.338,70.801,41.504,-382.812,778.809,-3.418,0
1579292425.342,54.688,37.598,-269.531,358.887,20.996,0
1579292425.339,58.594,31.250,-133.789,375.488,28.809,0
1579292425.343,78.125,26.855,32.227,741.699,34.180,0
1579292425.347,63.965,35.156,10.254,848.633,28.320,0
1579292425.351,42.480,43.945,-35.645,481.445,81.543,0
1579292425.355,14.160,40.039,-74.219,229.980,10.742,0
1579292425.359,1.465,27.344,-237.793,636.719,-41.016,0
1579292425.363,25.391,23.926,-75.195,977.051,43.457,0
1579292425.366,-4.395,31.250,-13.184,750.488,48.340,0
1579292425.370,-53.223,32.227,-420.898,396.484,26.855,0
1579292425.374,-11.719,38.086,-309.570,586.426,13.184,0
1579292425.378,22.461,45.898,88.379,-992.188,29.785,0
1579292425.382,5.859,35.645,222.168,937.988,85.938,0
1579292425.399,-34.180,25.391,103.027,605.469,93.750,0
1579292425.403,-55.176,27.344,-44.434,598.633,86.426,0
1579292425.407,-29.785,32.715,6.836,901.855,83.008,0
1579292425.411,-29.785,31.250,20.508,-990.234,17.090,0
1579292425.415,-61.523,28.809,22.949,757.812,19.043,0
1579292425.419,-77.148,31.738,-29.297,744.141,117.676,0
1579292425.423,-78.613,33.203,-340.820,979.492,88.867,0
1579292425.426,-63.965,26.855,-309.082,-974.121,4.883,0
1579292425.430,-72.266,28.809,39.062,901.367,35.645,0
1579292425.434,-79.590,29.785,20.020,677.734,41.992,0
1579292425.438,-44.922,30.762,-39.062,835.938,-18.066,0
1579292425.442,-22.949,39.062,-53.223,-977.539,-1.465,0
1579292425.439,-35.645,38.574,0.000,821.777,43.457,0
1579292425.443,-62.012,35.645,-61.523,510.742,15.137,0
1579292425.447,-51.758,37.109,-75.684,654.297,22.949,0
1579292425.451,-23.926,46.387,-6.836,-999.512,8.789,0
1579292425.455,-43.945,44.434,-72.754,827.637,39.551,0
1579292425.459,-88.379,31.250,-285.645,399.902,13.184,0
1579292425.463,-77.637,35.156,-347.168,444.824,12.695,0
1579292425.466,-34.668,36.621,-264.648,820.312,37.109,0
1579292425.470,-22.949,29.785,-105.469,925.293,24.902,0
1579292425.474,-41.504,31.738,-181.641,564.453,75.195,0
1579292425.478,-27.344,37.109,-286.133,475.586,61.035,0
1579292425.482,22.461,41.504,-26.367,867.676,22.949,0
1579292425.479,49.316,48.340,84.473,-959.961,37.598,0
1579292425.483,43.945,42.969,117.188,787.598,54.199,0
1579292425.487,12.207,32.715,-208.496,417.969,48.828,0
1579292425.491,28.809,34.180,-373.535,598.145,50.781,0
1579292425.495,55.664,41.504,-58.594,873.047,18.066,0
1579292425.499,3.418,39.062,-85.449,626.465,87.891,0
1579292425.503,-22.949,41.992,-190.430,220.215,90.820,0
1579292425.506,-17.578,46.875,-312.012,265.625,9.766,0
1579292425.510,-17.090,41.992,-431.641,636.230,48.828,0
1579292425.514,-0.977,36.621,-169.434,622.070,41.992,0
1579292425.518,-20.996,41.504,-64.453,265.625,4.883,0
1579292425.522,-38.574,40.527,-56.152,327.148,27.344,0
1579292425.539,-30.273,29.785,-68.359,667.969,26.855,0
1579292425.543,-26.855,35.645,-62.500,675.781,33.691,0
1579292425.547,-31.250,41.992,25.391,314.941,58.105,0
1579292425.551,-43.457,33.691,-103.027,113.770,-3.906,0
1579292425.555,-25.391,29.297,-49.316,444.824,-17.578,0
1579292425.559,-27.344,32.715,-88.379,533.691,41.016,0
1579292425.563,-29.297,38.574,-264.648,132.812,71.289,0
1579292425.566,10.254,39.062,-136.719,-226.562,83.008,0
1579292425.570,58.105,34.668,-68.848,-121.582,41.992,0
1579292425.574,93.750,28.809,6.348,135.254,15.137,0
1579292425.578,58.105,34.180,-68.848,-100.586,16.602,0
1579292425.582,-11.719,44.922,-359.375,-407.715,48.340,0
1579292425.579,-20.020,50.781,-252.930,-110.840,5.371,0
1579292425.583,-25.879,52.246,50.293,525.879,-42.969,0
1579292425.587,-82.520,45.410,226.562,797.852,8.301,0
1579292425.591,-153.809,39.062,156.738,670.898,-20.020,0
1579292425.595,-186.035,38.574,86.914,826.660,26.367,0
1579292425.599,-150.391,40.527,106.445,-977.051,43.457,0
1579292425.603,-118.652,40.039,42.480,991.699,-0.977,0
1579292425.606,-123.535,40.527,118.164,997.559,67.383,0
1579292425.610,-118.164,43.945,325.684,-1000.000,92.773,0
1579292425.614,-133.301,39.551,76.660,999.512,55.664,0
1579292425.618,-145.020,36.621,-42.480,999.512,65.918,0
1579292425.622,-164.551,39.551,290.039,999.512,61.035,0
1579292425.619,-185.059,38.574,359.863,-1000.000,63.477,0
1579292425.623,-161.133,36.621,223.145,997.559,7.324,0
1579292425.627,-145.020,40.527,65.918,988.281,-44.434,0
1579292425.631,-142.090,41.016,189.941,-979.492,-4.883,0
1579292425.635,-142.578,31.250,225.098,792.969,-3.906,0
1579292425.639,-124.512,27.832,46.387,486.328,51.758,0
1579292425.643,-68.359,37.109,80.566,380.371,77.148,0
1579292425.646,-66.895,40.039,20.020,8.301,106.445,0
1579292425.650,-128.418,36.621,-286.621,-657.227,107.910,0
1579292425.654,-126.953,42.480,-219.727,-961.426,14.160,0
1579292425.658,-120.605,44.922,-93.262,-669.922,24.414,0
1579292425.662,-159.180,39.551,70.312,-580.566,92.285,0
1579292425.679,-219.727,44.922,-33.691,-838.379,64.941,0
1579292425.683,-260.742,51.758,-209.473,-1000.000,3.906,0
1579292425.687,-275.391,47.363,-79.590,-701.660,8.789,0
1579292425.691,-283.203,38.086,86.914,-329.590,65.918,0
1579292425.695,-300.781,34.180,21.973,-601.074,56.641,0
1579292425.699,-322.754,36.133,-352.051,-909.668,8.301,0
1579292425.703,-267.578,36.621,-456.055,-687.500,-9.766,0
1579292425.706,-162.109,37.598,-110.840,-289.551,-18.555,0
1579292425.710,-119.141,41.016,13.184,-443.848,2.441,0
1579292425.714,-83.496,47.363,-26.367,-909.180,36.621,0
1579292425.718,-35.645,53.711,-157.715,-981.934,37.109,0
1579292425.722,15.625,53.711,-359.863,-953.125,20.020,0
1579292425.719,73.730,41.016,-152.344,-971.191,73.242,0
1579292425.723,83.984,39.062,-38.574,-968.750,83.008,0
1579292425.727,75.684,43.945,-117.676,-968.262,24.414,0
1579292425.731,86.426,34.668,-167.969,-968.262,-15.625,0
1579292425.735,91.309,29.785,-187.012,-968.262,20.996,0
1579292425.739,49.805,29.297,-240.723,-968.750,18.555,0
1579292425.743,34.180,43.945,-325.684,-968.262,27.344,0
1579292425.746,62.988,54.688,-332.031,-968.750,24.902,0
1579292425.750,42.480,42.480,-217.285,-968.262,3.418,0
1579292425.754,-26.855,37.598,-414.062,-968.262,31.738,0
1579292425.758,-53.223,41.504,-443.848,-968.750,80.078,0
1579292425.762,-21.484,43.945,-88.867,-968.262,39.551,0
1579292425.759,-6.836,40.039,-46.387,-968.750,-41.016,0
1579292425.763,-28.809,31.738,-73.242,-965.820,-18.555,0
1579292425.767,-55.664,24.902,-165.039,-962.402,19.043,0
1579292425.771,-24.902,29.297,-136.230,-986.328,15.625,0
1579292425.775,5.371,30.762,25.879,-817.871,55.176,0
1579292425.779,-24.414,26.855,-26.855,-635.742,48.828,0
1579292425.783,-59.570,33.203,-154.785,-814.941,32.227,0
1579292425.786,-90.820,39.062,-305.664,-931.152,40.039,0
1579292425.790,-81.543,37.109,-182.129,-552.734,24.902,0
1579292425.794,-78.125,32.227,149.414,-326.660,39.062,0
1579292425.798,-119.629,34.180,20.996,-680.664,16.113,0
1579292425.802,-138.672,33.203,-55.664,-958.496,-20.996,0
1579292425.819,-140.137,27.344,-191.406,-791.504,1.953,0
1579292425.823,-123.535,30.273,-208.984,-535.645,33.691,0
1579292425.827,-111.328,31.250,137.695,-712.891,112.793,0
1579292425.831,-120.117,35.156,102.051,-997.070,108.398,0
1579292425.835,-102.051,40.527,88.867,-890.625,68.359,0
1579292425.839,-116.211,47.363,-111.328,-586.426,37.598,0
1579292425.843,-127.930,41.992,-345.703,-629.395,25.879,0
1579292425.846,-103.516,30.762,-98.633,-930.664,55.664,0
1579292425.850,-103.516,33.691,-7.324,-928.223,15.137,0
1579292425.854,-55.176,39.551,91.797,-533.203,20.996,0
1579292425.858,-35.156,43.457,80.078,-360.352,20.996,0
1579292425.862,-72.266,45.410,-10.742,-619.629,30.762,0
1579292425.859,-88.379,39.551,59.570,-745.117,75.195,0
1579292425.863,-79.102,36.133,-18.555,-392.578,39.551,0
1579292425.867,-66.895,38.574,57.617,-37.109,-3.418,0
1579292425.871,-89.355,36.621,103.516,-275.391,70.801,0
1579292425.875,-103.027,28.809,-8.301,-572.266,142.578,0
1579292425.879,-71.777,23.926,-22.949,-401.855,124.023,0
1579292425.883,-46.387,36.621,-66.895,-144.043,81.055,0
1579292425.886,-42.480,45.410,-11.230,-283.203,15.625,0
1579292425.890,-83.008,34.180,-101.562,-683.105,-31.250,0
1579292425.894,-105.957,30.762,-262.695,-546.875,20.020,0
1579292425.898,-67.383,36.133,55.664,-23.438,113.770,0
1579292425.902,-94.238,32.227,232.910,92.773,88.867,0
1579292425.899,-135.742,33.203,163.086,-152.344,75.684,0
1579292425.903,-109.375,34.668,40.039,-273.926,46.387,0
1579292425.907,-61.523,32.715,-210.938,-44.434,-23.926,0
1579292425.911,-7.812,35.156,-125.000,-139.648,-10.254,0
1579292425.915,-2.930,37.109,-96.680,-736.816,33.203,0
1579292425.919,-6.348,41.504,-286.621,-991.211,34.668,0
1579292425.923,24.414,39.551,-354.004,-951.172,-11.719,0
1579292425.926,36.621,30.273,-386.719,-967.285,16.113,0
1579292425.930,25.879,31.250,-248.047,-969.727,36.133,0
1579292425.934,0.977,37.598,-132.812,-968.262,-9.766,0
1579292425.938,-5.371,34.180,-120.117,-968.262,-12.207,0
1579292425.942,10.254,28.320,1.465,-968.750,-0.488,0
1579292425.959,-39.551,38.574,-255.371,-968.262,11.230,0
1579292425.963,-93.750,45.898,-372.070,-962.402,70.312,0
1579292425.967,-74.219,38.086,-28.809,-987.793,103.516,0
1579292425.971,-50.293,33.691,58.105,-875.000,83.008,0
1579292425.975,-48.340,34.668,71.289,-822.266,28.320,0
1579292425.979,-74.219,41.016,-285.645,-961.426,8.789,0
1579292425.983,-63.477,47.363,-479.492,-981.445,30.762,0
1579292425.986,-19.531,41.992,-183.105,-641.113,33.691,0
1579292425.990,-21.484,34.668,34.180,-309.570,48.828,0
1579292425.994,-42.480,34.180,144.043,-497.559,53.223,0
1579292425.998,-52.734,36.133,-58.105,-657.227,41.016,0
1579292426.002,-50.781,32.227,-140.137,-469.238,15.137,0
1579292425.999,-32.715,27.832,53.711,-212.891,22.949,0
1579292426.003,-20.996,23.926,75.195,-424.316,33.203,0
1579292426.007,-29.297,18.066,-11.719,-881.348,22.461,0
1579292426.011,-7.324,31.250,-77.637,-816.895,55.176,0
1579292426.015,27.832,42.969,18.066,-583.496,87.891,0
1579292426.019,11.719,37.598,35.156,-774.902,79.590,0
1579292426.023,-10.742,36.133,-153.809,-980.469,49.805,0
1579292426.026,19.043,30.273,-37.109,-964.844,44.434,0
1579292426.030,58.594,37.109,40.039,-963.867,69.336,0
1579292426.034,61.035,42.969,-199.707,-969.727,39.551,0
1579292426.038,34.180,33.691,-158.203,-968.750,17.090,0
1579292426.042,18.066,38.086,47.852,-968.262,71.777,0
1579292426.039,42.969,37.109,176.270,-968.750,92.285,0
1579292426.043,36.133,32.715,140.137,-968.262,83.008,0
1579292426.047,-4.883,33.691,-129.883,-968.262,59.570,0
1579292426.051,8.789,38.086,-97.656,-968.750,19.531,0
1579292426.055,44.434,36.621,75.684,-968.262,28.320,0
1579292426.059,66.895,25.879,-37.109,-968.262,25.391,0
1579292426.063,82.520,32.227,-87.402,-968.750,26.367,0
1579292426.066,67.383,43.945,-367.676,-968.262,6.836,0
1579292426.070,90.820,37.109,-341.309,-968.262,20.508,0
1579292426.074,130.371,34.668,27.344,-968.750,31.250,0
1579292426.078,135.742,40.039,-20.996,-968.262,6.836,0
1579292426.082,123.535,43.945,-51.270,-968.262,-0.977,0
1579292426.099,99.609,41.016,-201.660,-968.750,0.488,0
1579292426.103,131.836,40.527,-192.383,-968.750,29.297,0
1579292426.107,137.695,37.598,-44.922,-968.750,7.324,0
1579292426.111,96.191,33.203,-29.785,-968.750,26.855,0
1579292426.115,102.539,43.945,-63.477,-968.750,38.574,0
1579292426.119,119.141,42.480,-230.957,-968.750,30.762,0
1579292426.123,131.348,31.250,-295.898,-968.262,57.617,0
1579292426.126,138.184,31.738,-172.363,-968.262,46.875,0
1579292426.130,117.188,37.598,-148.926,-968.262,24.414,0
1579292426.134,121.582,39.551,-67.871,-968.262,41.992,0
1579292426.138,127.930,39.062,-278.320,-968.750,59.082,0
1579292426.142,113.281,37.598,-443.359,-968.750,67.871,0
1579292426.139,101.074,36.621,-150.879,-968.262,93.262,0
1579292426.143,92.773,38.574,-98.145,-968.750,88.379,0
1579292426.147,116.211,41.992,-104.980,-968.262,37.598,0
1579292426.151,109.863,40.039,-250.488,-968.262,0.488,0
1579292426.155,73.730,34.668,-296.387,-968.262,41.016,0
1579292426.159,61.035,37.109,-293.945,-968.750,51.270,0
1579292426.163,89.355,40.039,-416.016,-968.750,11.230,0
1579292426.166,122.070,38.574,-221.680,-968.750,29.785,0
1579292426.170,71.777,39.551,-296.387,-968.750,36.621,0
1579292426.174,24.414,40.039,-648.926,-968.750,1.953,0
1579292426.178,59.082,33.691,-418.457,-968.262,-13.672,0
1579292426.182,82.031,37.598,-109.863,-968.750,53.711,0
1579292426.178,58.594,37.598,-41.016,-965.820,104.004,0
1579292426.182,1.465,30.762,-210.449,-965.332,52.734,0
1579292426.186,8.789,42.480,-322.266,-982.910,8.301,0
1579292426.190,64.941,46.387,-152.832,-829.590,15.625,0
1579292426.194,59.570,37.598,-106.934,-804.688,32.227,0
1579292426.198,21.973,34.668,-261.230,-987.793,47.852,0
1579292426.202,19.531,33.691,-421.387,-921.875,77.637,0
1579292426.205,41.504,34.180,-389.160,-558.594,71.777,0
1579292426.209,53.223,36.621,-128.906,-391.113,41.016,0
1579292426.213,9.766,35.156,-40.039,-633.301,67.871,0
1579292426.217,-13.672,35.645,-90.332,-687.012,52.246,0
1579292426.221,-1.465,39.551,-72.266,-281.250,31.250,0
1579292426.238,-17.090,31.738,-171.875,91.797,58.105,0
1579292426.242,-21.973,18.066,-143.066,-66.406,34.668,0
1579292426.246,-21.484,30.762,-91.797,-224.609,-7.812,0
1579292426.250,-8.789,46.875,-15.625,130.371,32.715,0
1579292426.254,-5.371,39.062,119.141,451.172,61.523,0
1579292426.258,-25.879,38.574,-91.309,255.859,26.367,0
1579292426.262,-37.109,44.922,-127.930,-54.688,60.059,0
1579292426.265,-21.973,43.457,26.855,175.781,57.129,0
1579292426.269,3.418,35.645,105.957,509.277,32.715,0
1579292426.273,-5.371,28.809,26.855,375.000,30.762,0
1579292426.277,-17.578,39.062,-299.316,67.871,45.410,0
1579292426.281,14.648,40.039,-265.625,89.355,55.664,0
1579292426.278,61.523,34.668,23.438,527.832,61.523,0
1579292426.282,59.082,29.785,104.980,554.688,77.148,0
1579292426.286,25.391,28.809,-7.812,57.617,12.695,0
1579292426.290,11.719,36.621,-332.520,-78.125,-31.738,0
1579292426.294,53.711,41.016,-360.840,239.258,-9.277,0
1579292426.298,76.660,38.574,-143.066,429.199,22.949,0
1579292426.302,58.594,36.133,-195.312,87.891,67.871,0
1579292426.305,68.848,43.457,-192.871,-261.719,45.898,0
1579292426.309,77.148,44.922,-264.648,27.344,56.152,0
1579292426.313,104.004,41.992,-378.418,286.621,54.199,0
1579292426.317,131.836,37.598,-120.117,97.656,20.020,0
1579292426.321,118.652,33.203,-41.504,-318.359,41.504,0
1579292426.338,144.531,35.156,-131.348,-249.023,51.270,0
1579292426.342,183.594,36.133,-106.934,259.277,52.246,0
1579292426.346,182.129,37.109,-38.574,207.031,35.156,0
1579292426.350,157.715,35.645,-89.355,-299.316,-12.207,0
1579292426.354,166.504,38.574,-137.695,-427.246,16.602,0
1579292426.358,196.777,45.410,-151.855,-57.129,21.484,0
1579292426.362,184.082,43.945,-340.820,125.000,-41.992,0
1579292426.365,151.855,36.133,-604.492,-250.000,-52.246,0
1579292426.369,172.363,32.227,-415.039,-420.898,-8.301,0
1579292426.373,219.727,30.273,-108.887,-93.750,26.367,0
1579292426.377,230.957,30.762,23.926,76.660,49.805,0
1579292426.381,208.496,34.668,-81.543,-204.102,39.551,0
1579292426.378,204.102,40.039,-257.324,-569.336,43.457,0
1579292426.382,214.844,35.156,-177.734,-500.000,38.086,0
1579292426.386,228.516,37.109,-124.023,-444.336,29.785,0
1579292426.390,218.262,36.133,-238.281,-782.715,35.645,0
1579292426.394,201.172,37.598,-340.332,-981.934,59.082,0
1579292426.398,205.566,40.039,-425.781,-966.797,86.426,0
1579292426.402,225.098,35.156,-480.957,-902.344,20.508,0
1579292426.405,212.402,37.109,-323.730,-898.926,33.691,0
1579292426.409,144.531,34.668,-241.699,-966.797,53.711,0
1579292426.413,100.586,31.250,-252.441,-983.887,24.902,0
1579292426.417,81.055,28.320,-513.184,-806.152,58.594,0
1579292426.421,77.148,32.227,-494.141,-556.641,75.684,0
1579292426.419,80.566,41.504,-148.926,-751.465,89.355,0
1579292426.423,57.129,36.621,-207.520,-887.207,36.621,0
1579292426.427,77.637,30.762,-147.461,-329.590,35.645,0
1579292426.431,95.215,31.738,-62.988,177.734,58.594,0
1579292426.435,66.406,37.109,-36.133,128.418,30.762,0
1579292426.439,43.945,39.551,-135.254,-54.199,58.105,0
1579292426.443,73.730,35.645,-261.719,115.723,54.688,0
1579292426.446,119.141,35.645,9.277,423.828,62.012,0
1579292426.450,107.910,42.480,-169.434,178.711,51.758,0
1579292426.454,77.148,46.875,-509.277,-292.480,23.926,0
1579292426.458,83.008,36.133,-179.199,-329.102,69.336,0
1579292426.462,86.914,30.762,-43.945,17.578,8.789,0
1579292426.478,56.641,42.969,33.691,208.984,-3.906,0
1579292426.482,-10.742,40.527,-14.648,42.480,42.969,0
1579292426.486,-40.039,33.691,-81.543,196.777,24.414,0
1579292426.490,-14.160,39.062,83.008,710.449,24.414,0
1579292426.494,-30.762,43.945,159.180,-998.535,3.906,0
1579292426.498,-85.449,44.434,80.566,837.891,36.133,0
1579292426.502,-110.840,41.504,-156.250,606.934,110.352,0
1579292426.505,-74.219,36.621,-170.410,826.660,43.945,0
1579292426.509,-31.250,34.668,137.695,-979.004,8.789,0
1579292426.513,-53.223,33.203,59.570,858.398,21.973,0
1579292426.517,-85.449,36.621,-29.785,722.168,-15.625,0
1579292426.521,-110.840,37.598,-24.414,910.156,1.465,0
1579292426.518,-99.609,39.551,-69.336,-981.445,-5.859,0
1579292426.522,-97.656,41.992,180.664,990.234,20.508,0
1579292426.526,-143.555,40.039,283.691,-998.047,88.379,0
1579292426.530,-140.625,37.598,236.328,982.910,33.691,0
1579292426.534,-131.348,40.039,158.203,-992.188,17.090,0
1579292426.538,-138.184,47.852,-53.223,908.691,-6.836,0
1579292426.542,-142.090,46.387,-115.723,267.090,29.785,0
1579292426.545,-151.855,42.480,-104.980,-225.098,50.781,0
1579292426.549,-121.094,44.922,-53.223,-64.453,-35.645,0
1579292426.553,-128.906,38.086,73.730,80.566,49.805,0
1579292426.557,-215.820,32.715,-272.461,-269.531,58.105,0
1579292426.561,-259.277,36.133,-422.363,-681.641,41.504,0
1579292426.558,-243.164,34.668,-149.902,-416.016,86.426,0
1579292426.562,-239.258,33.203,3.418,-10.742,-7.812,0
1579292426.566,-290.527,35.645,-38.574,-218.750,-65.430,0
1579292426.570,-314.453,40.527,-146.484,-594.727,24.414,0
1579292426.574,-293.457,40.039,-43.945,-479.004,73.242,0
1579292426.578,-275.391,38.574,-120.117,-62.012,-6.348,0
1579292426.582,-250.488,38.086,-145.020,-28.809,0.488,0
1579292426.585,-237.793,39.062,45.410,-410.645,69.336,0
1579292426.589,-230.957,44.922,-263.184,-510.742,104.492,0
1579292426.593,-144.043,50.293,-405.273,-211.426,40.039,0
1579292426.597,-80.078,45.898,11.719,-85.938,32.227,0
1579292426.601,-107.910,38.574,28.809,-500.977,38.574,0
1579292426.618,-106.445,34.668,-94.238,-814.453,28.320,0
1579292426.622,-85.449,33.691,-109.375,-576.660,61.523,0
1579292426.626,-67.871,42.480,-145.508,-674.805,45.410,0
1579292426.630,-91.797,41.992,-231.445,-977.539,-27.344,0
1579292426.634,-102.051,38.574,-196.777,-968.262,-8.789,0
1579292426.638,-71.289,48.340,-264.160,-961.426,5.859,0
1579292426.642,-66.406,50.781,-437.988,-970.215,21.484,0
1579292426.645,-74.219,44.434,-333.984,-968.262,42.969,0
1579292426.649,-73.242,38.086,-156.250,-968.750,10.742,0
1579292426.653,-51.270,35.156,-127.441,-968.262,32.227,0
1579292426.657,-3.418,46.875,-24.414,-968.262,37.109,0
1579292426.661,-24.414,49.805,-257.812,-968.750,7.324,0
1579292426.658,-56.641,23.926,-486.328,-968.262,-10.254,0
1579292426.662,-18.555,27.344,-223.145,-968.262,13.184,0
1579292426.666,7.324,50.293,-111.816,-968.262,17.090,0
1579292426.670,12.207,45.898,-28.809,-968.750,52.734,0
1579292426.674,1.953,36.621,-82.031,-968.750,91.797,0
1579292426.678,-16.602,35.156,-290.527,-968.262,53.711,0
1579292426.682,1.953,39.062,-275.879,-968.262,42.969,0
1579292426.685,10.254,44.922,-239.258,-968.262,49.805,0
1579292426.689,12.207,48.828,-182.617,-968.262,14.648,0
1579292426.693,-3.418,52.246,-171.875,-968.262,37.109,0
1579292426.697,-10.254,55.664,-411.621,-968.262,73.730,0
1579292426.701,33.203,45.898,-226.074,-968.750,69.336,0
1579292426.699,24.902,41.016,-0.977,-968.262,54.688,0
1579292426.703,-17.090,42.969,-29.297,-968.262,59.082,0
1579292426.707,-33.203,40.039,-122.559,-968.262,54.688,0
1579292426.711,-13.672,41.504,-229.004,-968.262,4.395,0
1579292426.715,-12.207,41.016,-199.707,-968.262,-20.996,0
1579292426.719,-42.969,41.992,-250.977,-968.262,18.066,0
1579292426.723,-31.738,41.016,-365.234,-968.262,-14.160,0
1579292426.726,6.836,39.551,-307.617,-968.262,-11.230,0
1579292426.730,0.977,33.203,-336.914,-968.262,9.277,0
1579292426.734,-30.273,26.855,-207.031,-968.262,48.340,0
1579292426.738,-28.320,36.621,-36.133,-968.750,78.613,0
1579292426.742,18.555,44.922,15.625,-968.262,90.820,0
1579292426.758,36.621,44.434,36.621,-968.262,76.172,0
1579292426.762,4.883,42.969,-225.098,-968.262,38.574,0
1579292426.766,-6.348,41.992,-270.996,-968.262,29.297,0
1579292426.770,8.789,41.504,-145.508,-968.262,-4.883,0
1579292426.774,16.602,34.180,-125.488,-968.750,-0.488,0
1579292426.778,-4.395,31.738,-128.418,-969.727,77.637,0
1579292426.782,-76.172,36.133,-485.840,-954.590,52.246,0
1579292426.785,-108.887,42.969,-581.543,-991.211,24.414,0
1579292426.789,-85.938,49.805,-68.359,-845.215,80.078,0
1579292426.793,-126.465,43.945,184.082,-477.051,95.703,0
1579292426.797,-184.570,39.551,150.879,-481.445,51.270,0
1579292426.801,-201.660,44.434,19.043,-365.234,57.129,0
1579292426.798,-166.992,43.945,134.766,359.863,98.633,0
1579292426.802,-117.188,35.645,352.051,679.688,93.262,0
1579292426.806,-114.746,32.227,246.582,300.781,37.598,0
1579292426.810,-101.562,36.133,125.488,-187.988,44.434,0
1579292426.814,-50.293,36.621,14.160,-270.508,62.988,0
1579292426.818,-18.555,38.574,-73.730,-155.273,53.223,0
1579292426.822,-14.648,40.527,-105.957,-540.039,83.008,0
1579292426.825,-3.418,37.109,-152.344,-956.543,65.430,0
1579292426.829,20.996,37.598,-31.738,-942.383,50.293,0
1579292426.833,-25.879,35.156,-67.871,-630.859,99.609,0
1579292426.837,-91.797,34.180,-299.805,-531.250,86.914,0
1579292426.841,-129.395,34.180,-143.555,-808.105,76.172,0
1579292426.839,-186.035,30.273,21.973,-623.047,78.613,0
1579292426.843,-218.262,35.645,98.145,-123.535,35.156,0
1579292426.847,-269.531,37.109,-0.488,33.203,5.371,0
1579292426.851,-299.316,34.668,-31.250,-88.867,41.992,0
1579292426.855,-275.391,40.527,63.965,-119.629,25.879,0
1579292426.859,-225.098,37.109,-41.992,319.824,19.043,0
1579292426.863,-156.250,28.320,48.828,612.305,58.105,0
1579292426.866,-156.250,29.785,111.816,397.461,62.988,0
1579292426.870,-182.129,37.109,-241.699,225.586,84.473,0
1579292426.874,-108.398,36.621,-186.523,374.023,41.504,0
1579292426.878,-44.434,37.109,145.020,697.266,5.371,0
1579292426.882,-47.363,44.434,210.938,605.957,20.508,0
1579292426.899,-49.316,41.016,64.453,230.957,5.859,0
1579292426.903,-51.270,31.250,-9.766,383.789,44.922,0
1579292426.907,-18.555,33.691,191.406,727.539,77.637,0
1579292426.911,12.207,40.039,205.078,624.023,19.043,0
1579292426.915,-25.391,38.574,127.930,178.223,41.504,0
1579292426.919,-52.246,42.480,-36.621,21.973,46.387,0
1579292426.923,-37.598,42.480,-358.887,371.582,36.621,0
1579292426.926,-8.301,38.574,-254.395,409.180,46.387,0
1579292426.930,-4.883,36.133,45.898,-11.719,39.062,0
1579292426.934,-19.043,37.598,-17.578,-481.934,42.480,0
1579292426.938,11.719,41.016,-114.258,-458.984,22.461,0
1579292426.942,54.688,43.457,-133.301,-263.184,-3.418,0
1579292426.939,50.781,36.621,-38.086,-658.203,55.176,0
1579292426.943,34.668,32.227,-91.309,-998.047,43.945,0
1579292426.947,60.059,36.621,-210.449,-918.457,-45.410,0
1579292426.951,105.469,40.527,-128.906,-741.699,-34.180,0
1579292426.955,114.746,46.875,-122.070,-826.660,36.621,0
1579292426.959,69.336,40.527,-322.266,-986.816,12.207,0
1579292426.963,89.355,34.180,-353.516,-963.867,32.227,0
1579292426.966,153.809,35.645,-253.906,-966.309,39.551,0
1579292426.970,153.809,37.109,-175.781,-969.238,-4.395,0
1579292426.974,111.816,37.598,-344.727,-968.750,-3.418,0
1579292426.978,116.211,35.156,-357.910,-968.262,23.438,0
1579292426.982,168.945,35.156,-102.539,-968.262,7.812,0
1579292426.979,188.477,37.598,-61.523,-968.750,8.789,0
1579292426.983,170.410,43.945,-26.367,-968.262,14.648,0
1579292426.987,121.094,44.922,-232.910,-968.750,32.227,0
1579292426.991,132.812,38.086,-392.090,-968.750,20.508,0
1579292426.995,173.340,31.250,-116.211,-968.750,-3.906,0
1579292426.999,135.742,30.273,-200.684,-968.262,14.648,0
1579292427.003,119.629,31.250,-230.469,-968.262,38.086,0
1579292427.006,140.137,25.391,-231.934,-968.262,3.418,0
1579292427.010,159.668,24.902,-479.004,-968.262,-17.578,0
1579292427.014,192.871,31.250,-203.613,-968.262,54.688,0
1579292427.018,183.105,34.180,-28.809,-968.750,47.363,0
1579292427.022,162.598,31.738,-137.695,-968.750,46.875,0
1579292427.039,188.477,31.250,-178.223,-968.750,25.391,0
1579292427.043,200.684,30.762,-174.805,-968.750,-22.461,0
1579292427.047,157.227,30.273,-67.871,-968.750,20.508,0
1579292427.051,141.602,34.180,-25.879,-968.262,73.730,0
1579292427.055,166.504,32.715,-1.465,-968.262,53.711,0
1579292427.059,155.762,29.785,-80.566,-968.750,66.895,0
1579292427.063,137.695,32.227,-460.449,-968.262,43.945,0
1579292427.066,159.668,33.203,-404.297,-964.844,17.090,0
1579292427.070,192.871,36.133,-44.922,-980.469,51.270,0
1579292427.074,216.797,36.133,23.438,-914.062,24.414,0
1579292427.078,197.266,26.855,19.043,-881.836,36.133,0
1579292427.082,151.367,25.391,-131.836,-1000.000,28.809,0
1579292427.079,160.645,32.715,-37.598,-827.637,43.945,0
1579292427.083,169.434,32.227,45.410,-380.371,54.199,0
1579292427.087,151.367,28.809,-2.441,-364.258,9.766,0
1579292427.091,127.441,30.273,23.926,-729.004,5.859,0
1579292427.095,109.863,35.156,18.066,-690.430,100.586,0
1579292427.099,124.512,35.156,37.109,-124.512,101.074,0
1579292427.103,126.465,32.227,1.953,63.965,28.809,0
1579292427.106,87.891,37.598,-42.480,-220.703,-2.441,0
1579292427.110,54.688,40.527,58.105,-283.203,-26.367,0
1579292427.114,64.453,38.574,-101.562,110.840,7.812,0
1579292427.118,89.355,43.457,-163.086,472.656,29.297,0
1579292427.122,77.637,38.574,200.684,386.230,39.062,0
1579292427.120,21.484,31.250,219.238,327.637,18.555,0
1579292427.124,7.324,36.621,260.254,741.699,21.973,0
1579292427.128,14.160,34.668,304.688,-977.539,46.875,0
1579292427.132,-20.508,27.832,272.461,987.793,41.016,0
1579292427.136,-71.289,31.250,193.359,995.605,68.848,0
1579292427.140,-71.289,36.621,72.266,-999.512,72.754,0
1579292427.144,-49.805,35.645,128.418,999.512,62.500,0
1579292427.147,-60.547,38.086,0.488,999.512,62.012,0
1579292427.151,-65.918,45.410,-36.133,999.512,62.012,0
1579292427.155,-58.105,42.480,194.824,999.512,57.129,0
1579292427.159,-30.762,38.086,235.840,999.512,43.457,0
1579292427.163,-10.254,36.621,273.438,999.512,24.414,0
1579292427.179,-45.410,35.645,105.469,999.512,67.383,0
1579292427.183,-60.059,42.969,-125.000,999.512,85.938,0
1579292427.187,-8.789,41.992,70.312,999.512,67.871,0
1579292427.191,1.953,33.691,142.090,999.512,30.273,0
1579292427.195,-29.785,33.691,84.961,999.512,-18.555,0
1579292427.199,-71.777,36.621,-125.488,999.512,11.230,0
1579292427.203,-80.566,36.621,-417.480,998.535,17.090,0
1579292427.206,-54.688,30.762,-237.793,993.164,24.902,0
1579292427.210,-72.266,29.297,-21.484,-978.516,67.383,0
1579292427.214,-91.309,34.668,43.457,875.000,63.477,0
1579292427.218,-85.449,35.645,21.484,843.750,82.520,0
1579292427.222,-62.012,36.621,-26.367,-993.652,66.895,0
1579292427.219,-45.410,43.457,79.102,-984.863,49.316,0
1579292427.223,-62.988,41.016,99.609,839.355,89.844,0
1579292427.227,-61.035,33.203,52.246,762.695,85.938,0
1579292427.231,-29.297,36.621,32.227,954.590,65.918,0
1579292427.235,-1.465,41.504,-32.715,-962.891,43.457,0
1579292427.239,5.371,41.992,-161.621,740.234,23.438,0
1579292427.243,15.625,45.410,-360.840,353.516,26.855,0
1579292427.246,73.730,41.504,-257.324,424.805,41.016,0
1579292427.250,78.613,38.086,-69.336,534.180,38.086,0
1579292427.254,14.648,42.480,-281.738,292.969,21.484,0
1579292427.258,-48.828,42.480,-422.363,17.578,24.414,0
1579292427.262,-85.449,38.574,-229.492,341.797,37.109,0
1579292427.259,-93.262,35.645,-22.949,867.188,22.949,0
1579292427.263,-110.840,36.133,108.398,-985.840,38.574,0
1579292427.267,-165.039,40.527,-152.832,715.332,81.055,0
1579292427.271,-194.824,46.387,-303.223,604.492,51.758,0
1579292427.275,-176.758,43.457,-41.992,941.895,8.789,0
1579292427.279,-175.293,36.133,-45.410,-974.121,50.293,0
1579292427.283,-154.785,35.156,-129.395,685.059,56.152,0
1579292427.286,-103.027,35.156,-390.137,323.242,47.363,0
1579292427.290,-18.066,37.598,-508.301,525.879,50.781,0
1579292427.294,29.785,35.645,-51.758,864.746,91.309,0
1579292427.298,3.418,37.109,66.895,620.605,76.172,0
1579292427.302,-19.531,41.992,-33.691,281.250,54.688,0
1579292427.319,-73.242,39.551,-48.340,480.469,95.215,0
1579292427.323,-120.117,38.574,-62.988,846.191,74.707,0
1579292427.327,-148.438,42.480,-41.992,773.926,47.852,0
1579292427.331,-202.148,39.551,-80.566,312.500,10.254,0
1579292427.335,-221.191,27.344,-35.156,238.281,24.414,0
1579292427.339,-209.473,28.320,-193.848,407.227,62.988,0
1579292427.343,-187.012,36.621,-350.098,99.609,46.387,0
1579292427.346,-166.504,42.969,-208.496,-504.395,16.602,0
1579292427.350,-162.598,43.457,-240.234,-818.848,6.836,0
1579292427.354,-128.906,42.969,-133.789,-623.535,55.176,0
1579292427.358,-145.508,41.992,-229.004,-660.645,101.074,0
1579292427.362,-205.566,38.086,-456.543,-951.660,59.570,0
1579292427.359,-228.516,37.109,-338.379,-974.121,-12.207,0
1579292427.363,-235.352,36.621,-209.473,-512.207,-26.367,0
1579292427.367,-241.211,36.621,-28.809,104.004,-0.488,0
1579292427.371,-274.414,37.109,28.320,38.574,96.191,0
1579292427.375,-306.152,37.598,-224.121,-293.457,81.055,0
1579292427.379,-286.621,31.250,-297.363,-8.301,31.250,0
1579292427.383,-244.141,30.273,-124.512,495.605,45.410,0
1579292427.386,-196.289,32.227,79.102,603.516,26.367,0
1579292427.390,-129.883,37.598,34.180,393.066,24.414,0
1579292427.394,-86.426,47.363,-169.434,591.309,27.344,0
1579292427.398,-43.457,38.574,31.250,-998.047,47.363,0
1579292427.402,-17.578,30.273,187.500,-982.910,25.391,0
1579292427.399,-27.344,36.133,123.047,873.535,11.230,0
1579292427.403,-25.879,40.039,86.426,766.602,27.344,0
1579292427.407,3.418,39.551,-115.723,912.598,29.785,0
1579292427.411,35.156,35.645,-40.527,-968.750,33.691,0
1579292427.415,13.184,32.715,92.285,676.270,17.578,0
1579292427.419,-9.277,34.180,-165.039,253.906,34.180,0
1579292427.423,21.484,41.992,-109.863,404.297,87.402,0
1579292427.426,16.602,44.434,-211.914,579.590,64.941,0
1579292427.430,-39.551,36.621,-370.605,354.004,25.391,0
1579292427.434,-65.918,32.715,-152.344,59.082,6.836,0
1579292427.438,-65.918,38.574,-57.617,370.605,29.785,0
1579292427.442,-49.805,41.504,108.887,871.582,51.270,0
1579292427.459,-50.293,42.480,114.258,851.074,34.180,0
1579292427.463,-51.270,47.852,96.191,576.172,35.645,0
1579292427.467,-38.086,43.457,142.090,632.324,-3.418,0
1579292427.471,14.648,38.086,219.238,964.844,-12.695,0
1579292427.475,52.246,41.504,312.012,-996.582,20.996,0
1579292427.479,26.855,41.992,68.848,834.961,37.598,0
1579292427.483,33.691,43.457,-152.344,874.023,45.898,0
1579292427.486,98.145,43.457,21.973,-994.141,33.691,0
1579292427.490,108.398,41.504,185.059,-985.352,65.918,0
1579292427.494,103.027,39.551,224.609,925.293,77.637,0
1579292427.498,97.168,43.945,-64.941,881.836,69.824,0
1579292427.502,102.051,41.504,-263.184,995.605,58.105,0
1579292427.499,121.094,29.785,40.039,-999.512,26.855,0
1579292427.503,98.633,32.715,176.270,-986.816,60.059,0
1579292427.507,86.426,46.875,110.840,867.676,56.641,0
1579292427.511,84.473,42.969,0.977,873.535,41.992,0
1579292427.515,109.863,28.809,67.871,-980.957,72.266,0
1579292427.519,121.094,33.203,51.270,995.117,54.199,0
1579292427.523,88.379,40.039,-89.355,998.047,25.879,0
1579292427.526,123.535,42.480,36.133,999.512,5.859,0
1579292427.530,171.875,49.316,34.668,999.512,-27.832,0
1579292427.534,154.297,46.875,-296.875,999.512,-28.809,0
1579292427.538,144.531,34.668,-182.617,999.512,31.738,0
1579292427.542,153.809,30.273,93.262,999.512,70.312,0
1579292427.539,185.059,33.691,83.496,999.512,79.590,0
1579292427.543,195.312,39.551,-1.465,999.512,89.844,0
1579292427.547,153.809,41.504,-62.500,999.512,38.086,0
1579292427.551,106.445,40.527,-0.488,999.512,19.043,0
1579292427.555,88.379,40.527,-44.922,999.512,-16.602,0
1579292427.559,80.078,36.133,-57.617,999.512,-7.812,0
1579292427.563,26.367,33.203,-62.988,999.512,35.156,0
1579292427.566,-19.531,41.016,-199.219,999.512,-4.395,0
1579292427.570,19.043,42.969,-56.152,999.512,-18.555,0
1579292427.574,83.984,38.086,168.945,999.512,9.277,0
1579292427.578,129.883,39.551,174.805,999.512,4.395,0
1579292427.582,134.277,39.062,129.883,999.512,-25.391,0
1579292427.599,145.508,39.551,-86.426,999.512,11.719,0
1579292427.603,214.844,43.945,-65.430,999.512,23.926,0
1579292427.607,223.633,45.898,179.688,999.512,4.395,0
1579292427.611,147.461,40.527,87.891,999.512,11.230,0
1579292427.615,83.984,41.504,50.781,999.512,51.758,0
1579292427.619,56.641,43.945,23.926,999.512,57.129,0
1579292427.623,25.391,39.062,-17.578,999.512,65.918,0
1579292427.626,-26.367,39.062,167.480,999.512,121.582,0
1579292427.630,-90.332,36.621,209.961,999.512,121.582,0
1579292427.634,-122.070,36.621,197.754,999.512,39.551,0
1579292427.638,-148.926,40.039,-48.340,999.512,1.465,0
1579292427.642,-167.969,38.086,-184.082,999.512,55.176,0
1579292427.639,-147.461,34.668,81.055,999.512,57.129,0
1579292427.643,-118.652,37.598,164.062,999.512,68.848,0
1579292427.647,-66.895,32.715,224.121,999.512,80.078,0
1579292427.651,-39.062,27.832,114.746,999.512,32.715,0
1579292427.655,-31.250,33.203,2.930,999.512,-5.859,0
1579292427.659,-5.371,43.457,-59.082,999.512,-12.207,0
1579292427.663,27.832,47.363,-107.422,999.512,44.434,0
1579292427.666,36.133,37.598,60.547,999.512,67.383,0
1579292427.670,14.648,32.715,-17.090,999.512,29.785,0
1579292427.674,9.277,39.551,-120.117,999.512,72.266,0
1579292427.678,38.086,42.480,110.840,998.535,67.871,0
1579292427.682,60.547,39.062,149.902,995.605,21.973,0
1579292427.699,54.199,36.621,196.289,-987.793,55.664,0
1579292427.703,22.949,36.621,69.336,921.875,87.402,0
1579292427.707,32.715,41.504,-199.219,882.812,25.391,0
1579292427.711,84.961,43.457,21.484,-972.168,38.086,0
1579292427.715,76.172,41.016,164.062,855.469,96.191,0
1579292427.719,45.898,44.434,-143.066,352.539,35.156,0
1579292427.723,61.523,48.828,-278.809,279.297,48.828,0
1579292427.726,67.383,45.410,-481.445,534.180,48.340,0
1579292427.730,72.754,36.133,-366.699,458.984,56.641,0
1579292427.734,57.129,32.227,-174.805,-43.457,45.410,0
1579292427.738,45.898,33.691,-350.098,-305.176,-16.602,0
1579292427.742,79.590,40.039,-200.195,32.227,21.973,0
1579292427.739,79.102,45.898,-155.762,152.344,19.531,0
1579292427.743,46.875,38.574,-106.934,-240.723,52.246,0
1579292427.747,8.301,33.203,-158.691,-674.805,62.988,0
1579292427.751,20.020,33.203,-227.539,-601.074,12.207,0
1579292427.755,42.969,37.109,-130.371,-392.578,29.785,0
1579292427.759,13.672,42.480,-252.930,-726.562,65.430,0
1579292427.763,-7.812,46.875,-377.930,-991.211,136.719,0
1579292427.766,16.602,46.387,-304.199,-958.496,106.445,0
1579292427.770,29.297,37.109,-265.137,-964.844,9.277,0
1579292427.774,13.184,36.621,-193.848,-969.727,13.184,0
1579292427.778,-35.156,35.645,-536.621,-968.750,12.695,0
1579292427.782,-20.508,36.133,-738.770,-968.262,-39.551,0
1579292427.779,43.945,43.457,-417.480,-968.262,-42.480,0
1579292427.783,62.012,51.758,-344.238,-968.262,-19.531,0
1579292427.787,50.781,44.434,-216.797,-968.262,32.227,0
1579292427.791,19.531,34.668,-240.723,-968.262,60.059,0
1579292427.795,46.387,41.016,-277.832,-968.262,30.762,0
1579292427.799,74.707,42.480,-310.059,-968.262,15.625,0
1579292427.803,46.387,35.645,-448.730,-968.262,41.016,0
1579292427.806,22.949,30.273,-372.559,-968.262,40.039,0
1579292427.810,27.344,35.645,-429.199,-968.262,33.203,0
1579292427.814,32.715,38.086,-581.055,-968.750,49.316,0
1579292427.818,21.973,29.785,-302.246,-968.262,47.852,0
1579292427.822,-9.766,35.645,-164.062,-968.262,47.852,0
1579292427.839,-10.254,43.457,-134.766,-968.262,61.035,0
1579292427.843,10.254,41.016,-169.922,-968.262,68.359,0
1579292427.847,5.859,35.645,-151.855,-968.262,101.074,0
1579292427.851,-34.180,28.320,-170.898,-968.262,84.961,0
1579292427.855,-49.316,28.809,-270.020,-968.262,72.754,0
1579292427.859,-16.113,38.086,-243.164,-968.262,50.293,0
1579292427.863,-8.789,39.551,-292.480,-968.750,94.727,0
1579292427.866,-38.086,32.715,-489.746,-966.797,127.930,0
1579292427.870,-43.457,30.762,-398.438,-970.703,24.902,0
1579292427.874,-25.879,32.715,-159.180,-964.844,-12.207,0
1579292427.878,-18.555,33.691,-33.691,-938.477,37.598,0
1579292427.882,-77.637,29.297,-135.254,-941.406,11.719,0
1579292427.879,-118.164,34.668,-258.789,-1000.000,24.414,0
1579292427.883,-121.094,39.551,-92.773,-817.383,69.336,0
1579292427.887,-133.301,33.691,2.930,-393.066,35.645,0
1579292427.891,-148.926,27.344,53.223,-432.617,50.293,0
1579292427.895,-191.406,30.273,-32.227,-711.914,67.871,0
1579292427.899,-168.945,36.621,-212.402,-629.883,70.801,0
1579292427.903,-96.680,38.086,-182.129,-309.082,82.031,0
1579292427.906,-68.359,35.645,-93.750,-305.176,51.270,0
1579292427.910,-52.246,31.250,-38.574,-714.355,44.922,0
1579292427.914,-27.344,29.785,-52.246,-769.531,47.852,0
1579292427.918,2.930,36.133,-188.477,-369.141,44.922,0
1579292427.922,21.973,39.551,-109.375,-192.383,21.484,0
1579292427.919,8.789,37.598,-6.836,-428.223,-9.277,0
1579292427.923,-8.789,38.086,-20.020,-556.152,56.152,0
1579292427.927,11.719,41.504,47.363,-131.836,45.410,0
1579292427.931,14.648,45.410,-74.707,155.762,70.312,0
1579292427.935,-21.484,42.969,-137.695,-186.523,86.914,0
1579292427.939,-58.594,37.109,-170.410,-592.773,53.711,0
1579292427.943,-56.641,32.227,-379.395,-561.523,1.953,0
1579292427.946,-23.926,31.250,-132.324,-191.895,10.742,0
1579292427.950,-62.012,32.227,-231.445,-306.641,31.250,0
1579292427.954,-103.516,33.691,-632.324,-798.828,-7.324,0
1579292427.958,-69.336,37.598,-286.133,-718.262,48.828,0
1579292427.962,-39.551,38.086,-13.672,-341.797,35.156,0
1579292427.978,-35.645,36.133,25.879,-325.684,1.465,0
1579292427.982,-42.480,33.691,-93.262,-704.590,35.156,0
1579292427.986,-10.254,32.227,-216.797,-959.473,20.508,0
1579292427.990,58.105,39.062,-131.836,-676.270,-6.836,0
1579292427.994,87.891,37.109,-148.926,-665.527,-5.371,0
1579292427.998,74.219,29.297,-229.980,-968.262,17.578,0
1579292428.002,55.664,31.738,-443.359,-973.633,55.664,0
1579292428.005,85.449,31.250,-597.168,-959.473,36.621,0
1579292428.009,121.582,33.203,-291.504,-970.703,-0.977,0
1579292428.013,61.523,42.969,-119.141,-968.262,-18.066,0
1579292428.017,-10.742,44.434,-83.496,-968.262,6.348,0
1579292428.021,-20.020,37.598,-69.336,-968.262,80.566,0
1579292428.018,-17.578,32.227,-199.219,-968.262,24.902,0
1579292428.022,-26.367,37.109,-76.660,-968.262,27.344,0
1579292428.026,-49.805,38.086,-19.043,-968.262,52.246,0
1579292428.030,-50.293,34.668,-51.270,-968.750,15.137,0
1579292428.034,-28.809,33.203,-52.246,-968.262,45.410,0
1579292428.038,-30.273,28.809,-171.875,-969.238,57.617,0
1579292428.042,-39.062,30.273,-179.688,-958.008,83.496,0
1579292428.045,-27.344,34.668,-156.738,-989.746,15.625,0
1579292428.049,14.160,33.203,-15.625,-875.977,10.254,0
1579292428.053,21.973,34.180,137.207,-673.340,111.816,0
1579292428.057,-15.625,33.203,-267.578,-810.547,55.176,0
1579292428.061,-37.109,31.738,-364.746,-942.383,-4.395,0
1579292428.059,-27.832,35.156,5.371,-638.184,13.672,0
1579292428.063,-15.625,36.133,112.793,-408.691,-15.137,0
1579292428.067,1.953,40.527,18.066,-739.258,-13.184,0
1579292428.071,12.695,37.598,-173.340,-994.141,-0.977,0
1579292428.075,42.969,29.785,-54.199,-957.520,45.410,0
1579292428.079,76.660,32.715,-115.234,-965.332,40.039,0
1579292428.083,53.711,37.109,-226.074,-969.727,9.766,0
1579292428.086,-14.160,38.086,-87.891,-968.750,1.953,0
1579292428.090,-92.773,34.180,-417.480,-968.262,-30.762,0
1579292428.094,-140.625,29.297,-526.855,-968.262,-25.391,0
1579292428.098,-187.500,34.668,-87.402,-968.262,24.902,0
1579292428.102,-266.602,39.551,-16.113,-968.262,49.805,0
1579292428.121,-305.664,42.480,-60.059,-968.262,37.109,0
1579292428.125,-333.496,40.527,-59.570,-968.262,77.148,0
1579292428.129,-343.750,38.086,-29.297,-970.215,77.637,0
1579292428.133,-319.336,38.574,17.090,-958.496,68.359,0
1579292428.137,-317.383,34.180,-24.902,-978.516,77.148,0
1579292428.141,-295.410,33.691,-128.906,-927.246,64.941,0
1579292428.145,-224.121,34.668,-350.098,-641.113,53.711,0
1579292428.148,-177.734,35.645,-385.254,-600.098,62.012,0
1579292428.152,-136.230,35.645,-130.371,-917.480,41.504,0
1579292428.156,-78.613,41.016,-35.156,-859.375,24.902,0
1579292428.160,-26.367,47.852,60.547,-428.223,22.461,0
1579292428.164,-3.418,51.758,54.199,-290.039,31.738,0
1579292428.159,-48.340,47.852,-57.129,-622.559,13.184,0
1579292428.163,-83.008,39.062,-65.430,-708.008,-15.625,0
1579292428.167,-39.062,35.156,66.406,-267.578,53.711,0
1579292428.171,-26.367,37.598,136.230,-139.160,29.297,0
1579292428.175,-64.453,47.363,16.602,-411.621,43.945,0
1579292428.179,-92.773,45.898,-200.684,-591.309,55.176,0
1579292428.183,-66.895,40.527,-266.113,-391.602,-11.230,0
1579292428.186,-28.809,40.039,-98.145,-169.434,24.902,0
1579292428.190,-28.809,39.551,36.133,-484.863,84.473,0
1579292428.194,-44.922,37.109,-143.066,-849.609,60.059,0
1579292428.198,-26.855,40.039,-418.945,-605.469,52.734,0
1579292428.202,38.086,43.457,-157.715,-124.512,66.406,0
1579292428.199,58.594,44.434,81.543,-137.207,0.488,0
1579292428.203,50.781,49.316,3.418,-541.992,-10.742,0
1579292428.207,73.730,50.293,-71.777,-509.766,19.531,0
1579292428.211,127.930,41.504,-108.887,-65.918,-11.230,0
1579292428.215,164.551,32.227,111.816,146.973,47.363,0
1579292428.219,149.414,31.250,-30.762,-115.234,46.875,0
1579292428.223,138.672,31.250,-253.418,-243.164,23.926,0
1579292428.226,147.461,34.668,-30.762,285.645,27.344,0
1579292428.230,138.672,40.039,-104.492,735.352,47.852,0
1579292428.234,124.512,38.086,-169.434,605.957,20.508,0
1579292428.238,95.215,28.809,111.328,581.055,-12.207,0
1579292428.242,76.172,28.320,145.020,895.508,9.766,0
1579292428.259,85.938,32.227,174.805,-984.375,40.527,0
1579292428.263,81.543,35.156,170.898,988.770,8.301,0
1579292428.267,67.871,40.039,180.176,999.512,-5.371,0
1579292428.271,71.777,40.039,326.172,999.512,89.355,0
1579292428.275,106.445,39.551,311.523,999.512,23.438,0
1579292428.279,103.027,40.039,161.621,999.512,-3.906,0
1579292428.283,64.453,37.598,-3.418,999.512,96.680,0
1579292428.286,92.285,36.621,88.867,999.512,102.051,0
1579292428.290,152.344,35.645,282.715,999.512,70.312,0
1579292428.294,160.156,36.133,208.496,999.512,8.789,0
1579292428.298,139.648,38.086,174.805,999.512,-3.906,0
1579292428.302,118.652,41.016,-57.617,999.512,14.160,0
1579292428.299,130.371,39.551,-141.113,999.512,3.906,0
1579292428.303,134.277,42.969,135.254,999.512,7.812,0
1579292428.307,71.777,51.270,77.637,999.512,9.766,0
1579292428.311,2.930,53.223,-5.859,999.512,-6.836,0
1579292428.315,-28.809,42.969,-12.207,999.512,-24.902,0
1579292428.319,-32.715,34.180,-49.805,999.512,-12.207,0
1579292428.323,-13.672,37.109,8.301,999.512,36.133,0
1579292428.326,26.367,40.039,50.781,999.512,69.336,0
1579292428.330,114.258,39.062,212.402,999.512,52.734,0
1579292428.334,177.734,36.133,175.293,998.047,80.078,0
1579292428.338,182.129,38.086,-85.449,-998.047,105.469,0
1579292428.342,177.734,36.133,40.039,991.699,62.988,0
1579292428.339,152.832,31.250,176.270,984.375,25.879,0
1579292428.343,129.883,38.086,247.070,-1000.000,32.227,0
1579292428.347,74.219,49.316,176.270,-1000.000,18.555,0
1579292428.351,-13.672,54.199,64.941,998.535,8.301,0
1579292428.355,-82.031,40.527,208.984,999.512,87.402,0
1579292428.359,-103.516,28.809,154.785,999.512,125.000,0
1579292428.363,-88.867,36.133,34.180,999.512,57.617,0
1579292428.366,-106.934,35.645,-34.180,999.512,15.625,0
1579292428.370,-111.816,31.250,-285.645,999.512,32.227,0
1579292428.374,-32.715,34.180,-156.250,999.512,23.926,0
1579292428.378,37.598,34.668,176.270,999.512,22.949,0
1579292428.382,67.871,39.551,165.527,999.512,-29.785,0
1579292428.399,58.105,47.852,91.797,999.512,-24.414,0
1579292428.403,72.266,43.945,20.996,999.512,8.789,0
1579292428.407,119.629,41.992,174.316,999.512,60.547,0
1579292428.411,117.188,41.992,243.652,999.512,83.008,0
1579292428.415,90.820,40.527,96.191,999.512,40.039,0
1579292428.419,71.289,39.062,4.883,999.512,31.250,0
1579292428.423,63.965,37.598,-254.395,999.512,31.250,0
1579292428.426,84.961,37.109,-177.246,999.512,65.430,0
1579292428.430,66.406,32.715,138.672,999.512,112.793,0
1579292428.434,21.973,31.738,130.859,999.512,57.129,0
1579292428.438,50.293,39.551,225.586,999.512,59.570,0
1579292428.442,71.777,43.457,207.031,999.512,81.055,0
1579292428.439,59.082,44.434,175.293,999.512,65.430,0
1579292428.443,53.223,41.016,185.547,999.512,55.664,0
1579292428.447,89.844,29.297,169.922,999.512,46.875,0
1579292428.451,135.742,30.273,219.238,999.512,49.805,0
1579292428.455,125.977,33.203,141.602,999.512,58.594,0
1579292428.459,105.957,29.297,-9.766,999.512,83.008,0
1579292428.463,112.305,27.832,-106.934,999.512,26.367,0
1579292428.466,135.254,29.785,19.531,999.512,42.969,0
1579292428.470,143.555,35.645,176.270,999.512,17.090,0
1579292428.474,96.191,41.504,-123.535,999.512,-36.133,0
1579292428.478,83.496,38.574,-371.582,999.512,11.719,0
1579292428.482,135.742,41.016,-93.750,999.512,57.617,0
1579292428.480,143.555,43.457,106.934,999.512,65.918,0
1579292428.484,115.234,38.086,97.168,999.512,7.812,0
1579292428.488,85.938,38.574,-5.371,999.512,48.340,0
1579292428.492,95.215,36.621,3.418,999.512,105.469,0
1579292428.496,100.098,37.109,108.887,999.512,75.195,0
1579292428.500,56.641,41.992,-81.055,999.512,43.945,0
1579292428.504,46.387,41.504,-116.211,999.512,74.219,0
1579292428.507,60.059,45.410,-136.230,999.512,49.316,0
1579292428.511,83.984,43.945,-275.879,999.512,1.465,0
1579292428.515,98.145,36.621,-45.898,999.512,41.992,0
1579292428.519,59.082,38.574,0.977,999.512,46.875,0
1579292428.523,72.266,42.969,-13.184,999.512,29.785,0
1579292428.539,115.234,40.039,8.301,999.512,89.844,0
1579292428.543,102.051,40.527,-219.238,999.023,60.547,0
1579292428.547,95.703,39.551,-228.027,999.023,43.457,0
1579292428.551,104.492,34.668,-83.984,999.512,53.711,0
1579292428.555,111.328,40.039,0.000,999.512,41.992,0
1579292428.559,114.258,45.410,-45.410,999.512,62.988,0
1579292428.563,72.754,42.969,-498.535,997.070,7.812,0
1579292428.566,36.621,40.527,-476.074,998.535,27.832,0
1579292428.570,62.500,40.527,-8.301,999.512,79.590,0
1579292428.574,87.402,40.527,53.711,999.023,15.625,0
1579292428.578,61.035,38.086,67.383,999.512,53.711,0
1579292428.582,20.020,39.062,-36.133,999.512,77.637,0
1579292428.579,28.320,39.551,-53.711,999.512,20.020,0
1579292428.583,67.871,35.645,48.340,999.512,19.043,0
1579292428.587,82.520,35.156,32.715,999.512,2.930,0
1579292428.591,44.922,33.203,69.336,999.512,73.242,0
1579292428.595,27.344,32.715,-80.078,999.512,65.918,0
1579292428.599,56.641,39.551,-227.539,999.512,2.441,0
1579292428.603,65.430,43.945,-179.199,999.512,13.184,0
1579292428.606,47.852,37.598,-150.879,999.512,17.578,0
1579292428.610,37.109,38.086,-14.648,999.512,4.883,0
1579292428.614,42.969,41.992,-244.629,999.512,-0.977,0
1579292428.618,68.359,37.598,-419.434,999.512,3.906,0
1579292428.622,67.383,35.156,-87.891,999.512,7.812,0
1579292428.620,60.547,46.387,-4.883,999.512,19.043,0
1579292428.624,85.449,48.340,0.977,999.512,9.766,0
1579292428.628,80.078,35.156,-60.059,999.512,9.277,0
1579292428.632,61.523,34.180,-64.941,999.512,43.457,0
1579292428.636,45.410,38.086,-16.113,999.512,45.410,0
1579292428.640,45.898,32.715,-207.031,999.512,42.480,0
1579292428.644,65.918,27.344,-133.301,999.512,101.074,0
1579292428.647,32.227,28.809,-180.664,999.512,87.402,0
1579292428.651,-25.879,37.109,-471.191,999.512,57.129,0
1579292428.655,-27.832,39.062,-231.934,999.512,63.477,0
1579292428.659,-15.625,29.297,-72.754,999.512,5.859,0
1579292428.663,-6.836,29.297,-34.668,999.512,3.906,0
1579292428.679,-23.926,34.180,-86.426,999.512,55.176,0
1579292428.683,-18.066,39.551,-172.852,999.512,31.738,0
1579292428.687,37.598,37.598,-66.406,999.512,2.930,0
1579292428.691,68.359,30.273,-13.184,999.512,11.230,0
1579292428.695,63.477,31.738,39.551,999.512,55.176,0
1579292428.699,23.926,35.645,-165.527,999.512,43.457,0
1579292428.703,25.879,31.250,-511.719,999.512,0.977,0
1579292428.706,82.031,32.715,-249.512,999.512,15.137,0
1579292428.710,62.012,39.062,28.809,999.512,-5.859,0
1579292428.714,3.906,40.039,57.129,999.512,9.766,0
1579292428.718,41.504,42.480,-4.395,999.512,33.691,0
1579292428.722,152.832,40.039,-88.867,999.512,-14.160,0
1579292428.720,196.777,32.227,102.539,999.512,31.250,0
1579292428.724,180.176,29.297,137.695,999.512,68.359,0
1579292428.728,173.340,31.250,72.266,999.512,31.738,0
1579292428.732,196.289,35.156,84.961,999.512,43.945,0
1579292428.736,180.664,38.574,46.387,999.512,55.664,0
1579292428.740,86.426,38.574,-29.297,999.512,43.945,0
1579292428.744,14.160,39.062,-104.492,999.512,60.547,0
1579292428.747,36.133,38.574,0.000,999.512,92.773,0
1579292428.751,65.430,36.621,158.203,999.512,62.012,0
1579292428.755,48.828,38.574,-48.828,999.512,2.930,0
1579292428.759,71.777,38.086,-97.656,999.512,0.000,0
1579292428.763,118.652,38.086,68.848,999.512,-1.953,0
1579292428.759,165.039,41.992,137.207,999.512,1.953,0
1579292428.763,132.324,41.992,144.043,999.512,41.504,0
1579292428.767,31.738,34.180,-116.699,999.512,43.945,0
1579292428.771,8.789,32.715,-83.008,999.512,18.066,0
1579292428.775,11.230,32.715,234.375,999.512,57.129,0
1579292428.779,-45.410,30.273,131.348,999.512,72.754,0
1579292428.783,-88.867,34.668,91.797,999.512,62.500,0
1579292428.786,-98.145,42.969,15.625,-998.047,98.145,0
1579292428.790,-58.105,41.016,-215.332,975.586,83.984,0
1579292428.794,19.043,39.551,32.715,-967.773,10.742,0
1579292428.798,56.641,40.527,190.430,831.055,19.043,0
1579292428.802,76.660,38.086,104.980,178.711,55.176,0
1579292428.820,93.750,36.133,-22.949,31.738,64.941,0
1579292428.824,113.770,35.156,-24.414,103.516,55.176,0
1579292428.828,94.727,36.133,-5.859,-311.035,22.949,0
1579292428.832,21.484,43.945,-148.926,-799.805,24.414,0
1579292428.836,-29.785,47.852,-220.703,-767.090,75.684,0
1579292428.840,-73.242,46.875,-294.434,-302.246,101.562,0
1579292428.844,-131.836,40.527,-350.586,-218.750,84.961,0
1579292428.847,-175.293,33.203,-134.277,-540.527,60.059,0
1579292428.851,-168.945,28.320,-31.250,-598.145,32.715,0
1579292428.855,-135.254,17.578,126.465,-188.965,64.453,0
1579292428.859,-113.281,25.879,152.344,126.953,72.266,0
1579292428.863,-97.168,26.367,-25.391,-87.402,39.062,0
1579292428.858,-76.660,7.324,77.148,-158.691,12.207,0
1579292428.862,-30.762,0.977,252.930,296.387,35.645,0
1579292428.866,-1.953,0.977,448.730,665.039,90.332,0
1579292428.870,-44.434,3.418,385.254,521.973,66.406,0
1579292428.874,-81.055,8.301,174.805,161.621,20.508,0
1579292428.878,-87.402,6.836,161.133,294.922,39.062,0
1579292428.882,-79.590,6.836,138.184,652.344,19.531,0
1579292428.885,-68.848,20.020,107.910,592.773,14.648,0
1579292428.889,-107.422,31.250,145.996,357.422,50.293,0
1579292428.893,-138.184,34.180,-69.336,400.879,61.523,0
1579292428.897,-83.496,54.199,40.039,760.254,48.340,0
1579292428.901,-64.941,64.453,406.250,743.164,8.789,0
1579292428.898,-104.004,52.734,362.793,308.105,21.484,0
1579292428.902,-104.980,52.734,267.090,275.879,35.645,0
1579292428.906,-74.219,57.129,213.379,659.180,45.898,0
1579292428.910,-72.754,54.199,285.156,795.410,56.152,0
1579292428.914,-95.703,62.500,241.699,309.570,44.434,0
1579292428.918,-113.770,60.059,-96.191,-167.480,-3.906,0
1579292428.922,-120.605,41.992,-210.938,38.574,0.977,0
1579292428.925,-132.324,35.156,-384.766,154.785,0.977,0
1579292428.929,-136.719,43.945,-458.008,-214.844,56.641,0
1579292428.933,-132.812,51.270,-190.430,-687.500,117.676,0
1579292428.937,-129.395,35.156,-383.301,-706.543,-25.391,0
1579292428.941,-84.961,20.508,-326.172,-318.848,-25.391,0
1579292428.958,-89.355,31.250,-203.613,-383.301,57.129,0
1579292428.962,-114.746,39.551,-317.871,-777.832,37.109,0
1579292428.966,-96.680,37.109,-314.941,-773.926,25.391,0
1579292428.970,-68.848,38.574,-229.980,-306.152,28.809,0
1579292428.974,-72.266,39.062,-80.566,-2.930,45.898,0
1579292428.978,-105.469,38.574,-384.766,-228.516,63.477,0
1579292428.982,-87.891,44.922,-554.199,-218.262,87.891,0
1579292428.985,-14.160,48.828,-185.059,228.516,86.914,0
1579292428.989,5.859,41.504,-72.754,435.547,63.477,0
1579292428.993,3.906,41.992,-36.621,268.555,51.758,0
1579292428.997,-8.301,46.875,-257.812,97.168,62.012,0
1579292429.001,8.301,45.898,-410.645,430.176,32.715,0
1579292428.999,71.289,46.387,-121.582,737.793,12.207,0
1579292429.003,89.355,45.410,-129.395,566.895,45.898,0
1579292429.007,63.477,41.016,-190.430,311.035,33.203,0
1579292429.011,84.961,39.551,-266.602,456.055,-1.465,0
1579292429.015,132.812,46.875,-241.211,812.012,24.902,0
1579292429.019,143.066,49.316,-159.180,674.316,74.219,0
1579292429.023,120.605,48.828,-315.918,86.426,68.848,0
1579292429.026,124.512,44.922,-310.547,-64.453,15.625,0
1579292429.030,133.789,39.062,-246.582,260.742,17.090,0
1579292429.034,100.098,41.504,-501.953,285.645,62.012,0
1579292429.038,70.312,43.457,-518.555,-115.723,63.965,0
1579292429.042,32.715,38.574,-291.016,-162.109,21.484,0
1579292429.038,1.465,31.250,-99.121,581.543,20.020,3
1579292429.042,-36.621,30.273,59.082,-972.656,58.105,0
1579292429.046,-89.844,32.715,40.527,980.469,91.309,0
1579292429.050,-112.305,28.320,36.621,993.164,93.750,0
1579292429.054,-53.223,33.691,-90.820,980.957,4.395,0
1579292429.058,15.137,42.480,-140.137,-980.469,-15.137,0
1579292429.062,56.152,46.387,-145.020,874.023,10.254,0
1579292429.065,139.648,55.176,-474.121,260.742,28.320,0
1579292429.069,240.723,47.852,-515.137,-87.402,46.875,0
1579292429.073,299.316,34.180,-110.840,62.988,50.781,0
1579292429.077,299.316,33.203,-14.648,-38.086,51.270,0
1579292429.081,227.539,41.504,-141.113,-462.402,2.441,0
1579292429.098,150.879,42.969,-232.422,-377.930,37.109,0
1579292429.102,92.285,38.086,-123.047,157.227,43.457,0
1579292429.106,-26.367,40.527,-19.043,500.488,-18.555,0
1579292429.110,-131.348,37.109,-27.344,424.316,-21.484,0
1579292429.114,-178.711,34.668,-23.926,498.535,18.066,0
1579292429.118,-178.223,36.621,-187.500,914.551,-57.617,0
1579292429.122,-140.625,31.738,-201.660,-984.863,-28.809,0
1579292429.125,-117.676,35.156,-52.734,985.840,79.102,0
1579292429.129,-81.543,41.504,-75.684,-999.023,-0.977,0
1579292429.133,-8.301,41.016,50.781,999.512,-31.250,0
1579292429.137,23.926,40.527,-72.266,999.512,39.062,0
1579292429.141,33.691,38.086,-283.691,999.512,38.574,0
1579292429.138,45.898,34.180,-11.719,999.512,60.547,0
1579292429.142,74.219,39.062,59.570,999.512,31.738,0
1579292429.146,129.883,47.363,17.578,999.512,-50.293,0
1579292429.150,129.395,45.898,-57.129,999.512,-41.016,0
1579292429.154,95.703,37.598,-98.145,999.023,1.953,0
1579292429.158,74.707,34.668,-114.258,-1000.000,45.898,0
1579292429.162,96.680,32.715,-132.812,992.188,43.945,0
1579292429.165,137.695,36.621,71.777,-988.281,31.738,0
1579292429.169,105.469,42.480,-13.184,965.820,32.715,0
1579292429.173,50.781,40.039,-444.336,810.547,5.371,0
1579292429.177,92.285,38.574,-312.012,898.438,-1.465,0
1579292429.181,127.441,37.109,72.754,-955.078,44.434,0
1579292429.179,124.023,32.227,109.375,870.117,22.461,0
1579292429.183,112.793,36.133,-31.250,484.863,35.156,0
1579292429.187,110.840,41.504,-106.445,487.793,44.922,0
1579292429.191,138.672,41.016,48.340,792.969,-9.277,0
1579292429.195,132.324,41.992,135.254,782.227,-5.371,0
1579292429.199,71.777,35.156,-32.227,431.152,5.859,0
1579292429.203,78.613,34.180,-145.996,472.168,53.711,0
1579292429.206,133.301,36.133,-50.781,807.617,105.957,0
1579292429.210,175.293,38.086,149.414,788.086,57.129,0
1579292429.214,188.477,44.922,241.699,375.000,52.246,0
1579292429.218,184.570,39.062,230.469,185.547,76.660,0
1579292429.222,221.191,34.180,325.684,528.809,93.262,0
1579292429.238,209.961,44.434,132.324,591.309,41.504,0
1579292429.242,169.922,46.875,107.422,229.980,32.715,0
1579292429.246,145.020,38.086,282.227,-51.758,74.219,0
1579292429.250,150.391,31.250,293.457,130.371,62.500,0
1579292429.254,145.996,34.668,332.031,386.230,57.129,0
1579292429.258,114.746,34.180,172.363,104.492,83.984,0
1579292429.262,105.957,37.598,-6.348,-340.820,48.340,0
1579292429.265,121.582,42.480,176.758,-236.328,44.922,0
1579292429.269,124.023,33.203,351.562,59.082,64.453,0
1579292429.273,94.238,29.297,361.816,-146.484,-3.906,0
1579292429.277,62.012,20.020,-23.926,-735.840,6.348,0
1579292429.281,86.426,10.742,-208.984,-895.020,48.340,0
1579292429.278,124.512,30.273,150.879,-567.383,26.855,0
1579292429.282,118.164,57.617,282.715,-580.566,46.875,0
1579292429.286,59.082,62.988,269.531,-872.559,73.242,0
1579292429.290,-23.438,51.270,99.609,-1000.000,59.082,0
1579292429.294,-21.484,44.922,148.926,-739.258,75.684,0
1579292429.298,-23.438,49.805,213.379,-429.688,61.035,0
1579292429.302,-51.270,48.340,108.887,-661.621,43.945,0
1579292429.305,-54.199,38.086,249.512,-861.816,91.797,0
1579292429.309,-47.363,36.621,102.539,-547.852,89.844,0
1579292429.313,-28.809,37.109,-161.133,-110.352,25.391,0
1579292429.317,7.812,39.551,79.590,-75.195,-0.488,0
1579292429.321,15.625,45.410,214.844,-274.902,34.180,0
1579292429.338,38.574,45.410,238.770,-77.637,51.758,0
1579292429.342,61.035,46.387,189.453,378.906,-1.465,0
1579292429.346,46.875,42.480,201.660,562.500,10.742,0
1579292429.350,27.832,38.574,323.242,333.496,80.078,0
1579292429.354,20.020,37.598,245.605,332.031,62.012,0
1579292429.358,60.059,40.039,151.367,797.363,30.273,0
1579292429.362,79.102,41.504,48.340,-991.699,37.598,0
1579292429.365,28.320,39.551,-185.059,825.684,49.805,0
1579292429.369,13.184,43.457,-60.059,801.758,46.387,0
1579292429.373,30.762,41.504,190.430,997.070,4.395,0
1579292429.377,20.020,39.062,263.184,-997.070,4.883,0
1579292429.381,-11.719,44.922,237.793,989.258,64.941,0
1579292429.378,-48.828,41.992,82.520,-999.023,40.527,0
1579292429.382,-49.316,37.109,104.980,999.023,-12.695,0
1579292429.386,-8.301,39.062,167.969,-999.512,5.859,0
1579292429.390,-13.672,42.969,186.035,996.094,45.898,0
1579292429.394,-67.871,42.480,68.848,991.699,15.137,0
1579292429.398,-64.941,37.598,-137.695,-998.535,-8.789,0
1579292429.402,-18.066,37.598,-184.570,985.840,1.465,0
1579292429.405,1.465,43.457,-125.488,-970.215,-16.602,0
1579292429.409,-2.441,45.410,-25.391,892.090,11.230,0
1579292429.413,13.184,44.434,-46.387,693.359,50.781,0
1579292429.417,41.504,44.922,-336.426,908.203,80.078,0
1579292429.421,104.980,46.387,-259.277,920.898,127.441,0
1579292429.418,104.980,41.016,31.250,428.711,111.816,0
1579292429.422,90.820,36.621,-120.605,-101.562,28.320,0
1579292429.426,137.695,37.598,-124.512,-23.926,51.270,0
1579292429.430,132.324,39.551,-87.891,298.340,72.754,0
1579292429.434,107.422,41.016,-119.629,68.359,39.062,0
1579292429.438,67.871,45.898,-272.461,-269.043,54.688,0
1579292429.442,57.129,48.340,-409.668,-192.383,4.395,0
1579292429.445,64.453,46.387,-183.594,143.555,-24.902,0
1579292429.449,-2.930,47.363,-166.504,180.176,77.148,0
1579292429.453,-39.062,41.992,-327.148,-242.188,70.312,0
1579292429.457,-25.879,37.598,-239.258,-271.484,45.898,0
1579292429.461,-27.344,36.133,-124.512,8.301,54.199,0
1579292429.479,-12.207,34.668,-64.453,-46.875,56.641,0
1579292429.483,-42.969,35.645,-309.570,-416.504,66.895,0
1579292429.487,-47.852,41.992,-514.648,-674.316,16.113,0
1579292429.491,27.832,43.457,-191.895,-364.746,33.203,0
1579292429.495,46.387,41.992,-10.742,-342.285,66.406,0
1579292429.499,16.113,38.574,-184.570,-839.355,29.785,0
1579292429.503,6.348,36.621,-457.520,-990.723,53.711,0
1579292429.506,51.758,36.621,-662.109,-951.660,0.488,0
1579292429.510,143.066,38.086,-365.234,-969.727,-4.883,0
1579292429.514,177.246,41.016,-96.680,-968.750,64.453,0
1579292429.518,154.297,42.969,-166.504,-968.750,2.441,0
1579292429.522,162.598,32.715,-206.543,-968.262,32.227,0
1579292429.519,154.785,26.855,-197.754,-970.703,50.293,0
1579292429.523,89.355,39.551,-87.891,-955.566,25.879,0
1579292429.527,-16.602,43.945,-133.789,-977.539,7.324,0
1579292429.531,-64.453,41.992,-185.547,-908.203,43.457,0
1579292429.535,-42.969,38.086,-158.203,-458.496,18.555,0
1579292429.539,-63.477,35.645,-164.062,-157.227,1.953,0
1579292429.543,-75.684,39.062,-129.883,-297.363,72.754,0
1579292429.546,-73.242,36.621,-63.965,-291.016,53.223,0
1579292429.550,-68.848,37.109,123.535,394.043,21.973,0
1579292429.554,-95.703,44.434,304.688,-1000.000,17.578,0
1579292429.558,-186.035,40.039,44.922,992.188,20.996,0
1579292429.562,-242.188,28.809,-8.301,985.840,-18.066,0
1579292429.559,-235.840,34.180,309.570,-997.070,7.324,0
1579292429.563,-192.383,44.434,436.035,999.512,67.383,0
1579292429.567,-155.762,40.039,351.074,999.512,6.836,0
1579292429.571,-102.051,38.574,185.059,999.512,19.043,0
1579292429.575,-9.766,44.434,204.590,999.512,18.066,0
1579292429.579,67.871,40.527,154.297,999.512,-6.348,0
1579292429.583,113.770,37.109,55.176,999.512,35.156,0
1579292429.586,102.539,36.133,178.711,999.512,49.805,0
1579292429.590,69.824,36.621,-26.855,996.582,30.273,0
1579292429.594,80.078,39.551,-138.672,998.047,16.113,0
1579292429.598,37.598,37.598,188.477,990.723,-11.719,0
1579292429.602,-43.945,31.250,249.512,843.750,19.043,0
1579292429.619,-96.680,31.250,251.465,796.875,78.613,0
1579292429.623,-149.902,35.156,208.496,963.867,84.473,0
1579292429.627,-190.430,40.039,179.199,-967.773,32.227,0
1579292429.631,-247.070,38.574,204.102,893.066,16.602,0
1579292429.635,-325.195,39.062,131.348,753.906,28.320,0
1579292429.639,-335.449,41.992,45.410,928.223,12.207,0
1579292429.643,-304.199,38.574,-148.438,-983.887,9.766,0
1579292429.646,-271.484,39.551,-284.668,993.652,-27.832,0
1579292429.650,-238.281,42.969,-58.594,976.074,10.742,0
1579292429.654,-173.828,44.434,72.754,977.051,70.801,0
1579292429.658,-78.125,41.504,214.844,996.582,54.199,0
1579292429.662,-41.992,34.668,127.930,-993.652,2.930,0
1579292429.659,-22.949,36.621,17.090,730.957,14.160,0
1579292429.663,18.066,42.969,64.453,364.746,67.383,0
1579292429.667,80.078,32.715,105.469,487.793,86.914,0
1579292429.671,127.930,33.691,168.457,503.418,88.379,0
1579292429.675,116.699,45.410,-96.680,-47.363,46.875,0
1579292429.679,107.910,45.898,-382.324,-554.199,21.484,0
1579292429.683,124.512,37.598,-339.844,-521.973,38.574,0
1579292429.686,119.629,33.691,-151.855,-364.258,51.758,0
1579292429.690,88.867,40.527,-17.090,-650.879,54.688,0
1579292429.694,8.789,38.574,-183.594,-982.422,66.406,0
1579292429.698,-8.789,32.227,-412.598,-930.664,15.137,0
1579292429.702,11.230,35.156,-243.652,-723.145,50.781,0
1579292429.699,-31.738,33.203,-174.805,-808.594,71.777,0
1579292429.703,-56.641,30.273,-122.070,-978.516,58.105,0
1579292429.707,-54.199,36.621,-131.348,-983.398,62.500,0
1579292429.711,-24.902,39.551,-298.828,-880.859,36.133,0
1579292429.715,14.648,41.504,-132.812,-855.957,71.289,0
1579292429.719,5.371,41.992,-208.496,-973.633,31.738,0
1579292429.723,13.672,37.109,-324.707,-978.516,10.742,0
1579292429.726,60.547,36.621,-90.820,-931.641,14.648,0
1579292429.730,46.875,46.387,-366.211,-914.062,2.930,0
1579292429.734,16.113,44.922,-527.344,-959.961,6.348,0
1579292429.738,21.973,40.527,-165.527,-985.352,5.371,0
1579292429.742,44.922,38.574,-26.367,-908.203,22.461,0
1579292429.759,55.176,34.180,75.684,-632.324,59.570,0
1579292429.763,32.715,34.668,2.441,-671.387,25.391,0
1579292429.767,-5.371,33.203,-145.020,-954.590,22.461,0
1579292429.771,-12.695,36.133,-141.113,-725.098,52.246,0
1579292429.775,-7.324,42.969,98.633,-161.621,81.055,0
1579292429.779,-40.527,38.574,112.793,-40.527,95.215,0
1579292429.783,-81.543,35.645,-161.133,-284.180,104.004,0
1579292429.786,-76.172,37.598,-167.969,-203.125,42.480,0
1579292429.790,-27.832,33.691,114.258,378.906,19.043,0
1579292429.794,-13.184,31.738,252.930,689.941,52.734,0
1579292429.798,-28.809,30.762,264.160,441.406,39.551,0
1579292429.802,-45.410,32.227,-52.734,318.848,32.227,0
1579292429.799,6.836,37.109,-184.570,684.570,13.184,0
1579292429.803,72.266,39.551,124.512,-983.887,-25.879,0
1579292429.807,50.781,41.504,169.922,829.590,-12.207,0
1579292429.811,39.062,43.945,132.812,508.789,36.621,0
1579292429.815,43.945,41.504,66.895,691.406,76.660,0
1579292429.819,35.645,39.062,-45.898,999.023,47.363,0
1579292429.823,32.227,41.504,-64.453,871.582,29.785,0
1579292429.826,-18.066,40.039,-105.957,625.488,68.848,0
1579292429.830,-63.965,34.668,-26.367,813.477,21.973,0
1579292429.834,-63.477,36.133,60.059,-975.098,15.137,0
1579292429.838,-63.965,39.551,-189.941,990.723,-0.488,0
1579292429.842,-66.895,35.156,-42.969,997.070,-10.742,0
1579292429.839,-51.758,34.668,144.043,-999.512,-30.273,0
1579292429.843,21.973,41.016,207.031,992.188,-24.902,0
1579292429.847,54.199,35.156,236.328,-989.258,56.641,0
1579292429.851,74.707,27.832,150.391,932.617,73.730,0
1579292429.855,127.441,35.645,213.867,722.656,86.914,0
1579292429.859,171.875,37.598,59.082,756.348,65.430,0
1579292429.863,220.215,40.527,51.270,834.961,61.523,0
1579292429.866,221.191,42.480,98.633,379.395,40.039,0
1579292429.870,165.527,34.668,-375.488,-250.977,23.438,0
1579292429.874,169.922,30.762,-394.531,-186.035,35.645,0
1579292429.878,166.992,32.715,-64.453,133.789,15.625,0
1579292429.882,78.125,34.180,10.254,44.922,10.742,0
1579292429.899,-25.391,36.133,2.930,-231.445,74.707,0
1579292429.903,-74.707,37.109,-111.328,-191.895,76.172,0
1579292429.907,-99.609,42.480,-17.090,269.531,17.578,0
1579292429.911,-118.652,41.992,114.258,421.875,19.043,0
1579292429.915,-129.883,34.180,73.242,131.348,31.738,0
1579292429.919,-152.832,39.062,-97.168,21.484,-1.953,0
1579292429.923,-135.742,31.738,-339.844,378.906,28.809,0
1579292429.926,-81.055,27.344,-253.906,683.594,6.836,0
1579292429.930,-46.387,38.574,103.516,469.238,-9.277,0
1579292429.934,-24.414,38.574,173.340,312.988,42.969,0
1579292429.938,40.039,41.016,275.879,600.098,87.891,0
1579292429.942,75.195,43.945,292.969,850.586,113.770,0
1579292429.939,64.453,38.086,244.141,707.520,73.242,0
1579292429.943,60.059,38.086,253.906,320.801,65.430,0
1579292429.947,77.637,40.527,216.309,329.590,57.617,0
1579292429.951,107.422,41.504,296.875,571.777,60.547,0
1579292429.955,83.984,42.969,224.121,395.508,61.523,0
1579292429.959,38.574,34.668,-66.406,-14.160,-4.883,0
1579292429.963,32.715,34.668,-130.859,-87.891,37.598,0
1579292429.966,49.316,42.969,59.570,205.566,75.684,0
1579292429.970,51.270,43.457,255.371,108.398,48.828,0
1579292429.974,5.371,43.945,-62.500,-448.730,3.906,0
1579292429.978,-5.371,47.363,-313.965,-609.863,-30.273,0
1579292429.982,29.785,46.387,-5.371,-254.883,1.953,0
1579292429.979,21.484,40.039,111.816,-61.035,-0.488,0
1579292429.983,-22.461,35.156,144.531,-457.520,40.039,0
1579292429.987,-70.312,40.039,-129.883,-832.520,89.844,0
1579292429.991,-44.922,45.410,-282.715,-515.625,95.215,0
1579292429.995,-6.836,40.039,68.359,-172.852,83.008,0
1579292429.999,-24.414,45.410,-25.391,-368.652,57.129,0
1579292430.003,-22.461,50.781,-157.227,-763.184,58.594,0
1579292430.006,-10.254,42.480,-152.344,-666.504,43.457,0
1579292430.010,6.836,33.203,-388.672,-224.609,1.953,0
1579292430.014,34.180,31.250,-183.105,-237.793,27.344,0
1579292430.018,13.184,35.156,-13.184,-639.648,26.367,0
1579292430.022,20.508,37.109,-61.035,-818.359,46.387,0
1579292430.039,48.828,40.039,-66.895,-548.340,70.801,0
1579292430.043,46.875,43.945,-166.504,-445.801,-3.418,0
1579292430.047,15.625,38.574,-132.324,-802.734,12.695,0
1579292430.051,-19.531,34.180,-160.156,-1000.000,52.246,0
1579292430.055,-0.977,39.551,-113.281,-847.168,66.895,0
1579292430.059,-2.441,35.156,-168.945,-747.559,84.961,0
1579292430.063,-31.738,33.203,-412.109,-891.113,104.492,0
1579292430.066,-36.133,45.898,-361.328,-993.652,64.453,0
1579292430.070,-6.836,46.387,-222.656,-930.176,12.207,0
1579292430.074,13.184,38.574,-108.398,-826.660,64.453,0
1579292430.078,-11.719,36.621,-98.145,-928.223,51.758,0
1579292430.082,-39.062,34.180,-435.059,-981.445,6.836,0
1579292430.079,-11.230,35.156,-472.168,-973.145,-15.625,0
1579292430.083,37.598,42.969,-166.016,-807.129,17.578,0
1579292430.087,38.086,48.340,-116.699,-778.320,21.484,0
1579292430.091,-7.324,41.016,-148.438,-971.680,47.852,0
1579292430.095,-1.465,39.062,-201.172,-972.656,127.930,0
1579292430.099,-108.887,37.109,-264.648,-677.734,83.984,0
1579292430.103,-162.109,30.273,-270.508,-455.566,32.227,0
1579292430.106,-52.246,31.250,-307.617,-773.438,11.230,0
1579292430.110,-110.352,29.785,-306.641,-970.703,-21.484,0
1579292430.114,-42.480,35.645,-414.551,-561.523,21.484,0
1579292430.118,-20.020,41.016,-365.234,-192.383,110.840,0
1579292430.122,-36.621,42.480,-26.855,-362.793,107.910,0
1579292430.119,-21.484,40.527,-7.324,-709.473,88.379,0
1579292430.123,-50.293,38.574,-32.227,-486.328,54.199,0
1579292430.127,-17.090,35.156,-82.520,-29.297,-20.020,0
1579292430.131,-48.828,32.715,-60.547,-91.797,7.812,0
1579292430.135,-63.477,34.668,7.812,-420.898,57.617,0
1579292430.139,-58.594,37.109,-250.977,-464.844,7.324,0
1579292430.143,-51.758,34.180,-199.219,-42.480,-1.953,0
1579292430.146,-64.453,36.133,-77.637,118.164,64.453,0
1579292430.150,-93.750,43.457,-231.934,-222.168,53.223,0
1579292430.154,-82.031,37.598,-97.656,-261.719,16.602,0
1579292430.158,-67.383,42.969,-15.137,141.602,1.465,0
1579292430.162,-35.645,44.922,22.949,458.496,31.250,0
1579292430.178,-60.547,41.016,-68.359,274.902,64.941,0
1579292430.182,-81.055,37.598,-250.000,32.715,38.574,0
1579292430.186,-13.184,40.039,-6.836,359.863,70.312,0
1579292430.190,17.578,46.875,167.480,589.355,77.637,0
1579292430.194,-6.348,46.875,79.590,324.219,-4.395,0
1579292430.198,-50.293,40.039,-197.754,4.395,4.395,0
1579292430.202,-44.434,36.133,-345.215,110.840,52.734,0
1579292430.205,4.395,37.598,-42.969,420.410,46.387,0
1579292430.209,9.277,39.062,79.590,210.449,48.828,0
1579292430.213,-0.977,38.574,-27.344,-280.762,29.785,0
1579292430.217,-1.465,38.086,-83.008,-297.363,36.621,0
1579292430.221,5.859,41.016,-301.758,21.973,50.781,0
1579292430.218,19.043,41.016,-182.617,43.457,51.270,0
1579292430.222,-10.742,34.668,-111.816,-394.043,23.926,0
1579292430.226,-14.648,30.762,-214.844,-534.668,43.945,0
1579292430.230,28.809,38.574,-3.906,-125.000,95.703,0
1579292430.234,7.812,40.039,-15.625,15.137,57.129,0
1579292430.238,-42.480,30.762,-139.160,-321.289,41.016,0
1579292430.242,-59.082,35.645,-276.367,-670.898,59.082,0
1579292430.245,-23.438,41.504,-254.883,-445.801,31.250,1
1579292430.249,-1.465,38.574,21.484,-74.219,7.812,0
1579292430.253,-47.852,29.785,-188.965,-252.441,48.828,0
1579292430.257,-67.871,29.785,-448.242,-624.512,38.574,0
