timestamps,TP9,AF7,AF8,TP10,Right AUX,Marker0
1583338616.044,28.320,26.367,28.809,27.344,67.383,0
1583338616.048,35.645,24.902,27.344,27.832,56.152,0
1583338616.052,36.621,25.391,27.344,26.855,19.531,0
1583338616.056,28.320,26.367,27.344,21.973,-20.020,0
1583338616.060,25.391,27.832,28.320,24.414,13.184,0
1583338616.064,36.133,27.344,28.809,28.809,9.277,0
1583338616.068,44.434,24.414,26.855,25.391,-33.203,0
1583338616.071,38.574,24.902,25.879,23.926,-45.410,0
1583338616.075,30.273,24.414,25.391,22.949,17.578,0
1583338616.079,35.156,23.438,26.855,28.809,40.039,0
1583338616.083,40.039,26.855,25.391,39.062,58.105,0
1583338616.087,32.227,26.855,24.414,30.273,70.312,0
1583338616.084,23.438,24.902,23.926,21.484,-0.488,0
1583338616.088,25.391,24.414,24.414,21.973,-20.020,0
1583338616.092,34.668,27.344,25.879,27.344,57.617,0
1583338616.096,35.156,29.785,26.855,22.949,88.379,0
1583338616.100,23.926,29.297,26.367,12.207,27.344,0
1583338616.104,21.484,30.273,24.414,19.531,8.301,0
1583338616.108,31.250,28.809,23.438,23.926,42.969,0
1583338616.111,35.645,28.809,24.902,26.855,82.031,0
1583338616.115,27.344,30.762,20.508,17.090,28.320,0
1583338616.119,19.531,30.273,20.020,7.812,7.812,0
1583338616.123,32.715,30.273,24.414,22.461,26.855,0
1583338616.127,40.527,29.785,23.926,27.344,-46.387,0
1583338616.144,32.715,27.344,25.391,25.391,-16.113,0
1583338616.148,27.344,30.273,27.344,21.973,70.312,0
1583338616.152,29.785,30.762,28.809,18.555,33.203,0
1583338616.156,40.039,27.344,30.762,29.785,1.953,0
1583338616.160,35.645,28.320,30.762,28.320,-0.488,0
1583338616.164,23.438,29.785,29.785,26.855,-13.184,0
1583338616.168,26.367,30.273,26.367,25.879,14.648,0
1583338616.171,36.133,31.738,26.855,22.949,-28.320,0
1583338616.175,31.250,28.809,28.320,28.320,-44.434,0
1583338616.179,21.484,28.320,28.320,22.461,-33.691,0
1583338616.183,25.391,31.738,31.250,22.949,-20.020,0
1583338616.187,30.273,34.180,29.785,21.484,20.020,0
1583338616.204,34.668,32.715,28.320,15.137,1.465,0
1583338616.208,33.203,27.344,29.297,18.066,1.953,0
1583338616.212,28.809,28.320,28.809,16.602,99.609,0
1583338616.216,38.574,30.762,28.320,19.531,93.750,0
1583338616.220,43.457,28.809,25.879,19.043,5.371,0
1583338616.224,37.598,29.297,28.320,18.066,-10.254,0
1583338616.228,31.250,29.785,27.832,21.973,25.391,0
1583338616.231,32.715,27.344,26.367,19.531,39.551,0
1583338616.235,41.016,27.832,29.297,26.367,36.133,0
1583338616.239,41.504,30.273,29.297,19.043,46.875,0
1583338616.243,29.785,29.785,25.879,2.930,14.648,0
1583338616.247,26.367,26.367,23.438,10.742,-4.883,0
1583338616.264,35.645,25.879,22.949,19.531,1.953,0
1583338616.268,36.621,26.855,23.926,20.996,-19.531,0
1583338616.272,28.320,27.344,23.438,17.090,7.812,0
1583338616.276,23.438,28.320,23.438,13.672,23.926,0
1583338616.280,32.227,29.297,26.855,22.949,2.930,0
1583338616.284,39.551,29.297,26.855,29.785,6.836,0
1583338616.288,28.809,26.855,25.391,27.344,37.598,0
1583338616.291,22.461,27.344,23.438,14.160,58.105,0
1583338616.295,33.691,27.344,21.484,11.230,13.672,0
1583338616.299,38.086,26.367,23.926,22.461,-18.555,0
1583338616.303,32.227,26.367,22.949,18.066,46.387,0
1583338616.307,23.438,24.414,19.531,13.184,31.738,0
1583338616.364,23.926,23.438,22.461,17.090,-2.441,0
1583338616.368,37.109,25.391,23.926,22.461,14.648,0
1583338616.372,41.016,27.344,20.996,28.809,27.832,0
1583338616.376,28.809,23.926,21.973,23.926,26.855,0
1583338616.380,27.344,22.949,23.926,21.484,47.363,0
1583338616.384,39.551,22.949,20.996,25.391,49.316,0
1583338616.388,40.527,22.949,19.531,22.461,35.156,0
1583338616.391,31.250,26.855,20.020,16.113,23.926,0
1583338616.395,27.832,27.832,20.996,14.648,-2.441,0
1583338616.399,31.250,27.832,21.973,21.973,29.297,0
1583338616.403,34.180,27.832,20.020,19.043,19.531,0
1583338616.407,30.273,30.273,19.531,16.602,72.266,0
1583338616.391,23.438,31.738,20.996,20.508,33.691,0
1583338616.395,28.809,28.320,21.484,23.438,-41.504,0
1583338616.399,41.016,28.809,22.461,32.227,-19.531,0
1583338616.403,38.086,30.273,22.461,25.879,-26.855,0
1583338616.407,31.250,31.738,17.578,16.602,-28.320,0
1583338616.411,30.273,33.203,17.578,21.973,-47.852,0
1583338616.415,35.645,31.738,21.484,31.738,3.418,0
1583338616.418,36.621,30.273,20.996,31.250,45.410,0
1583338616.422,28.809,28.809,20.020,14.648,11.719,0
1583338616.426,28.320,31.250,20.996,20.020,3.906,0
1583338616.430,36.621,33.691,21.484,31.738,41.016,0
1583338616.434,41.504,30.762,21.973,29.297,8.301,0
1583338616.424,29.785,29.785,21.484,25.879,25.879,0
1583338616.428,22.461,29.297,20.508,18.066,93.750,0
1583338616.432,31.738,28.809,19.043,22.949,36.133,0
1583338616.436,39.551,28.809,18.066,27.832,10.742,0
1583338616.440,36.621,29.785,18.066,21.484,-5.371,0
1583338616.444,26.367,28.320,19.043,22.461,52.246,0
1583338616.448,30.762,28.809,21.973,20.996,52.246,0
1583338616.451,37.109,31.738,22.949,26.855,-10.254,0
1583338616.455,28.320,28.809,22.949,24.902,36.621,0
1583338616.459,19.043,25.391,20.508,17.578,50.781,0
1583338616.463,20.020,27.832,18.555,20.996,49.805,0
1583338616.467,27.344,27.344,20.508,22.949,30.273,0
1583338616.483,26.855,23.926,21.973,24.414,54.199,0
1583338616.487,19.043,23.926,22.461,21.484,56.641,0
1583338616.491,19.531,26.855,26.367,15.137,3.906,0
1583338616.495,32.715,27.832,28.320,19.531,23.926,0
1583338616.499,38.574,27.832,27.344,20.996,31.250,0
1583338616.503,33.203,27.344,26.855,17.578,-10.742,0
1583338616.507,31.738,28.320,26.855,16.113,-7.324,0
1583338616.510,37.109,31.250,28.320,17.090,28.809,0
1583338616.514,39.551,27.832,29.297,24.902,49.805,0
1583338616.518,38.574,29.785,26.367,22.949,32.715,0
1583338616.522,30.762,33.691,26.367,17.578,43.457,0
1583338616.526,26.367,30.273,26.855,18.066,52.734,0
1583338616.524,35.156,29.785,22.949,21.484,-21.484,0
1583338616.528,36.133,26.855,22.949,19.043,-7.812,0
1583338616.532,26.855,26.855,23.438,9.766,20.020,0
1583338616.536,24.902,33.203,21.484,16.602,-18.555,0
1583338616.540,33.203,34.180,22.949,29.785,14.648,0
1583338616.544,34.180,33.203,25.391,28.809,53.711,0
1583338616.548,27.832,31.738,26.367,24.414,49.805,0
1583338616.551,29.297,31.250,26.367,19.531,24.902,0
1583338616.555,33.203,31.250,24.902,20.996,-33.203,0
1583338616.559,34.180,30.762,22.461,23.926,-1.465,0
1583338616.563,33.691,31.738,22.949,19.043,-2.441,0
1583338616.567,32.227,31.738,23.926,21.973,25.879,0
1583338616.528,36.621,31.250,26.367,28.809,87.402,0
1583338616.532,45.410,32.227,26.855,28.320,66.406,0
1583338616.536,45.898,33.691,24.414,26.855,20.508,0
1583338616.540,36.621,29.297,22.949,25.391,38.086,0
1583338616.544,36.133,28.809,22.949,23.926,64.453,0
1583338616.548,41.992,28.809,25.391,29.297,106.445,0
1583338616.552,46.387,26.855,22.949,32.227,70.312,0
1583338616.555,39.551,28.809,22.949,25.879,-3.418,0
1583338616.559,32.227,28.320,24.902,19.043,60.547,0
1583338616.563,40.039,27.344,25.391,22.949,81.055,0
1583338616.567,49.316,27.344,26.367,27.344,19.531,0
1583338616.571,48.828,29.297,27.832,22.949,3.418,0
1583338616.564,46.387,30.762,27.344,18.555,12.695,0
1583338616.568,47.852,30.762,28.320,20.996,42.480,0
1583338616.572,46.387,26.855,26.855,23.438,75.684,0
1583338616.576,36.133,26.855,25.879,15.625,55.176,0
1583338616.580,28.809,28.320,25.879,11.230,7.812,0
1583338616.584,31.738,27.832,23.438,17.090,-14.648,0
1583338616.588,41.992,31.250,23.438,20.996,-11.230,0
1583338616.591,41.504,32.227,27.344,18.555,44.434,0
1583338616.595,30.273,30.762,27.344,16.602,46.387,0
1583338616.599,27.344,25.879,22.461,17.578,-26.367,0
1583338616.603,34.668,26.367,23.438,23.926,-6.836,0
1583338616.607,36.621,31.250,23.926,22.461,-15.137,0
1583338616.604,29.785,32.227,19.531,7.812,-37.598,0
1583338616.608,29.297,30.762,22.461,3.418,20.996,0
1583338616.612,35.645,28.320,25.879,18.555,38.086,0
1583338616.616,37.598,28.320,26.855,27.832,16.113,0
1583338616.620,33.203,29.785,25.391,25.391,18.066,0
1583338616.624,31.250,30.273,24.902,21.484,12.207,0
1583338616.628,37.109,31.250,29.785,20.508,-2.441,0
1583338616.631,41.992,29.297,29.297,31.250,-37.109,0
1583338616.635,36.133,26.855,27.832,30.762,-56.641,0
1583338616.639,26.855,28.320,27.832,26.367,20.508,0
1583338616.643,29.297,28.809,26.855,27.344,55.664,0
1583338616.647,41.016,28.809,29.297,30.762,25.391,0
1583338616.644,41.016,26.855,31.250,31.738,13.672,0
1583338616.648,32.715,25.879,29.785,30.273,34.180,0
1583338616.652,33.203,28.809,30.273,30.762,92.773,0
1583338616.656,38.086,28.809,29.297,23.438,64.941,0
1583338616.660,42.480,28.809,26.855,19.531,43.457,0
1583338616.664,41.016,29.297,27.344,23.438,2.930,0
1583338616.668,34.668,26.367,27.832,19.531,-37.598,0
1583338616.671,38.574,27.344,26.855,20.508,-40.527,0
1583338616.675,43.945,26.367,21.973,14.160,0.000,0
1583338616.679,39.551,27.344,20.996,9.277,17.090,0
1583338616.683,32.715,28.320,24.902,17.090,-27.344,0
1583338616.687,34.180,26.855,25.391,22.949,4.395,0
1583338616.711,41.504,27.832,25.879,32.227,63.477,0
1583338616.715,41.504,26.855,25.879,17.578,30.762,0
1583338616.719,32.715,27.832,27.832,9.766,-2.441,0
1583338616.723,28.809,27.832,28.320,22.949,11.230,0
1583338616.727,37.109,25.879,25.879,22.461,43.945,0
1583338616.731,40.527,26.855,27.344,24.902,23.438,0
1583338616.735,32.715,27.832,26.855,16.113,10.254,0
1583338616.738,26.367,26.855,23.438,7.324,29.297,0
1583338616.742,34.668,28.809,23.926,21.484,-32.227,0
1583338616.746,39.062,29.785,23.926,24.902,-63.477,0
1583338616.750,31.250,29.785,24.414,25.879,4.395,0
1583338616.754,25.391,30.273,28.320,18.555,38.574,0
1583338616.785,30.273,26.855,28.809,20.020,33.691,0
1583338616.789,36.133,25.391,25.879,28.320,19.531,0
1583338616.793,29.785,25.391,23.438,17.578,30.273,0
1583338616.797,25.879,26.855,21.973,17.090,68.848,0
1583338616.801,28.320,25.879,22.949,17.578,51.270,0
1583338616.805,33.691,25.879,25.879,17.578,67.871,0
1583338616.809,34.668,28.320,27.344,23.926,23.438,0
1583338616.812,30.273,26.367,21.973,23.438,-23.926,0
1583338616.816,32.715,24.902,20.020,28.320,48.340,0
1583338616.820,40.039,26.367,23.438,30.273,13.672,0
1583338616.824,44.434,26.367,20.996,29.785,11.719,0
1583338616.828,36.621,26.367,20.996,32.715,38.086,0
1583338616.826,36.133,28.320,22.949,35.645,-5.859,0
1583338616.830,48.828,26.855,21.973,39.062,3.906,0
1583338616.834,47.852,21.973,19.531,32.227,27.344,0
1583338616.838,41.504,20.508,16.602,24.414,4.395,0
1583338616.842,38.574,19.043,19.531,31.738,-75.195,0
1583338616.846,36.133,15.625,20.508,38.574,-64.941,0
1583338616.850,36.621,13.672,21.484,39.551,48.828,0
1583338616.853,33.691,15.137,23.438,32.227,91.797,0
1583338616.857,26.367,16.113,20.996,21.973,63.965,0
1583338616.861,33.203,17.578,22.461,35.156,54.688,0
1583338616.865,41.504,17.578,23.438,41.992,16.602,0
1583338616.869,38.086,16.602,22.949,37.598,58.594,0
1583338616.864,32.715,18.555,20.996,27.344,40.527,0
1583338616.868,35.645,18.555,22.461,27.344,-6.348,0
1583338616.872,49.316,16.602,25.391,41.504,45.898,0
1583338616.876,49.316,20.508,25.391,42.480,29.785,0
1583338616.880,37.598,21.484,25.879,41.016,1.465,0
1583338616.884,37.109,20.996,26.367,40.527,31.250,0
1583338616.888,44.922,22.461,26.855,43.457,40.039,0
1583338616.891,51.270,22.461,26.367,46.387,-0.488,0
1583338616.895,41.504,20.508,27.832,41.016,22.461,0
1583338616.899,27.344,18.555,29.297,32.227,17.578,0
1583338616.903,31.738,21.484,25.879,27.832,-41.016,0
1583338616.907,37.598,22.949,19.043,28.320,7.812,0
1583338616.887,33.691,21.484,21.484,25.391,62.012,0
1583338616.891,27.344,23.926,26.367,24.414,12.207,0
1583338616.895,32.715,25.391,26.367,29.785,-26.855,0
1583338616.899,42.480,24.414,27.344,34.668,37.598,0
1583338616.903,35.156,24.414,25.391,31.738,45.898,0
1583338616.907,27.832,25.879,26.855,27.344,-25.391,0
1583338616.911,32.715,27.832,27.344,27.344,-6.836,0
1583338616.914,42.480,29.785,25.879,28.809,-16.113,0
1583338616.918,48.340,30.762,26.367,26.367,-57.129,0
1583338616.922,40.039,29.785,25.391,23.926,11.719,0
1583338616.926,34.180,27.832,25.391,20.996,21.973,0
1583338616.930,41.016,28.320,25.391,26.367,7.812,0
1583338616.944,41.504,30.762,26.367,29.785,68.848,0
1583338616.948,35.645,30.273,26.367,19.043,67.871,0
1583338616.952,29.297,28.320,22.461,15.625,18.066,0
1583338616.956,33.691,29.297,22.461,14.648,-40.039,0
1583338616.960,41.992,30.762,24.902,20.996,-8.301,0
1583338616.964,37.598,29.297,24.414,25.879,79.102,0
1583338616.968,25.391,25.879,24.902,11.719,66.406,0
1583338616.971,21.973,27.832,23.926,9.766,22.949,0
1583338616.975,28.320,27.344,20.996,15.137,2.930,0
1583338616.979,27.832,23.438,22.461,13.672,39.551,0
1583338616.983,20.508,23.438,21.973,5.371,40.039,0
1583338616.987,19.043,22.949,23.438,1.465,3.906,0
1583338616.984,26.855,21.973,26.367,13.184,58.594,0
1583338616.988,33.203,26.367,25.391,15.625,32.227,0
1583338616.992,28.809,28.320,26.367,8.789,-24.414,0
1583338616.996,22.461,28.809,25.879,7.812,16.602,0
1583338617.000,30.762,27.832,25.879,10.254,43.457,0
1583338617.004,39.062,29.297,25.391,18.555,10.742,0
1583338617.008,32.227,29.785,24.414,17.578,-10.254,0
1583338617.011,25.391,28.320,24.902,7.324,3.418,0
1583338617.015,27.344,27.832,23.438,10.742,11.230,0
1583338617.019,35.645,27.832,25.879,20.508,-7.324,0
1583338617.023,37.598,29.785,26.855,25.879,9.766,0
1583338617.027,33.203,31.738,26.855,23.438,-5.859,0
1583338617.023,32.715,29.785,26.855,26.367,-31.738,0
1583338617.027,35.156,27.832,27.344,35.156,62.500,0
1583338617.031,39.062,30.273,27.344,30.273,102.539,0
1583338617.035,35.156,34.668,27.344,23.926,20.996,0
1583338617.039,31.738,36.133,27.344,20.020,9.277,0
1583338617.043,40.039,33.691,26.855,23.926,24.902,0
1583338617.047,43.945,31.250,25.879,28.809,-4.883,0
1583338617.050,36.621,31.250,26.367,21.484,17.090,0
1583338617.054,33.691,31.250,30.273,21.973,41.992,0
1583338617.058,37.598,33.203,28.809,21.484,34.180,0
1583338617.062,40.527,30.273,26.855,20.996,46.875,0
1583338617.066,36.621,27.832,29.785,27.344,86.914,0
1583338617.064,31.250,32.715,29.785,24.902,80.566,0
1583338617.068,34.180,33.203,28.320,27.832,47.363,0
1583338617.072,34.180,31.738,27.832,28.809,38.086,0
1583338617.076,32.715,32.227,26.855,25.391,16.113,0
1583338617.080,28.809,31.250,24.414,23.438,16.602,0
1583338617.084,25.879,30.273,24.414,24.902,9.766,0
1583338617.088,35.156,30.762,27.344,32.715,30.762,0
1583338617.091,35.645,28.809,26.367,30.273,57.617,0
1583338617.095,25.879,28.320,25.879,21.973,15.137,0
1583338617.099,23.926,30.762,28.320,23.438,-38.086,0
1583338617.103,32.227,29.785,29.785,24.414,4.883,0
1583338617.107,37.598,27.344,30.273,30.273,63.477,0
1583338617.124,32.227,28.809,27.344,27.832,59.570,0
1583338617.128,28.320,28.809,25.391,21.973,26.855,0
1583338617.132,33.691,25.879,26.367,29.785,-5.859,0
1583338617.136,37.598,24.902,26.855,34.668,0.488,0
1583338617.140,33.203,26.367,26.367,31.250,9.766,0
1583338617.144,26.367,29.785,20.996,23.926,1.953,0
1583338617.148,23.926,28.320,20.996,16.113,-4.883,0
1583338617.151,31.738,26.367,21.484,18.066,-29.297,0
1583338617.155,33.203,24.902,19.043,20.020,0.488,0
1583338617.159,22.949,23.926,20.508,20.508,10.742,0
1583338617.163,21.484,27.344,22.461,18.555,9.277,0
1583338617.167,35.156,30.273,23.926,24.414,15.137,0
1583338617.164,42.480,31.738,27.832,29.785,-12.695,0
1583338617.168,30.273,32.227,28.320,22.461,-18.555,0
1583338617.172,23.438,32.227,26.855,25.879,-1.953,0
1583338617.176,32.227,31.250,26.367,30.762,-23.926,0
1583338617.180,35.645,30.273,25.879,27.832,-37.598,0
1583338617.184,27.832,29.297,25.879,24.902,17.090,0
1583338617.188,24.414,30.273,27.832,22.461,63.965,0
1583338617.191,29.297,32.715,27.832,29.297,27.344,0
1583338617.195,33.691,32.227,25.391,33.203,35.156,0
1583338617.199,34.668,34.668,25.391,24.414,34.180,0
1583338617.203,30.273,35.156,25.879,14.648,39.551,0
1583338617.207,31.738,32.715,26.855,16.602,29.785,0
1583338617.225,38.086,31.250,26.367,26.855,-15.625,0
1583338617.229,36.621,31.738,27.344,27.344,-14.160,0
1583338617.233,25.879,31.738,27.344,17.578,-2.441,0
1583338617.237,24.414,31.250,25.391,8.301,25.879,0
1583338617.241,32.227,31.250,26.367,17.090,20.508,0
1583338617.245,36.621,30.762,27.344,25.879,-0.977,0
1583338617.249,30.762,29.297,26.855,20.996,30.273,0
1583338617.252,26.855,29.297,30.273,19.043,69.336,0
1583338617.256,28.320,26.367,31.250,15.625,52.734,0
1583338617.260,33.203,26.367,29.785,17.578,20.020,0
1583338617.264,32.715,27.832,30.273,21.484,-35.156,0
1583338617.268,23.438,29.785,31.250,18.555,-1.953,0
1583338617.264,24.902,30.273,28.809,20.996,71.289,0
1583338617.268,32.715,30.762,28.320,17.090,20.508,0
1583338617.272,35.645,33.203,29.785,14.648,-45.410,0
1583338617.276,32.227,32.715,29.785,21.973,18.555,0
1583338617.280,32.715,32.227,31.738,22.461,16.602,0
1583338617.284,38.574,33.691,33.203,27.344,29.785,0
1583338617.288,41.992,34.180,31.250,25.391,-5.859,0
1583338617.291,30.762,32.227,30.762,19.043,-2.441,0
1583338617.295,24.414,31.738,30.762,22.461,32.227,0
1583338617.299,33.691,31.738,29.297,30.273,27.344,0
1583338617.303,43.945,34.668,27.344,30.762,50.781,0
1583338617.307,37.109,32.715,26.855,10.254,81.543,0
1583338617.324,29.785,30.273,24.902,6.836,25.391,0
1583338617.328,35.156,29.785,24.414,25.391,-14.160,0
1583338617.332,38.574,27.344,25.879,29.785,45.898,0
1583338617.336,33.691,30.273,27.832,26.367,28.320,0
1583338617.340,24.414,29.785,27.344,17.090,15.137,0
1583338617.344,27.344,27.344,25.879,19.043,23.926,0
1583338617.348,41.504,25.879,27.344,29.297,-26.367,0
1583338617.351,43.457,26.855,27.832,31.250,-16.113,0
1583338617.355,36.133,29.297,26.367,35.156,27.344,0
1583338617.359,37.109,26.855,25.391,29.297,27.832,0
1583338617.363,41.992,25.391,24.902,31.738,17.578,0
1583338617.367,41.016,27.344,22.949,40.527,52.246,0
1583338617.365,37.109,28.320,21.484,29.297,13.672,0
1583338617.369,34.180,29.297,22.949,27.832,-28.809,0
1583338617.373,39.551,28.809,22.949,24.414,29.297,0
1583338617.377,48.828,29.785,22.949,23.926,-15.137,0
1583338617.381,44.434,32.227,23.438,27.832,-25.879,0
1583338617.385,33.691,32.715,23.926,21.484,20.508,0
1583338617.389,33.203,31.250,24.902,29.785,42.480,0
1583338617.392,38.574,28.320,26.855,29.785,31.250,0
1583338617.396,32.227,25.391,27.344,20.508,48.828,0
1583338617.400,25.391,27.344,25.879,21.484,63.965,0
1583338617.404,26.855,26.855,25.879,21.484,10.254,0
1583338617.408,35.645,26.367,26.367,28.809,-26.367,0
1583338617.405,33.203,26.367,23.926,21.484,43.945,0
1583338617.409,25.391,23.926,22.949,12.207,28.320,0
1583338617.413,28.809,23.926,24.902,24.414,30.273,0
1583338617.417,40.039,25.391,25.391,35.156,41.016,0
1583338617.421,46.387,27.344,24.902,38.574,32.227,0
1583338617.425,40.039,30.273,24.414,26.367,40.527,0
1583338617.429,34.180,29.297,24.414,23.438,18.066,0
1583338617.432,37.109,28.809,26.367,36.133,16.113,0
1583338617.436,41.504,29.297,28.809,39.551,23.926,0
1583338617.440,37.598,29.297,30.762,38.574,42.969,0
1583338617.444,31.250,33.691,25.391,24.902,50.781,0
1583338617.448,30.273,33.203,21.973,16.113,39.551,0
1583338617.444,34.668,27.832,26.367,24.902,34.180,0
1583338617.448,35.156,28.320,24.902,25.391,-3.418,0
1583338617.452,30.762,30.762,26.855,20.996,-23.438,0
1583338617.456,26.855,29.785,29.297,20.996,62.988,0
1583338617.460,30.273,31.250,25.879,25.879,43.945,0
1583338617.464,35.156,33.203,24.414,25.391,1.953,0
1583338617.468,29.297,32.227,24.414,18.066,-3.906,0
1583338617.471,29.785,30.273,25.879,20.020,-12.207,0
1583338617.475,36.621,30.762,25.391,27.344,52.734,0
1583338617.479,39.551,32.227,23.926,26.367,39.551,0
1583338617.483,33.203,29.297,27.344,25.391,89.355,0
1583338617.487,21.484,26.367,29.297,24.414,80.566,0
1583338617.484,23.926,27.344,25.879,28.809,47.363,0
1583338617.488,32.715,27.344,25.879,30.273,65.430,0
1583338617.492,25.879,26.855,27.344,21.484,-28.320,0
1583338617.496,17.578,25.879,25.391,17.090,-23.926,0
1583338617.500,22.949,28.320,26.855,24.414,-5.371,0
1583338617.504,34.668,31.250,25.879,29.785,27.832,0
1583338617.508,35.156,29.785,24.414,24.414,67.871,0
1583338617.511,25.391,30.273,24.414,19.531,44.922,0
1583338617.515,27.832,30.273,25.879,21.973,6.348,0
1583338617.519,41.992,32.715,33.203,35.156,9.766,0
1583338617.523,46.387,31.738,35.156,37.598,47.363,0
1583338617.527,40.039,31.738,32.227,30.762,2.930,0
1583338617.544,35.645,35.645,33.203,25.391,-9.277,0
1583338617.548,35.156,33.203,32.715,23.438,10.742,0
1583338617.552,39.062,31.250,30.762,29.297,13.672,0
1583338617.556,38.574,31.250,29.785,25.391,17.090,0
1583338617.560,33.691,30.273,27.344,16.113,-32.227,0
1583338617.564,38.086,27.344,27.344,18.555,39.551,0
1583338617.568,48.828,24.414,29.297,24.902,58.594,0
1583338617.571,44.434,24.902,26.367,21.484,-33.691,0
1583338617.575,39.062,27.344,24.902,19.531,0.977,0
1583338617.579,46.875,27.344,27.832,23.438,9.766,0
1583338617.583,44.434,24.414,27.344,29.785,7.324,0
1583338617.587,38.574,25.391,27.344,29.785,33.691,0
1583338617.584,33.691,27.344,29.785,27.344,8.789,0
1583338617.588,30.273,27.344,27.344,26.367,-16.113,0
1583338617.592,38.086,27.344,27.344,30.273,12.695,0
1583338617.596,38.086,28.320,27.832,31.250,44.922,0
1583338617.600,28.809,26.855,25.879,24.414,22.461,0
1583338617.604,27.832,26.367,25.879,24.902,-4.883,0
1583338617.608,35.645,24.902,25.879,27.344,-42.480,0
1583338617.611,39.551,22.949,24.902,28.320,-55.176,0
1583338617.615,31.738,23.438,22.461,22.949,29.785,0
1583338617.619,29.785,22.461,23.438,20.996,30.273,0
1583338617.623,40.527,24.414,26.367,35.645,1.953,0
1583338617.627,42.969,29.297,23.926,36.133,7.324,0
1583338617.644,29.785,31.738,19.043,18.555,4.883,0
1583338617.648,21.973,33.203,15.625,10.742,-1.953,0
1583338617.652,28.320,31.738,13.672,15.625,-35.645,0
1583338617.656,39.062,34.180,12.695,19.043,2.441,0
1583338617.660,41.016,37.109,12.207,15.625,40.527,0
1583338617.664,36.133,36.621,11.719,13.672,11.230,0
1583338617.668,28.809,36.621,11.719,15.625,21.484,0
1583338617.671,33.691,37.598,17.090,20.020,61.523,0
1583338617.675,42.480,35.645,19.043,23.926,32.227,0
1583338617.679,40.039,33.203,17.578,19.531,23.926,0
1583338617.683,36.621,31.738,18.555,16.113,63.965,0
1583338617.687,44.922,29.785,16.113,26.367,66.895,0
1583338617.684,53.223,31.738,15.137,29.785,77.637,0
1583338617.688,43.945,32.227,16.602,27.832,63.477,0
1583338617.692,38.574,29.297,17.090,25.879,86.426,0
1583338617.696,38.086,28.809,17.090,19.043,46.875,0
1583338617.700,42.480,32.715,17.090,29.785,-7.324,0
1583338617.704,43.457,34.180,17.578,32.715,32.227,0
1583338617.708,35.645,31.250,17.578,22.949,43.457,0
1583338617.711,36.621,30.762,17.578,19.043,-16.602,0
1583338617.715,45.898,31.250,17.578,23.926,55.176,0
1583338617.719,43.457,33.203,17.090,31.250,69.336,0
1583338617.723,35.156,34.668,18.066,17.578,-12.695,0
1583338617.727,30.762,31.738,22.461,13.184,47.363,0
1583338617.723,35.645,31.250,26.367,25.391,81.055,0
1583338617.727,40.039,32.227,24.414,26.367,26.855,0
1583338617.731,31.738,29.297,22.949,25.879,23.438,0
1583338617.735,28.320,28.809,23.926,23.438,106.934,0
1583338617.739,30.762,28.320,22.461,25.391,58.105,0
1583338617.743,35.156,25.391,21.973,28.809,52.734,0
1583338617.747,35.645,25.391,20.996,20.996,46.875,0
1583338617.750,30.273,27.344,21.484,20.020,11.230,0
1583338617.754,33.203,27.832,21.973,19.043,23.926,0
1583338617.758,39.062,25.879,21.484,20.020,41.504,0
1583338617.762,40.039,26.855,21.973,15.137,47.852,0
1583338617.766,32.715,29.785,22.949,9.766,16.602,0
1583338617.784,30.273,30.273,22.461,16.602,-76.172,0
1583338617.788,41.504,29.785,23.926,23.438,-89.355,0
1583338617.792,48.828,31.738,26.855,31.250,10.742,0
1583338617.796,42.969,35.156,23.926,24.414,12.207,0
1583338617.800,33.691,36.621,24.414,23.926,9.766,0
1583338617.804,38.086,35.156,26.367,39.062,4.883,0
1583338617.808,45.410,36.133,24.414,38.574,24.902,0
1583338617.811,36.621,37.109,21.973,32.227,23.926,0
1583338617.815,29.785,33.691,22.949,24.902,-7.812,0
1583338617.819,37.109,33.203,24.414,23.926,5.371,0
1583338617.823,40.527,32.227,23.438,33.203,-55.176,0
1583338617.827,36.133,29.297,20.508,28.809,-59.082,0
1583338617.824,28.320,31.250,20.996,24.414,13.672,0
1583338617.828,29.297,33.691,21.973,19.531,7.812,0
1583338617.832,36.621,31.250,19.531,16.602,-7.812,0
1583338617.836,35.156,31.250,20.020,19.531,-18.555,0
1583338617.840,28.320,32.227,20.020,14.160,-9.766,0
1583338617.844,30.762,31.738,18.066,14.648,8.789,0
1583338617.848,35.645,31.738,20.996,20.020,-25.879,0
1583338617.851,37.598,29.297,22.461,22.949,2.930,0
1583338617.855,29.297,26.855,23.438,22.949,27.832,0
1583338617.859,21.973,28.809,27.344,21.973,6.348,0
1583338617.863,29.297,28.320,25.879,23.438,29.785,0
1583338617.867,33.203,26.367,25.391,19.043,42.480,0
1583338617.864,23.926,27.832,27.344,11.719,0.488,0
1583338617.868,16.602,27.344,25.391,15.625,4.395,0
1583338617.872,21.484,28.809,24.414,25.391,43.945,0
1583338617.876,31.250,27.832,24.902,31.250,79.590,0
1583338617.880,26.855,24.902,26.367,21.973,76.172,0
1583338617.884,17.578,23.438,25.391,14.160,46.875,0
1583338617.888,20.020,24.414,21.973,17.578,22.461,0
1583338617.891,28.320,24.902,24.414,24.902,37.598,0
1583338617.895,31.738,28.320,24.414,26.367,50.781,0
1583338617.899,20.508,26.367,24.414,8.301,19.043,0
1583338617.903,16.113,20.020,24.414,10.742,30.762,0
1583338617.907,28.320,22.461,22.949,27.832,44.922,0
1583338617.924,31.250,24.414,22.949,25.879,13.672,0
1583338617.928,21.973,23.926,20.020,16.602,46.875,0
1583338617.932,17.578,26.367,20.020,6.348,66.895,0
1583338617.936,25.879,27.344,22.461,12.695,48.828,0
1583338617.940,37.598,29.297,24.902,26.367,98.145,0
1583338617.944,31.250,32.227,21.973,22.461,57.129,0
1583338617.948,20.508,32.227,20.508,15.137,5.859,0
1583338617.951,26.855,29.297,22.949,13.672,52.246,0
1583338617.955,38.574,28.809,22.949,24.902,19.531,0
1583338617.959,41.992,27.344,22.461,29.297,19.043,0
1583338617.963,34.180,25.879,20.996,22.949,59.082,0
1583338617.967,27.344,28.320,21.484,21.484,2.441,0
1583338617.963,33.691,30.273,20.020,19.043,-8.789,0
1583338617.967,41.016,29.297,18.555,25.879,-1.465,0
1583338617.971,43.945,31.250,21.973,33.691,-3.418,0
1583338617.975,31.738,27.832,28.320,29.785,44.922,0
1583338617.979,17.090,24.414,30.273,19.043,62.500,0
1583338617.983,23.926,26.855,31.250,11.719,43.945,0
1583338617.987,20.996,26.367,35.645,15.625,54.688,0
1583338617.990,8.301,26.855,35.156,14.648,74.707,0
1583338617.994,12.207,26.855,37.109,-0.488,14.648,0
1583338617.998,18.555,23.926,39.062,8.301,21.484,0
1583338618.002,14.648,22.949,34.668,5.859,25.391,0
1583338618.006,9.277,24.414,35.645,-2.441,-21.973,0
1583338618.045,16.113,24.902,35.156,13.672,10.254,0
1583338618.049,26.367,24.414,31.738,21.973,20.508,0
1583338618.053,23.926,24.414,31.738,22.461,-6.836,0
1583338618.057,18.555,25.391,31.250,15.137,-10.254,0
1583338618.061,20.020,26.855,29.785,17.578,-18.066,0
1583338618.065,24.902,26.367,30.762,26.367,10.254,0
1583338618.069,26.855,25.391,30.762,27.832,32.715,0
1583338618.072,20.020,25.391,30.273,23.438,41.504,0
1583338618.076,17.090,24.414,31.738,14.648,51.758,0
1583338618.080,20.020,22.949,31.250,17.090,1.953,0
1583338618.084,23.926,24.414,32.227,27.344,11.719,0
1583338618.088,21.484,25.391,33.691,22.461,53.711,0
1583338618.064,17.090,28.320,33.691,19.043,44.922,0
1583338618.068,19.531,28.809,30.762,20.020,20.508,0
1583338618.072,30.762,30.273,30.762,25.879,50.781,0
1583338618.076,33.691,30.273,31.250,29.297,53.223,0
1583338618.080,24.902,30.762,31.738,21.484,24.414,0
1583338618.084,22.461,30.762,31.738,21.484,-4.883,0
1583338618.088,29.297,26.367,25.391,20.996,18.555,0
1583338618.091,36.133,27.344,21.973,21.484,12.695,0
1583338618.095,30.273,29.297,24.902,20.996,-35.645,0
1583338618.099,28.809,27.832,24.902,20.508,24.414,0
1583338618.103,39.062,27.832,26.855,27.832,-15.137,0
1583338618.107,37.109,29.297,27.344,30.762,-0.977,0
1583338618.104,32.715,29.785,26.367,26.855,33.203,0
1583338618.108,33.203,27.344,29.785,27.832,-3.906,0
1583338618.112,37.109,27.344,29.785,35.156,28.320,0
1583338618.116,41.992,25.879,25.879,36.621,4.395,0
1583338618.120,37.109,26.855,26.367,25.879,-37.598,0
1583338618.124,30.762,29.785,25.391,18.555,-33.691,0
1583338618.128,31.250,27.344,27.344,27.344,-0.488,0
1583338618.131,38.086,24.902,28.809,32.227,-7.324,0
1583338618.135,32.715,25.391,27.832,28.320,0.977,0
1583338618.139,24.414,27.344,30.762,22.949,46.387,0
1583338618.143,26.367,26.855,28.809,14.160,-18.066,0
1583338618.147,34.668,26.855,26.855,22.949,11.230,0
1583338618.147,40.527,28.320,27.344,29.297,44.922,0
1583338618.151,31.250,27.832,26.367,21.484,39.062,0
1583338618.155,28.320,30.273,25.879,20.996,44.434,0
1583338618.159,41.504,31.738,26.367,31.250,49.316,0
1583338618.163,46.387,31.738,27.344,36.133,52.734,0
1583338618.167,37.109,31.250,25.879,29.785,29.785,0
1583338618.171,33.203,30.762,22.949,27.832,53.711,0
1583338618.174,41.016,29.785,22.461,29.785,22.461,0
1583338618.178,48.340,31.250,24.902,29.297,-23.438,0
1583338618.182,41.016,29.297,25.879,25.879,14.160,0
1583338618.186,32.715,29.785,23.438,23.438,13.184,0
1583338618.190,36.133,34.180,23.926,24.902,-38.086,0
1583338618.204,41.504,34.180,23.438,29.297,-22.461,0
1583338618.208,41.504,31.738,21.484,30.273,-10.254,0
1583338618.212,32.715,29.297,21.973,20.508,-24.902,0
1583338618.216,31.250,29.785,20.996,19.043,-27.344,0
1583338618.220,40.039,31.250,20.020,20.996,-10.254,0
1583338618.224,38.086,30.762,20.020,20.508,2.930,0
1583338618.228,31.250,31.250,20.020,16.113,-45.410,0
1583338618.231,33.203,33.691,19.043,14.648,-54.688,0
1583338618.235,39.062,34.180,20.996,25.391,5.859,0
1583338618.239,39.062,33.691,23.438,20.508,6.348,0
1583338618.243,35.156,35.156,23.926,12.207,-13.184,0
1583338618.247,30.273,35.156,22.461,17.090,-1.953,0
1583338618.244,30.762,33.203,25.879,20.020,31.250,0
1583338618.248,41.504,33.203,28.809,25.391,30.273,0
1583338618.252,36.621,32.715,26.367,20.508,23.438,0
1583338618.256,28.809,33.203,24.902,16.602,5.859,0
1583338618.260,32.227,34.180,25.879,31.738,71.289,0
1583338618.264,38.574,34.668,29.297,34.668,54.199,0
1583338618.268,38.086,33.691,27.832,29.785,6.348,0
1583338618.271,30.762,31.738,28.320,20.508,7.324,0
1583338618.275,26.855,30.273,30.273,15.625,-12.207,0
1583338618.279,30.762,32.227,27.344,22.461,53.223,0
1583338618.283,34.668,31.738,25.391,18.555,63.965,0
1583338618.287,33.691,30.762,25.391,11.230,13.672,0
1583338618.284,23.926,27.832,22.949,3.906,-33.691,0
1583338618.288,22.461,25.879,22.949,10.742,24.902,0
1583338618.292,31.738,29.297,26.367,23.926,41.992,0
1583338618.296,24.414,27.832,24.902,17.578,29.297,0
1583338618.300,16.113,25.879,21.973,14.648,64.453,0
1583338618.304,23.438,28.809,21.484,17.578,20.996,0
1583338618.308,37.598,29.785,23.438,24.902,20.508,0
1583338618.311,34.180,27.344,23.438,24.902,65.430,0
1583338618.315,23.926,27.344,23.438,9.766,26.855,0
1583338618.319,31.250,28.320,26.855,17.090,35.645,0
1583338618.323,44.434,28.320,28.809,22.949,36.621,0
1583338618.327,46.387,27.832,27.344,19.043,-23.438,0
1583338618.344,37.109,27.344,25.879,25.879,2.930,0
1583338618.348,28.809,26.855,26.855,21.484,35.156,0
1583338618.352,33.203,27.344,26.855,24.902,24.414,0
1583338618.356,35.645,27.832,26.855,24.414,45.410,0
1583338618.360,24.902,25.879,25.879,12.207,69.336,0
1583338618.364,18.555,24.902,22.461,11.719,-13.184,0
1583338618.368,22.461,25.391,25.391,11.230,-39.062,0
1583338618.371,31.250,25.879,28.320,15.625,5.371,0
1583338618.375,26.855,26.367,26.367,11.719,4.395,0
1583338618.379,15.625,28.809,26.367,7.812,40.039,0
1583338618.383,23.438,28.320,28.809,25.391,88.379,0
1583338618.387,37.598,26.367,28.320,35.156,85.449,0
1583338618.384,35.156,25.879,28.320,26.367,69.824,0
1583338618.388,22.949,30.762,27.344,12.695,55.176,0
1583338618.392,30.273,32.715,24.414,20.020,58.105,0
1583338618.396,49.316,30.762,24.414,38.086,1.953,0
1583338618.400,47.363,32.227,22.461,38.086,21.484,0
1583338618.404,35.156,35.156,21.484,29.785,7.812,0
1583338618.408,30.273,34.668,23.438,23.438,-30.273,0
1583338618.411,38.086,32.227,24.414,26.855,28.809,0
1583338618.415,44.434,30.762,23.438,32.227,5.371,0
1583338618.419,40.039,32.227,22.461,28.320,5.859,0
1583338618.423,34.668,31.738,21.973,22.461,24.902,0
1583338618.427,36.133,31.250,23.926,22.461,50.781,0
1583338618.424,43.457,32.227,24.414,27.832,66.406,0
1583338618.428,39.551,29.785,24.414,27.344,60.547,0
1583338618.432,29.297,30.762,21.973,20.020,51.758,0
1583338618.436,29.785,28.809,17.578,20.020,55.664,0
1583338618.440,39.551,27.344,19.531,21.484,31.738,0
1583338618.444,40.039,28.320,20.996,21.973,-11.230,0
1583338618.448,31.250,26.367,17.090,18.066,-18.066,0
1583338618.451,30.273,27.344,19.043,14.648,27.344,0
1583338618.455,34.668,27.344,21.484,16.113,55.176,0
1583338618.459,35.645,26.367,20.020,12.695,-3.418,0
1583338618.463,30.273,28.809,21.973,20.508,-18.555,0
1583338618.467,24.414,29.297,20.996,26.367,4.883,0
1583338618.484,29.297,29.297,18.066,28.320,-25.879,0
1583338618.488,38.574,27.832,18.066,30.762,-17.578,0
1583338618.492,33.691,25.391,18.555,20.996,-0.488,0
1583338618.496,25.879,25.391,18.066,18.066,-12.207,0
1583338618.500,31.738,25.879,21.973,22.949,-2.441,0
1583338618.504,41.504,27.344,22.949,24.902,10.254,0
1583338618.508,35.645,27.832,18.555,17.090,12.207,0
1583338618.511,21.484,26.367,18.555,7.812,16.602,0
1583338618.515,26.367,26.855,21.484,16.113,-3.418,0
1583338618.519,41.992,26.855,24.902,28.320,-6.348,0
1583338618.523,41.992,23.926,24.902,26.367,6.836,0
1583338618.527,41.016,29.297,25.879,25.879,32.227,0
1583338618.544,42.969,32.715,25.879,25.879,50.293,0
1583338618.548,43.457,28.320,21.484,26.855,-4.883,0
1583338618.552,45.898,28.809,23.438,32.227,18.066,0
1583338618.556,36.621,29.785,26.855,31.738,64.941,0
1583338618.560,25.879,29.785,27.832,28.809,31.250,0
1583338618.564,30.762,26.855,28.320,27.344,17.578,0
1583338618.568,37.598,26.367,28.809,31.738,67.383,0
1583338618.571,34.180,25.391,27.344,29.297,69.336,0
1583338618.575,22.949,24.902,26.855,22.461,3.418,0
1583338618.579,21.973,25.391,26.367,20.020,8.789,0
1583338618.583,28.320,23.926,24.902,19.043,44.434,0
1583338618.587,26.367,23.926,22.949,16.602,24.902,0
1583338618.604,29.785,26.855,23.926,21.484,6.348,0
1583338618.608,37.109,25.879,28.320,32.715,20.508,0
1583338618.612,30.762,22.461,28.809,26.367,2.441,0
1583338618.616,19.531,19.531,31.250,12.695,32.227,0
1583338618.620,13.672,19.043,34.668,12.695,4.883,0
1583338618.624,12.207,20.508,35.156,15.625,-48.828,0
1583338618.628,15.137,20.020,36.133,16.602,-5.371,0
1583338618.631,15.137,21.484,34.668,11.719,33.203,0
1583338618.635,8.789,18.555,31.250,2.441,60.547,0
1583338618.639,2.930,17.578,30.762,2.930,75.684,0
1583338618.643,13.672,21.973,30.762,12.695,20.508,0
1583338618.647,25.879,21.484,30.273,23.438,-0.488,0
1583338618.626,21.973,22.461,31.250,22.461,17.578,0
1583338618.630,14.648,26.855,30.762,14.648,-14.648,0
1583338618.634,20.508,29.297,27.832,20.996,-23.926,0
1583338618.638,30.273,25.879,28.320,31.250,44.922,0
1583338618.642,31.250,24.414,29.297,27.832,20.508,0
1583338618.646,29.785,27.832,27.832,20.020,24.414,0
1583338618.650,29.785,28.320,28.320,16.113,27.344,0
1583338618.653,34.668,27.832,28.320,25.391,0.488,0
1583338618.657,38.086,28.809,27.344,27.344,14.648,0
1583338618.661,31.738,29.297,27.344,21.484,-34.180,0
1583338618.665,31.250,31.738,27.832,21.484,-36.133,0
1583338618.669,41.016,31.738,27.344,23.438,-3.906,0
1583338618.664,44.434,27.832,29.297,30.273,31.738,0
1583338618.668,44.922,27.344,31.738,30.273,40.527,0
1583338618.672,40.527,27.344,29.785,25.879,40.039,0
1583338618.676,37.598,27.344,25.879,25.879,-15.625,0
1583338618.680,40.527,28.320,26.367,24.902,-45.898,0
1583338618.684,33.691,25.879,27.832,24.902,47.363,0
1583338618.688,21.484,24.414,25.391,18.555,37.598,0
1583338618.691,28.320,25.879,25.391,18.555,4.883,0
1583338618.695,41.992,25.879,28.809,27.832,26.367,0
1583338618.699,39.062,25.879,28.320,19.043,5.859,0
1583338618.703,28.320,24.902,27.832,16.602,15.625,0
1583338618.707,30.762,27.832,28.809,23.926,17.090,0
1583338618.704,41.504,30.762,26.367,28.320,-41.992,0
1583338618.708,45.410,28.809,25.391,33.691,-62.500,0
1583338618.712,37.109,29.785,27.832,25.391,-24.414,0
1583338618.716,35.645,29.785,28.320,23.926,12.695,0
1583338618.720,41.504,30.762,27.832,32.227,36.133,0
1583338618.724,48.828,32.227,26.367,37.598,50.781,0
1583338618.728,48.828,32.715,26.367,36.133,26.367,0
1583338618.731,40.039,33.691,24.902,27.832,26.367,0
1583338618.735,42.969,32.227,25.391,27.344,41.504,0
1583338618.739,49.316,30.762,26.855,29.785,40.039,0
1583338618.743,46.875,31.738,24.902,31.250,6.348,0
1583338618.747,41.992,33.203,22.949,26.855,-29.297,0
1583338618.764,41.016,34.668,21.973,22.461,-5.859,0
1583338618.768,46.875,33.203,21.484,30.762,12.207,0
1583338618.772,53.711,33.203,23.438,31.738,-20.020,0
1583338618.776,47.363,34.180,24.902,28.809,-10.742,0
1583338618.780,44.434,33.691,24.902,27.344,35.645,0
1583338618.784,48.340,33.691,24.414,31.738,15.625,0
1583338618.788,51.270,33.203,25.391,40.527,33.691,0
1583338618.791,43.457,30.273,26.367,37.598,71.289,0
1583338618.795,34.668,31.250,25.391,37.109,63.965,0
1583338618.799,42.480,32.227,27.832,37.109,62.012,0
1583338618.803,44.434,31.250,27.344,32.715,72.266,0
1583338618.807,34.668,32.715,23.438,24.902,22.949,0
1583338618.804,25.391,31.250,24.902,16.602,-60.059,0
1583338618.808,20.508,29.297,26.855,25.391,18.555,0
1583338618.812,25.879,29.297,24.902,27.832,76.660,0
1583338618.816,29.785,31.738,23.438,24.414,21.973,0
1583338618.820,23.438,31.250,23.926,26.367,-3.906,0
1583338618.824,19.043,25.879,20.996,21.973,-8.789,0
1583338618.828,27.344,25.879,21.484,25.391,23.438,0
1583338618.831,31.738,29.785,24.414,23.926,31.738,0
1583338618.835,28.320,33.691,26.855,21.973,23.438,0
1583338618.839,24.902,34.668,29.785,25.879,35.645,0
1583338618.843,28.320,33.203,28.320,26.855,-7.324,0
1583338618.847,31.738,33.691,27.344,31.250,-12.207,0
1583338618.864,29.785,32.715,29.297,18.066,25.391,0
1583338618.868,26.367,34.180,29.297,11.719,-4.883,0
1583338618.872,23.926,34.180,29.785,17.578,-1.953,0
1583338618.876,33.203,32.227,30.762,23.926,10.254,0
1583338618.880,30.762,29.785,29.297,31.738,1.953,0
1583338618.884,23.926,31.738,28.809,22.461,2.930,0
1583338618.888,30.762,33.691,29.297,21.973,-8.301,0
1583338618.891,34.668,29.297,28.809,29.297,5.859,0
1583338618.895,33.203,25.879,24.414,25.391,15.137,0
1583338618.899,25.391,26.367,25.391,24.902,53.711,0
1583338618.903,27.832,29.785,27.344,23.926,78.613,0
1583338618.907,41.992,30.273,26.367,29.785,17.578,0
1583338618.904,45.410,28.809,26.367,33.691,-20.508,0
1583338618.908,36.621,28.320,29.297,22.461,7.812,0
1583338618.912,29.297,27.344,32.227,25.391,72.266,0
1583338618.916,34.180,25.391,29.785,20.996,65.918,0
1583338618.920,40.039,25.879,29.297,17.090,59.570,0
1583338618.924,35.645,30.762,30.273,18.555,76.172,0
1583338618.928,29.785,29.297,30.273,9.277,4.883,0
1583338618.931,32.227,26.855,31.738,18.066,-24.902,0
1583338618.935,41.992,28.809,31.250,25.391,43.457,0
1583338618.939,44.434,29.297,32.715,21.973,36.133,0
1583338618.943,40.039,32.227,32.227,23.438,20.996,0
1583338618.947,36.621,30.273,31.250,22.461,53.223,0
1583338618.943,44.434,28.809,33.203,31.738,55.664,0
1583338618.947,41.016,33.203,30.762,27.344,20.996,0
1583338618.951,25.391,29.297,28.809,18.066,49.316,0
1583338618.955,23.438,30.762,28.320,23.438,27.344,0
1583338618.959,36.621,37.598,29.785,24.902,-5.371,0
1583338618.963,43.457,35.156,31.738,33.691,35.645,0
1583338618.967,36.621,35.156,30.273,25.879,60.059,0
1583338618.970,29.785,32.715,27.832,17.090,32.227,0
1583338618.974,35.645,33.691,28.320,28.320,22.461,0
1583338618.978,41.504,33.691,25.879,27.344,54.199,0
1583338618.982,37.109,30.273,25.879,20.508,35.645,0
1583338618.986,31.250,31.738,28.809,18.066,-31.250,0
1583338618.990,29.297,28.320,26.855,22.949,4.883,0
1583338618.994,39.062,27.832,25.391,32.715,25.879,0
1583338618.998,40.527,30.762,23.438,30.762,3.906,0
1583338619.002,32.227,32.227,22.949,23.926,-4.395,0
1583338619.006,35.645,32.227,22.949,23.926,28.809,0
1583338619.010,47.852,33.691,25.391,32.715,27.344,0
1583338619.014,46.387,33.203,27.344,36.133,15.625,0
1583338619.017,35.645,30.762,29.297,26.855,21.973,0
1583338619.021,28.809,27.832,29.785,23.438,-6.348,0
1583338619.025,31.738,28.320,27.832,24.902,8.789,0
1583338619.029,38.574,30.762,28.809,25.879,6.348,0
1583338619.033,33.691,28.809,31.738,29.297,21.484,0
1583338619.043,29.785,30.273,27.832,24.902,18.555,0
1583338619.047,37.598,30.762,26.855,29.785,4.395,0
1583338619.051,47.363,30.762,30.273,33.203,3.418,0
1583338619.055,44.434,30.273,28.809,27.344,-42.480,0
1583338619.059,29.785,26.855,27.344,24.414,-61.035,0
1583338619.063,28.809,24.414,25.391,23.438,-16.602,0
1583338619.067,38.086,22.949,23.438,22.949,63.477,0
1583338619.070,37.109,22.949,23.438,19.531,48.828,0
1583338619.074,30.273,23.926,25.879,15.625,22.949,0
1583338619.078,30.762,25.879,26.855,16.602,46.875,0
1583338619.082,39.551,29.297,25.879,18.066,68.848,0
1583338619.086,39.062,29.785,29.297,19.043,21.973,0
1583338619.085,27.832,29.785,31.738,16.602,33.203,0
1583338619.089,26.855,29.297,28.320,12.695,-2.441,0
1583338619.093,41.016,28.809,25.391,24.902,-55.664,0
1583338619.097,50.293,30.762,24.414,32.715,-33.691,0
1583338619.101,38.574,33.203,21.973,20.020,-20.020,0
1583338619.105,22.949,33.691,21.973,10.742,3.906,0
1583338619.109,31.250,36.133,18.066,20.508,42.969,0
1583338619.112,43.945,36.621,14.160,25.391,24.414,0
1583338619.116,36.621,35.645,13.672,15.137,4.883,0
1583338619.120,25.879,36.133,12.695,7.324,-2.441,0
1583338619.124,27.832,35.156,13.184,6.348,45.410,0
1583338619.128,33.691,34.180,13.672,14.160,106.934,0
1583338619.164,35.156,33.203,14.648,14.160,61.035,0
1583338619.168,29.297,31.738,17.578,9.277,31.738,0
1583338619.172,29.785,31.738,16.113,9.766,64.941,0
1583338619.176,39.062,32.227,15.137,14.160,73.730,0
1583338619.180,46.387,29.785,16.602,23.926,50.293,0
1583338619.184,43.457,28.320,17.578,23.926,38.086,0
1583338619.188,35.156,28.320,19.043,21.973,36.621,0
1583338619.191,42.969,27.344,19.531,25.391,21.484,0
1583338619.195,50.293,24.902,19.531,24.902,-22.949,0
1583338619.199,38.574,24.902,22.461,25.879,-8.301,0
1583338619.203,28.320,26.367,24.902,20.020,74.219,0
1583338619.207,28.809,26.367,23.438,18.066,80.566,0
1583338619.187,38.574,24.902,22.461,24.902,20.020,0
1583338619.191,40.039,23.926,20.996,20.020,-33.691,0
1583338619.195,30.273,23.438,18.066,15.137,-37.109,0
1583338619.199,27.344,19.043,17.090,17.578,6.836,0
1583338619.203,36.133,20.508,18.555,27.344,49.316,0
1583338619.207,40.527,26.855,20.020,28.320,4.883,0
1583338619.211,31.738,23.438,18.066,19.043,-8.789,0
1583338619.214,28.320,20.020,18.555,20.020,43.457,0
1583338619.218,37.598,21.973,20.996,25.879,29.785,0
1583338619.222,42.969,24.414,20.508,29.297,-12.207,0
1583338619.226,34.668,26.367,19.531,23.926,32.227,0
1583338619.230,26.367,23.926,20.020,17.578,60.547,0
1583338619.224,33.691,22.949,21.973,25.879,31.250,0
1583338619.228,39.062,25.391,21.973,27.344,11.719,0
1583338619.232,31.250,26.367,20.020,20.020,13.184,0
1583338619.236,24.414,26.367,18.555,14.648,42.969,0
1583338619.240,24.414,28.320,20.020,19.043,51.270,0
1583338619.244,33.691,29.297,17.578,26.855,52.734,0
1583338619.248,32.227,26.855,12.207,18.555,36.133,0
1583338619.251,21.484,23.926,14.648,16.113,1.465,0
1583338619.255,22.461,24.414,19.043,13.672,8.301,0
1583338619.259,33.203,24.414,19.531,9.277,0.488,0
1583338619.263,42.480,24.414,20.020,24.414,7.324,0
1583338619.267,32.715,27.832,18.555,19.043,-0.488,0
1583338619.284,24.902,29.297,18.555,10.254,-43.457,0
1583338619.288,35.645,32.227,15.625,15.137,37.598,0
1583338619.292,41.992,30.762,14.160,16.113,32.227,0
1583338619.296,27.832,27.832,15.625,16.113,-12.695,0
1583338619.300,20.508,30.273,17.090,8.789,64.453,0
1583338619.304,30.273,34.180,20.020,15.625,56.152,0
1583338619.308,36.133,35.645,18.066,17.090,37.109,0
1583338619.311,34.668,32.715,16.113,6.348,67.383,0
1583338619.315,29.297,28.809,15.625,11.719,19.531,0
1583338619.319,34.180,29.297,14.160,20.996,-18.066,0
1583338619.323,43.945,30.273,15.625,28.809,-9.766,0
1583338619.327,43.457,28.320,19.043,27.344,4.395,0
1583338619.325,32.715,24.902,20.020,18.066,-12.695,0
1583338619.329,29.297,26.367,16.602,19.531,-25.879,0
1583338619.333,37.598,31.250,19.531,23.438,6.348,0
1583338619.337,41.016,31.738,21.973,26.855,43.457,0
1583338619.341,31.738,31.738,20.020,19.043,32.715,0
1583338619.345,22.949,30.273,20.508,12.695,56.152,0
1583338619.349,29.297,28.320,20.508,21.973,33.203,0
1583338619.352,36.621,27.832,18.555,22.949,3.906,0
1583338619.356,29.297,27.344,17.090,16.113,-10.742,0
1583338619.360,24.414,29.785,16.113,8.301,-17.090,0
1583338619.364,25.391,29.785,13.672,9.277,-23.926,0
1583338619.368,27.832,27.832,15.625,21.484,-47.363,0
1583338619.364,29.297,31.250,16.602,24.414,-14.648,0
1583338619.368,24.902,31.738,15.625,18.555,31.250,0
1583338619.372,26.367,31.738,15.137,12.207,40.527,0
1583338619.376,34.180,30.273,13.184,11.719,1.465,0
1583338619.380,36.133,28.320,14.160,13.184,-40.039,0
1583338619.384,24.902,30.273,15.137,9.277,-21.973,0
1583338619.388,18.555,31.250,17.090,12.207,37.109,0
1583338619.391,27.344,31.738,17.090,17.578,68.848,0
1583338619.395,30.762,28.809,13.184,11.230,17.578,0
1583338619.399,25.879,27.344,18.066,7.324,29.297,0
1583338619.403,28.809,29.785,24.414,7.324,50.781,0
1583338619.407,34.668,29.785,22.461,16.113,30.273,0
1583338619.424,39.062,28.320,22.949,18.066,33.691,0
1583338619.428,36.133,29.297,24.902,10.254,44.434,0
1583338619.432,28.809,27.832,24.414,10.254,14.648,0
1583338619.436,34.180,25.391,24.902,8.789,12.207,0
1583338619.440,46.875,28.320,25.879,12.695,23.438,0
1583338619.444,46.875,27.832,26.367,8.301,-2.441,0
1583338619.448,32.715,25.879,23.926,-1.953,11.230,0
1583338619.451,26.367,27.344,22.461,-1.465,-2.930,0
1583338619.455,29.297,26.367,24.414,10.254,-7.324,0
1583338619.459,30.762,25.879,23.926,14.648,42.969,0
1583338619.463,26.855,25.391,21.973,3.418,20.996,0
1583338619.467,21.973,25.879,23.438,0.977,4.395,0
1583338619.464,27.344,26.855,24.902,10.742,1.953,0
1583338619.468,36.133,26.855,23.926,15.625,-42.969,0
1583338619.472,35.156,25.879,22.949,20.020,-29.785,0
1583338619.476,31.250,23.438,25.391,19.043,60.547,0
1583338619.480,26.367,19.531,24.902,11.230,68.848,0
1583338619.484,23.926,18.066,22.949,13.672,43.945,0
1583338619.488,21.484,16.602,24.414,14.160,56.641,0
1583338619.491,16.602,19.531,22.949,10.742,60.547,0
1583338619.495,15.625,24.414,22.949,6.836,33.691,0
1583338619.499,20.996,26.367,24.902,14.160,-15.137,0
1583338619.503,25.391,28.320,24.414,15.625,69.336,0
1583338619.507,20.020,30.273,25.391,11.230,40.039,0
1583338619.523,22.461,31.738,27.832,20.508,-36.133,0
1583338619.527,32.227,31.250,26.855,22.949,24.902,0
1583338619.531,34.180,32.715,27.344,25.879,66.406,0
1583338619.535,32.227,34.668,25.391,23.926,54.199,0
1583338619.539,25.391,36.133,26.367,22.461,14.648,0
1583338619.543,31.250,35.156,29.297,32.715,49.316,0
1583338619.547,45.898,33.691,29.297,35.645,44.922,0
1583338619.550,41.992,35.645,30.762,34.180,3.418,0
1583338619.554,33.691,34.180,30.273,30.273,14.160,0
1583338619.558,36.621,31.250,29.297,31.738,19.531,0
1583338619.562,47.363,33.691,28.809,40.527,-2.930,0
1583338619.566,43.945,32.227,26.855,34.180,7.812,0
1583338619.565,29.785,29.297,25.391,28.320,35.156,0
1583338619.569,34.668,28.320,26.367,32.227,44.922,0
1583338619.573,39.551,26.367,25.391,35.156,56.152,0
1583338619.577,40.039,29.297,26.855,38.574,70.801,0
1583338619.581,35.645,32.227,29.297,33.691,34.668,0
1583338619.585,27.832,28.320,28.320,32.715,1.953,0
1583338619.589,37.598,30.762,26.855,33.203,-14.648,0
1583338619.592,39.551,35.645,28.320,32.227,38.574,0
1583338619.596,28.809,34.180,30.273,27.344,76.660,0
1583338619.600,27.832,33.691,28.809,20.020,23.926,0
1583338619.604,32.715,34.180,26.855,28.809,-24.414,0
1583338619.608,38.574,31.738,27.832,32.715,-37.598,0
1583338619.604,36.621,26.855,27.832,25.879,-20.996,0
1583338619.608,25.879,25.879,23.926,22.461,17.578,0
1583338619.612,25.879,28.809,25.879,25.879,53.711,0
1583338619.616,35.156,29.297,25.391,33.203,39.062,0
1583338619.620,37.109,31.250,23.926,31.738,25.391,0
1583338619.624,34.180,34.180,25.391,24.902,61.035,0
1583338619.628,38.574,34.180,27.832,28.809,102.051,0
1583338619.631,48.340,30.762,27.344,32.715,34.668,0
1583338619.635,46.387,27.344,27.344,34.668,2.441,0
1583338619.639,29.785,28.320,31.250,25.879,4.395,0
1583338619.643,18.066,25.879,34.180,10.742,-13.184,0
1583338619.647,26.367,21.484,34.668,14.648,41.504,0
1583338619.644,32.715,22.949,35.645,20.508,45.898,0
1583338619.648,23.926,22.949,35.156,18.555,74.219,0
1583338619.652,17.090,21.484,33.203,15.137,89.844,0
1583338619.656,20.508,20.996,34.180,11.230,18.066,0
1583338619.660,26.367,21.484,33.691,15.625,32.227,0
1583338619.664,25.391,24.902,34.668,16.602,47.363,0
1583338619.668,26.855,29.297,38.574,22.949,-31.738,0
1583338619.671,37.598,34.668,39.551,33.691,-48.828,0
1583338619.675,48.340,38.086,40.039,38.574,40.039,0
1583338619.679,46.387,34.668,38.574,35.645,59.570,0
1583338619.683,36.621,29.785,37.598,27.344,5.859,0
1583338619.687,37.109,30.273,37.598,30.762,45.410,0
1583338619.704,45.898,33.691,34.668,38.574,44.434,0
1583338619.708,50.781,37.109,34.180,35.156,-34.668,0
1583338619.712,47.852,37.109,36.133,32.227,-41.992,0
1583338619.716,41.016,39.551,37.109,33.691,55.176,0
1583338619.720,41.992,39.551,35.645,35.156,27.344,0
1583338619.724,48.828,36.133,31.250,40.527,-38.574,0
1583338619.728,43.945,35.156,29.297,30.273,42.969,0
1583338619.731,37.598,33.203,33.203,21.973,68.359,0
1583338619.735,40.039,30.762,34.180,30.762,26.367,0
1583338619.739,43.457,28.809,32.715,35.156,11.719,0
1583338619.743,43.945,31.250,36.133,36.621,20.996,0
1583338619.747,36.133,32.715,35.156,35.645,15.625,0
1583338619.744,31.738,29.785,33.691,33.203,11.719,0
1583338619.748,43.457,29.785,35.156,39.062,60.059,0
1583338619.752,45.898,32.227,34.668,40.039,27.344,0
1583338619.756,33.691,32.227,35.156,32.227,-30.273,0
1583338619.760,32.715,29.785,33.203,31.250,-41.504,0
1583338619.764,39.551,29.785,30.273,34.668,20.020,0
1583338619.768,40.527,31.738,32.715,33.691,77.148,0
1583338619.771,34.180,30.762,32.715,28.809,25.879,0
1583338619.775,29.785,28.320,33.691,23.438,8.789,0
1583338619.779,33.691,27.832,34.180,25.879,26.855,0
1583338619.783,37.598,27.832,34.180,24.414,-7.324,0
1583338619.787,30.762,24.902,34.180,16.113,33.203,0
1583338619.784,24.902,25.391,30.762,19.531,31.250,0
1583338619.788,25.879,23.438,29.785,23.438,33.691,0
1583338619.792,33.691,24.414,29.785,26.367,83.496,0
1583338619.796,36.133,27.344,31.738,19.043,62.988,0
1583338619.800,29.297,26.855,32.715,17.578,47.363,0
1583338619.804,24.902,22.949,30.273,23.438,38.086,0
1583338619.808,34.180,20.996,27.832,22.949,13.184,0
1583338619.811,35.645,23.926,23.438,21.484,-1.953,0
1583338619.815,24.414,24.902,22.461,8.789,-1.953,0
1583338619.819,20.508,22.949,23.438,10.254,14.160,0
1583338619.823,28.809,20.996,22.949,25.391,16.113,0
1583338619.827,35.156,22.949,23.926,24.902,22.949,0
1583338619.844,36.621,29.297,23.438,28.809,27.832,0
1583338619.848,34.668,33.691,25.879,24.902,34.668,0
1583338619.852,34.668,32.227,31.250,20.508,42.480,0
1583338619.856,38.574,32.715,35.645,28.809,-3.418,0
1583338619.860,29.785,30.762,36.621,21.973,0.977,0
1583338619.864,18.555,28.320,33.691,18.066,39.551,0
1583338619.868,18.555,26.367,31.738,7.324,20.996,0
1583338619.871,27.344,25.879,35.645,7.812,24.902,0
1583338619.875,27.344,27.344,35.156,22.949,26.367,0
1583338619.879,18.555,26.855,31.250,18.066,18.555,0
1583338619.883,26.855,28.320,31.738,20.020,0.000,0
1583338619.887,33.203,29.785,34.180,21.973,22.461,0
1583338619.886,28.320,26.367,33.203,16.113,-5.371,0
1583338619.890,20.508,24.902,33.203,20.508,-11.719,0
1583338619.894,18.555,24.414,32.715,21.484,10.254,0
1583338619.898,26.855,23.438,29.785,22.949,-24.414,0
1583338619.902,32.227,22.949,27.832,20.508,6.348,0
1583338619.906,28.809,23.926,30.273,16.602,4.395,0
1583338619.910,23.926,23.438,30.273,21.484,-29.785,0
1583338619.913,29.297,25.391,29.297,24.414,-6.836,0
1583338619.917,39.551,28.809,32.227,33.691,32.227,0
1583338619.921,38.574,29.297,31.738,29.785,56.641,0
1583338619.925,25.879,26.367,31.250,21.973,71.777,0
1583338619.929,27.832,26.367,30.273,30.762,84.961,0
1583338619.924,39.062,25.391,27.832,31.250,73.242,0
1583338619.928,36.621,22.461,29.297,26.367,44.434,0
1583338619.932,29.785,27.344,31.738,18.555,41.992,0
1583338619.936,31.738,31.738,28.320,18.066,44.434,0
1583338619.940,43.945,30.762,25.879,28.320,2.930,0
1583338619.944,41.992,30.762,25.879,30.273,-10.254,0
1583338619.948,33.691,30.762,29.297,31.738,18.066,0
1583338619.951,32.227,32.715,28.809,26.367,62.988,0
1583338619.955,38.574,31.738,23.438,16.602,43.457,0
1583338619.959,45.898,28.809,25.879,28.320,33.203,0
1583338619.963,41.016,27.832,26.855,27.832,75.195,0
1583338619.967,29.785,27.832,23.926,18.555,-5.371,0
1583338620.004,33.203,30.762,23.438,19.531,-41.504,0
1583338620.008,39.062,30.273,22.461,20.508,26.855,0
1583338620.012,28.809,25.391,22.461,22.461,-4.395,0
1583338620.016,26.367,24.414,25.391,19.531,28.809,0
1583338620.020,31.738,25.879,27.344,22.461,82.031,0
1583338620.024,33.691,23.926,26.367,22.949,28.320,0
1583338620.028,36.621,22.949,25.879,20.508,19.043,0
1583338620.031,29.297,22.461,24.902,22.461,48.828,0
1583338620.035,24.414,23.926,28.320,22.461,52.734,0
1583338620.039,35.156,27.344,33.203,30.273,75.684,0
1583338620.043,41.016,26.367,32.715,25.391,29.785,0
1583338620.047,31.250,27.344,29.785,15.137,1.953,0
1583338620.045,22.949,25.391,27.832,14.648,60.059,0
1583338620.049,32.227,26.855,28.809,20.020,23.926,0
1583338620.053,41.504,26.855,28.809,25.391,-47.363,0
1583338620.057,32.715,26.367,28.809,21.973,-15.625,0
1583338620.061,22.949,29.297,27.344,16.602,4.395,0
1583338620.065,27.344,28.320,29.297,23.438,5.371,0
1583338620.069,35.156,24.902,30.273,30.762,8.301,0
1583338620.072,37.598,26.367,28.320,30.273,6.836,0
1583338620.076,35.645,29.297,30.762,26.367,71.289,0
1583338620.080,32.227,29.297,30.273,21.484,82.031,0
1583338620.084,39.062,29.297,27.832,24.414,83.984,0
1583338620.088,39.551,26.855,26.367,22.461,62.012,0
1583338620.064,27.344,26.855,24.902,14.648,-13.184,0
1583338620.068,25.879,27.344,23.926,15.137,-20.020,0
1583338620.072,40.527,30.273,25.879,24.414,-9.766,0
1583338620.076,43.945,33.691,26.367,29.785,22.949,0
1583338620.080,35.645,34.668,25.879,25.391,4.883,0
1583338620.084,31.250,33.691,25.879,20.020,-50.781,0
1583338620.088,37.109,30.273,24.902,19.043,-61.523,0
1583338620.091,44.434,30.273,23.926,25.879,-32.227,0
1583338620.095,36.133,28.809,25.391,22.949,-14.648,0
1583338620.099,27.344,28.809,28.809,18.066,-54.688,0
1583338620.103,30.762,28.320,30.762,20.996,-14.160,0
1583338620.107,37.598,26.855,31.250,21.484,66.895,0
1583338620.125,31.250,27.344,28.809,21.973,56.152,0
1583338620.129,16.602,25.879,26.367,13.672,21.484,0
1583338620.133,17.090,22.949,25.879,16.113,42.969,0
1583338620.137,27.344,22.949,25.879,28.809,10.254,0
1583338620.141,28.320,23.438,27.832,28.809,13.184,0
1583338620.145,21.484,26.367,28.320,23.926,24.414,0
1583338620.149,18.066,26.855,25.879,18.066,-13.672,0
1583338620.152,22.461,25.391,26.855,22.461,20.508,0
1583338620.156,26.855,24.414,26.855,25.391,5.859,0
1583338620.160,21.484,23.438,26.367,19.531,38.574,0
1583338620.164,18.066,25.391,29.785,15.137,61.523,0
1583338620.168,31.738,27.344,27.344,19.531,9.277,0
1583338620.164,47.363,29.297,27.344,30.273,-23.438,0
1583338620.168,33.203,28.320,35.156,22.461,-32.227,0
1583338620.172,15.625,28.320,35.645,9.766,-24.902,0
1583338620.176,20.996,27.344,32.227,15.137,5.371,0
1583338620.180,28.809,30.762,32.227,16.113,2.930,0
1583338620.184,24.902,35.645,34.180,12.207,6.348,0
1583338620.188,18.066,33.203,32.715,11.230,12.695,0
1583338620.191,14.160,30.273,32.715,10.742,30.762,0
1583338620.195,21.973,27.344,35.156,18.555,-20.020,0
1583338620.199,30.762,28.809,34.180,19.531,-1.953,0
1583338620.203,20.996,30.273,33.203,10.742,77.637,0
1583338620.207,17.090,30.273,35.156,14.648,18.066,0
1583338620.204,31.738,33.203,32.715,20.996,21.973,0
1583338620.208,40.039,33.203,30.273,28.320,75.684,0
1583338620.212,34.668,31.738,28.320,22.949,19.531,0
1583338620.216,30.273,33.203,30.273,19.043,-22.949,0
1583338620.220,36.133,32.227,33.203,24.902,7.812,0
1583338620.224,44.434,28.320,30.762,25.391,-4.883,0
1583338620.228,41.016,26.855,30.273,24.414,20.508,0
1583338620.231,32.227,25.391,28.320,18.555,16.113,0
1583338620.235,34.180,23.438,27.832,18.066,40.527,0
1583338620.239,40.527,24.414,28.320,26.367,71.289,0
1583338620.243,41.504,26.367,26.367,23.438,28.320,0
1583338620.247,30.762,25.879,26.855,23.438,23.926,0
1583338620.284,23.926,25.879,25.391,22.461,33.691,0
1583338620.288,34.668,25.391,24.414,20.996,-20.020,0
1583338620.292,41.992,25.391,28.809,23.926,-16.602,0
1583338620.296,30.762,26.367,28.809,18.555,10.742,0
1583338620.300,22.949,20.508,27.832,20.020,2.930,0
1583338620.304,31.250,23.438,26.855,23.926,8.301,0
1583338620.308,36.133,27.344,25.879,29.297,5.859,0
1583338620.311,31.250,23.926,25.391,27.832,26.855,0
1583338620.315,25.391,24.902,25.391,19.531,52.246,0
1583338620.319,25.879,25.879,26.367,22.461,-33.203,0
1583338620.323,32.715,27.344,26.855,24.902,-64.453,0
1583338620.327,36.621,27.344,26.367,25.879,-7.324,0
1583338620.304,31.738,26.855,24.414,22.461,34.180,0
1583338620.308,29.785,26.367,22.461,19.531,9.277,0
1583338620.312,35.156,26.855,25.391,33.203,-6.836,0
1583338620.316,30.273,25.391,28.320,35.156,21.973,0
1583338620.320,22.461,23.926,26.855,24.902,43.945,0
1583338620.324,21.484,26.855,27.344,20.996,67.871,0
1583338620.328,25.879,24.902,28.809,22.949,62.988,0
1583338620.331,32.715,23.438,28.320,31.738,32.227,0
1583338620.335,32.227,28.320,26.855,25.391,-0.488,0
1583338620.339,29.297,29.785,26.367,19.043,21.484,0
1583338620.343,32.227,27.344,27.832,16.113,43.945,0
1583338620.347,35.156,26.855,26.855,14.648,63.965,0
1583338620.345,34.668,26.855,27.344,17.578,57.617,0
1583338620.349,31.250,27.832,30.273,15.137,33.691,0
1583338620.353,28.809,30.273,30.762,17.090,11.719,0
1583338620.357,35.645,27.344,30.762,17.578,16.113,0
1583338620.361,39.551,25.879,32.227,19.531,72.754,0
1583338620.365,34.668,25.879,32.227,23.438,20.020,0
1583338620.369,31.738,26.367,30.762,24.902,23.438,0
1583338620.372,43.945,28.809,29.297,31.250,62.988,0
1583338620.376,52.734,29.785,28.320,31.250,37.109,0
1583338620.380,38.086,28.320,29.785,22.461,11.230,0
1583338620.384,23.438,26.855,33.203,23.438,-41.504,0
1583338620.388,22.949,24.902,35.156,28.320,-31.250,0
1583338620.404,30.273,24.414,35.645,29.297,-9.277,0
1583338620.408,21.973,20.508,37.109,20.508,-22.461,0
1583338620.412,10.742,16.113,40.039,15.625,-36.621,0
1583338620.416,14.160,18.555,42.480,20.508,-4.395,0
1583338620.420,24.414,21.484,41.992,22.461,25.879,0
1583338620.424,21.484,21.973,39.551,19.531,-13.184,0
1583338620.428,13.184,21.484,35.645,10.254,17.090,0
1583338620.431,20.996,23.438,32.715,13.672,17.090,0
1583338620.435,30.273,25.879,33.691,28.809,-24.902,0
1583338620.439,32.227,23.926,35.645,29.297,2.930,0
1583338620.443,24.414,23.926,31.738,20.508,-23.438,0
1583338620.447,26.367,25.391,31.250,13.184,-10.742,0
1583338620.444,33.691,25.879,35.645,20.996,50.293,0
1583338620.448,36.621,26.855,32.227,32.715,71.289,0
1583338620.452,33.691,26.855,30.762,28.320,76.660,0
1583338620.456,32.715,27.344,33.691,23.926,53.223,0
1583338620.460,38.086,27.832,34.180,22.461,47.363,0
1583338620.464,41.504,27.832,32.227,22.461,53.223,0
1583338620.468,37.109,29.297,32.227,25.391,34.668,0
1583338620.471,29.297,28.320,32.227,20.020,45.898,0
1583338620.475,33.203,27.344,31.250,24.902,62.500,0
1583338620.479,41.504,26.367,30.762,21.484,53.711,0
1583338620.483,40.039,23.438,29.785,17.578,30.273,0
1583338620.487,36.133,26.367,30.762,28.320,5.859,0
1583338620.484,35.156,29.785,31.250,31.738,34.180,0
1583338620.488,40.039,28.809,28.809,30.273,13.672,0
1583338620.492,44.434,25.879,22.461,23.926,14.160,0
1583338620.496,31.738,24.414,24.902,17.090,-9.766,0
1583338620.500,26.855,25.879,28.320,21.973,-55.176,0
1583338620.504,40.527,26.855,26.855,28.809,20.996,0
1583338620.508,39.551,24.414,26.367,29.785,37.109,0
1583338620.511,33.691,24.414,25.879,21.973,-0.977,0
1583338620.515,29.297,26.367,27.832,20.020,27.832,0
1583338620.519,23.926,23.438,28.320,22.949,5.371,0
1583338620.523,29.785,24.414,25.391,21.484,15.137,0
1583338620.527,30.762,26.855,24.902,21.973,55.664,0
1583338620.544,24.902,26.367,25.391,9.277,30.762,0
1583338620.548,24.902,23.438,23.438,11.230,42.480,0
1583338620.552,31.250,23.926,22.461,25.391,48.340,0
1583338620.556,33.203,28.320,21.973,20.020,41.504,0
1583338620.560,25.879,28.320,22.461,14.648,31.738,0
1583338620.564,20.508,27.344,22.461,8.789,11.719,0
1583338620.568,31.738,30.273,21.973,17.578,-7.812,0
1583338620.571,36.621,31.250,22.949,22.461,-41.016,0
1583338620.575,26.367,31.250,23.438,14.648,-31.738,0
1583338620.579,23.438,29.785,22.461,16.602,-15.625,0
1583338620.583,29.785,30.273,20.508,16.113,8.789,0
1583338620.587,38.574,34.180,21.973,21.484,48.340,0
1583338620.584,32.227,31.738,26.367,23.438,21.973,0
1583338620.588,25.391,28.809,27.344,22.461,-15.137,0
1583338620.592,41.992,27.832,22.949,33.203,-15.137,0
1583338620.596,46.387,28.809,18.555,29.785,19.043,0
1583338620.600,33.203,30.273,17.090,21.973,25.879,0
1583338620.604,17.578,32.227,15.625,14.648,-50.781,0
1583338620.608,9.766,32.715,15.625,11.719,-34.180,0
1583338620.611,24.902,33.203,15.625,19.531,17.090,0
1583338620.615,29.785,38.086,14.160,17.578,6.348,0
1583338620.619,20.996,38.574,18.555,12.207,36.621,0
1583338620.623,20.020,35.645,22.461,19.043,71.777,0
1583338620.627,24.902,34.180,20.996,25.391,61.035,0
1583338620.644,28.809,30.273,18.066,23.926,-1.953,0
1583338620.648,23.926,31.250,18.555,17.090,-33.203,0
1583338620.652,23.438,33.203,19.531,15.625,-10.742,0
1583338620.656,29.785,31.250,20.020,22.949,31.738,0
1583338620.660,35.156,32.227,21.973,27.344,16.113,0
1583338620.664,33.691,34.668,23.438,27.832,-48.340,0
1583338620.668,25.391,35.156,26.855,24.414,-14.648,0
1583338620.671,30.273,35.645,26.855,23.438,33.691,0
1583338620.675,39.062,35.156,25.391,27.832,-17.090,0
1583338620.679,33.691,35.645,26.367,26.367,-0.488,0
1583338620.683,25.391,37.109,25.391,18.555,31.738,0
1583338620.687,27.832,37.598,27.832,20.996,41.504,0
1583338620.684,38.086,36.621,29.297,27.344,37.109,0
1583338620.688,41.016,35.156,24.902,25.879,53.711,0
1583338620.692,29.785,33.691,23.926,20.996,62.500,0
1583338620.696,29.297,36.133,28.320,22.461,-2.930,0
1583338620.700,41.016,36.621,30.762,29.297,60.547,0
1583338620.704,42.969,36.621,29.785,29.785,21.973,0
1583338620.708,36.133,35.645,29.785,28.320,-2.930,0
1583338620.711,31.250,35.156,27.344,24.414,31.250,0
1583338620.715,37.109,34.180,24.414,26.367,46.387,0
1583338620.719,42.480,31.250,25.391,30.273,83.496,0
1583338620.723,34.180,32.715,26.367,24.414,73.242,0
1583338620.727,25.879,32.227,25.391,13.672,65.430,0
1583338620.725,32.715,28.809,24.902,20.020,39.551,0
1583338620.729,41.504,27.832,24.414,28.320,34.180,0
1583338620.733,41.016,30.273,27.832,25.879,43.945,0
1583338620.737,37.598,34.180,30.273,22.949,16.602,0
1583338620.741,38.574,33.203,32.227,24.902,-11.230,0
1583338620.745,41.016,32.227,32.715,27.344,-41.016,0
1583338620.749,39.062,33.691,32.227,25.879,-31.738,0
1583338620.752,34.180,33.691,34.180,21.973,8.789,0
1583338620.756,28.320,33.203,36.133,19.043,-19.043,0
1583338620.760,37.109,31.250,39.551,29.785,-20.508,0
1583338620.764,48.340,33.203,38.574,40.527,0.000,0
1583338620.768,40.527,38.086,32.227,33.203,23.438,0
1583338620.784,32.715,38.574,27.832,23.926,35.645,0
1583338620.788,30.762,39.551,23.926,16.113,-0.977,0
1583338620.792,33.691,40.039,21.973,15.625,-15.625,0
1583338620.796,36.621,38.086,20.996,19.043,-9.277,0
1583338620.800,30.762,36.133,21.973,15.137,12.207,0
1583338620.804,25.391,33.691,23.438,15.625,70.312,0
1583338620.808,36.133,31.738,20.508,23.438,43.945,0
1583338620.811,40.527,33.203,18.555,15.625,11.230,0
1583338620.815,29.785,32.227,20.508,11.230,40.527,0
1583338620.819,28.809,30.273,22.461,19.043,41.992,0
1583338620.823,39.062,31.250,21.484,20.996,27.832,0
1583338620.827,43.945,30.762,22.949,24.414,-8.789,0
1583338620.825,41.504,32.227,26.855,24.902,-59.082,0
1583338620.829,38.574,34.180,27.832,28.320,21.484,0
1583338620.833,43.457,35.156,29.785,32.715,61.035,0
1583338620.837,49.316,35.645,31.738,37.598,31.738,0
1583338620.841,41.016,36.133,31.738,32.715,10.742,0
1583338620.845,32.227,35.156,31.250,19.043,14.160,0
1583338620.849,36.621,30.762,31.250,28.320,49.316,0
1583338620.852,43.457,27.832,28.809,29.297,52.734,0
1583338620.856,39.062,29.297,27.344,20.020,53.711,0
1583338620.860,31.738,29.785,29.785,24.414,86.914,0
1583338620.864,32.715,30.762,29.785,25.879,62.500,0
1583338620.868,43.945,34.668,27.344,29.297,-16.113,0
1583338620.865,47.363,34.180,27.344,29.785,-35.156,0
1583338620.869,39.551,32.715,27.832,24.902,9.766,0
1583338620.873,37.109,32.227,24.902,30.273,46.387,0
1583338620.877,46.387,30.762,22.949,29.785,-6.836,0
1583338620.881,49.805,29.297,22.949,29.297,-46.387,0
1583338620.885,44.434,28.320,22.949,27.344,30.762,0
1583338620.889,40.527,30.762,26.855,21.973,41.504,0
1583338620.892,41.504,30.762,29.297,31.250,-17.090,0
1583338620.896,47.363,28.809,25.879,34.180,15.137,0
1583338620.900,44.434,29.297,26.367,22.949,39.551,0
1583338620.904,41.016,33.203,28.320,17.578,65.918,0
1583338620.908,42.480,32.715,26.855,26.855,107.422,0
1583338620.925,39.062,27.344,25.879,35.645,65.430,0
1583338620.929,36.133,29.785,25.391,26.367,-15.625,0
1583338620.933,32.715,30.273,27.832,23.926,16.602,0
1583338620.937,33.203,28.809,27.832,20.996,62.500,0
1583338620.941,38.574,26.855,23.926,21.484,47.363,0
1583338620.945,33.691,24.414,23.438,27.344,38.086,0
1583338620.949,24.414,22.461,21.484,16.113,-1.953,0
1583338620.952,24.414,23.926,19.043,5.859,-8.789,0
1583338620.956,31.738,24.414,21.484,17.578,33.691,0
1583338620.960,38.574,21.484,24.414,26.367,36.621,0
1583338620.964,29.297,20.996,21.484,20.020,0.977,0
1583338620.968,25.391,23.438,19.531,15.137,-8.789,0
1583338620.965,35.645,23.438,20.508,22.949,23.926,0
1583338620.969,40.527,26.367,19.531,22.949,-6.348,0
1583338620.973,37.109,28.320,20.508,19.531,-37.598,0
1583338620.977,29.785,24.902,21.484,24.414,-17.090,0
1583338620.981,32.715,27.832,20.996,26.855,-7.324,0
1583338620.985,44.434,31.738,21.484,32.715,-5.859,0
1583338620.989,42.969,30.273,21.973,24.414,5.371,0
1583338620.992,32.227,28.320,21.973,8.301,2.930,0
1583338620.996,34.180,27.344,21.484,18.066,4.883,0
1583338621.000,40.039,26.855,20.996,34.668,15.625,0
1583338621.004,38.574,26.855,21.973,17.578,59.570,0
1583338621.008,31.250,27.832,22.461,-0.977,76.660,0
1583338621.004,22.461,31.250,22.461,8.301,-8.301,0
1583338621.008,26.367,28.809,24.414,19.043,-59.570,0
1583338621.012,37.598,28.809,24.414,24.414,-58.105,0
1583338621.016,29.785,28.320,22.461,9.766,-18.555,0
1583338621.020,17.090,24.414,24.414,-1.953,35.156,0
1583338621.024,21.484,25.391,25.391,12.695,19.043,0
1583338621.028,30.762,24.414,24.414,23.438,-16.602,0
1583338621.031,27.832,23.438,25.879,24.902,14.648,0
1583338621.035,20.996,28.809,26.855,19.043,10.254,0
1583338621.039,24.902,28.809,25.391,10.254,-71.289,0
1583338621.043,36.133,25.391,23.926,21.484,-58.105,0
1583338621.047,33.691,26.855,24.902,23.926,-13.672,0
1583338621.065,21.973,27.832,25.879,24.902,-69.336,0
1583338621.069,21.484,28.320,27.344,30.762,-55.176,0
1583338621.073,28.809,26.367,26.855,29.785,49.316,0
1583338621.077,31.738,29.785,23.438,29.785,59.570,0
1583338621.081,27.344,31.738,24.414,24.414,21.973,0
1583338621.085,21.484,26.855,26.855,12.695,20.996,0
1583338621.089,25.879,28.320,26.367,12.695,45.898,0
1583338621.092,31.738,33.203,28.320,19.531,45.410,0
1583338621.096,28.320,30.762,30.273,23.438,46.875,0
1583338621.100,22.949,29.297,29.297,20.996,50.781,0
1583338621.104,29.297,29.785,27.832,24.902,49.805,0
1583338621.108,37.598,31.250,28.809,29.785,39.551,0
1583338621.104,33.691,30.762,29.785,20.020,-19.531,0
1583338621.108,30.273,31.250,30.762,20.996,-46.387,0
1583338621.112,31.250,30.762,27.832,22.461,-22.949,0
1583338621.116,38.086,28.320,25.879,24.902,53.711,0
1583338621.120,41.016,29.297,26.855,25.879,62.012,0
1583338621.124,27.832,29.297,24.902,13.184,-3.418,0
1583338621.128,16.113,29.785,23.926,14.160,5.371,0
1583338621.131,25.391,29.785,24.902,20.508,-30.273,0
1583338621.135,38.574,28.320,25.391,25.391,-4.883,0
1583338621.139,29.297,30.762,24.902,20.996,45.410,0
1583338621.143,16.113,30.273,21.484,4.395,-0.488,0
1583338621.147,27.832,26.367,21.973,15.625,13.184,0
1583338621.145,43.945,32.227,25.879,29.785,56.152,0
1583338621.149,32.715,35.645,24.414,18.066,26.367,0
1583338621.153,20.020,33.203,22.949,12.207,28.320,0
1583338621.157,25.391,30.762,21.484,17.578,34.668,0
1583338621.161,31.738,31.738,23.438,13.184,-7.812,0
1583338621.165,32.227,34.180,27.344,15.137,-19.531,0
1583338621.169,31.738,34.668,29.297,20.020,4.883,0
1583338621.172,31.738,36.133,29.297,18.555,61.035,0
1583338621.176,38.086,35.156,26.367,24.414,61.523,0
1583338621.180,41.016,34.180,24.902,26.367,22.949,0
1583338621.184,32.227,32.715,27.344,26.367,-13.184,0
1583338621.188,30.762,31.738,26.855,18.066,-17.578,0
1583338621.204,38.574,30.762,21.973,21.973,1.953,0
1583338621.208,43.457,31.250,20.020,20.020,-48.340,0
1583338621.212,36.621,28.320,24.414,22.461,-26.367,0
1583338621.216,29.785,26.855,27.344,32.227,76.660,0
1583338621.220,36.621,26.855,25.879,36.133,100.586,0
1583338621.224,44.434,27.832,25.879,41.016,118.652,0
1583338621.228,39.062,29.785,22.949,26.367,44.434,0
1583338621.231,28.809,26.855,21.484,11.719,-52.246,0
1583338621.235,30.273,25.391,26.367,20.020,4.395,0
1583338621.239,35.645,26.367,26.367,30.762,17.578,0
1583338621.243,32.715,25.879,24.902,30.273,-23.926,0
1583338621.247,22.461,24.902,25.879,21.973,3.418,0
1583338621.244,23.438,26.367,25.879,24.414,-0.977,0
1583338621.248,35.645,27.832,26.855,28.320,-1.465,0
1583338621.252,42.969,29.297,26.855,32.715,49.316,0
1583338621.256,38.086,30.762,27.832,29.297,74.219,0
1583338621.260,29.785,31.250,29.785,24.902,51.758,0
1583338621.264,41.016,31.250,27.832,35.645,39.551,0
1583338621.268,46.875,30.273,25.879,36.621,46.875,0
1583338621.271,31.738,30.762,28.320,25.391,16.602,0
1583338621.275,25.879,28.320,32.227,23.438,9.277,0
1583338621.279,36.133,30.273,31.738,24.902,6.836,0
1583338621.283,39.551,31.250,29.297,14.648,18.066,0
1583338621.287,28.809,28.320,29.785,13.184,27.832,0
1583338621.284,22.461,28.320,28.809,18.066,-14.648,0
1583338621.288,23.438,28.809,25.879,10.254,-20.996,0
1583338621.292,33.691,33.203,25.391,15.137,25.391,0
1583338621.296,41.992,33.203,27.344,16.602,14.648,0
1583338621.300,31.738,29.785,25.879,8.301,-2.930,0
1583338621.304,29.297,29.785,24.902,12.695,38.086,0
1583338621.308,39.551,29.297,25.879,16.602,75.195,0
1583338621.311,36.621,26.367,26.367,13.672,58.105,0
1583338621.315,25.391,27.344,26.367,10.254,20.508,0
1583338621.319,20.996,27.832,26.367,6.836,41.992,0
1583338621.323,27.344,28.320,29.297,15.137,55.176,0
1583338621.327,38.086,30.762,31.738,22.949,16.113,0
1583338621.344,37.598,32.715,30.762,26.855,0.488,0
1583338621.348,27.832,28.809,26.855,9.766,41.504,0
1583338621.352,32.715,26.367,27.344,12.207,56.152,0
1583338621.356,42.480,27.344,28.320,32.227,17.090,0
1583338621.360,39.062,26.855,28.809,20.996,-0.977,0
1583338621.364,32.715,28.320,29.297,13.672,-7.324,0
1583338621.368,33.203,29.297,26.855,24.414,6.836,0
1583338621.371,41.992,30.273,27.832,31.738,66.406,0
1583338621.375,41.992,29.785,27.344,25.879,63.477,0
1583338621.379,29.297,27.832,23.926,15.625,24.414,0
1583338621.383,24.902,28.809,25.879,17.090,-1.953,0
1583338621.387,34.180,32.227,28.320,33.203,-31.738,0
1583338621.383,37.598,32.227,27.344,36.133,43.945,0
1583338621.387,29.785,29.297,26.855,31.250,64.941,0
1583338621.391,25.879,25.879,26.855,25.391,8.789,0
1583338621.395,27.832,27.832,27.344,17.090,-10.254,0
1583338621.399,33.203,30.762,30.273,30.273,22.949,0
1583338621.403,31.738,29.785,30.273,35.156,38.574,0
1583338621.407,22.949,29.785,29.785,23.438,37.598,0
1583338621.410,24.414,26.367,31.250,21.484,70.801,0
1583338621.414,38.086,23.438,29.297,35.156,69.336,0
1583338621.418,39.062,28.320,25.391,29.297,-1.953,0
1583338621.422,20.020,27.344,21.973,0.000,-15.625,0
1583338621.426,17.090,25.879,20.508,8.301,1.465,0
1583338621.424,27.832,26.367,20.508,11.230,-25.391,0
1583338621.428,27.344,22.949,21.484,-0.977,-4.883,0
1583338621.432,23.438,25.879,20.020,12.207,-9.277,0
1583338621.436,28.320,28.809,16.602,19.531,19.043,0
1583338621.440,41.992,32.227,19.531,28.809,57.129,0
1583338621.444,46.875,36.133,23.926,35.156,42.480,0
1583338621.448,37.109,34.180,26.367,31.250,73.730,0
1583338621.451,32.715,35.156,27.344,33.691,44.434,0
1583338621.455,45.410,36.133,27.344,37.109,26.855,0
1583338621.459,56.152,32.227,27.832,39.062,10.254,0
1583338621.463,52.246,32.715,25.879,35.156,34.180,0
1583338621.467,48.828,32.227,26.367,33.691,83.496,0
1583338621.484,46.387,32.715,28.320,44.434,49.805,0
1583338621.488,50.781,33.691,24.902,40.039,56.641,0
1583338621.492,55.176,31.250,20.508,35.156,41.504,0
1583338621.496,44.922,30.273,21.484,30.273,-6.348,0
1583338621.500,38.574,33.203,23.438,27.344,1.953,0
1583338621.504,48.340,35.156,22.461,37.598,56.641,0
1583338621.508,54.199,33.203,22.949,34.668,62.500,0
1583338621.511,44.922,32.715,26.855,28.809,20.508,0
1583338621.515,39.551,32.715,23.438,26.855,16.113,0
1583338621.519,47.363,31.250,21.973,31.738,19.531,0
1583338621.523,56.641,30.273,22.461,41.992,23.926,0
1583338621.527,51.270,29.297,20.996,37.109,19.043,0
1583338621.523,40.039,29.297,22.949,33.203,26.367,0
1583338621.527,47.363,31.250,27.344,34.668,29.785,0
1583338621.531,56.152,30.273,28.320,35.156,17.578,0
1583338621.535,50.293,29.297,23.438,34.668,-7.812,0
1583338621.539,42.480,29.785,23.926,27.344,-6.836,0
1583338621.543,41.504,29.785,25.879,27.832,59.082,0
1583338621.547,51.758,28.320,25.391,29.297,78.125,0
1583338621.550,56.152,29.297,23.926,24.902,35.645,0
1583338621.554,43.945,32.227,23.926,25.879,5.371,0
1583338621.558,38.086,33.691,22.949,17.090,-11.230,0
1583338621.562,42.480,32.227,21.973,12.695,5.371,0
1583338621.566,42.480,33.203,25.879,17.578,33.691,0
1583338621.563,29.785,30.762,23.926,7.812,52.734,0
1583338621.567,20.508,30.762,22.949,4.395,69.824,0
1583338621.571,28.320,32.715,25.391,13.672,23.438,0
1583338621.575,35.645,29.785,26.855,20.020,16.113,0
1583338621.579,26.855,30.273,23.926,13.184,66.895,0
1583338621.583,13.672,27.344,19.531,8.789,61.035,0
1583338621.587,19.043,24.902,21.973,13.184,17.090,0
1583338621.590,31.738,27.832,24.414,14.648,42.969,0
1583338621.594,34.668,28.809,20.508,14.648,81.543,0
1583338621.598,30.762,27.832,20.508,16.113,38.086,0
1583338621.602,38.574,28.320,22.949,20.996,6.836,0
1583338621.606,44.434,25.879,28.320,29.297,22.949,0
1583338621.624,30.273,22.949,28.809,18.066,30.273,0
1583338621.628,16.602,23.438,29.297,0.977,2.441,0
1583338621.632,17.578,20.508,33.203,6.836,61.523,0
1583338621.636,29.297,20.020,31.738,17.090,15.137,0
1583338621.640,33.203,20.996,31.250,15.137,-18.066,0
1583338621.644,25.391,22.949,29.785,10.742,22.949,0
1583338621.648,24.414,25.391,29.297,3.906,-19.531,0
1583338621.651,28.320,24.902,29.785,4.395,-36.133,0
1583338621.655,24.902,24.414,26.855,13.672,-47.363,0
1583338621.659,20.020,23.926,27.832,15.625,27.832,0
1583338621.663,15.625,27.344,26.855,10.742,19.043,0
1583338621.667,19.531,28.809,26.367,13.672,1.465,0
1583338621.684,30.273,25.879,27.832,14.648,21.973,0
1583338621.688,30.273,25.391,28.320,17.578,27.832,0
1583338621.692,19.531,26.367,29.297,11.230,12.207,0
1583338621.696,20.508,26.367,27.832,9.277,82.520,0
1583338621.700,30.762,25.879,24.902,24.902,104.492,0
1583338621.704,33.691,24.414,24.902,18.555,-8.789,0
1583338621.708,29.297,21.973,24.414,12.695,14.648,0
1583338621.711,28.809,22.461,25.391,15.137,0.977,0
1583338621.715,37.598,21.973,26.367,18.066,-44.922,0
1583338621.719,38.574,20.996,23.926,21.973,15.137,0
1583338621.723,31.250,24.414,25.879,20.996,83.496,0
1583338621.727,26.367,26.855,28.809,20.508,87.891,0
1583338621.725,27.832,27.344,26.855,23.926,43.457,0
1583338621.729,33.203,29.785,25.879,27.344,41.504,0
1583338621.733,30.762,33.203,24.902,20.020,29.297,0
1583338621.737,30.273,32.715,25.391,13.672,4.395,0
1583338621.741,32.715,30.762,25.391,21.484,12.207,0
1583338621.745,35.645,31.250,24.902,30.273,74.707,0
1583338621.749,39.551,31.738,26.855,28.320,26.367,0
1583338621.752,33.203,30.762,26.367,20.508,-22.461,0
1583338621.756,32.715,30.273,23.926,19.531,-7.324,0
1583338621.760,41.992,30.273,26.367,32.715,-12.207,0
1583338621.764,45.410,28.809,28.320,36.621,-18.555,0
1583338621.768,39.551,27.344,26.855,30.762,34.668,0
1583338621.765,32.227,29.297,23.438,25.879,85.449,0
1583338621.769,34.668,30.762,21.973,26.367,18.555,0
1583338621.773,33.203,28.320,21.973,29.297,20.508,0
1583338621.777,23.926,26.855,20.020,21.973,52.246,0
1583338621.781,19.043,27.832,21.973,16.602,1.465,0
1583338621.785,22.949,27.832,22.461,19.043,-33.203,0
1583338621.789,33.691,26.367,23.438,17.090,38.086,0
1583338621.792,35.156,25.879,28.809,18.066,67.383,0
1583338621.796,28.809,26.855,29.297,18.555,48.340,0
1583338621.800,29.785,24.902,27.832,21.484,48.340,0
1583338621.804,40.527,24.902,27.832,26.855,50.293,0
1583338621.808,42.480,26.367,26.367,23.438,48.828,0
1583338621.804,34.180,21.484,26.367,19.531,1.465,0
1583338621.808,32.715,20.508,28.320,23.438,38.086,0
1583338621.812,40.527,22.949,28.320,28.809,6.836,0
1583338621.816,45.410,26.367,26.367,31.738,-34.180,0
1583338621.820,37.598,29.297,26.855,24.414,15.137,0
1583338621.824,27.344,27.832,27.344,23.438,-22.949,0
1583338621.828,36.621,27.344,26.367,31.250,-64.941,0
1583338621.831,47.852,27.832,27.344,34.180,0.000,0
1583338621.835,43.457,28.320,27.832,34.668,17.578,0
1583338621.839,37.598,33.691,30.762,30.762,38.574,0
1583338621.843,34.668,34.180,34.180,32.715,61.523,0
1583338621.847,37.598,31.738,31.738,32.227,36.133,0
1583338621.845,39.551,37.598,28.809,30.762,36.621,0
1583338621.849,23.926,39.062,30.273,22.461,77.148,0
1583338621.853,11.230,38.086,28.320,3.906,64.941,0
1583338621.857,16.113,40.527,29.297,6.836,49.805,0
1583338621.861,14.160,39.551,32.715,8.789,33.691,0
1583338621.865,0.488,37.109,32.715,-5.859,-28.320,0
1583338621.869,-9.277,40.527,31.250,-20.020,0.488,0
1583338621.872,-13.184,50.293,26.367,-35.156,4.883,0
1583338621.876,-23.438,50.781,25.391,-44.434,-15.625,0
1583338621.880,-47.852,46.875,26.367,-55.176,8.301,0
1583338621.884,-68.848,46.875,29.297,-72.754,27.344,0
1583338621.888,-71.777,51.270,29.297,-86.426,28.809,0
1583338621.904,-69.824,54.199,28.320,-93.750,-0.488,0
1583338621.908,-81.055,54.688,29.785,-97.656,-18.066,0
1583338621.912,-88.867,54.688,29.297,-103.027,-18.066,0
1583338621.916,-87.402,53.223,26.367,-99.609,-57.617,0
1583338621.920,-81.543,51.758,24.414,-97.656,-39.062,0
1583338621.924,-78.125,53.223,22.949,-102.539,0.000,0
1583338621.928,-80.078,54.199,20.996,-97.168,31.250,0
1583338621.931,-75.195,54.688,18.555,-92.773,33.203,0
1583338621.935,-62.012,54.688,18.555,-79.590,33.203,0
1583338621.939,-54.688,48.828,20.020,-80.078,38.086,0
1583338621.943,-55.664,47.363,20.508,-83.008,37.598,0
1583338621.947,-51.270,44.922,20.508,-66.406,52.246,0
1583338621.944,-29.297,40.039,21.973,-49.805,74.219,0
1583338621.948,-10.254,42.480,22.461,-39.062,56.641,0
1583338621.952,-9.766,40.527,21.484,-39.062,68.359,0
1583338621.956,-3.906,36.133,19.531,-31.738,113.770,0
1583338621.960,5.859,34.668,20.508,-15.137,105.957,0
1583338621.964,19.531,31.738,23.926,0.488,38.086,0
1583338621.968,28.320,27.832,24.414,17.090,-2.930,0
1583338621.971,30.273,27.344,26.367,17.090,34.180,0
1583338621.975,41.016,28.320,26.367,20.996,0.977,0
1583338621.979,60.547,28.320,27.344,37.598,-29.297,0
1583338621.983,68.359,26.855,26.367,42.969,-13.672,0
1583338621.987,59.082,24.902,23.438,47.852,10.742,0
1583338621.985,58.105,22.949,24.902,49.805,53.711,0
1583338621.989,70.801,21.484,24.902,59.570,65.918,0
1583338621.993,78.125,23.438,24.414,67.871,57.617,0
1583338621.997,74.707,22.949,27.344,63.965,50.293,0
1583338622.001,67.871,21.484,28.320,66.406,32.227,0
1583338622.005,72.266,21.973,26.367,66.406,-8.301,0
1583338622.009,82.031,23.438,24.414,70.801,14.648,0
1583338622.012,78.125,21.973,25.391,69.824,23.438,0
1583338622.016,70.801,18.066,26.367,60.547,-23.926,0
1583338622.020,76.172,15.137,23.926,68.848,-2.441,0
1583338622.024,85.938,13.184,19.531,70.312,10.742,0
1583338622.028,83.008,15.137,16.602,65.918,-30.762,0
1583338622.044,72.754,14.648,17.578,66.406,4.395,0
1583338622.048,70.801,12.207,18.555,67.383,91.309,0
1583338622.052,84.473,16.113,18.555,75.195,32.715,0
1583338622.056,85.449,18.066,18.066,69.824,-18.066,0
1583338622.060,70.801,18.066,20.996,67.383,31.738,0
1583338622.064,66.406,20.020,21.484,68.359,-5.859,0
1583338622.068,71.777,19.043,21.484,69.336,25.391,0
1583338622.071,74.707,17.090,26.367,77.637,68.359,0
1583338622.075,77.637,20.996,28.809,69.336,31.250,0
1583338622.079,71.777,20.996,27.832,60.547,-1.465,0
1583338622.083,76.660,22.461,28.320,67.871,-22.461,0
1583338622.087,85.938,24.414,29.297,69.336,-46.387,0
1583338622.084,78.125,23.926,30.273,70.801,-42.969,0
1583338622.088,68.848,25.879,30.273,63.477,-13.672,0
1583338622.092,66.406,26.367,30.273,61.523,-9.277,0
1583338622.096,70.312,25.391,32.227,72.754,30.273,0
1583338622.100,69.824,23.438,32.715,68.359,8.301,0
1583338622.104,60.059,24.414,33.691,63.965,-47.852,0
1583338622.108,57.617,26.855,32.715,60.059,-20.508,0
1583338622.111,64.941,27.832,31.738,65.430,9.766,0
1583338622.115,68.359,30.273,33.691,71.289,0.977,0
1583338622.119,62.500,30.273,32.227,60.059,19.043,0
1583338622.123,56.152,29.297,27.832,57.129,49.805,0
1583338622.127,64.453,32.715,27.832,61.035,6.836,0
1583338622.144,70.801,32.715,29.297,64.941,76.660,0
1583338622.148,66.895,33.691,28.809,61.035,69.824,0
1583338622.152,59.082,32.715,28.320,53.711,6.348,0
1583338622.156,57.617,29.785,28.320,53.711,51.758,0
1583338622.160,66.406,29.785,26.367,50.781,48.828,0
1583338622.164,63.477,26.367,25.391,47.852,3.906,0
1583338622.168,48.828,25.391,23.926,44.922,-41.504,0
1583338622.171,47.852,28.809,23.926,36.621,-28.809,0
1583338622.175,56.152,27.832,25.879,33.691,-6.836,0
1583338622.179,59.082,25.879,25.879,35.156,14.160,0
1583338622.183,49.316,26.367,24.414,37.598,0.977,0
1583338622.187,47.363,28.320,22.949,40.527,-1.953,0
1583338622.184,63.965,30.762,24.902,42.969,-5.371,0
1583338622.188,64.941,32.227,26.367,46.875,22.461,0
1583338622.192,48.828,31.250,26.855,36.133,55.176,0
1583338622.196,43.945,31.250,27.344,30.273,22.949,0
1583338622.200,49.805,31.738,25.879,35.156,32.227,0
1583338622.204,48.828,30.273,24.902,31.250,40.039,0
1583338622.208,41.504,28.809,23.926,26.367,25.879,0
1583338622.211,35.156,27.832,25.391,25.391,58.594,0
1583338622.215,35.156,22.949,25.391,29.297,71.289,0
1583338622.219,40.527,20.996,24.902,34.180,34.180,0
1583338622.223,35.156,22.949,23.926,27.344,1.953,0
1583338622.227,23.438,21.484,24.902,14.648,13.184,0
1583338622.224,24.902,20.996,29.297,19.531,36.133,0
1583338622.228,46.387,24.902,30.273,34.180,16.602,0
1583338622.232,51.758,26.855,31.250,37.598,-27.344,0
1583338622.236,36.133,27.344,32.227,29.785,-13.184,0
1583338622.240,38.086,25.879,33.203,32.227,-2.441,0
1583338622.244,44.434,24.414,29.785,38.574,4.883,0
1583338622.248,41.992,26.855,24.414,36.621,14.160,0
1583338622.251,40.527,30.273,25.879,33.691,-6.348,0
1583338622.255,38.574,34.668,26.855,35.645,-36.621,0
1583338622.259,48.828,38.086,24.902,41.504,3.906,0
1583338622.263,56.152,38.574,25.879,47.363,48.828,0
1583338622.267,41.992,39.062,30.762,39.551,-35.156,0
1583338622.285,29.785,37.598,30.762,28.320,-60.059,0
1583338622.289,28.320,36.621,26.855,26.855,11.230,0
1583338622.293,36.133,37.109,26.855,28.809,25.391,0
1583338622.297,37.598,37.598,24.902,25.879,5.859,0
1583338622.301,26.367,39.062,23.926,22.949,43.457,0
1583338622.305,24.414,39.062,24.414,27.344,61.035,0
1583338622.309,40.039,39.551,25.391,30.273,18.066,0
1583338622.312,46.875,41.504,25.879,28.320,37.598,0
1583338622.316,37.109,40.039,23.438,24.902,76.172,0
1583338622.320,34.668,40.527,25.391,25.391,29.297,0
1583338622.324,40.039,41.504,27.344,30.273,13.672,0
1583338622.328,47.852,42.480,26.367,36.621,0.000,0
1583338622.324,43.945,41.992,25.391,31.738,-17.090,0
1583338622.328,33.203,40.039,24.414,21.484,11.230,0
1583338622.332,35.645,37.598,24.414,26.855,-3.418,0
1583338622.336,43.945,34.668,23.438,35.156,-32.227,0
1583338622.340,38.574,37.598,22.949,33.691,5.371,0
1583338622.344,28.809,37.109,24.902,28.320,61.035,0
1583338622.348,32.715,35.645,26.367,30.273,71.777,0
1583338622.351,39.551,36.621,24.902,37.109,67.871,0
1583338622.355,35.645,35.156,25.391,32.227,-3.418,0
1583338622.359,28.809,36.133,25.391,26.367,7.324,0
1583338622.363,28.809,36.133,23.926,17.578,69.336,0
1583338622.367,38.086,36.133,24.902,15.137,38.086,0
1583338622.385,44.922,36.133,25.391,29.785,4.883,0
1583338622.389,35.645,34.180,27.832,28.809,41.992,0
1583338622.393,30.762,36.133,29.297,27.344,57.129,0
1583338622.397,38.574,37.109,27.344,30.273,56.152,0
1583338622.401,38.086,36.133,26.855,27.344,56.641,0
1583338622.405,32.715,37.109,27.832,29.297,67.871,0
1583338622.409,30.762,38.086,25.879,23.926,27.832,0
1583338622.412,33.203,36.133,23.926,25.391,34.668,0
1583338622.416,36.621,37.109,24.414,26.367,39.551,0
1583338622.420,38.574,35.156,25.879,18.555,-42.969,0
1583338622.424,34.668,34.180,28.320,19.043,-39.062,0
1583338622.428,33.691,34.668,26.367,21.973,-1.953,0
1583338622.424,41.992,31.738,25.391,30.273,20.020,0
1583338622.428,42.969,32.227,27.344,23.438,37.598,0
1583338622.432,31.738,34.668,28.809,16.113,52.734,0
1583338622.436,28.809,34.668,30.273,24.902,3.418,0
1583338622.440,38.086,32.715,29.297,29.297,43.945,0
1583338622.444,41.016,32.715,26.367,31.250,55.176,0
1583338622.448,33.691,33.691,25.879,20.508,11.719,0
1583338622.451,28.809,34.668,24.902,12.695,-31.738,0
1583338622.455,31.250,34.668,26.855,28.809,-29.785,0
1583338622.459,42.969,35.645,28.320,39.062,33.691,0
1583338622.463,42.969,35.156,25.879,35.645,22.949,0
1583338622.467,30.762,32.715,23.926,25.391,41.016,0
1583338622.484,29.785,30.273,21.484,18.066,29.297,0
1583338622.488,36.621,28.320,21.973,25.391,-7.324,0
1583338622.492,31.738,28.809,22.461,28.320,39.551,0
1583338622.496,24.902,28.809,21.484,25.879,30.273,0
1583338622.500,30.762,28.809,20.020,21.484,4.883,0
1583338622.504,42.969,28.809,21.484,29.785,36.133,0
1583338622.508,41.504,25.391,23.926,37.109,-17.578,0
1583338622.511,30.273,24.902,24.414,26.855,-51.758,0
1583338622.515,26.855,25.391,24.414,28.320,13.184,0
1583338622.519,35.645,25.879,22.949,29.297,52.246,0
1583338622.523,40.039,24.414,20.508,27.832,55.176,0
1583338622.527,30.762,20.508,21.973,27.344,33.203,0
1583338622.507,30.273,22.461,22.461,20.508,-9.277,0
1583338622.511,33.691,22.461,24.902,24.902,32.715,0
1583338622.515,37.598,19.531,25.879,25.879,81.543,0
1583338622.519,38.574,18.066,25.391,18.066,17.090,0
1583338622.523,29.297,18.066,23.926,17.090,-82.520,0
1583338622.527,25.391,19.531,22.461,20.996,-70.312,0
1583338622.531,31.250,18.555,21.484,29.297,2.441,0
1583338622.534,30.273,19.531,24.414,29.785,62.012,0
1583338622.538,22.461,21.973,24.902,19.531,37.598,0
1583338622.542,25.879,21.973,24.902,21.973,-33.203,0
1583338622.546,36.621,20.996,27.832,31.250,42.969,0
1583338622.550,40.039,20.508,26.367,32.227,70.312,0
1583338622.566,36.133,20.508,23.926,23.438,19.043,0
1583338622.570,30.762,19.531,23.438,16.602,5.859,0
1583338622.574,34.180,18.555,21.973,22.461,21.484,0
1583338622.578,44.434,19.531,22.461,29.785,58.105,0
1583338622.582,41.992,22.461,24.414,29.785,35.645,0
1583338622.586,33.203,21.973,23.438,26.855,-2.930,0
1583338622.590,36.621,22.949,23.926,27.344,22.461,0
1583338622.593,40.527,23.438,24.902,25.391,60.547,0
1583338622.597,36.133,25.879,27.344,23.438,65.430,0
1583338622.601,33.691,33.203,28.320,25.879,46.387,0
1583338622.605,33.203,31.738,29.785,23.926,57.129,0
1583338622.609,39.062,29.297,29.785,25.879,96.680,0
1583338622.604,41.992,35.156,28.809,28.809,75.195,0
1583338622.608,28.809,32.715,29.297,24.902,61.523,0
1583338622.612,22.949,29.297,30.273,27.344,68.848,0
1583338622.616,35.156,32.227,31.250,26.855,38.086,0
1583338622.620,41.504,33.203,30.762,29.785,-4.395,0
1583338622.624,34.180,34.180,30.762,30.273,29.785,0
1583338622.628,31.250,34.180,31.738,25.391,30.273,0
1583338622.631,36.133,32.715,25.879,29.297,24.902,0
1583338622.635,40.527,33.203,24.414,25.879,25.391,0
1583338622.639,39.062,35.645,27.832,24.414,-20.020,0
1583338622.643,34.180,35.156,27.832,21.973,-23.438,0
1583338622.647,37.109,32.715,29.785,25.391,27.832,0
1583338622.644,41.016,33.203,29.297,37.109,47.363,0
1583338622.648,39.062,35.156,28.320,31.738,39.551,0
1583338622.652,37.598,36.133,27.832,31.250,31.250,0
1583338622.656,36.133,30.762,27.832,34.668,40.039,0
1583338622.660,39.551,24.902,27.344,34.668,-36.621,0
1583338622.664,39.551,24.414,27.832,31.250,-44.922,0
1583338622.668,24.902,21.973,26.367,20.996,45.898,0
1583338622.671,22.949,22.461,26.367,23.438,38.086,0
1583338622.675,32.227,26.367,27.344,23.438,39.551,0
1583338622.679,33.691,28.809,25.391,20.020,2.441,0
1583338622.683,27.344,28.809,24.414,22.949,0.000,0
1583338622.687,22.949,30.273,23.438,12.695,20.508,0
1583338622.704,26.855,34.180,23.926,14.160,-34.180,0
1583338622.708,31.250,35.645,23.438,23.438,-17.578,0
1583338622.712,28.809,34.668,22.949,20.020,17.090,0
1583338622.716,22.949,33.691,21.973,12.207,-54.199,0
1583338622.720,25.391,33.691,21.484,14.648,-8.301,0
1583338622.724,38.574,37.109,23.438,33.203,71.289,0
1583338622.728,44.922,39.062,24.414,31.738,88.379,0
1583338622.731,36.133,37.109,22.949,15.137,43.945,0
1583338622.735,35.645,36.621,23.438,19.043,16.602,0
1583338622.739,48.828,42.480,27.344,28.809,34.180,0
1583338622.743,50.781,44.922,26.367,27.344,4.883,0
1583338622.747,38.086,41.016,23.438,19.531,-39.062,0
1583338622.744,35.156,40.039,21.973,13.672,-29.785,0
1583338622.748,40.039,40.039,20.508,21.484,26.855,0
1583338622.752,41.504,38.086,21.973,26.367,-6.348,0
1583338622.756,34.668,36.133,22.949,20.020,4.883,0
1583338622.760,28.809,39.062,24.902,21.484,64.453,0
1583338622.764,38.086,40.039,26.367,27.832,58.105,0
1583338622.768,41.016,36.133,23.438,25.879,8.789,0
1583338622.771,29.297,30.273,21.973,19.043,3.906,0
1583338622.775,22.949,28.809,22.949,14.160,30.762,0
1583338622.779,24.414,36.133,22.949,14.648,45.410,0
1583338622.783,34.180,39.551,23.926,21.484,71.777,0
1583338622.787,35.645,36.621,25.879,22.461,75.684,0
1583338622.784,28.320,34.668,23.926,15.137,48.340,0
1583338622.788,30.273,33.691,20.508,19.531,36.133,0
1583338622.792,34.180,32.715,22.949,22.949,-20.508,0
1583338622.796,34.180,31.250,23.926,18.066,-24.414,0
1583338622.800,26.855,28.320,23.926,15.137,45.898,0
1583338622.804,21.484,28.320,23.926,13.184,17.090,0
1583338622.808,29.297,29.785,24.414,20.508,-1.465,0
1583338622.811,32.227,31.738,27.344,26.855,-12.695,0
1583338622.815,28.320,35.156,28.809,14.160,-34.668,0
1583338622.819,24.414,34.668,29.297,10.742,12.207,0
1583338622.823,26.367,31.738,27.832,19.043,16.602,0
1583338622.827,39.551,34.180,26.855,26.855,16.113,0
1583338622.844,37.109,33.203,26.367,25.391,44.922,0
1583338622.848,25.879,33.203,24.902,20.508,28.320,0
1583338622.852,28.809,34.668,25.391,24.414,25.391,0
1583338622.856,35.645,33.203,24.414,31.738,-28.809,0
1583338622.860,34.180,32.715,22.461,33.203,-88.379,0
1583338622.864,28.320,32.715,22.461,28.809,-61.523,0
1583338622.868,27.344,34.180,22.949,27.832,-11.719,0
1583338622.871,35.156,34.668,24.902,30.273,-5.859,0
1583338622.875,41.992,35.156,26.855,33.691,-5.371,0
1583338622.879,35.645,34.668,28.320,32.227,30.273,0
1583338622.883,28.809,33.691,27.832,29.297,37.109,0
1583338622.887,35.156,31.738,28.320,34.180,9.277,0
1583338622.884,41.504,31.250,28.809,43.457,43.945,0
1583338622.888,37.109,32.227,28.809,34.668,79.102,0
1583338622.892,31.738,31.738,28.320,28.320,32.715,0
1583338622.896,30.762,29.785,24.902,26.855,-25.879,0
1583338622.900,33.203,27.832,24.414,26.855,-11.230,0
1583338622.904,34.668,30.762,25.879,28.809,-8.301,0
1583338622.908,26.855,30.762,25.879,22.461,-5.859,0
1583338622.911,24.414,31.738,26.367,22.461,18.555,0
1583338622.915,29.297,29.785,25.879,26.367,-23.926,0
1583338622.919,28.320,28.809,25.879,25.879,-5.859,0
1583338622.923,20.508,31.738,25.879,15.625,54.688,0
1583338622.927,18.555,29.297,24.414,13.672,79.590,0
1583338622.924,27.832,30.273,20.508,20.508,71.777,0
1583338622.928,36.133,32.715,19.043,20.020,39.062,0
1583338622.932,27.832,31.738,20.020,19.043,28.809,0
1583338622.936,20.020,30.273,19.043,16.113,31.250,0
1583338622.940,30.273,30.273,21.973,18.555,-33.203,0
1583338622.944,41.504,28.809,24.414,30.273,-44.922,0
1583338622.948,38.574,25.879,25.879,30.273,60.547,0
1583338622.951,32.227,24.414,23.926,24.414,20.020,0
1583338622.955,34.180,26.855,22.949,17.090,0.488,0
1583338622.959,40.527,25.879,25.391,22.949,39.062,0
1583338622.963,40.039,25.879,25.879,36.133,43.457,0
1583338622.967,33.691,26.367,25.391,28.809,30.273,0
1583338622.984,30.762,25.391,23.438,21.973,-39.551,0
1583338622.988,32.227,21.973,21.973,19.531,13.184,0
1583338622.992,29.785,19.043,22.461,19.531,121.582,0
1583338622.996,23.926,20.508,23.438,20.996,68.848,0
1583338623.000,23.926,22.949,25.879,19.043,3.906,0
1583338623.004,29.785,22.949,24.414,26.855,54.199,0
1583338623.008,35.156,23.438,21.973,22.949,74.219,0
1583338623.011,33.691,22.461,22.461,13.672,12.207,0
1583338623.015,25.391,19.043,22.949,20.020,19.043,0
1583338623.019,23.438,17.090,20.996,21.484,40.039,0
1583338623.023,30.273,17.090,19.043,26.855,25.391,0
1583338623.027,30.273,20.020,19.043,18.066,44.434,0
1583338623.065,21.484,21.973,21.484,7.812,15.625,0
1583338623.069,20.996,20.020,22.949,17.578,3.906,0
1583338623.073,34.668,21.484,21.973,21.973,22.949,0
1583338623.077,41.992,27.832,21.484,23.438,28.809,0
1583338623.081,33.691,26.855,21.973,16.602,-4.395,0
1583338623.085,31.250,24.414,21.484,13.184,-24.414,0
1583338623.089,40.527,27.344,20.996,22.461,19.043,0
1583338623.092,45.410,27.344,22.949,21.484,57.129,0
1583338623.096,41.992,29.785,28.320,20.020,57.617,0
1583338623.100,39.062,34.668,30.273,10.254,67.383,0
1583338623.104,48.828,35.156,27.832,5.371,47.363,0
1583338623.108,55.176,35.645,28.809,20.020,20.508,0
1583338623.087,41.504,34.668,26.367,22.461,5.371,0
1583338623.091,31.250,31.738,26.855,23.438,4.883,0
1583338623.095,36.621,35.156,30.273,24.902,-8.301,0
1583338623.099,42.969,35.645,29.297,28.320,-33.203,0
1583338623.103,34.668,34.668,28.809,32.715,41.504,0
1583338623.107,24.902,36.621,28.809,25.391,60.059,0
1583338623.111,24.902,35.156,26.855,23.438,-8.789,0
1583338623.114,30.273,35.156,28.320,22.949,22.461,0
1583338623.118,32.715,35.156,29.297,23.438,41.992,0
1583338623.122,26.855,34.180,28.809,26.367,-12.207,0
1583338623.126,23.926,36.133,27.832,24.414,-8.301,0
1583338623.130,39.062,39.551,25.879,29.785,9.766,0
1583338623.124,45.898,40.527,26.855,28.809,4.395,0
1583338623.128,36.133,41.016,29.785,24.414,-17.578,0
1583338623.132,30.762,37.598,30.273,27.832,8.301,0
1583338623.136,31.250,35.156,30.273,31.738,68.359,0
1583338623.140,41.016,37.109,30.762,39.551,73.242,0
1583338623.144,35.156,35.645,29.785,29.297,60.059,0
1583338623.148,24.414,33.691,29.297,20.020,56.152,0
1583338623.151,28.809,29.785,29.785,30.762,62.012,0
1583338623.155,37.109,29.785,28.809,34.180,3.906,0
1583338623.159,34.668,34.668,31.250,30.762,-12.695,0
1583338623.163,25.879,34.180,33.691,23.926,48.828,0
1583338623.167,24.902,33.203,33.203,20.508,46.875,0
1583338623.165,34.668,33.691,31.250,21.484,21.484,0
1583338623.169,39.551,33.691,29.785,24.414,-32.715,0
1583338623.173,28.809,34.668,28.320,24.902,-24.414,0
1583338623.177,27.344,36.133,26.855,19.531,12.695,0
1583338623.181,40.527,37.598,27.832,24.902,20.508,0
1583338623.185,46.875,39.062,28.809,33.203,14.160,0
1583338623.189,42.480,38.086,26.367,30.762,-14.160,0
1583338623.192,34.668,37.109,24.414,25.879,30.273,0
1583338623.196,33.691,35.645,25.391,24.902,59.082,0
1583338623.200,41.992,32.227,28.809,26.367,10.742,0
1583338623.204,40.039,31.250,29.297,25.879,17.090,0
1583338623.208,28.320,30.762,28.809,24.902,29.297,0
1583338623.244,31.250,32.715,31.738,26.855,33.203,0
1583338623.248,40.527,33.691,30.273,32.715,51.758,0
1583338623.252,38.574,32.227,25.879,30.273,6.836,0
1583338623.256,28.320,32.227,25.879,23.438,-21.973,0
1583338623.260,26.367,29.297,27.344,25.391,30.762,0
1583338623.264,30.273,26.855,25.879,27.832,74.707,0
1583338623.268,33.203,30.273,26.367,29.297,58.594,0
1583338623.271,24.414,29.785,27.344,23.926,83.984,0
1583338623.275,18.066,28.320,26.367,20.508,67.871,0
1583338623.279,25.879,27.832,25.879,25.879,66.406,0
1583338623.283,32.227,30.273,24.902,28.320,20.020,0
1583338623.287,31.250,31.738,23.926,20.996,-51.270,0
1583338623.267,26.855,32.227,22.461,14.648,-49.316,0
1583338623.271,29.785,33.691,25.391,19.043,1.953,0
1583338623.275,41.016,31.738,28.320,25.879,10.742,0
1583338623.279,41.504,32.227,27.832,22.461,-30.273,0
1583338623.283,38.086,34.668,25.391,15.625,9.766,0
1583338623.287,40.039,32.715,24.902,19.531,35.645,0
1583338623.291,40.039,26.855,30.273,24.902,30.762,0
1583338623.294,36.621,25.391,32.715,21.484,11.230,0
1583338623.298,30.273,26.855,31.738,21.484,5.371,0
1583338623.302,32.227,27.344,33.203,25.879,-35.156,0
1583338623.306,40.527,32.715,32.227,32.715,-8.789,0
1583338623.310,45.410,33.691,28.320,32.715,-3.906,0
1583338623.304,41.504,32.227,28.809,30.273,-41.992,0
1583338623.308,36.133,33.691,30.762,31.250,25.391,0
1583338623.312,44.434,34.668,31.738,28.809,0.488,0
1583338623.316,50.293,33.203,32.715,32.715,-16.113,0
1583338623.320,41.016,31.250,30.762,26.367,-26.367,0
1583338623.324,32.227,33.691,26.367,19.531,-31.250,0
1583338623.328,36.621,36.133,26.855,28.809,-5.859,0
1583338623.331,42.480,33.203,27.344,32.227,-34.668,0
1583338623.335,38.086,29.297,24.902,29.785,-30.273,0
1583338623.339,31.250,31.738,24.414,20.508,53.223,0
1583338623.343,33.203,33.691,24.414,15.137,21.973,0
1583338623.347,39.062,32.715,24.902,25.391,-3.418,0
1583338623.347,38.086,34.180,25.879,27.832,31.250,0
1583338623.351,28.809,34.180,26.367,26.367,0.000,0
1583338623.355,25.879,33.203,26.367,25.879,26.367,0
1583338623.359,38.086,33.203,28.809,25.879,0.488,0
1583338623.363,43.457,31.250,28.809,26.367,7.812,0
1583338623.367,37.109,29.785,24.902,21.484,29.297,0
1583338623.371,30.762,32.227,25.879,21.484,24.414,0
1583338623.374,36.133,33.691,28.320,27.344,22.949,0
1583338623.378,44.922,33.203,31.250,35.156,65.430,0
1583338623.382,39.551,32.715,32.715,33.203,35.156,0
1583338623.386,32.227,32.227,30.762,31.250,-12.695,0
1583338623.390,31.738,32.715,31.250,36.621,19.531,0
1583338623.404,41.504,34.668,31.738,41.992,32.715,0
1583338623.408,48.828,37.109,28.809,42.480,45.410,0
1583338623.412,35.645,35.156,27.832,33.691,49.316,0
1583338623.416,30.273,32.227,24.902,20.996,9.277,0
1583338623.420,38.086,31.250,24.414,24.414,-17.090,0
1583338623.424,39.062,32.227,24.902,28.320,25.391,0
1583338623.428,30.762,32.227,25.391,15.625,10.742,0
1583338623.431,29.297,30.273,24.902,7.324,-8.789,0
1583338623.435,32.227,26.855,22.949,13.672,14.648,0
1583338623.439,33.691,28.809,26.367,25.391,3.418,0
1583338623.443,32.227,33.203,28.809,22.949,-25.879,0
1583338623.447,28.320,33.203,26.367,20.020,18.555,0
1583338623.444,35.645,31.738,22.949,22.461,83.984,0
1583338623.448,44.434,32.715,22.461,25.391,35.645,0
1583338623.452,40.527,32.715,24.902,27.832,9.766,0
1583338623.456,32.227,30.273,23.438,26.367,53.223,0
1583338623.460,32.715,29.297,22.461,29.297,36.621,0
1583338623.464,40.039,29.297,22.461,29.297,28.320,0
1583338623.468,41.992,31.738,24.414,24.414,54.688,0
1583338623.471,37.109,31.738,25.879,22.949,37.598,0
1583338623.475,35.156,32.227,25.391,19.043,58.105,0
1583338623.479,43.945,35.156,26.855,20.996,7.812,0
1583338623.483,42.969,32.227,27.832,20.996,-6.836,0
1583338623.487,30.273,30.762,26.855,18.555,66.406,0
1583338623.485,24.902,33.203,28.809,24.414,26.855,0
1583338623.489,35.156,34.180,28.320,25.879,-26.367,0
1583338623.493,43.945,31.250,24.902,25.879,-2.441,0
1583338623.497,33.203,31.250,27.832,18.555,31.250,0
1583338623.501,22.949,31.250,26.855,13.672,68.359,0
1583338623.505,26.367,29.785,24.414,20.508,137.695,0
1583338623.509,32.227,31.738,23.926,22.949,99.609,0
1583338623.512,30.273,33.691,21.973,20.020,0.488,0
1583338623.516,25.391,34.180,23.438,9.277,-17.090,0
1583338623.520,27.344,31.250,25.391,15.137,-2.930,0
1583338623.524,33.691,28.320,24.414,24.902,23.438,0
1583338623.528,32.227,24.902,21.973,17.578,24.902,0
1583338623.544,26.855,26.367,21.973,15.137,62.988,0
1583338623.548,28.320,30.273,24.414,8.789,87.402,0
1583338623.552,33.203,32.227,28.320,16.113,42.969,0
1583338623.556,39.062,31.738,31.250,23.926,20.508,0
1583338623.560,34.180,29.297,31.250,20.508,17.090,0
1583338623.564,26.367,31.250,31.250,13.672,36.133,0
1583338623.568,32.715,31.738,30.273,4.883,5.859,0
1583338623.571,35.156,29.785,31.250,16.602,-42.969,0
1583338623.575,29.785,30.762,30.273,23.926,14.648,0
1583338623.579,24.902,29.785,30.762,20.508,15.137,0
1583338623.583,27.832,29.785,29.785,27.344,45.898,0
1583338623.587,39.062,29.785,29.297,29.785,55.176,0
1583338623.584,40.527,28.809,36.621,28.320,25.391,0
1583338623.588,31.738,29.297,37.109,31.250,32.227,0
1583338623.592,38.086,29.785,35.645,35.645,7.812,0
1583338623.596,45.898,31.738,37.598,46.387,26.855,0
1583338623.600,41.504,32.715,35.156,43.457,84.473,0
1583338623.604,32.715,32.715,32.715,30.273,-1.953,0
1583338623.608,22.461,30.762,31.250,27.832,-33.691,0
1583338623.611,27.832,31.738,32.227,29.297,10.254,0
1583338623.615,33.691,36.133,34.180,33.691,-7.812,0
1583338623.619,23.926,36.133,33.691,13.672,34.180,0
1583338623.623,22.461,34.180,36.621,6.836,27.832,0
1583338623.627,30.762,35.156,34.668,25.391,-33.691,0
1583338623.644,38.086,37.109,29.785,27.832,-5.371,0
1583338623.648,33.691,37.598,29.297,23.926,24.902,0
1583338623.652,25.391,38.086,30.762,14.648,58.105,0
1583338623.656,31.738,35.156,30.762,19.043,51.270,0
1583338623.660,42.480,30.273,30.273,31.250,27.344,0
1583338623.664,46.875,29.297,29.785,30.273,22.949,0
1583338623.668,41.016,28.809,30.273,29.297,16.602,0
1583338623.671,34.668,29.297,31.250,17.090,12.207,1
1583338623.675,43.945,25.391,32.227,23.926,14.648,0
1583338623.679,48.828,23.926,31.738,38.086,35.645,0
1583338623.683,39.062,26.855,29.785,26.855,36.621,0
1583338623.687,35.156,28.320,31.738,23.438,9.277,0
1583338623.685,38.574,29.297,32.715,26.367,79.102,0
1583338623.689,40.527,27.344,27.832,24.414,70.312,0
1583338623.693,33.203,25.391,25.879,23.438,-18.066,0
1583338623.697,30.273,30.273,29.297,23.926,-53.223,0
1583338623.701,31.738,28.809,27.344,25.879,-41.504,0
1583338623.705,34.180,26.855,25.879,25.391,52.734,0
1583338623.709,34.180,31.250,26.367,19.531,-17.578,0
1583338623.712,22.949,29.785,23.926,12.207,-100.098,0
1583338623.716,21.973,29.297,22.949,13.184,15.137,0
1583338623.720,28.809,29.785,25.391,19.531,43.945,0
1583338623.724,33.203,30.273,28.320,16.113,38.574,0
1583338623.728,30.762,31.738,31.738,14.648,43.945,0
1583338623.724,29.785,30.273,32.227,18.555,7.812,0
1583338623.728,40.527,30.273,31.250,27.344,2.930,0
1583338623.732,43.945,28.320,32.715,28.809,-61.035,0
1583338623.736,34.180,27.832,31.250,20.020,-40.527,0
1583338623.740,25.391,27.832,29.785,18.066,65.430,0
1583338623.744,32.715,28.809,30.273,20.996,19.043,0
1583338623.748,41.016,28.809,33.203,21.973,-9.277,0
1583338623.751,32.715,26.855,29.785,14.648,19.531,0
1583338623.755,25.391,30.273,23.926,7.324,38.574,0
1583338623.759,28.809,33.203,21.973,1.465,26.855,0
1583338623.763,36.133,30.273,23.438,7.812,0.000,0
1583338623.767,35.156,28.320,24.414,16.113,-21.484,0
1583338623.784,29.297,28.809,25.391,13.672,-27.832,0
1583338623.788,26.855,30.762,27.344,14.160,-20.020,0
1583338623.792,32.715,31.250,26.855,23.926,41.016,0
1583338623.796,35.156,31.250,27.344,25.879,74.707,0
1583338623.800,30.273,34.668,26.367,16.113,29.297,0
1583338623.804,28.320,35.645,23.926,14.648,16.113,0
1583338623.808,34.180,32.715,24.414,17.090,16.113,0
1583338623.811,40.039,33.691,24.902,12.207,22.461,0
1583338623.815,35.156,32.715,24.902,15.137,26.855,0
1583338623.819,33.691,32.227,26.855,23.438,-5.371,0
1583338623.823,39.062,35.645,27.344,28.320,3.906,0
1583338623.827,41.992,35.156,26.367,35.156,19.043,0
1583338623.824,38.086,33.691,26.855,38.086,58.105,0
1583338623.828,28.320,32.715,26.855,33.691,38.086,0
1583338623.832,28.320,30.762,26.367,34.180,9.766,0
1583338623.836,39.062,31.250,26.855,33.203,47.363,0
1583338623.840,42.969,32.227,25.879,28.320,46.875,0
1583338623.844,31.738,31.250,24.902,24.902,42.969,0
1583338623.848,30.762,30.762,24.414,25.391,24.414,0
1583338623.851,40.527,29.785,23.438,27.344,13.672,0
1583338623.855,41.016,31.250,23.926,28.809,83.008,0
1583338623.859,37.598,31.738,21.973,20.508,48.828,0
1583338623.863,35.156,32.715,21.973,19.531,-37.598,0
1583338623.867,42.969,32.715,26.855,33.691,22.461,0
1583338623.865,52.246,31.738,25.879,38.086,61.523,0
1583338623.869,45.898,34.180,24.414,30.273,46.875,0
1583338623.873,37.598,34.668,20.996,24.414,2.441,0
1583338623.877,33.203,32.227,17.578,22.461,12.695,0
1583338623.881,34.668,32.227,18.555,23.926,30.273,0
1583338623.885,36.133,31.738,22.461,26.855,-10.254,0
1583338623.889,29.297,30.762,23.926,20.508,-11.230,0
1583338623.892,27.832,33.203,22.949,19.531,21.973,0
1583338623.896,34.180,33.691,25.391,26.367,31.250,0
1583338623.900,34.180,29.785,27.832,21.484,-1.953,0
1583338623.904,34.668,25.391,29.297,25.879,-17.090,0
1583338623.908,38.086,29.785,27.832,30.273,41.016,0
1583338623.923,23.926,34.668,21.484,9.766,65.430,0
1583338623.927,19.531,34.668,18.555,2.441,35.645,0
1583338623.931,18.555,36.133,20.020,5.859,23.438,0
1583338623.935,3.418,35.645,21.484,-1.465,16.602,0
1583338623.939,10.254,35.156,20.508,-1.465,81.543,0
1583338623.943,19.531,35.645,16.602,1.465,32.715,0
1583338623.947,16.113,37.109,16.113,4.883,-14.160,0
1583338623.950,12.695,37.109,18.555,-2.930,17.090,0
1583338623.954,20.996,32.227,21.484,1.953,7.324,0
1583338623.958,35.645,30.273,23.438,13.672,16.113,0
1583338623.962,41.016,34.180,24.414,8.789,34.180,0
1583338623.966,32.227,35.645,21.973,7.812,-49.316,0
1583338623.963,32.227,34.180,22.461,12.695,-46.387,0
1583338623.967,41.992,31.738,22.461,20.020,0.488,0
1583338623.971,47.363,31.250,21.484,17.090,-6.836,0
1583338623.975,38.574,31.738,23.438,7.812,11.230,0
1583338623.979,21.484,29.297,25.391,13.184,79.102,0
1583338623.983,20.996,26.855,24.902,20.020,108.398,0
1583338623.987,30.762,27.832,22.461,19.043,67.871,0
1583338623.990,25.391,28.320,20.996,8.789,40.039,0
1583338623.994,12.695,27.344,20.508,0.488,-1.953,0
1583338623.998,19.043,29.297,21.973,16.113,31.250,0
1583338624.002,31.250,25.391,20.508,17.578,12.695,0
1583338624.006,27.344,18.555,19.043,9.277,-31.250,0
1583338624.004,23.438,20.996,22.949,13.672,20.996,0
1583338624.008,28.809,21.973,21.973,21.484,33.203,0
1583338624.012,39.062,20.996,19.531,36.133,47.852,0
1583338624.016,40.527,20.996,21.973,36.133,42.969,0
1583338624.020,33.203,20.508,23.926,31.250,13.184,0
1583338624.024,33.691,25.391,25.391,29.297,2.930,0
1583338624.028,40.039,26.855,27.344,28.809,0.488,0
1583338624.031,41.992,23.438,29.297,33.691,54.688,0
1583338624.035,34.180,23.926,24.414,21.484,36.621,0
1583338624.039,28.320,24.902,20.508,15.137,0.977,0
1583338624.043,34.180,23.438,21.973,20.508,40.527,0
1583338624.047,37.109,23.926,22.461,22.949,63.965,0
1583338624.084,30.762,23.926,24.902,26.367,-2.930,0
1583338624.088,28.809,22.461,25.391,20.508,-31.738,0
1583338624.092,34.180,21.973,23.438,22.461,32.227,0
1583338624.096,38.574,22.461,24.414,24.902,57.617,0
1583338624.100,34.180,23.438,24.902,20.508,46.875,0
1583338624.104,26.367,25.391,21.973,21.484,-18.066,0
1583338624.108,28.320,24.414,21.973,22.461,0.488,0
1583338624.111,32.227,21.973,24.902,26.367,62.988,0
1583338624.115,37.109,19.043,28.320,23.926,34.180,0
1583338624.119,30.762,13.672,29.297,23.926,9.277,0
1583338624.123,25.391,13.672,29.297,32.715,-23.438,0
1583338624.127,32.227,22.461,27.344,33.691,-39.062,0
1583338624.103,34.668,24.414,23.438,27.344,22.949,0
1583338624.107,24.414,20.996,24.902,18.555,66.406,0
1583338624.111,18.555,23.438,26.855,18.555,88.379,0
1583338624.115,27.344,26.855,25.879,23.438,71.777,0
1583338624.119,33.203,29.785,25.879,21.973,22.949,0
1583338624.123,25.879,27.832,24.902,18.066,-22.949,0
1583338624.127,18.555,26.367,24.902,10.742,-46.387,0
1583338624.130,20.996,25.879,26.367,11.230,3.418,0
1583338624.134,31.738,26.855,27.832,19.531,-7.812,0
1583338624.138,35.645,29.785,26.367,20.508,39.062,0
1583338624.142,23.926,29.297,26.367,17.578,83.496,0
1583338624.146,22.461,27.832,27.832,11.719,-10.742,0
1583338624.145,29.297,27.344,26.855,15.137,-19.043,0
1583338624.149,35.645,29.785,22.461,20.508,-6.836,0
1583338624.153,33.203,31.250,19.531,22.949,3.418,0
1583338624.157,32.227,32.227,23.438,24.414,20.020,0
1583338624.161,33.203,28.320,25.879,21.973,31.250,0
1583338624.165,32.715,24.902,22.949,23.438,44.434,0
1583338624.169,30.273,26.367,24.414,25.879,15.625,0
1583338624.172,27.832,23.926,24.902,16.113,16.602,0
1583338624.176,34.180,24.902,23.438,15.625,55.664,0
1583338624.180,41.992,25.391,24.414,29.297,56.641,0
1583338624.184,37.109,23.926,24.414,26.855,15.625,0
1583338624.188,33.203,23.926,24.902,26.855,-14.648,0
1583338624.224,42.969,26.367,24.902,32.715,-12.695,0
1583338624.228,51.758,27.344,25.879,38.574,-7.812,0
1583338624.232,54.199,27.344,27.344,29.785,37.598,0
1583338624.236,44.434,26.855,26.367,22.461,11.719,0
1583338624.240,39.551,24.414,25.391,27.344,-40.039,0
1583338624.244,48.340,25.391,28.320,34.668,21.973,0
1583338624.248,47.852,24.414,26.855,34.180,96.680,0
1583338624.251,37.598,25.879,25.391,10.742,41.504,0
1583338624.255,33.691,27.832,29.297,10.742,-28.809,0
1583338624.259,41.992,28.320,34.180,38.086,8.301,0
1583338624.263,46.875,26.855,33.203,41.016,30.273,0
1583338624.267,39.062,23.926,28.809,29.785,37.109,0
1583338624.264,30.762,20.020,28.809,20.996,-15.625,0
1583338624.268,33.691,15.625,28.809,28.809,-18.555,0
1583338624.272,40.527,17.578,26.855,34.180,13.184,0
1583338624.276,34.180,15.625,25.879,26.855,20.508,0
1583338624.280,23.926,14.160,24.902,19.531,-11.230,0
1583338624.284,27.344,18.066,26.367,18.066,-46.387,0
1583338624.288,35.156,21.484,25.879,26.855,10.742,0
1583338624.291,30.273,23.926,22.949,26.367,35.645,0
1583338624.295,20.020,25.391,24.902,16.113,-14.648,0
1583338624.299,18.066,30.762,24.414,14.648,-13.184,0
1583338624.303,22.949,31.738,21.484,17.090,48.340,0
1583338624.307,31.250,30.762,20.508,21.973,22.949,0
1583338624.284,28.320,31.738,19.531,10.254,-6.348,0
1583338624.288,24.414,34.180,19.531,7.324,61.035,0
1583338624.292,28.809,35.645,21.484,23.926,67.383,0
1583338624.296,32.227,35.645,20.020,20.508,20.996,0
1583338624.300,31.250,36.621,19.531,16.113,-10.742,0
1583338624.304,22.949,33.203,21.484,16.602,-15.137,0
1583338624.308,22.461,30.273,18.555,21.973,26.367,0
1583338624.311,32.715,32.715,17.578,24.414,56.641,0
1583338624.315,27.832,34.180,18.555,15.625,11.230,0
1583338624.319,21.484,34.180,20.508,13.672,-2.930,0
1583338624.323,25.879,33.203,21.973,17.090,25.391,0
1583338624.327,32.227,33.691,20.996,24.902,21.973,0
1583338624.344,33.691,36.133,19.531,27.832,41.016,0
1583338624.348,30.273,38.574,21.484,19.531,50.781,0
1583338624.352,29.297,33.203,26.367,21.973,29.297,0
1583338624.356,41.016,29.297,28.320,32.227,3.906,0
1583338624.360,46.875,27.832,26.367,32.715,-1.465,0
1583338624.364,42.480,27.344,26.367,34.668,-1.465,0
1583338624.368,44.434,23.926,29.297,31.250,16.602,0
1583338624.371,47.363,19.531,31.250,30.762,-10.742,0
1583338624.375,47.852,25.879,32.227,45.898,4.395,0
1583338624.379,48.340,31.738,32.715,40.527,40.039,0
1583338624.383,43.945,31.250,33.691,30.762,29.297,0
1583338624.387,43.457,31.250,34.180,28.320,49.805,0
1583338624.393,48.828,30.762,31.250,32.227,58.594,0
1583338624.397,42.480,29.785,30.273,31.738,43.945,0
1583338624.401,26.367,22.949,31.738,21.973,-0.488,0
1583338624.405,29.297,18.066,31.250,21.973,-5.859,0
1583338624.409,41.016,20.508,32.227,27.832,58.594,0
1583338624.413,40.527,19.531,36.133,25.391,51.270,0
1583338624.417,29.785,14.160,36.133,22.461,52.246,0
1583338624.420,25.391,14.160,32.715,18.555,0.977,0
1583338624.424,34.668,17.578,31.738,24.414,3.418,0
1583338624.428,39.062,17.578,30.762,26.855,71.289,0
1583338624.432,32.227,14.160,31.250,22.461,38.086,0
1583338624.436,26.855,13.672,29.785,20.508,-2.930,0
1583338624.464,34.180,15.137,26.367,24.414,-32.715,0
1583338624.468,39.062,11.230,25.879,26.855,9.766,0
1583338624.472,32.227,8.301,25.391,21.973,62.988,0
1583338624.476,28.320,10.254,23.926,20.508,45.898,0
1583338624.480,34.668,11.719,23.926,23.926,30.273,0
1583338624.484,42.480,10.742,23.438,26.855,-4.883,0
1583338624.488,34.668,7.812,23.926,27.832,61.523,0
1583338624.491,18.555,7.812,21.973,20.508,72.754,0
1583338624.495,20.020,12.207,20.996,15.137,-1.953,0
1583338624.499,32.715,19.043,25.391,25.879,-14.160,0
1583338624.503,36.133,24.902,24.414,32.227,3.418,0
1583338624.507,27.344,27.832,24.414,21.484,1.953,0
1583338624.505,22.949,32.715,23.438,13.184,-16.602,0
1583338624.509,32.227,38.574,21.973,20.508,1.953,0
1583338624.513,42.969,42.480,24.414,25.879,29.297,0
1583338624.517,40.527,44.922,23.438,23.926,-13.672,0
1583338624.521,36.133,48.340,21.484,19.043,-30.273,0
1583338624.525,37.109,48.828,20.996,19.531,27.344,0
1583338624.529,40.039,46.387,21.973,29.785,32.227,0
1583338624.532,37.109,47.852,24.414,25.879,4.395,0
1583338624.536,27.832,45.898,24.414,20.020,40.527,0
1583338624.540,27.344,43.457,23.926,16.113,74.219,0
1583338624.544,36.133,45.410,24.414,18.555,42.969,0
1583338624.548,40.527,45.410,24.902,23.438,52.246,0
1583338624.524,33.691,42.969,23.438,17.090,17.090,0
1583338624.528,28.809,41.016,21.973,20.996,3.418,0
1583338624.532,38.574,40.527,21.973,21.484,-42.480,0
1583338624.536,45.898,40.527,22.461,23.438,-20.996,0
1583338624.540,32.227,39.551,22.949,27.344,8.301,0
1583338624.544,31.250,38.574,24.414,17.090,-11.230,0
1583338624.548,41.992,38.574,23.926,28.809,53.223,0
1583338624.551,39.062,39.062,23.438,31.738,72.754,0
1583338624.555,30.273,36.133,24.902,19.531,-8.301,0
1583338624.559,24.414,35.156,21.484,17.090,-61.523,0
1583338624.563,24.902,35.645,20.020,18.066,16.113,0
1583338624.567,28.320,31.250,22.949,23.438,14.648,0
1583338624.564,27.344,34.668,25.391,21.484,12.207,0
1583338624.568,22.949,39.551,26.855,20.020,41.016,0
1583338624.572,28.809,39.551,26.367,25.391,38.574,0
1583338624.576,35.156,38.086,22.949,18.066,17.578,0
1583338624.580,27.344,35.156,25.391,15.625,2.441,0
1583338624.584,15.625,33.203,27.344,16.113,27.344,0
1583338624.588,19.043,33.203,23.926,3.906,22.949,0
1583338624.591,27.344,33.691,21.484,10.254,-11.230,0
1583338624.595,28.320,33.691,22.461,21.484,13.672,0
1583338624.599,23.926,31.738,21.973,18.555,21.484,0
1583338624.603,18.066,29.785,22.949,13.672,4.883,0
1583338624.607,23.926,30.762,24.414,17.578,39.551,0
1583338624.623,31.738,34.180,21.973,26.855,32.227,0
1583338624.627,27.344,33.691,18.555,18.066,34.668,0
1583338624.631,20.508,28.809,17.090,12.207,59.082,0
1583338624.635,27.344,30.762,17.090,11.230,20.020,0
1583338624.639,39.551,32.715,19.043,20.996,9.277,0
1583338624.643,41.504,33.203,20.508,28.809,38.574,0
1583338624.647,32.715,28.320,20.020,16.602,41.504,0
1583338624.650,26.367,24.414,23.438,15.625,43.945,0
1583338624.654,37.598,27.832,27.344,17.578,35.156,0
1583338624.658,35.156,27.832,26.367,13.184,52.246,0
1583338624.662,21.484,20.996,23.926,15.137,71.777,0
1583338624.666,20.508,14.648,24.414,14.160,39.062,0
1583338624.663,26.367,12.207,26.855,18.555,34.180,0
1583338624.667,29.297,5.371,25.391,17.578,47.363,0
1583338624.671,21.973,-1.465,23.926,12.207,28.320,0
1583338624.675,18.555,-1.953,23.438,15.137,0.977,0
1583338624.679,27.832,1.465,23.926,15.137,17.578,0
1583338624.683,37.109,3.418,24.414,20.996,60.547,0
1583338624.687,36.133,10.254,21.484,19.043,63.965,0
1583338624.690,28.320,12.695,18.555,14.160,68.359,0
1583338624.694,27.832,9.277,18.555,18.066,21.973,0
1583338624.698,34.180,15.625,18.066,15.625,5.859,0
1583338624.702,35.156,19.043,16.602,11.230,42.969,0
1583338624.706,31.250,15.625,20.020,7.812,22.949,0
1583338624.704,27.832,13.672,24.902,11.719,-3.418,0
1583338624.708,41.016,12.695,27.344,24.902,29.785,0
1583338624.712,46.387,12.695,27.832,20.996,3.418,0
1583338624.716,40.527,12.207,28.320,18.066,5.371,0
1583338624.720,39.551,12.207,28.809,6.836,10.254,0
1583338624.724,43.945,12.207,26.367,8.789,-7.812,0
1583338624.728,49.316,12.207,24.414,31.250,21.484,0
1583338624.731,40.527,14.160,24.414,23.438,42.480,0
1583338624.735,33.203,15.137,26.367,14.648,58.594,0
1583338624.739,41.016,16.113,28.320,18.555,54.199,0
1583338624.743,48.340,15.625,25.879,21.973,-20.996,0
1583338624.747,41.504,15.625,23.926,21.973,-23.438,4
1583338624.771,29.297,21.484,21.484,19.043,8.789,0
1583338624.775,28.320,27.832,20.996,18.066,7.324,0
1583338624.779,36.133,29.785,20.020,21.484,23.438,0
1583338624.783,37.109,33.203,22.461,26.367,27.832,0
1583338624.787,32.227,38.574,24.902,23.438,20.020,0
1583338624.791,26.367,41.016,24.902,20.996,48.828,0
1583338624.795,30.762,36.133,23.926,20.996,0.977,0
1583338624.798,35.156,28.320,25.879,14.648,-2.930,0
1583338624.802,29.297,21.973,28.320,11.230,57.617,0
1583338624.806,25.879,18.066,25.879,20.508,22.461,0
1583338624.810,29.785,16.602,24.414,19.043,-2.930,0
1583338624.814,38.086,16.113,24.414,19.043,1.953,0
1583338624.803,33.203,14.160,23.926,17.578,-9.766,0
1583338624.807,23.926,15.625,25.391,16.602,-15.137,0
1583338624.811,31.738,18.555,26.855,24.902,27.344,0
1583338624.815,38.574,20.996,24.414,30.273,34.668,0
1583338624.819,32.227,26.855,24.414,23.926,33.691,0
1583338624.823,28.320,32.715,25.391,17.090,16.113,0
1583338624.827,34.180,37.109,26.855,24.902,4.883,0
1583338624.830,41.016,36.621,26.855,31.738,61.035,0
1583338624.834,34.180,34.180,24.414,26.855,47.363,0
1583338624.838,23.438,37.109,25.879,20.020,17.090,0
1583338624.842,24.902,39.062,24.902,17.578,70.801,0
1583338624.846,31.738,38.574,23.926,23.438,55.664,0
1583338624.844,29.785,31.250,22.461,8.301,-19.531,0
1583338624.848,21.973,25.391,21.484,0.488,22.949,0
1583338624.852,21.484,26.367,23.438,13.672,59.570,0
1583338624.856,28.320,19.043,21.973,10.254,6.348,0
1583338624.860,41.504,18.555,20.508,19.043,11.719,0
