timestamps,TP9,AF7,AF8,TP10,Right AUX,Marker0
1583437468.543,29.297,32.227,29.297,33.691,1.465,0
1583437468.547,27.832,31.738,25.391,31.250,27.344,0
1583437468.551,24.902,37.109,19.043,28.809,26.367,0
1583437468.555,23.438,30.762,26.367,29.785,33.691,0
1583437468.559,28.320,26.855,33.203,25.391,28.320,0
1583437468.563,31.250,33.691,32.715,29.297,49.316,0
1583437468.567,27.832,33.203,38.086,31.738,50.293,0
1583437468.570,25.391,26.367,35.645,25.391,46.387,0
1583437468.574,26.855,27.832,38.086,28.320,60.059,0
1583437468.578,26.855,14.160,35.645,25.879,40.527,0
1583437468.582,27.344,8.301,33.691,29.297,31.250,0
1583437468.586,31.738,35.156,38.574,35.156,54.199,0
1583437468.583,38.574,49.805,30.762,36.621,91.797,0
1583437468.587,33.691,42.969,28.809,32.227,51.758,0
1583437468.591,30.273,36.133,37.109,33.203,23.926,0
1583437468.595,40.527,42.969,32.227,37.109,64.453,0
1583437468.599,30.762,52.734,29.785,23.926,48.340,0
1583437468.603,27.344,52.734,34.668,23.926,20.508,0
1583437468.607,20.508,43.945,21.484,27.344,110.840,0
1583437468.610,10.742,31.250,26.855,19.043,89.355,0
1583437468.614,21.484,29.785,46.387,18.555,27.344,0
1583437468.618,26.367,23.926,41.992,26.855,16.602,0
1583437468.622,33.691,26.367,31.250,33.691,-29.297,0
1583437468.626,36.133,43.457,28.320,36.621,-36.133,0
1583437468.623,33.691,45.410,19.043,33.691,37.109,0
1583437468.627,30.762,39.551,22.949,25.879,55.176,0
1583437468.631,37.598,47.852,46.387,38.574,27.344,0
1583437468.635,36.133,46.387,42.969,40.039,30.762,0
1583437468.639,29.785,39.062,25.391,27.344,64.453,0
1583437468.643,26.855,30.273,27.344,27.344,28.809,0
1583437468.647,22.949,27.832,36.133,28.809,0.488,0
1583437468.650,29.297,48.828,27.344,32.715,77.148,0
1583437468.654,34.180,49.805,25.391,33.203,121.094,0
1583437468.658,34.668,41.992,31.738,37.109,99.121,0
1583437468.662,31.738,41.504,31.250,37.109,81.543,0
1583437468.666,31.250,42.480,38.574,31.738,64.941,0
1583437468.663,28.320,41.992,34.180,28.320,71.777,0
1583437468.667,29.297,44.434,32.227,27.344,84.473,0
1583437468.671,21.973,36.621,30.762,14.648,83.496,0
1583437468.675,16.113,34.668,28.809,6.836,45.410,0
1583437468.679,20.020,42.480,38.086,13.672,13.184,0
1583437468.683,2.930,34.668,32.227,0.977,-16.602,0
1583437468.687,-16.113,31.250,27.344,-15.137,-38.574,0
1583437468.690,-12.695,34.180,28.320,-12.207,-54.199,0
1583437468.694,-12.695,35.156,31.738,-11.719,-39.551,0
1583437468.698,-30.762,32.227,37.109,-29.785,50.293,0
1583437468.702,-36.621,31.738,41.504,-33.691,56.152,0
1583437468.706,-39.062,37.109,40.039,-33.203,51.270,0
1583437468.724,-40.527,39.551,39.551,-41.504,72.754,0
1583437468.728,-40.039,34.180,41.992,-42.969,87.891,0
1583437468.732,-48.340,30.762,31.250,-43.945,62.988,0
1583437468.736,-46.875,37.598,39.062,-38.574,10.254,0
1583437468.740,-39.062,37.598,52.734,-34.180,50.293,0
1583437468.744,-35.156,39.062,47.852,-39.062,55.664,0
1583437468.748,-32.227,50.293,53.223,-38.086,22.461,0
1583437468.751,-44.922,44.922,51.758,-35.156,45.410,0
1583437468.755,-48.828,35.645,44.922,-35.156,31.250,0
1583437468.759,-43.457,35.645,45.410,-33.691,28.809,0
1583437468.763,-37.598,34.668,45.410,-29.785,81.543,0
1583437468.767,-28.320,30.762,46.875,-21.973,41.992,0
1583437468.763,-25.879,34.668,40.039,-24.902,25.879,0
1583437468.767,-16.602,36.621,39.551,-20.508,38.086,0
1583437468.771,-11.230,31.250,40.527,-12.695,-6.836,0
1583437468.775,-19.531,41.992,37.109,-8.789,5.859,0
1583437468.779,-16.113,44.434,41.992,2.441,41.016,0
1583437468.783,-11.230,35.156,30.762,-3.418,49.316,0
1583437468.787,-1.465,38.574,38.086,0.488,34.180,0
1583437468.790,0.488,42.480,59.570,6.836,-17.090,0
1583437468.794,0.488,45.410,56.641,0.488,-22.461,0
1583437468.798,9.277,44.434,33.691,5.859,39.551,0
1583437468.802,14.160,44.434,21.973,6.348,34.180,0
1583437468.806,21.484,38.574,31.250,8.789,31.738,0
1583437468.803,25.391,31.250,39.062,27.344,-1.465,0
1583437468.807,28.809,38.086,33.691,30.762,5.859,0
1583437468.811,30.273,43.457,32.715,29.297,37.598,0
1583437468.815,24.902,36.621,38.086,32.715,-2.930,0
1583437468.819,33.691,43.945,43.945,42.480,66.406,0
1583437468.823,41.016,50.293,40.527,48.340,79.102,0
1583437468.827,42.480,46.387,28.320,44.434,38.086,0
1583437468.830,44.434,55.176,18.555,41.992,38.086,0
1583437468.834,44.434,57.129,7.812,43.457,35.645,0
1583437468.838,44.922,46.387,6.836,48.340,-17.578,0
1583437468.842,46.875,30.273,29.297,51.758,-41.016,0
1583437468.846,48.340,33.203,44.922,51.270,13.184,0
1583437468.863,50.293,39.062,40.039,54.688,74.219,0
1583437468.867,55.664,41.504,39.062,61.035,28.320,0
1583437468.871,53.223,43.457,27.344,62.012,-27.832,0
1583437468.875,48.340,41.016,14.160,56.152,11.719,0
1583437468.879,46.875,39.551,15.625,52.734,29.785,0
1583437468.883,61.035,37.109,26.855,62.500,67.871,0
1583437468.887,63.965,27.832,34.180,59.570,58.594,0
1583437468.890,56.152,31.738,25.391,43.945,33.203,0
1583437468.894,56.641,42.969,26.855,48.340,51.270,0
1583437468.898,56.152,47.363,29.785,55.664,46.387,0
1583437468.902,57.129,50.293,19.531,56.641,45.898,0
1583437468.906,47.852,45.410,12.695,53.223,41.016,0
1583437468.903,47.363,38.086,24.414,49.316,28.320,0
1583437468.907,54.199,43.457,30.273,52.246,35.645,0
1583437468.911,56.641,50.781,20.996,55.176,52.246,0
1583437468.915,54.688,41.016,20.020,54.199,54.199,0
1583437468.919,54.688,42.969,27.344,55.176,40.039,0
1583437468.923,57.617,48.828,19.531,56.152,1.465,0
1583437468.927,54.688,46.387,15.137,54.688,-17.090,0
1583437468.930,49.805,50.293,13.184,53.711,61.035,0
1583437468.934,49.805,50.781,15.137,48.340,40.039,0
1583437468.938,53.711,47.363,28.809,50.293,37.109,0
1583437468.942,53.223,43.457,25.391,51.758,24.902,0
1583437468.946,48.828,39.062,12.695,48.828,-51.270,0
1583437468.943,40.039,37.598,6.836,45.410,-16.602,0
1583437468.947,46.875,46.875,12.207,46.875,-13.672,0
1583437468.951,55.664,51.758,17.578,52.246,-49.316,0
1583437468.955,44.434,41.504,3.418,43.945,-8.301,0
1583437468.959,44.434,39.551,-11.230,40.039,10.742,0
1583437468.963,53.223,36.133,-4.883,42.969,30.273,0
1583437468.967,53.223,33.691,14.648,46.387,85.449,0
1583437468.970,48.340,45.410,15.625,52.734,49.805,0
1583437468.974,45.898,51.270,14.648,57.129,76.172,0
1583437468.978,43.457,44.434,13.672,56.641,29.785,0
1583437468.982,41.016,41.992,5.371,60.547,-26.367,0
1583437468.986,54.688,47.852,9.277,72.754,41.992,0
1583437469.003,59.082,39.551,11.719,62.012,76.172,0
1583437469.007,48.340,48.828,7.324,34.668,87.891,0
1583437469.011,41.016,56.152,3.906,30.762,66.895,0
1583437469.015,37.109,44.434,3.906,37.598,-16.113,0
1583437469.019,43.945,37.109,5.859,41.504,1.953,0
1583437469.023,44.922,32.227,3.418,38.574,31.250,0
1583437469.027,38.574,45.410,5.371,33.203,-6.836,0
1583437469.030,33.691,53.711,-4.395,29.297,14.648,0
1583437469.034,37.598,51.758,0.488,41.992,89.355,0
1583437469.038,44.434,45.898,10.254,47.852,36.621,0
1583437469.042,49.316,43.945,2.441,46.387,11.719,0
1583437469.046,51.270,41.992,11.719,48.828,86.914,0
1583437469.043,44.922,38.086,17.090,41.504,50.293,0
1583437469.047,35.156,39.062,1.953,38.574,-20.020,0
1583437469.051,31.250,38.574,-12.207,38.574,24.414,0
1583437469.055,36.133,30.273,-8.301,35.645,75.195,0
1583437469.059,38.574,28.320,0.977,37.109,47.363,0
1583437469.063,40.527,41.016,7.812,38.086,15.137,0
1583437469.067,40.527,46.875,9.277,40.039,61.035,0
1583437469.070,43.457,46.387,3.418,42.480,103.516,0
1583437469.074,46.875,49.316,8.789,44.922,47.363,0
1583437469.078,45.410,43.945,4.883,45.410,10.742,0
1583437469.082,54.688,37.109,5.371,44.922,23.438,0
1583437469.086,58.105,41.504,8.789,38.086,-5.859,0
1583437469.083,48.828,44.922,-0.977,30.762,-26.367,0
1583437469.087,41.504,40.527,-1.953,37.598,-11.719,0
1583437469.091,39.062,34.668,-2.930,42.480,19.043,0
1583437469.095,37.109,34.180,-7.812,35.156,23.438,0
1583437469.099,42.480,41.992,-1.953,33.203,41.992,0
1583437469.103,44.434,43.457,0.000,41.016,14.160,0
1583437469.107,41.016,40.039,-1.465,41.992,-18.066,0
1583437469.110,41.992,24.902,5.859,36.133,-12.207,0
1583437469.114,42.480,30.273,14.160,39.551,-4.395,0
1583437469.118,41.992,49.316,9.766,44.922,-35.645,0
1583437469.122,40.527,42.480,-1.465,39.551,-1.953,0
1583437469.126,41.016,33.691,-3.906,43.945,63.477,0
1583437469.143,40.039,35.156,-3.418,39.062,72.754,0
1583437469.147,31.738,37.598,0.977,30.273,46.387,0
1583437469.151,27.344,38.574,5.371,31.738,10.742,0
1583437469.155,34.180,42.480,4.883,31.738,72.754,0
1583437469.159,32.715,35.156,10.254,32.227,55.664,0
1583437469.163,27.344,43.457,3.906,39.062,34.668,0
1583437469.167,23.438,40.039,-6.348,31.250,56.641,0
1583437469.170,30.273,38.574,8.789,28.809,20.020,0
1583437469.174,37.109,46.875,17.090,34.668,39.062,0
1583437469.178,35.156,37.109,10.254,30.762,40.039,0
1583437469.182,35.645,21.973,7.812,39.062,-15.625,0
1583437469.186,32.227,18.066,3.418,36.621,30.762,0
1583437469.183,33.691,36.133,0.488,28.809,18.555,0
1583437469.187,33.203,48.828,7.324,25.391,-54.688,0
1583437469.191,46.387,46.875,1.953,31.738,45.898,0
1583437469.195,69.824,44.922,-6.836,59.570,57.129,0
1583437469.199,60.059,38.574,12.695,59.082,9.277,0
1583437469.203,33.203,30.762,23.438,38.086,25.879,0
1583437469.207,28.809,26.367,17.578,36.133,3.418,0
1583437469.210,38.574,30.273,26.367,48.340,19.531,0
1583437469.214,40.527,31.250,30.273,52.246,17.578,0
1583437469.218,37.598,22.461,25.879,40.527,25.391,0
1583437469.222,34.668,21.484,33.691,45.898,44.922,0
1583437469.226,34.180,20.020,36.621,60.059,41.016,0
1583437469.223,33.691,13.672,38.086,62.500,52.734,0
1583437469.227,33.691,6.836,40.527,66.895,25.879,0
1583437469.231,40.527,5.859,43.945,70.801,15.137,0
1583437469.235,40.039,18.066,47.852,69.824,41.504,0
1583437469.239,43.457,27.344,44.434,74.219,46.387,0
1583437469.243,52.246,26.855,45.898,78.613,24.414,0
1583437469.247,51.758,26.367,49.316,75.195,0.977,0
1583437469.250,49.316,24.902,41.504,73.242,43.457,0
1583437469.254,47.363,21.484,39.551,69.824,74.219,0
1583437469.258,48.828,24.414,38.086,64.453,25.391,0
1583437469.262,47.852,21.484,27.832,59.082,-7.812,0
1583437469.266,45.410,22.949,35.645,66.895,19.531,0
1583437469.323,43.945,27.832,44.434,70.801,62.988,0
1583437469.327,41.992,32.715,48.340,63.965,66.406,0
1583437469.331,37.598,35.645,54.688,60.547,32.715,0
1583437469.335,35.645,24.414,48.828,59.570,37.598,0
1583437469.339,38.574,22.461,32.227,64.941,1.465,0
1583437469.343,37.109,27.344,25.391,60.059,9.766,0
1583437469.347,29.785,30.762,41.504,49.316,25.391,0
1583437469.350,32.715,34.180,47.363,52.734,-6.836,0
1583437469.354,31.738,28.809,41.504,57.129,40.527,0
1583437469.358,19.531,27.832,42.969,55.176,39.551,0
1583437469.362,22.461,32.227,41.016,55.664,-5.859,0
1583437469.366,33.691,40.039,42.480,58.594,-21.973,0
1583437469.326,37.109,38.086,38.086,54.199,-8.301,0
1583437469.330,36.621,37.109,38.574,50.293,22.949,0
1583437469.334,34.180,30.762,45.410,49.316,8.789,0
1583437469.338,29.785,28.809,46.387,41.992,-38.574,0
1583437469.342,30.273,31.738,46.387,41.016,-16.602,0
1583437469.346,34.668,30.273,37.598,41.992,17.578,0
1583437469.350,28.320,37.598,39.551,38.574,6.836,0
1583437469.353,24.414,44.434,51.270,39.551,51.758,0
1583437469.357,25.879,37.109,45.898,41.016,55.664,0
1583437469.361,20.020,29.785,31.250,44.434,4.395,0
1583437469.365,26.855,41.992,49.805,54.199,43.457,0
1583437469.369,26.855,43.945,50.293,46.387,47.363,0
1583437469.363,20.508,35.645,25.879,36.621,62.012,0
1583437469.367,19.531,32.227,31.250,43.457,68.359,0
1583437469.371,20.020,36.133,35.156,45.410,61.035,0
1583437469.375,24.414,46.387,42.480,41.504,120.605,0
1583437469.379,30.273,49.316,54.199,36.621,60.059,0
1583437469.383,33.203,40.039,50.781,41.504,20.020,0
1583437469.387,31.250,37.109,49.805,44.434,60.547,0
1583437469.390,42.480,48.340,60.547,45.898,34.180,0
1583437469.394,37.109,44.434,49.805,32.715,23.926,0
1583437469.398,28.809,39.062,39.062,22.949,48.340,0
1583437469.402,35.156,34.180,46.875,34.180,-7.324,0
1583437469.406,37.109,41.992,50.293,38.086,-8.301,0
1583437469.423,40.527,51.758,46.875,37.109,17.090,0
1583437469.427,36.621,41.992,36.621,34.668,11.719,0
1583437469.431,24.902,34.668,26.367,32.715,42.480,0
1583437469.435,23.438,31.738,20.508,32.715,34.668,0
1583437469.439,29.297,22.461,28.320,29.785,31.738,0
1583437469.443,26.367,29.297,42.969,22.461,90.820,0
1583437469.447,29.785,48.340,56.152,25.391,77.637,0
1583437469.450,31.250,38.574,51.270,28.320,24.902,0
1583437469.454,26.855,29.297,35.645,24.902,55.176,0
1583437469.458,31.250,45.410,34.668,26.855,96.191,0
1583437469.462,28.320,44.434,41.016,32.715,41.016,0
1583437469.466,38.086,41.016,38.574,44.922,83.984,0
1583437469.463,45.410,50.293,39.551,41.992,130.371,0
1583437469.467,18.555,50.781,38.086,11.719,34.668,0
1583437469.471,16.113,29.785,36.621,4.883,31.250,0
1583437469.475,17.090,15.625,40.039,9.766,-10.254,0
1583437469.479,16.602,42.480,40.039,11.230,-20.508,0
1583437469.483,25.391,52.246,27.344,15.625,-19.531,0
1583437469.487,19.043,40.039,18.066,14.648,25.391,0
1583437469.490,21.973,44.922,22.461,19.531,54.688,0
1583437469.494,21.973,49.316,30.762,17.578,24.414,0
1583437469.498,21.484,39.551,40.039,9.766,37.598,0
1583437469.502,27.344,36.621,44.922,8.789,32.715,0
1583437469.506,24.902,41.504,40.039,13.672,17.090,0
1583437469.503,20.020,40.039,30.762,18.066,41.504,0
1583437469.507,23.926,38.574,34.668,27.344,90.820,0
1583437469.511,27.344,29.785,26.367,24.414,74.219,0
1583437469.515,26.855,31.738,20.508,23.926,50.293,0
1583437469.519,27.832,45.898,36.621,33.691,41.992,0
1583437469.523,22.461,47.363,42.480,28.320,10.742,0
1583437469.527,17.578,46.387,47.363,18.066,-1.953,0
1583437469.530,20.020,44.434,44.922,18.066,25.391,0
1583437469.534,25.391,40.527,39.551,18.066,94.238,0
1583437469.538,31.250,41.992,39.551,17.578,63.965,0
1583437469.542,37.109,44.922,47.363,20.996,16.602,0
1583437469.546,30.762,34.668,46.875,24.902,25.391,0
1583437469.563,21.973,31.738,27.832,29.297,6.836,0
1583437469.567,28.320,37.109,34.668,31.738,-10.742,0
1583437469.571,29.297,31.250,48.340,31.738,-20.996,0
1583437469.575,27.832,33.203,44.434,26.367,46.387,0
1583437469.579,35.156,37.598,39.551,30.762,83.008,0
1583437469.583,35.156,39.062,32.715,36.621,58.594,0
1583437469.587,32.715,39.551,43.945,34.180,48.340,0
1583437469.590,35.645,37.109,56.641,35.645,78.125,0
1583437469.594,34.668,29.297,47.852,34.180,62.012,0
1583437469.598,32.227,28.320,48.340,32.715,64.941,0
1583437469.602,31.250,37.109,59.082,34.668,76.172,0
1583437469.606,31.738,35.645,48.340,31.250,42.969,0
1583437469.603,31.250,29.297,35.645,29.785,6.348,0
1583437469.607,31.738,36.133,38.086,34.180,63.477,0
1583437469.611,41.504,38.086,50.781,39.062,68.359,0
1583437469.615,33.691,24.902,47.363,33.203,17.578,0
1583437469.619,20.996,29.297,37.109,25.391,-8.301,0
1583437469.623,18.555,35.156,40.039,22.949,-18.066,0
1583437469.627,20.996,31.250,40.527,21.973,30.273,0
1583437469.630,26.855,33.691,46.387,24.902,46.875,0
1583437469.634,22.949,27.832,53.711,21.484,2.930,0
1583437469.638,22.461,22.461,53.711,17.090,-7.324,0
1583437469.642,24.414,29.297,44.434,18.066,44.434,0
1583437469.646,21.484,32.227,34.180,22.461,26.855,0
1583437469.643,25.391,28.809,39.551,20.996,30.273,0
1583437469.647,30.273,39.551,50.293,19.531,13.672,0
1583437469.651,35.156,43.945,54.199,26.855,5.859,0
1583437469.655,24.902,30.273,47.852,25.879,14.160,0
1583437469.659,14.160,30.273,29.297,18.555,37.109,0
1583437469.663,15.137,30.273,23.926,15.137,52.734,0
1583437469.667,15.625,28.320,41.504,13.184,36.133,0
1583437469.670,20.020,28.320,49.316,12.695,34.668,0
1583437469.674,26.367,20.996,44.922,8.789,14.160,0
1583437469.678,28.809,16.602,42.969,14.648,26.855,0
1583437469.682,28.809,31.738,42.480,21.973,35.645,0
1583437469.686,28.320,43.945,44.434,23.438,-18.066,0
1583437469.703,28.320,38.086,41.992,19.043,-7.324,0
1583437469.707,31.738,28.320,47.363,18.555,2.441,0
1583437469.711,43.945,30.762,50.293,29.297,-7.812,0
1583437469.715,41.992,28.320,41.992,24.414,72.266,0
1583437469.719,37.598,31.738,36.621,24.414,49.316,0
1583437469.723,38.086,41.504,26.367,27.344,11.719,0
1583437469.727,40.039,37.109,35.645,19.531,47.852,0
1583437469.730,35.156,30.762,52.734,18.066,45.898,0
1583437469.734,24.902,24.414,51.270,18.066,53.711,0
1583437469.738,25.879,24.414,48.828,17.578,65.430,0
1583437469.742,22.461,27.832,47.852,19.531,-6.836,0
1583437469.746,21.973,23.438,49.805,19.043,-9.766,0
1583437469.763,27.832,23.438,47.363,15.625,48.340,0
1583437469.767,33.691,35.645,34.668,19.531,86.426,0
1583437469.771,35.156,35.645,29.297,16.602,56.641,0
1583437469.775,33.203,36.133,41.016,14.648,25.391,0
1583437469.779,31.250,37.109,43.457,22.461,20.020,0
1583437469.783,25.879,30.762,48.340,20.020,-24.902,0
1583437469.787,23.438,29.297,48.340,20.508,23.926,0
1583437469.790,25.391,35.645,33.691,26.367,35.645,0
1583437469.794,23.438,39.062,31.250,23.926,24.902,0
1583437469.798,20.508,38.086,44.922,17.578,65.430,0
1583437469.802,25.391,31.250,52.246,18.555,64.453,0
1583437469.806,25.879,28.809,52.734,18.066,52.246,0
1583437469.783,22.461,23.926,42.969,18.066,30.273,0
1583437469.787,20.996,16.113,29.297,19.531,20.020,0
1583437469.791,27.344,36.621,34.180,21.973,81.543,0
1583437469.795,30.273,40.039,49.316,19.531,116.211,0
1583437469.799,25.879,23.438,50.293,16.113,72.266,0
1583437469.803,20.020,25.391,45.898,18.555,48.340,0
1583437469.807,17.090,24.902,42.969,19.531,40.527,0
1583437469.810,23.438,21.484,41.992,16.113,31.250,0
1583437469.814,28.320,27.832,38.574,18.066,8.789,0
1583437469.818,29.297,27.344,36.133,18.555,15.137,0
1583437469.822,32.227,20.508,38.086,16.602,21.973,0
1583437469.826,44.922,24.414,27.344,21.973,43.945,0
1583437469.843,42.480,17.578,33.691,22.461,20.508,0
1583437469.847,29.297,12.695,44.434,15.625,-6.836,0
1583437469.851,31.738,35.645,39.551,20.508,-6.348,0
1583437469.855,37.598,48.340,50.293,36.133,17.090,0
1583437469.859,30.762,38.574,49.316,38.086,5.859,0
1583437469.863,23.438,37.598,36.133,32.715,-51.758,0
1583437469.867,24.902,39.062,35.645,24.902,1.953,0
1583437469.870,23.926,29.297,43.457,20.020,39.062,0
1583437469.874,22.461,25.391,41.992,21.973,61.523,0
1583437469.878,24.902,24.902,37.109,23.926,47.852,0
1583437469.882,26.855,23.926,43.945,24.414,-5.859,0
1583437469.886,21.484,19.531,45.898,20.996,1.465,0
1583437469.883,21.484,22.949,37.109,20.996,-23.926,0
1583437469.887,17.090,24.902,24.902,21.973,-17.090,0
1583437469.891,21.484,27.344,27.832,25.391,-0.977,0
1583437469.895,25.879,29.785,40.527,24.414,14.648,0
1583437469.899,19.531,24.414,40.527,16.602,9.277,0
1583437469.903,20.508,30.273,32.227,17.578,4.883,0
1583437469.907,18.066,35.645,34.180,18.555,29.785,0
1583437469.910,23.438,32.227,47.852,20.508,52.734,0
1583437469.914,27.344,27.344,50.293,20.508,23.438,0
1583437469.918,24.414,22.461,47.363,19.531,51.758,0
1583437469.922,24.902,18.555,46.875,15.625,60.059,0
1583437469.926,24.902,23.926,39.551,16.602,12.207,0
1583437469.924,25.879,34.180,35.156,21.484,28.809,0
1583437469.928,26.367,34.668,40.527,20.996,30.762,0
1583437469.932,27.832,29.297,41.992,22.949,59.570,0
1583437469.936,25.879,25.391,38.574,22.461,74.707,0
1583437469.940,24.414,26.855,42.480,23.438,54.688,0
1583437469.944,23.926,28.809,41.992,21.973,55.664,0
1583437469.948,22.461,26.367,20.020,19.043,11.719,0
1583437469.951,22.949,19.043,20.508,20.020,6.836,0
1583437469.955,22.949,13.184,37.109,16.602,28.320,0
1583437469.959,28.320,14.160,38.574,19.043,7.812,0
1583437469.963,30.273,20.996,37.598,25.391,54.199,0
1583437469.967,36.621,29.785,37.109,30.762,123.535,0
1583437469.983,35.645,31.738,40.527,30.762,55.664,0
1583437469.987,30.762,21.484,36.133,26.855,14.160,0
1583437469.991,33.203,26.855,36.621,27.344,30.273,0
1583437469.995,28.809,36.133,48.340,28.320,69.824,0
1583437469.999,33.203,39.062,39.551,31.250,55.664,0
1583437470.003,29.785,38.574,29.297,22.949,-0.488,0
1583437470.007,19.531,29.297,34.180,9.766,38.574,0
1583437470.010,17.578,22.461,35.156,14.648,53.711,0
1583437470.014,20.996,31.250,40.039,23.926,0.977,0
1583437470.018,22.461,39.551,40.527,24.902,-21.484,0
1583437470.022,24.414,33.203,27.832,20.508,-0.977,0
1583437470.026,31.738,34.180,32.715,24.414,-24.902,0
1583437470.024,26.367,21.484,38.086,33.203,-45.898,0
1583437470.028,21.484,15.137,33.691,28.809,-2.930,0
1583437470.032,23.926,27.344,37.109,19.531,40.527,0
1583437470.036,24.414,32.715,32.227,20.508,44.434,0
1583437470.040,22.461,35.645,21.973,23.438,34.668,0
1583437470.044,30.762,33.203,25.879,23.438,17.578,0
1583437470.048,35.645,26.855,36.621,19.531,82.520,0
1583437470.051,36.621,31.738,31.738,23.438,109.375,0
1583437470.055,37.598,33.691,24.902,28.320,49.805,0
1583437470.059,41.504,38.574,33.203,27.832,47.363,0
1583437470.063,41.016,34.668,24.414,24.414,62.988,0
1583437470.067,35.645,21.484,26.367,22.461,51.758,0
1583437470.063,37.109,29.785,49.316,27.344,39.062,0
1583437470.067,36.621,26.855,48.828,31.250,38.574,0
1583437470.071,37.598,14.648,30.273,26.855,54.199,0
1583437470.075,35.645,27.344,28.320,23.926,21.484,0
1583437470.079,34.180,36.133,35.156,23.438,6.836,0
1583437470.083,36.621,34.180,32.227,27.832,35.645,0
1583437470.087,44.434,27.832,22.461,40.039,58.594,0
1583437470.090,34.180,20.996,21.484,25.879,73.242,0
1583437470.094,20.020,26.855,40.527,12.695,14.648,0
1583437470.098,35.156,35.156,53.223,30.762,0.000,0
1583437470.102,30.273,32.227,43.457,24.414,-19.531,0
1583437470.106,24.902,32.227,34.180,19.043,10.742,0
1583437470.123,30.762,26.855,27.832,28.320,58.105,0
1583437470.127,28.809,25.879,25.391,32.227,8.301,0
1583437470.131,31.250,33.203,33.691,30.762,-19.043,0
1583437470.135,30.762,30.762,43.457,26.855,13.184,0
1583437470.139,31.250,26.367,52.734,25.879,31.250,0
1583437470.143,30.762,32.715,44.434,27.344,-0.488,0
1583437470.147,24.414,41.992,38.086,27.344,-62.988,0
1583437470.150,24.414,41.016,49.805,26.855,-7.812,0
1583437470.154,22.461,29.785,42.480,23.438,-9.766,0
1583437470.158,27.344,26.367,39.551,28.809,6.836,0
1583437470.162,39.062,41.992,53.223,37.598,20.020,0
1583437470.166,28.809,37.598,43.945,29.297,-11.719,0
1583437470.163,23.926,23.438,30.273,25.391,48.828,0
1583437470.167,32.715,22.461,25.391,29.785,31.250,0
1583437470.171,29.297,20.020,36.133,28.320,-29.785,0
1583437470.175,28.320,14.160,55.176,27.832,-15.625,0
1583437470.179,33.691,18.066,44.922,31.738,0.000,0
1583437470.183,37.598,27.344,36.621,34.180,26.367,0
1583437470.187,38.086,33.203,44.922,35.156,68.848,0
1583437470.190,38.574,38.574,51.758,41.992,84.961,0
1583437470.194,35.645,37.109,51.758,35.156,44.922,0
1583437470.198,42.969,48.828,56.152,29.785,17.578,0
1583437470.202,51.758,49.805,49.805,41.016,42.969,0
1583437470.206,42.969,25.391,40.039,41.016,93.750,0
1583437470.203,38.574,26.367,51.758,37.109,88.867,0
1583437470.207,25.879,40.039,58.594,29.297,13.672,0
1583437470.211,25.879,41.504,45.898,33.691,0.977,0
1583437470.215,32.227,39.062,35.156,41.016,58.594,0
1583437470.219,32.715,29.785,50.293,36.133,71.777,0
1583437470.223,33.203,25.391,51.758,30.273,45.898,0
1583437470.227,36.133,30.273,48.340,26.855,84.961,0
1583437470.230,36.133,38.086,53.223,18.555,82.520,0
1583437470.234,28.320,30.273,36.621,14.648,49.805,0
1583437470.238,35.645,32.227,30.273,21.973,47.363,0
1583437470.242,37.598,37.598,45.410,20.508,53.711,0
1583437470.246,29.297,27.832,46.875,20.508,14.160,0
1583437470.263,29.297,30.762,49.805,20.020,42.969,0
1583437470.267,30.273,33.203,52.734,17.090,80.566,0
1583437470.271,25.879,36.133,44.434,17.578,38.574,0
1583437470.275,25.391,27.344,43.457,16.602,48.340,0
1583437470.279,24.902,9.277,54.199,15.625,40.039,0
1583437470.283,23.438,19.531,59.570,17.578,42.969,0
1583437470.287,20.996,34.180,41.504,18.555,88.379,0
1583437470.290,19.531,37.109,23.438,20.508,55.664,0
1583437470.294,17.090,34.668,46.875,20.996,66.406,0
1583437470.298,11.719,30.273,46.387,14.160,80.566,0
1583437470.302,17.090,38.086,39.551,16.113,-7.324,0
1583437470.306,17.090,39.062,43.945,19.043,-16.602,0
1583437470.303,9.766,25.879,29.297,17.090,9.766,0
1583437470.307,10.742,27.832,26.367,17.090,-10.742,0
1583437470.311,12.207,20.508,39.062,18.066,-34.180,0
1583437470.315,17.090,10.742,42.969,17.578,14.648,0
1583437470.319,22.461,26.855,42.969,15.625,28.809,0
1583437470.323,13.672,21.973,48.828,15.137,30.273,0
1583437470.327,12.695,17.090,47.852,18.555,62.988,0
1583437470.330,22.461,37.109,46.387,23.438,39.551,0
1583437470.334,16.113,38.574,43.945,20.996,0.000,0
1583437470.338,12.695,32.227,41.504,18.066,-23.926,0
1583437470.342,27.832,34.668,50.781,36.133,16.602,0
1583437470.346,30.762,30.273,41.504,41.504,67.871,0
1583437470.363,22.949,25.879,25.879,20.508,35.156,0
1583437470.367,12.695,26.855,37.109,11.230,-10.742,0
1583437470.371,15.137,22.949,37.109,16.113,5.859,0
1583437470.375,21.973,23.438,21.484,17.090,57.129,0
1583437470.379,23.438,27.832,29.785,18.555,78.125,0
1583437470.383,21.973,21.484,47.852,23.926,62.500,0
1583437470.387,22.461,23.438,59.082,24.902,29.297,0
1583437470.390,24.414,23.926,59.570,13.672,33.203,0
1583437470.394,28.809,26.855,47.363,18.066,-22.461,0
1583437470.398,32.227,24.902,44.434,27.344,-36.133,0
1583437470.402,30.273,13.672,35.156,21.484,7.812,0
1583437470.406,33.691,20.508,29.297,24.414,1.465,0
1583437470.403,28.320,23.438,41.016,20.020,4.395,0
1583437470.407,26.855,20.508,35.156,19.531,-1.465,0
1583437470.411,23.438,28.320,24.902,21.973,50.781,0
1583437470.415,20.996,33.691,40.039,16.602,60.547,0
1583437470.419,24.414,21.973,56.152,14.648,42.969,0
1583437470.423,20.020,15.137,50.293,17.090,36.621,0
1583437470.427,19.043,25.391,32.715,20.508,8.789,0
1583437470.430,21.973,30.273,21.973,20.996,83.496,0
1583437470.434,21.973,28.320,26.367,19.531,81.055,0
1583437470.438,21.973,30.762,41.992,21.484,-18.555,0
1583437470.442,20.020,28.809,43.457,20.020,-24.414,0
1583437470.446,18.066,30.273,37.598,13.672,-13.184,0
1583437470.443,19.531,32.715,41.016,12.207,-2.441,0
1583437470.447,17.578,19.043,39.062,14.160,32.715,0
1583437470.451,19.531,13.672,35.645,20.996,9.277,0
1583437470.455,22.949,30.273,34.668,22.949,16.602,0
1583437470.459,20.996,36.621,28.320,25.391,43.457,0
1583437470.463,19.531,34.180,28.320,26.855,10.742,0
1583437470.467,24.414,35.645,43.945,27.344,8.301,0
1583437470.470,31.738,42.969,61.523,35.645,41.992,0
1583437470.474,20.996,41.992,55.664,29.297,58.105,0
1583437470.478,11.230,24.902,38.574,16.113,57.617,0
1583437470.482,18.555,19.043,37.598,18.066,39.062,0
1583437470.486,23.438,21.973,32.227,20.996,85.449,0
1583437470.503,24.902,32.227,35.156,28.320,35.645,0
1583437470.507,21.973,28.320,39.551,23.438,-31.738,0
1583437470.511,23.926,16.602,13.184,15.137,75.684,0
1583437470.515,27.832,26.855,13.184,21.973,108.887,0
1583437470.519,31.738,37.109,41.504,24.414,92.285,0
1583437470.523,30.762,37.109,49.316,24.414,93.750,0
1583437470.527,39.551,38.574,45.898,28.809,35.645,0
1583437470.530,36.621,26.855,38.574,23.926,45.898,0
1583437470.534,29.785,21.973,38.086,20.508,50.781,0
1583437470.538,34.180,30.762,29.785,26.367,-29.785,0
1583437470.542,33.203,32.227,11.719,25.879,-14.160,0
1583437470.546,28.320,36.621,23.438,25.391,41.504,0
1583437470.543,27.344,19.043,34.668,28.809,35.156,0
1583437470.547,32.227,17.578,30.273,30.762,13.672,0
1583437470.551,32.227,38.574,27.344,26.855,-0.977,0
1583437470.555,36.621,44.922,41.504,26.855,49.805,0
1583437470.559,40.527,45.410,49.316,31.738,61.035,0
1583437470.563,28.320,30.762,41.992,29.785,-29.297,0
1583437470.567,27.344,27.344,35.156,22.949,22.461,0
1583437470.570,30.273,32.715,35.645,22.461,37.598,0
1583437470.574,28.320,38.086,35.156,28.320,30.273,0
1583437470.578,35.645,37.598,26.855,32.227,38.574,0
1583437470.582,40.527,29.785,18.066,29.297,31.250,0
1583437470.586,37.109,33.691,10.742,25.391,39.551,0
1583437470.583,32.715,42.969,26.855,31.250,46.387,0
1583437470.587,29.297,34.180,50.781,31.250,80.566,0
1583437470.591,26.855,17.578,44.434,26.367,86.914,0
1583437470.595,29.297,34.668,46.387,29.297,92.773,0
1583437470.599,31.250,46.387,54.199,34.668,61.035,0
1583437470.603,23.438,33.203,42.480,33.203,7.812,0
1583437470.607,22.461,23.926,44.922,30.762,21.484,0
1583437470.610,23.926,16.602,40.527,28.809,-3.418,0
1583437470.614,22.949,26.367,28.809,26.855,17.090,0
1583437470.618,25.879,35.156,30.762,25.391,83.984,0
1583437470.622,27.832,38.086,31.250,29.785,69.336,0
1583437470.626,25.879,34.668,32.715,24.414,3.418,0
1583437470.643,36.133,37.598,42.969,27.832,-9.277,0
1583437470.647,41.504,47.852,48.828,38.086,-9.766,0
1583437470.651,22.461,25.391,44.922,29.785,-6.348,0
1583437470.655,19.531,13.672,40.039,28.809,1.953,0
1583437470.659,25.391,32.227,32.715,30.273,53.711,0
1583437470.663,19.531,39.551,32.715,26.855,41.992,0
1583437470.667,18.555,38.086,39.551,22.949,50.293,0
1583437470.670,24.414,28.809,38.574,21.484,63.965,0
1583437470.674,29.297,31.250,31.738,29.785,97.656,0
1583437470.678,33.203,39.062,34.668,30.762,120.117,0
1583437470.682,26.855,34.668,40.527,24.902,39.062,0
1583437470.686,30.273,33.203,43.457,27.344,32.227,0
1583437470.683,47.852,38.574,49.805,37.109,34.668,0
1583437470.687,28.320,37.598,47.852,29.785,25.391,0
1583437470.691,7.324,26.855,41.504,19.043,23.926,0
1583437470.695,18.066,25.391,45.898,17.578,-13.184,0
1583437470.699,21.973,26.367,44.434,15.625,-7.812,0
1583437470.703,17.578,23.926,34.668,20.996,9.277,0
1583437470.707,20.508,20.996,17.090,27.344,-8.789,0
1583437470.710,24.902,26.367,21.484,28.809,35.156,0
1583437470.714,38.086,32.715,36.133,28.809,34.668,0
1583437470.718,40.039,33.203,41.992,28.809,-10.742,0
1583437470.722,29.785,29.785,51.270,23.926,38.086,0
1583437470.726,34.180,35.645,54.688,31.250,40.527,0
1583437470.724,29.785,45.410,44.922,33.203,13.184,0
1583437470.728,28.809,40.527,33.691,29.297,23.926,0
1583437470.732,36.133,24.902,32.227,32.227,19.531,0
1583437470.736,34.668,20.020,38.574,32.715,51.758,0
1583437470.740,34.180,30.273,46.387,33.203,43.945,0
1583437470.744,32.227,36.621,44.922,33.203,10.254,0
1583437470.748,32.227,36.133,31.250,30.273,37.109,0
1583437470.751,35.156,31.250,26.855,31.738,80.566,0
1583437470.755,27.832,23.926,38.086,28.809,21.484,0
1583437470.759,32.227,33.203,53.223,34.668,18.066,0
1583437470.763,32.715,43.945,50.781,33.691,57.129,0
1583437470.767,24.414,44.922,30.273,21.973,26.367,0
1583437470.784,30.273,41.504,23.926,29.297,36.621,0
1583437470.788,31.738,31.250,28.320,28.809,44.434,0
1583437470.792,28.809,32.715,27.344,20.996,27.344,0
1583437470.796,28.809,37.109,24.902,22.949,53.711,0
1583437470.800,27.832,41.992,39.062,25.879,62.500,0
1583437470.804,24.414,40.527,45.898,21.973,57.129,0
1583437470.808,30.273,41.504,50.781,20.020,46.387,0
1583437470.811,28.809,52.734,63.965,18.555,28.809,0
1583437470.815,19.043,46.387,46.387,18.555,42.969,0
1583437470.819,21.484,31.250,36.621,19.531,58.105,0
1583437470.823,26.367,31.738,28.809,14.648,86.426,0
1583437470.827,29.785,38.086,27.344,11.719,30.273,0
1583437470.823,27.832,39.551,36.621,19.043,40.527,0
1583437470.827,20.996,44.922,30.273,17.090,65.918,0
1583437470.831,20.996,35.156,33.203,12.207,17.578,0
1583437470.835,25.391,26.367,29.785,12.207,49.316,0
1583437470.839,23.926,33.203,28.320,12.695,-9.766,0
1583437470.843,21.484,37.598,37.598,13.184,-16.113,0
1583437470.847,24.414,45.410,47.363,19.531,15.625,0
1583437470.850,28.320,55.176,47.852,22.949,-26.367,0
1583437470.854,21.973,45.410,32.715,19.043,-4.883,0
1583437470.858,14.648,26.367,23.926,22.461,-0.488,0
1583437470.862,10.742,30.762,25.879,18.555,1.953,0
1583437470.866,15.625,38.086,46.875,20.020,65.918,0
1583437470.863,23.438,29.297,51.758,27.344,53.711,0
1583437470.867,23.926,26.367,38.086,24.902,13.672,0
1583437470.871,20.508,39.062,36.621,27.344,-19.043,0
1583437470.875,14.648,42.480,38.086,25.879,-28.320,0
1583437470.879,17.090,38.086,42.480,24.414,12.695,0
1583437470.883,17.090,34.668,38.086,25.879,44.922,0
1583437470.887,14.648,34.668,30.273,23.438,-0.977,0
1583437470.890,19.531,35.156,25.391,24.414,27.832,0
1583437470.894,25.391,37.598,33.203,25.879,111.816,0
1583437470.898,28.809,28.809,51.270,29.785,26.367,0
1583437470.902,33.691,23.926,53.711,36.621,-10.254,0
1583437470.906,36.133,35.156,40.527,33.691,16.602,0
1583437470.924,40.039,37.598,36.621,33.203,62.012,0
1583437470.928,39.551,36.133,31.250,36.621,50.293,0
1583437470.932,27.344,28.809,24.902,33.203,-8.301,0
1583437470.936,27.832,32.715,32.715,38.574,9.766,0
1583437470.940,30.762,33.203,25.391,33.691,25.879,0
1583437470.944,30.273,29.297,30.273,35.645,22.461,0
1583437470.948,28.809,33.691,45.898,36.621,42.969,0
1583437470.951,23.438,40.527,43.457,35.156,34.668,0
1583437470.955,27.832,39.551,53.711,43.457,55.664,0
1583437470.959,34.180,36.133,55.664,42.969,54.688,0
1583437470.963,24.902,39.062,33.203,36.621,30.273,0
1583437470.967,30.762,44.434,38.574,42.969,49.316,0
1583437470.963,31.738,45.898,46.875,39.551,48.340,0
1583437470.967,26.855,36.133,24.902,28.809,-55.176,0
1583437470.971,26.855,34.668,20.508,27.832,-70.312,0
1583437470.975,14.648,40.039,35.156,25.879,27.832,0
1583437470.979,11.719,32.715,50.781,21.973,82.031,0
1583437470.983,18.066,32.715,45.898,21.973,61.035,0
1583437470.987,19.531,39.551,34.180,26.855,-1.953,0
1583437470.990,19.043,41.016,35.645,30.762,14.160,0
1583437470.994,20.508,42.480,36.133,34.180,58.105,0
1583437470.998,22.461,21.973,28.809,29.297,44.434,0
1583437471.002,35.156,29.785,32.227,31.250,-7.812,0
1583437471.006,32.227,55.176,45.898,36.133,16.113,0
1583437471.003,19.043,47.852,31.738,26.367,38.574,0
1583437471.007,25.391,42.969,21.484,26.367,39.551,0
1583437471.011,25.879,40.039,32.227,24.414,89.844,0
1583437471.015,21.973,38.086,34.668,19.043,49.316,0
1583437471.019,25.391,43.457,32.227,28.320,39.551,0
1583437471.023,26.367,48.828,39.551,26.367,74.219,0
1583437471.027,26.367,37.109,37.598,21.484,57.129,0
1583437471.030,27.344,27.344,29.785,24.414,7.812,0
1583437471.034,29.297,38.086,34.180,26.367,40.527,0
1583437471.038,37.109,51.270,42.480,32.227,39.062,0
1583437471.042,29.785,48.340,25.879,22.949,9.766,0
1583437471.046,22.949,38.574,17.090,20.020,23.438,0
1583437471.063,24.414,36.133,33.203,26.855,50.293,0
1583437471.067,24.414,43.945,35.645,23.438,44.922,0
1583437471.071,26.367,47.852,34.180,16.602,2.441,0
1583437471.075,25.879,42.969,41.504,13.184,29.297,0
1583437471.079,24.414,47.363,41.016,20.996,45.410,0
1583437471.083,27.344,46.875,33.691,26.367,62.500,0
1583437471.087,33.691,39.062,30.273,26.367,16.113,0
1583437471.090,37.109,51.270,31.250,25.391,16.602,0
1583437471.094,40.527,62.012,41.016,25.879,57.617,0
1583437471.098,43.945,60.059,34.668,31.250,15.137,0
1583437471.102,33.691,52.246,21.484,25.391,-20.508,0
1583437471.106,31.250,43.945,35.156,19.531,3.418,0
1583437471.103,35.645,42.480,34.668,22.949,65.430,0
1583437471.107,31.738,31.250,26.367,26.367,49.805,0
1583437471.111,28.809,19.531,28.809,29.297,33.691,0
1583437471.115,36.133,43.945,35.156,27.832,65.430,0
1583437471.119,33.203,65.430,46.875,18.555,51.758,0
1583437471.123,25.879,47.852,57.617,20.996,38.086,0
1583437471.127,27.832,44.434,51.270,25.391,41.016,0
1583437471.130,39.551,70.801,39.062,27.344,13.184,0
1583437471.134,38.574,69.824,33.691,21.484,12.207,0
1583437471.138,23.438,53.223,34.180,9.277,34.180,0
1583437471.142,26.855,47.363,29.785,8.789,14.160,0
1583437471.146,34.180,46.875,28.809,13.672,0.000,0
1583437471.143,33.203,43.457,35.156,13.184,5.371,0
1583437471.147,38.574,35.645,33.691,20.508,16.113,0
1583437471.151,39.062,41.016,30.762,26.367,57.617,0
1583437471.155,29.785,47.363,22.461,22.461,83.496,0
1583437471.159,30.273,38.574,22.461,20.020,79.590,0
1583437471.163,29.785,30.762,42.969,17.578,103.516,0
1583437471.167,35.156,45.410,51.758,31.250,62.012,0
1583437471.170,36.621,50.293,47.363,32.715,-11.230,0
1583437471.174,19.531,27.832,45.898,8.789,40.039,0
1583437471.178,16.113,25.879,43.457,11.230,80.078,0
1583437471.182,22.949,36.133,35.156,25.391,15.137,0
1583437471.186,30.762,41.992,37.109,30.762,-7.812,0
1583437471.203,30.762,38.574,38.574,28.320,-28.320,0
1583437471.207,29.297,28.320,23.926,24.902,-41.992,0
1583437471.211,29.785,19.043,26.367,28.809,-18.555,0
1583437471.215,30.762,17.578,40.527,31.738,26.855,0
1583437471.219,38.574,33.691,55.176,31.738,46.875,0
1583437471.223,32.227,41.016,53.711,24.414,2.441,0
1583437471.227,22.461,37.598,30.273,20.996,29.785,0
1583437471.230,29.297,35.645,24.414,27.344,47.363,0
1583437471.234,31.250,38.086,31.250,26.855,40.527,0
1583437471.238,25.391,39.551,31.250,22.949,29.785,0
1583437471.242,30.273,37.109,38.574,24.414,20.996,0
1583437471.246,36.621,29.785,42.969,24.414,38.574,0
1583437471.243,32.715,29.785,31.250,24.414,37.109,0
1583437471.247,30.273,36.133,36.621,26.855,49.805,0
1583437471.251,35.156,26.855,41.992,23.926,28.320,0
1583437471.255,31.738,21.484,36.621,21.973,56.641,0
1583437471.259,33.203,38.574,51.758,29.297,72.266,0
1583437471.263,31.738,45.410,49.805,29.297,14.160,0
1583437471.267,25.879,40.527,40.527,21.973,61.523,0
1583437471.270,30.762,27.344,46.875,27.832,42.969,0
1583437471.274,30.762,22.461,44.922,31.250,-3.906,0
1583437471.278,25.879,37.598,35.156,14.648,26.367,0
1583437471.282,20.020,39.062,32.715,6.348,41.016,0
1583437471.286,21.973,32.715,29.297,20.996,24.414,0
1583437471.283,25.391,33.691,35.645,32.715,19.531,0
1583437471.287,21.973,22.461,43.945,28.320,64.453,0
1583437471.291,19.531,14.648,39.551,23.438,42.480,0
1583437471.295,26.367,32.715,50.293,31.738,-29.297,0
1583437471.299,26.367,37.109,54.199,32.715,-15.625,0
1583437471.303,19.531,30.762,49.316,28.809,20.020,0
1583437471.307,19.531,31.738,40.039,27.344,4.395,0
1583437471.310,25.879,34.180,41.016,22.949,13.184,0
1583437471.314,28.809,25.879,44.434,15.137,13.184,0
1583437471.318,19.043,18.066,29.297,24.414,-8.301,0
1583437471.322,22.949,17.578,26.855,43.945,12.207,0
1583437471.326,31.738,29.785,42.480,40.527,40.039,0
1583437471.343,16.602,40.527,56.152,16.113,43.457,0
1583437471.347,14.648,39.062,51.270,9.766,4.883,0
1583437471.351,24.902,37.109,32.715,17.578,10.742,0
1583437471.355,31.250,32.715,36.133,18.066,9.766,0
1583437471.359,28.809,33.203,39.062,14.648,42.480,0
1583437471.363,14.160,39.062,22.949,8.789,94.727,0
1583437471.367,8.301,45.410,10.742,0.977,79.590,0
1583437471.370,12.207,36.621,10.742,6.836,26.855,0
1583437471.374,8.301,29.785,17.578,4.395,-10.254,0
1583437471.378,6.348,41.992,31.250,-0.977,57.617,0
1583437471.382,16.113,50.781,36.133,3.418,102.051,0
1583437471.386,20.508,48.828,25.391,4.395,94.238,0
1583437471.383,24.414,42.480,22.949,9.277,82.520,0
1583437471.387,21.484,36.133,22.949,10.742,44.434,0
1583437471.391,22.949,36.133,29.785,24.414,32.227,0
1583437471.395,30.762,34.668,31.738,28.320,18.555,0
1583437471.399,26.367,35.645,22.461,19.043,-18.555,0
1583437471.403,27.832,33.203,27.344,27.344,13.184,0
1583437471.407,23.926,30.273,26.367,34.180,33.203,0
1583437471.410,13.184,36.621,13.672,27.832,3.906,0
1583437471.414,9.766,30.762,13.184,25.391,19.043,0
1583437471.418,15.137,32.715,32.227,25.879,87.402,0
1583437471.422,18.066,40.039,39.551,18.555,60.547,0
1583437471.426,10.254,40.039,35.645,5.371,21.484,0
1583437471.423,2.441,30.273,22.461,-8.789,74.707,0
1583437471.427,11.230,35.645,22.461,-3.906,0.977,0
1583437471.431,15.137,52.734,31.738,5.859,-26.855,0
1583437471.435,6.348,44.434,26.855,-0.977,27.344,0
1583437471.439,10.254,48.340,27.832,-0.977,73.242,0
1583437471.443,11.230,47.852,23.438,-0.488,49.805,0
1583437471.447,9.766,36.621,0.977,0.000,59.082,0
1583437471.450,15.137,41.504,5.371,7.812,117.676,0
1583437471.454,14.648,49.316,29.297,4.883,17.090,0
1583437471.458,22.461,43.457,28.320,5.859,-1.953,0
1583437471.462,28.320,41.016,35.645,15.625,18.555,0
1583437471.466,26.855,39.551,30.273,18.066,28.809,0
1583437471.483,27.344,29.297,23.438,15.625,102.051,0
1583437471.487,31.250,41.016,33.691,20.996,35.645,0
1583437471.491,22.949,46.387,31.250,18.066,12.207,0
1583437471.495,20.020,45.410,39.551,18.066,40.527,0
1583437471.499,27.832,48.340,44.922,28.320,6.348,0
1583437471.503,26.367,43.457,35.156,21.973,47.852,0
1583437471.507,27.832,43.457,21.484,15.625,63.965,0
1583437471.510,37.598,41.992,10.254,24.414,18.555,0
1583437471.514,39.551,38.086,18.066,30.762,1.465,0
1583437471.518,34.180,27.344,37.598,26.855,0.488,0
1583437471.522,34.180,30.762,39.062,24.414,11.719,0
1583437471.526,44.434,38.574,30.762,38.086,29.785,0
1583437471.523,41.504,26.367,32.715,36.621,30.273,0
1583437471.527,31.250,32.715,36.133,25.391,28.320,0
1583437471.531,34.668,49.316,39.551,24.414,50.781,0
1583437471.535,36.621,53.711,43.945,22.461,-13.184,0
1583437471.539,32.227,42.969,19.043,22.949,-29.297,0
1583437471.543,28.809,41.504,14.648,26.367,69.824,0
1583437471.547,24.902,41.992,46.875,24.414,57.129,0
1583437471.550,31.250,41.016,50.293,22.461,18.066,0
1583437471.554,34.668,38.574,41.992,25.391,15.137,0
1583437471.558,30.762,31.738,34.180,16.113,48.828,0
1583437471.562,32.715,42.969,28.809,12.695,12.207,0
1583437471.566,39.551,51.270,33.691,27.344,23.438,0
1583437471.563,40.039,34.180,28.320,28.809,35.645,0
1583437471.567,37.598,25.879,29.297,28.320,42.480,0
1583437471.571,40.039,35.645,36.621,29.297,53.223,0
1583437471.575,35.156,35.156,28.320,24.902,11.230,0
1583437471.579,33.203,33.691,31.738,26.855,24.414,0
1583437471.583,33.203,42.480,38.086,27.344,-6.836,0
1583437471.587,31.250,35.645,30.273,26.855,-13.184,0
1583437471.590,28.809,26.367,37.598,19.531,15.137,0
1583437471.594,31.250,40.039,59.570,25.879,-6.348,0
1583437471.598,30.273,42.969,60.059,36.621,-3.418,0
1583437471.602,27.344,33.691,50.293,31.738,31.250,0
1583437471.606,26.367,25.391,44.922,28.320,65.918,0
1583437471.623,21.973,28.320,38.574,21.484,33.203,0
1583437471.627,28.320,27.832,42.480,31.250,35.645,0
1583437471.631,37.109,13.672,41.016,44.434,86.914,0
1583437471.635,35.645,21.973,21.973,29.297,38.574,0
1583437471.639,26.367,39.062,22.461,8.789,12.207,0
1583437471.643,19.531,39.551,39.062,7.324,10.742,0
1583437471.647,26.855,51.270,39.551,18.066,12.207,0
1583437471.650,27.344,49.805,30.762,20.996,-0.977,0
1583437471.654,28.320,39.062,31.250,23.926,-4.883,0
1583437471.658,32.715,41.504,50.781,36.621,23.926,0
1583437471.662,19.531,28.809,51.758,29.297,55.176,0
1583437471.666,14.648,20.020,39.062,17.578,90.820,0
1583437471.663,19.531,25.879,33.203,17.578,102.539,0
1583437471.667,26.855,32.715,19.531,21.484,54.688,0
1583437471.671,25.879,31.738,21.484,26.855,38.574,0
1583437471.675,27.344,36.621,30.762,30.762,24.902,0
1583437471.679,35.156,42.480,33.691,29.785,42.969,0
1583437471.683,27.344,20.508,37.598,23.926,54.688,0
1583437471.687,28.809,20.020,27.344,25.879,42.969,0
1583437471.690,41.992,47.363,30.273,41.016,10.254,0
1583437471.694,29.297,44.922,43.945,33.691,-45.410,0
1583437471.698,23.438,34.180,43.945,18.066,-16.113,0
1583437471.702,27.832,39.551,40.527,20.020,40.039,0
1583437471.706,22.461,38.086,32.227,20.996,83.496,0
1583437471.703,25.879,27.344,31.738,26.367,67.871,0
1583437471.707,28.809,17.578,42.969,29.297,24.902,0
1583437471.711,21.973,24.414,40.039,21.973,24.414,0
1583437471.715,25.879,41.016,33.203,27.344,-3.906,0
1583437471.719,26.367,38.574,33.691,27.832,25.391,0
1583437471.723,27.344,32.715,40.039,22.461,46.387,0
1583437471.727,38.086,42.969,41.504,35.156,15.137,0
1583437471.730,31.738,41.504,34.180,27.832,0.977,0
1583437471.734,29.785,40.039,46.875,19.531,-14.160,0
1583437471.738,34.180,45.898,44.922,24.902,10.742,0
1583437471.742,31.738,38.086,37.598,26.855,24.414,0
1583437471.746,38.086,37.598,48.828,32.715,33.203,0
1583437471.763,33.203,37.109,52.246,32.227,31.250,0
1583437471.767,25.879,40.527,54.199,27.832,92.773,0
1583437471.771,29.297,44.922,46.387,21.973,124.512,0
1583437471.775,37.109,47.363,32.715,30.273,53.223,0
1583437471.779,48.340,45.410,29.785,46.387,41.992,0
1583437471.783,38.574,46.875,53.223,41.992,5.859,0
1583437471.787,17.090,42.969,60.059,23.926,11.719,0
1583437471.790,11.719,25.879,34.180,17.090,16.602,0
1583437471.794,12.695,19.043,38.574,18.555,-9.277,0
1583437471.798,11.230,27.832,53.223,18.066,33.691,0
1583437471.802,20.508,33.203,59.570,17.090,30.762,0
1583437471.806,31.250,25.879,63.477,20.508,10.742,0
1583437471.803,32.227,40.039,62.012,28.809,-31.738,0
1583437471.807,27.344,49.805,40.039,24.902,-38.086,0
1583437471.811,34.668,52.246,33.691,26.855,44.922,0
1583437471.815,39.551,52.734,35.156,28.320,84.961,0
1583437471.819,33.203,43.945,26.367,24.414,34.180,0
1583437471.823,34.668,41.504,30.273,33.691,32.715,0
1583437471.827,29.297,32.715,29.297,30.762,48.828,0
1583437471.830,20.508,29.297,42.480,18.555,34.180,0
1583437471.834,26.855,29.785,46.875,19.043,21.973,0
1583437471.838,29.785,6.836,40.527,19.043,32.227,0
1583437471.842,29.297,14.160,49.805,24.414,67.871,0
1583437471.846,36.133,47.852,51.270,29.297,53.711,0
1583437471.863,32.715,46.875,43.457,23.438,55.176,0
1583437471.867,32.227,45.898,47.363,25.879,37.109,0
1583437471.871,35.156,51.270,48.340,30.273,-1.465,0
1583437471.875,32.715,40.039,25.879,28.320,-4.883,0
1583437471.879,28.809,40.039,19.531,30.273,59.570,0
1583437471.883,25.391,39.062,44.434,28.809,65.430,0
1583437471.887,24.414,30.273,55.664,29.785,40.527,0
1583437471.890,27.832,27.832,46.387,23.926,22.461,0
1583437471.894,30.762,22.949,39.551,21.973,20.020,0
1583437471.898,29.297,22.461,45.410,29.297,24.414,0
1583437471.902,29.297,24.902,50.781,31.738,36.621,0
1583437471.906,25.391,27.344,44.922,31.738,47.852,0
1583437471.903,28.809,47.852,42.969,30.273,45.898,0
1583437471.907,29.297,44.922,28.320,33.203,71.777,0
1583437471.911,29.297,36.133,28.809,36.621,60.059,0
1583437471.915,26.855,42.969,43.945,23.438,-6.348,0
1583437471.919,25.879,37.598,36.621,18.555,-19.043,0
1583437471.923,30.762,37.109,34.180,21.973,16.602,0
1583437471.927,31.738,34.668,44.922,22.949,50.781,0
1583437471.930,29.297,34.180,48.828,26.367,5.859,0
1583437471.934,28.320,27.344,44.434,29.297,-17.090,0
1583437471.938,23.438,19.531,39.551,28.320,94.238,0
1583437471.942,23.926,32.715,22.461,31.250,117.676,0
1583437471.946,35.156,49.805,29.297,41.992,3.418,0
1583437471.943,33.691,35.645,50.781,33.691,-52.734,0
1583437471.947,20.996,19.531,55.176,20.996,-15.137,0
1583437471.951,16.602,32.715,50.293,23.438,24.902,0
1583437471.955,18.555,39.551,40.039,26.367,42.480,0
1583437471.959,21.484,34.180,43.457,29.297,35.156,0
1583437471.963,26.855,23.926,47.852,33.203,20.020,0
1583437471.967,29.785,31.250,42.480,35.645,46.387,0
1583437471.970,30.273,25.879,21.973,40.039,105.469,0
1583437471.974,28.320,14.648,22.461,32.227,114.746,0
1583437471.978,39.551,40.039,40.039,26.855,67.871,0
1583437471.982,42.480,43.945,32.715,27.344,59.570,0
1583437471.986,32.715,34.180,40.527,28.809,68.359,0
1583437472.003,25.879,28.809,41.504,34.668,60.059,0
1583437472.007,21.973,18.555,41.992,25.391,56.152,0
1583437472.011,27.344,25.391,41.992,20.508,37.109,0
1583437472.015,28.320,28.320,32.227,27.832,44.434,0
1583437472.019,25.391,29.297,37.598,32.227,44.922,0
1583437472.023,24.414,31.250,37.109,31.250,26.855,0
1583437472.027,23.438,33.203,24.902,22.461,69.824,0
1583437472.030,33.691,35.156,35.645,27.344,58.594,0
1583437472.034,34.668,17.090,46.387,34.180,-22.949,0
1583437472.038,29.297,20.508,36.621,26.855,-25.391,0
1583437472.042,30.762,36.621,34.180,22.949,-25.879,0
1583437472.046,34.668,44.434,31.738,21.484,1.953,0
1583437472.043,50.293,45.898,32.227,35.156,3.418,0
1583437472.047,46.875,31.738,44.434,38.086,10.254,0
1583437472.051,23.926,24.902,52.246,21.973,62.988,0
1583437472.055,19.531,27.832,54.199,20.508,27.832,0
1583437472.059,18.066,27.832,51.758,20.020,10.254,0
1583437472.063,17.578,30.273,42.480,20.996,5.371,0
1583437472.067,15.625,35.156,42.480,21.973,0.977,0
1583437472.070,7.812,16.113,39.551,16.602,49.316,0
1583437472.074,14.648,10.742,41.504,19.043,49.805,0
1583437472.078,23.438,35.156,51.270,22.461,58.594,0
1583437472.082,22.949,37.109,38.574,21.484,61.035,0
1583437472.086,25.391,31.738,31.250,23.926,3.418,0
1583437472.084,26.367,27.832,46.875,29.297,31.250,0
1583437472.088,28.809,19.531,54.688,29.297,32.715,0
1583437472.092,30.762,25.879,51.758,28.809,11.230,0
1583437472.096,30.273,33.691,41.504,27.344,-30.762,0
1583437472.100,39.551,33.203,49.316,32.715,29.785,0
1583437472.104,35.156,22.949,44.434,32.715,62.500,0
1583437472.108,29.297,22.949,35.156,28.320,-35.645,0
1583437472.111,34.668,38.086,38.086,29.785,-36.621,0
1583437472.115,31.250,32.227,45.898,26.855,12.207,0
1583437472.119,25.879,21.973,59.082,26.367,35.156,0
1583437472.123,26.367,21.973,62.988,38.574,78.125,0
1583437472.127,19.043,22.949,57.129,37.598,46.875,0
1583437472.144,28.809,33.203,45.410,39.551,47.363,0
1583437472.148,32.715,36.133,42.969,43.457,67.871,0
1583437472.152,20.020,21.973,41.504,34.668,59.570,0
1583437472.156,28.809,16.602,41.992,36.133,28.809,0
1583437472.160,35.156,19.531,45.898,35.645,56.152,0
1583437472.164,34.668,30.273,50.781,35.156,57.129,0
1583437472.168,29.785,36.133,46.875,34.668,-18.066,0
1583437472.171,29.785,28.809,48.828,32.715,25.879,0
1583437472.175,34.180,26.367,47.852,40.039,25.879,0
1583437472.179,31.250,30.762,35.645,41.016,-16.602,0
1583437472.183,32.227,25.879,40.039,40.527,-25.879,0
1583437472.187,39.062,33.203,57.129,46.387,13.672,0
1583437472.184,35.156,34.180,56.152,38.086,20.996,0
1583437472.188,30.273,24.902,47.363,32.715,-11.719,0
1583437472.192,36.133,26.855,46.387,38.574,47.852,0
1583437472.196,35.645,33.691,37.109,39.062,54.199,0
1583437472.200,35.156,28.320,38.574,34.180,1.465,0
1583437472.204,37.598,24.414,40.039,31.250,2.930,0
1583437472.208,35.156,37.109,32.227,34.180,16.113,0
1583437472.211,24.902,31.738,27.344,28.809,56.641,0
1583437472.215,27.344,20.996,35.645,26.855,58.594,0
1583437472.219,36.621,32.227,32.227,33.203,15.137,0
1583437472.223,26.855,27.344,33.691,21.484,11.719,0
1583437472.227,23.926,18.555,43.945,16.113,24.902,0
1583437472.224,26.855,29.785,34.668,17.578,45.898,0
1583437472.228,29.297,33.203,31.738,16.602,72.754,0
1583437472.232,29.785,28.320,30.273,17.578,83.496,0
1583437472.236,21.484,20.508,36.133,18.066,80.078,0
1583437472.240,22.461,24.902,25.879,18.555,44.922,0
1583437472.244,26.855,38.086,18.555,18.555,-17.090,0
1583437472.248,24.902,33.203,23.926,16.602,22.949,0
1583437472.251,22.461,26.367,32.227,17.090,24.902,0
1583437472.255,25.391,27.344,47.363,22.461,-15.625,0
1583437472.259,20.508,23.438,39.551,13.184,36.133,0
1583437472.263,18.066,22.461,37.598,6.348,79.102,0
1583437472.267,29.297,18.066,29.785,14.160,41.504,0
1583437472.284,42.480,12.207,16.113,35.156,47.852,0
1583437472.288,33.691,17.578,26.367,36.133,37.598,0
1583437472.292,11.230,21.484,37.109,14.160,43.457,0
1583437472.296,6.836,23.438,52.734,12.207,42.480,0
1583437472.300,11.230,20.020,64.453,22.461,18.555,0
1583437472.304,21.484,18.555,58.105,25.879,64.941,0
1583437472.308,17.578,8.301,45.410,17.090,61.523,0
1583437472.311,15.137,9.766,48.340,13.184,46.875,0
1583437472.315,23.926,30.273,44.922,23.438,8.789,0
1583437472.319,20.508,30.762,35.645,27.344,15.625,0
1583437472.323,21.484,28.320,41.992,28.320,72.754,0
1583437472.327,27.344,26.367,35.645,24.902,93.262,0
1583437472.324,34.180,18.066,35.645,24.414,35.645,0
1583437472.328,34.668,14.648,49.805,32.227,10.742,0
1583437472.332,28.320,20.020,51.758,29.297,13.184,0
1583437472.336,22.949,21.484,35.156,20.508,28.809,0
1583437472.340,21.484,31.738,36.133,20.020,34.668,0
1583437472.344,22.949,42.969,50.781,25.879,38.574,0
1583437472.348,21.484,37.109,47.363,29.785,45.898,0
1583437472.351,20.020,37.109,34.180,30.273,18.066,0
1583437472.355,26.367,36.133,36.621,28.809,0.488,0
1583437472.359,30.273,28.809,41.016,31.250,16.602,0
1583437472.363,29.785,30.273,41.992,30.762,30.273,0
1583437472.367,26.855,31.738,44.434,27.344,51.270,0
1583437472.367,29.785,29.785,47.363,35.645,39.062,0
1583437472.371,34.180,28.320,33.691,38.574,19.531,0
1583437472.375,37.598,23.438,28.320,32.715,10.742,0
1583437472.379,33.203,18.555,51.270,28.320,22.461,0
1583437472.383,26.367,31.738,47.852,24.414,24.902,0
1583437472.387,24.414,43.945,28.809,27.832,13.672,0
1583437472.391,22.949,42.480,36.621,35.645,2.930,0
1583437472.394,24.414,36.621,50.781,30.273,-22.461,0
1583437472.398,29.785,36.621,46.875,26.367,13.672,0
1583437472.402,32.227,41.016,37.109,26.367,52.734,0
1583437472.406,21.973,40.039,25.879,25.879,23.438,0
1583437472.410,16.602,37.598,24.902,25.391,46.875,0
1583437472.423,19.043,25.391,24.902,20.996,16.113,0
1583437472.427,26.367,16.602,25.391,24.414,16.602,0
1583437472.431,31.250,36.621,24.414,30.762,51.758,0
1583437472.435,27.832,44.434,32.227,29.785,5.371,0
1583437472.439,32.715,36.133,52.734,30.762,-12.695,0
1583437472.443,31.738,28.809,39.062,31.250,-3.906,0
1583437472.447,25.391,28.320,25.391,18.555,-9.277,0
1583437472.450,30.762,29.297,34.180,13.184,1.465,0
1583437472.454,38.086,29.785,37.109,21.484,-3.906,0
1583437472.458,38.574,29.785,28.809,22.461,-32.227,0
1583437472.462,36.133,32.715,19.043,24.902,-27.832,0
1583437472.466,30.273,33.203,21.973,28.320,48.828,0
1583437472.463,27.832,20.020,34.180,27.832,39.551,0
1583437472.467,30.762,20.508,41.504,26.367,48.828,0
1583437472.471,31.738,29.297,43.945,30.273,67.383,0
1583437472.475,25.879,26.367,34.180,31.250,-6.836,0
1583437472.479,24.902,23.438,28.809,28.320,0.488,0
1583437472.483,31.738,30.273,33.203,30.273,-33.203,0
1583437472.487,32.227,24.902,27.344,32.715,-8.301,0
1583437472.490,29.785,22.461,28.809,35.645,75.195,0
1583437472.494,28.809,33.203,31.250,33.203,54.688,0
1583437472.498,32.227,35.156,22.949,26.855,38.086,0
1583437472.502,31.738,32.227,16.113,17.090,20.508,0
1583437472.506,40.527,34.668,34.668,30.273,25.391,0
1583437472.503,44.922,29.297,45.410,42.480,43.457,0
1583437472.507,28.809,26.367,37.598,32.227,14.160,0
1583437472.511,21.973,31.738,43.945,24.414,20.020,0
1583437472.515,24.414,36.621,32.715,24.414,67.383,0
1583437472.519,24.414,35.645,26.367,31.250,69.824,0
1583437472.523,21.973,26.855,32.715,30.273,17.578,0
1583437472.527,28.809,26.367,34.180,26.367,39.062,0
1583437472.530,35.645,32.227,38.086,29.297,7.324,0
1583437472.534,32.227,34.668,25.391,27.344,23.926,0
1583437472.538,36.133,40.527,13.672,36.621,39.551,0
1583437472.542,35.156,39.062,18.555,39.062,28.320,0
1583437472.546,26.855,27.832,27.344,28.320,38.574,0
1583437472.563,30.762,20.508,40.039,32.715,-26.855,0
1583437472.567,33.203,25.879,36.621,33.691,3.906,0
1583437472.571,33.691,38.574,33.203,29.297,69.824,0
1583437472.575,35.156,45.410,35.645,28.809,56.152,0
1583437472.579,33.691,41.504,35.156,30.273,50.293,0
1583437472.583,25.391,29.785,26.855,28.320,81.055,0
1583437472.587,26.855,31.250,17.090,20.996,118.164,0
1583437472.590,41.992,41.992,35.645,26.855,108.398,0
1583437472.594,43.945,40.039,30.762,33.203,96.191,0
1583437472.598,37.598,33.691,11.230,28.320,68.359,0
1583437472.602,35.645,23.438,16.602,29.785,57.129,0
1583437472.606,36.621,29.297,21.973,27.832,26.367,0
1583437472.603,33.691,37.598,30.762,25.879,30.273,0
1583437472.607,25.391,32.227,37.109,26.367,55.664,0
1583437472.611,26.855,41.016,23.926,29.297,0.488,0
1583437472.615,32.715,32.715,24.902,27.344,-25.879,0
1583437472.619,29.297,25.391,26.855,18.555,43.945,0
1583437472.623,36.133,44.434,24.414,25.391,60.059,0
1583437472.627,35.645,41.504,20.508,27.344,29.785,0
1583437472.630,28.320,28.320,19.531,20.508,30.762,0
1583437472.634,29.297,33.691,29.785,22.949,71.777,0
1583437472.638,29.785,28.809,26.855,22.949,65.918,0
1583437472.642,27.832,23.926,27.344,26.855,38.574,0
1583437472.646,27.344,38.574,33.203,27.344,68.359,0
1583437472.643,22.461,36.133,35.156,20.996,56.641,0
1583437472.647,24.414,35.156,38.574,28.320,35.645,0
1583437472.651,26.855,41.016,37.109,25.391,45.898,0
1583437472.655,23.926,32.715,34.180,14.648,20.020,0
1583437472.659,29.785,31.250,30.762,17.090,15.137,0
1583437472.663,31.250,39.062,26.855,18.066,-4.883,0
1583437472.667,29.785,42.969,30.273,21.484,32.227,0
1583437472.670,26.855,33.203,42.969,23.926,68.359,0
1583437472.674,25.879,34.668,44.922,20.020,60.059,0
1583437472.678,31.250,31.738,41.016,25.879,82.520,0
1583437472.682,30.273,23.438,45.898,34.180,97.168,0
1583437472.686,20.508,40.527,41.016,30.273,75.684,0
1583437472.703,23.926,48.828,24.902,29.785,56.152,0
1583437472.707,31.250,43.945,27.832,37.109,19.043,0
1583437472.711,28.809,32.715,46.387,46.387,49.316,0
1583437472.715,36.621,36.133,45.410,44.922,41.504,0
1583437472.719,29.785,43.945,34.180,24.414,5.371,0
1583437472.723,7.324,39.551,30.273,5.859,17.090,0
1583437472.727,9.766,37.109,36.133,0.000,23.438,0
1583437472.730,23.926,44.434,40.039,11.719,-20.996,0
1583437472.734,19.531,55.176,33.691,8.789,-3.906,0
1583437472.738,22.461,50.293,27.344,0.488,54.199,0
1583437472.742,25.391,43.945,17.090,0.977,-21.973,0
1583437472.746,24.414,39.062,19.531,7.812,-15.137,0
1583437472.743,27.832,39.062,27.344,17.578,14.160,0
1583437472.747,28.809,45.410,17.578,14.648,30.762,0
1583437472.751,30.762,52.734,7.812,9.277,27.344,0
1583437472.755,21.973,39.062,20.508,10.254,41.992,0
1583437472.759,23.926,31.738,18.555,15.625,48.340,0
1583437472.763,32.715,51.270,15.137,19.531,14.160,0
1583437472.767,37.598,62.012,45.410,22.949,28.320,0
1583437472.770,28.809,44.434,38.574,15.137,18.066,0
1583437472.774,27.344,38.574,25.879,19.531,10.742,0
1583437472.778,30.762,50.781,37.109,25.879,23.926,0
1583437472.782,27.344,33.691,35.156,13.672,0.977,0
1583437472.786,30.273,32.227,35.156,20.020,-26.855,0
1583437472.783,26.855,51.758,32.715,25.391,-2.441,0
1583437472.787,24.902,46.875,32.227,24.414,20.996,0
1583437472.791,27.832,39.062,40.039,24.414,16.113,0
1583437472.795,31.250,44.922,27.832,23.438,14.160,0
1583437472.799,32.227,45.898,25.391,28.320,19.043,0
1583437472.803,26.367,34.180,41.016,23.926,16.602,0
1583437472.807,32.715,30.273,52.246,24.414,50.781,0
1583437472.810,35.156,27.832,57.129,27.832,66.406,0
1583437472.814,28.809,24.414,53.223,22.461,62.988,0
1583437472.818,27.344,31.738,45.898,21.973,40.527,0
1583437472.822,27.832,44.922,43.457,21.973,54.199,0
1583437472.826,29.297,43.945,34.180,21.484,30.273,0
1583437472.844,28.809,37.109,18.555,24.902,51.270,0
1583437472.848,36.133,46.875,24.902,30.762,31.250,0
1583437472.852,29.297,44.434,34.180,29.297,-20.996,0
1583437472.856,23.926,32.227,39.062,24.414,24.414,0
1583437472.860,24.902,33.203,56.641,26.367,54.199,0
1583437472.864,21.484,25.391,50.781,29.785,18.066,0
1583437472.868,26.855,24.902,36.621,20.020,1.465,0
1583437472.871,34.668,35.645,48.340,19.043,18.066,0
1583437472.875,38.574,33.691,46.387,27.832,70.312,0
1583437472.879,37.109,25.879,31.250,26.367,67.383,0
1583437472.883,38.086,35.645,33.691,29.297,21.973,0
1583437472.887,37.109,46.875,40.039,31.250,30.762,0
1583437472.886,27.832,37.598,37.598,27.344,14.648,0
1583437472.890,20.020,28.809,40.527,27.344,1.953,0
1583437472.894,24.902,39.062,46.875,36.133,34.180,0
1583437472.898,30.273,41.016,48.828,44.434,5.371,0
1583437472.902,25.879,26.855,49.316,37.109,-7.812,0
1583437472.906,24.414,23.926,47.363,34.180,22.949,0
1583437472.910,27.832,25.879,39.551,35.645,33.691,0
1583437472.913,32.715,29.297,37.109,33.691,23.926,0
1583437472.917,36.621,39.551,37.598,36.621,17.090,0
1583437472.921,34.668,37.109,38.574,28.320,24.414,0
1583437472.925,34.668,31.250,41.016,23.438,16.602,0
1583437472.929,34.668,29.785,41.504,28.809,80.566,0
1583437472.923,27.344,28.809,46.875,26.855,94.238,0
1583437472.927,32.227,30.273,38.574,30.762,21.484,0
1583437472.931,37.598,32.227,37.109,35.156,28.320,0
1583437472.935,36.133,35.156,45.898,36.621,23.438,0
1583437472.939,37.109,25.879,39.062,35.645,18.555,0
1583437472.943,36.133,37.598,44.922,33.691,51.270,0
1583437472.947,29.297,42.969,28.809,30.273,26.855,0
1583437472.950,30.762,41.016,15.137,27.344,13.672,0
1583437472.954,33.691,41.504,41.504,28.320,36.621,0
1583437472.958,26.855,25.879,46.875,21.484,51.270,0
1583437472.962,31.250,25.391,44.434,20.020,39.062,0
1583437472.966,41.016,36.133,35.645,33.203,62.988,0
1583437472.983,45.898,34.668,35.156,44.922,52.734,0
1583437472.987,30.273,28.320,52.246,32.715,4.883,0
1583437472.991,19.043,32.227,52.246,22.461,20.996,0
1583437472.995,23.438,28.320,44.922,26.367,16.113,0
1583437472.999,22.949,20.508,37.598,25.879,16.113,0
1583437473.003,32.227,34.668,41.992,26.855,36.621,0
1583437473.007,35.156,31.250,49.805,26.855,76.660,0
1583437473.010,29.785,15.625,43.945,28.809,79.590,0
1583437473.014,33.691,23.926,25.879,33.691,46.387,0
1583437473.018,38.574,26.367,33.203,35.645,37.598,0
1583437473.022,39.551,19.531,58.105,31.250,25.879,0
1583437473.026,41.016,20.020,62.012,31.738,49.805,0
1583437473.023,43.457,17.090,57.129,43.945,41.016,0
1583437473.027,34.180,12.695,37.109,42.480,17.578,0
1583437473.031,27.344,20.020,27.344,36.133,59.570,0
1583437473.035,32.715,20.020,39.062,34.180,60.547,0
1583437473.039,31.738,24.902,38.086,34.180,54.199,0
1583437473.043,25.879,30.762,39.551,28.320,20.020,0
1583437473.047,29.297,22.949,31.250,23.438,-49.316,0
1583437473.050,34.180,15.625,16.602,23.926,10.742,0
1583437473.054,38.086,20.508,24.902,29.297,24.414,0
1583437473.058,38.574,16.602,34.180,30.273,21.484,0
1583437473.062,31.738,0.977,38.574,19.531,70.312,0
1583437473.066,33.203,-1.465,53.711,23.438,70.801,0
1583437473.063,41.504,13.184,49.316,31.250,71.777,0
1583437473.067,42.480,24.902,26.367,33.691,34.668,0
1583437473.071,38.086,14.648,31.738,35.645,29.297,0
1583437473.075,43.457,18.066,44.922,35.156,17.578,0
1583437473.079,39.062,21.973,40.527,30.762,-38.086,0
1583437473.083,39.551,21.484,44.922,34.668,-42.480,0
1583437473.087,53.223,23.926,52.246,42.969,-52.246,0
1583437473.090,43.945,16.602,40.039,39.062,5.371,0
1583437473.094,35.645,17.090,37.109,32.227,83.984,0
1583437473.098,32.715,19.531,38.086,31.738,80.566,0
1583437473.102,22.461,15.137,36.621,26.367,60.547,0
1583437473.106,14.160,16.602,40.039,15.137,52.734,0
1583437473.123,18.555,26.855,44.434,17.578,10.742,0
1583437473.127,10.742,25.879,43.457,11.719,3.418,0
1583437473.131,0.000,21.973,40.039,0.488,46.387,0
1583437473.135,-17.090,19.043,37.598,-22.461,13.184,0
1583437473.139,-30.273,31.250,42.480,-36.133,13.184,0
1583437473.143,-36.621,35.156,53.223,-33.203,119.141,0
1583437473.147,-67.383,20.996,45.410,-57.617,129.883,0
1583437473.150,-82.520,20.020,35.156,-72.266,48.340,0
1583437473.154,-90.820,19.043,29.297,-85.449,57.129,0
1583437473.158,-95.703,15.625,28.320,-99.121,72.266,0
1583437473.162,-94.727,29.785,40.039,-102.539,5.371,0
1583437473.166,-103.516,41.504,49.805,-108.398,15.625,0
1583437473.163,-111.328,38.574,43.945,-113.281,22.949,0
1583437473.167,-107.422,32.227,47.363,-115.234,37.109,0
1583437473.171,-110.352,38.574,45.898,-110.840,62.988,0
1583437473.175,-102.539,52.246,54.199,-104.004,101.562,0
1583437473.179,-96.191,44.434,60.059,-105.957,79.590,0
1583437473.183,-96.191,35.645,47.363,-102.539,62.012,0
1583437473.187,-85.938,37.109,37.598,-87.402,80.566,0
1583437473.190,-78.125,24.414,31.738,-80.078,64.453,0
1583437473.194,-62.012,29.785,36.133,-67.871,50.293,0
1583437473.198,-48.828,40.527,60.547,-62.500,-4.395,0
1583437473.202,-43.457,28.809,64.453,-52.734,3.418,0
1583437473.206,-29.785,31.738,54.688,-28.320,24.902,0
1583437473.203,-10.742,53.223,63.477,-10.742,26.855,0
1583437473.207,-0.488,44.434,48.340,-4.883,78.613,0
1583437473.211,10.742,30.762,37.109,5.859,47.363,0
1583437473.215,20.020,38.086,42.480,20.508,34.180,0
1583437473.219,23.926,33.691,32.227,21.484,68.848,0
1583437473.223,33.691,23.438,27.344,21.484,-20.020,0
1583437473.227,43.457,29.297,35.156,27.832,-16.113,0
1583437473.230,52.734,34.668,41.016,38.574,61.523,0
1583437473.234,51.270,38.086,47.852,44.922,82.031,0
1583437473.238,51.758,42.480,39.062,50.293,45.410,0
1583437473.242,57.129,37.109,33.203,59.082,8.789,0
1583437473.246,52.734,28.320,31.250,58.594,24.414,0
1583437473.263,56.152,24.414,27.344,60.059,51.758,0
1583437473.267,62.012,32.227,44.922,65.430,58.105,0
1583437473.271,62.988,36.133,43.945,62.500,60.059,0
1583437473.275,64.941,36.621,33.691,59.082,17.578,0
1583437473.279,65.918,27.344,26.367,64.453,-9.766,0
1583437473.283,65.430,22.461,19.043,66.406,-4.395,0
1583437473.287,67.871,38.574,25.879,67.871,18.555,0
1583437473.290,67.383,43.457,28.809,67.383,28.320,0
1583437473.294,72.266,32.227,29.785,69.336,32.715,0
1583437473.298,74.707,29.297,10.254,70.312,54.688,0
1583437473.302,69.824,35.156,21.484,65.430,38.574,0
1583437473.306,60.547,35.156,51.270,57.129,30.273,0
1583437473.303,59.082,35.645,44.434,57.129,16.113,0
1583437473.307,66.406,35.156,41.016,66.895,17.578,0
1583437473.311,66.406,30.762,39.551,65.918,80.566,0
1583437473.315,61.523,11.719,26.855,59.082,47.363,0
1583437473.319,68.359,7.324,18.555,69.336,-11.719,0
1583437473.323,72.754,31.738,34.180,78.613,48.340,0
1583437473.327,67.871,40.527,34.180,68.359,11.230,0
1583437473.330,65.430,31.738,18.066,62.988,20.996,0
1583437473.334,60.059,25.879,33.203,62.500,38.574,0
1583437473.338,60.059,23.438,46.875,59.570,6.836,0
1583437473.342,57.129,16.113,39.062,64.941,23.926,0
1583437473.346,59.082,13.672,39.551,67.871,-6.348,0
1583437473.343,63.477,24.902,35.645,64.941,-0.977,0
1583437473.347,58.594,28.320,12.695,61.523,46.387,0
1583437473.351,63.965,18.555,23.438,64.453,6.348,0
1583437473.355,65.430,20.508,44.922,64.941,-7.812,0
1583437473.359,58.105,26.367,43.945,58.594,13.184,0
1583437473.363,52.246,29.297,36.621,59.570,12.695,0
1583437473.367,61.035,28.809,24.414,68.848,46.875,0
1583437473.370,65.918,21.484,24.414,62.500,43.457,0
1583437473.374,64.941,25.391,31.250,59.082,13.672,0
1583437473.378,70.312,31.738,38.086,72.266,-23.438,0
1583437473.382,61.523,25.879,48.828,68.359,56.641,0
1583437473.386,56.152,24.902,43.945,60.547,115.723,0
1583437473.403,58.594,19.043,29.297,58.594,32.715,0
1583437473.407,57.129,20.508,26.855,55.664,18.555,0
1583437473.411,61.523,17.090,33.203,62.500,15.625,0
1583437473.415,69.336,20.508,40.527,71.289,77.637,0
1583437473.419,65.430,42.480,40.527,60.059,99.609,0
1583437473.423,61.523,38.574,33.203,53.223,-5.371,0
1583437473.427,67.383,31.738,33.203,61.035,0.977,0
1583437473.430,62.012,33.691,29.785,56.641,29.297,0
1583437473.434,61.035,39.062,26.367,61.035,35.645,0
1583437473.438,63.965,38.574,27.344,64.453,56.641,0
1583437473.442,47.363,30.273,34.668,50.293,15.137,0
1583437473.446,32.715,23.926,39.062,41.992,-26.855,0
1583437473.443,29.785,34.668,30.762,35.156,-18.555,0
1583437473.447,37.109,28.320,37.598,32.715,39.062,0
1583437473.451,44.434,14.648,54.688,36.621,23.438,0
1583437473.455,40.527,34.180,47.363,36.133,4.883,0
1583437473.459,41.504,45.410,27.344,33.203,57.617,0
1583437473.463,41.992,45.898,27.832,39.062,63.965,0
1583437473.467,40.039,46.387,42.480,42.480,84.473,0
1583437473.470,41.504,36.621,42.969,41.504,44.922,0
1583437473.474,39.062,33.203,34.180,37.598,44.922,0
1583437473.478,33.203,35.645,32.715,29.297,83.496,0
1583437473.482,32.715,36.621,25.391,34.180,42.480,0
1583437473.486,34.668,27.344,32.715,37.598,16.113,0
1583437473.503,36.621,28.809,45.898,37.109,17.090,0
1583437473.507,32.227,37.598,50.293,32.715,54.199,0
1583437473.511,22.949,30.273,47.852,20.020,53.711,0
1583437473.515,36.133,35.645,54.688,33.203,23.926,0
1583437473.519,43.945,47.852,58.594,42.969,22.949,0
1583437473.523,39.062,43.945,31.738,36.621,24.414,0
1583437473.527,38.086,41.504,31.738,33.691,-9.766,0
1583437473.530,36.621,39.062,34.668,28.809,-16.602,0
1583437473.534,38.574,27.832,21.973,36.133,16.602,0
1583437473.538,38.574,25.879,25.391,36.621,20.996,0
1583437473.542,45.898,41.504,42.969,39.062,26.367,0
1583437473.546,38.086,31.738,43.945,40.039,49.805,0
1583437473.544,30.762,26.367,39.062,35.645,80.566,0
1583437473.548,36.133,42.480,41.504,37.598,54.688,0
1583437473.552,40.039,48.340,36.133,34.668,43.945,0
1583437473.556,45.410,41.504,34.180,39.062,24.414,0
1583437473.560,44.434,37.598,34.180,45.410,14.160,0
1583437473.564,42.480,39.062,29.297,38.086,30.273,0
1583437473.568,41.016,34.668,24.414,30.762,48.340,0
1583437473.571,42.969,40.527,39.551,32.715,58.105,0
1583437473.575,46.875,46.387,38.086,41.992,52.734,0
1583437473.579,38.574,29.785,26.367,39.551,43.457,0
1583437473.583,31.738,23.926,41.016,32.227,10.742,0
1583437473.587,35.645,35.645,51.270,34.180,-32.715,0
1583437473.603,40.039,42.969,41.992,35.645,-35.156,0
1583437473.607,37.598,36.133,33.203,33.691,29.297,0
1583437473.611,36.133,37.109,33.691,33.691,4.883,0
1583437473.615,39.551,40.039,35.156,30.273,-19.531,0
1583437473.619,38.574,36.621,40.039,29.297,3.906,0
1583437473.623,45.410,34.668,40.039,40.039,50.781,0
1583437473.627,60.547,35.645,32.227,54.199,73.242,0
1583437473.630,57.129,37.598,28.320,59.082,58.594,0
1583437473.634,36.621,31.250,33.691,38.574,37.109,0
1583437473.638,30.273,22.461,35.156,27.344,18.555,0
1583437473.642,40.039,19.043,33.691,42.480,35.645,0
1583437473.646,41.992,28.809,37.598,48.828,37.109,0
1583437473.643,37.109,34.180,41.016,44.434,9.277,0
1583437473.647,30.273,19.043,41.504,36.621,25.391,0
1583437473.651,33.203,20.020,54.688,43.457,31.738,0
1583437473.655,30.762,24.902,57.129,52.246,42.969,0
1583437473.659,27.344,18.066,59.082,51.270,36.133,0
1583437473.663,36.621,17.090,61.523,55.664,30.273,0
1583437473.667,36.621,19.043,52.734,53.711,29.785,0
1583437473.670,38.574,12.695,53.223,59.082,33.691,0
1583437473.674,39.551,15.137,54.199,55.176,31.250,0
1583437473.678,37.598,28.320,47.852,49.805,31.738,0
1583437473.682,38.086,27.832,41.504,53.711,79.102,0
1583437473.686,38.086,23.438,45.410,52.734,32.715,0
1583437473.683,33.203,19.531,41.504,41.992,30.762,0
1583437473.687,39.062,26.855,45.410,45.898,98.633,0
1583437473.691,46.387,33.691,60.059,55.176,50.781,0
1583437473.695,34.668,29.297,52.246,43.945,-30.762,0
1583437473.699,29.785,24.414,42.969,39.062,-20.996,0
1583437473.703,33.691,20.508,41.016,41.016,20.996,0
1583437473.707,45.410,23.926,41.504,43.945,75.684,0
1583437473.710,47.852,28.809,41.992,45.410,51.270,0
1583437473.714,40.039,33.691,27.344,42.480,-10.742,0
1583437473.718,42.480,34.180,16.113,35.645,-30.273,0
1583437473.722,48.828,36.621,30.762,36.133,1.953,0
1583437473.726,54.199,40.039,41.992,50.293,38.574,0
1583437473.723,45.898,41.504,41.992,48.828,3.906,0
1583437473.727,39.551,49.316,47.363,41.992,11.719,0
1583437473.731,39.062,53.223,32.715,41.992,26.855,0
1583437473.735,31.738,40.527,26.855,45.410,54.688,0
1583437473.739,29.785,29.785,45.410,49.316,77.637,0
1583437473.743,37.109,33.203,41.992,46.387,61.035,0
1583437473.747,31.250,34.668,33.691,37.109,67.871,0
1583437473.750,35.156,41.992,27.344,44.434,25.391,0
1583437473.754,44.434,51.758,22.461,51.270,2.930,0
1583437473.758,37.109,52.246,23.438,41.016,45.410,0
1583437473.762,33.203,48.828,30.762,39.551,43.945,0
1583437473.766,36.621,39.062,44.434,40.039,67.383,0
1583437473.783,34.180,29.297,41.504,40.527,22.949,0
1583437473.787,28.320,35.645,29.297,31.250,-8.789,0
1583437473.791,30.762,46.875,34.180,25.391,6.836,0
1583437473.795,29.785,39.062,29.297,29.785,-5.371,0
1583437473.799,27.344,35.156,24.902,31.250,46.875,0
1583437473.803,34.668,51.758,36.133,41.992,79.590,0
1583437473.807,40.527,59.570,30.762,36.133,20.020,0
1583437473.810,32.715,52.246,36.621,21.973,20.508,0
1583437473.814,30.273,45.898,52.734,29.297,6.348,0
1583437473.818,34.180,39.551,46.875,31.738,-2.930,0
1583437473.822,34.180,39.551,32.227,32.227,46.387,0
1583437473.826,37.109,50.293,30.273,32.227,7.812,0
1583437473.823,29.785,48.340,32.227,29.785,-19.531,0
1583437473.827,30.273,48.828,37.109,32.227,-8.789,0
1583437473.831,35.156,51.758,49.805,33.203,-8.301,0
1583437473.835,30.273,41.504,35.645,25.391,59.082,0
1583437473.839,38.086,43.457,23.438,30.273,45.410,0
1583437473.843,37.109,45.898,37.109,33.691,16.602,0
1583437473.847,33.203,48.828,33.203,32.715,15.625,0
1583437473.850,47.852,50.781,38.086,41.504,-28.809,0
1583437473.854,53.711,41.992,57.129,47.852,-14.160,0
1583437473.858,38.086,41.016,55.664,39.551,26.367,0
1583437473.862,25.879,38.086,48.340,27.344,8.789,0
1583437473.866,22.461,29.297,43.945,26.855,13.184,0
1583437473.863,30.273,35.645,41.016,33.691,46.387,0
1583437473.867,44.434,48.828,42.969,42.480,71.289,0
1583437473.871,45.898,46.387,39.062,44.434,54.199,0
1583437473.875,35.645,32.227,28.320,31.250,48.828,0
1583437473.879,30.273,30.762,37.109,29.297,42.480,0
1583437473.883,28.320,36.621,43.457,32.715,-11.719,0
1583437473.887,26.367,44.434,38.086,33.691,68.359,0
1583437473.890,26.367,42.480,24.902,34.180,64.453,0
1583437473.894,27.832,43.457,27.344,25.879,22.949,0
1583437473.898,23.438,42.480,43.457,23.438,68.848,0
1583437473.902,20.508,39.062,33.691,28.809,15.625,0
1583437473.906,27.344,43.945,34.180,29.785,24.902,0
1583437473.923,30.762,46.387,42.480,25.391,32.715,0
1583437473.927,23.438,39.062,39.551,18.555,-10.742,0
1583437473.931,23.438,27.832,37.598,25.391,4.395,0
1583437473.935,28.320,31.250,40.527,30.273,-1.953,0
1583437473.939,32.715,41.504,43.457,26.855,25.879,0
1583437473.943,36.133,36.133,45.898,29.297,30.762,0
1583437473.947,34.180,37.109,40.527,24.902,23.926,0
1583437473.950,38.086,50.293,33.203,28.809,18.066,0
1583437473.954,36.133,37.109,24.414,32.715,0.977,0
1583437473.958,33.203,29.297,27.832,33.691,25.391,0
1583437473.962,33.203,39.062,42.969,37.598,43.945,0
1583437473.966,32.715,31.738,45.898,29.785,2.930,0
1583437473.963,35.156,33.203,48.340,26.855,-20.996,0
1583437473.967,28.320,42.480,40.039,24.902,-4.395,0
1583437473.971,28.320,40.527,30.762,29.297,14.160,0
1583437473.975,30.762,41.504,32.715,35.645,58.594,0
1583437473.979,29.297,44.922,37.598,36.621,64.453,0
1583437473.983,30.762,31.250,32.715,34.180,70.312,0
1583437473.987,35.156,35.645,31.250,32.715,132.324,0
1583437473.990,37.598,52.734,38.086,40.039,69.336,0
1583437473.994,34.180,48.828,41.504,39.062,14.648,0
1583437473.998,29.297,42.969,38.574,30.273,9.277,0
1583437474.002,24.902,41.016,28.809,25.391,-18.066,0
1583437474.006,27.832,40.527,20.508,30.273,-20.508,0
1583437474.003,22.461,41.504,27.344,35.645,-13.184,0
1583437474.007,18.555,36.133,36.133,26.367,-16.113,0
1583437474.011,22.461,32.715,41.504,17.578,4.395,0
1583437474.015,26.855,42.480,51.270,22.949,9.766,0
1583437474.019,30.762,43.457,46.875,25.879,33.203,0
1583437474.023,23.438,37.109,35.645,22.949,37.598,0
1583437474.027,22.461,39.551,36.133,23.926,5.371,0
1583437474.030,26.855,36.133,31.738,24.414,39.551,0
1583437474.034,27.344,33.203,28.809,25.391,68.848,0
1583437474.038,27.344,36.621,28.809,26.367,32.715,0
1583437474.042,25.391,37.598,37.109,25.391,-3.418,0
1583437474.046,33.203,31.250,51.758,38.086,43.945,0
1583437474.063,42.969,27.832,49.805,58.105,38.574,0
1583437474.067,38.086,46.875,40.527,49.805,29.785,0
1583437474.071,29.785,58.594,30.273,22.461,50.781,0
1583437474.075,20.508,48.340,29.297,8.789,38.086,0
1583437474.079,23.926,42.480,28.809,18.555,73.242,0
1583437474.083,36.621,44.434,26.855,36.621,82.520,0
1583437474.087,34.180,45.898,35.645,36.621,27.832,0
1583437474.090,37.109,42.480,24.902,32.715,10.254,0
1583437474.094,42.969,39.062,19.531,41.992,43.945,0
1583437474.098,42.969,37.109,40.039,45.410,67.871,0
1583437474.102,41.992,30.762,43.945,43.457,20.508,0
1583437474.106,41.504,40.039,35.156,41.504,22.949,0
1583437474.103,50.293,51.270,25.391,45.898,35.645,0
1583437474.107,48.828,35.156,25.879,47.852,27.832,0
1583437474.111,34.180,31.738,32.715,31.250,61.035,0
1583437474.115,39.062,46.875,36.621,31.250,35.156,0
1583437474.119,46.387,48.340,36.133,38.086,4.395,0
1583437474.123,36.621,33.203,34.180,33.691,4.883,0
1583437474.127,37.109,29.297,41.016,38.086,-20.508,0
1583437474.130,40.527,36.621,43.945,33.203,-14.648,0
1583437474.134,38.086,29.297,30.273,28.320,21.484,0
1583437474.138,39.062,33.203,19.043,28.320,0.977,0
1583437474.142,38.086,56.152,19.043,26.855,-35.156,0
1583437474.146,39.551,56.641,18.555,32.227,-8.789,0
1583437474.143,41.016,48.828,22.949,30.762,18.066,0
1583437474.147,38.574,48.340,36.133,27.832,2.930,0
1583437474.151,42.480,48.340,48.340,40.039,6.836,0
1583437474.155,43.945,38.574,39.551,43.945,2.930,0
1583437474.159,36.621,27.344,24.414,36.621,46.387,0
1583437474.163,34.180,34.180,30.762,33.203,106.445,0
1583437474.167,30.273,36.621,34.180,28.809,57.129,0
1583437474.170,30.273,37.109,35.156,26.367,41.016,0
1583437474.174,31.250,47.852,31.738,25.879,126.465,0
1583437474.178,32.715,40.527,27.344,26.367,48.828,0
1583437474.182,37.598,34.668,35.156,24.902,-5.371,0
1583437474.186,36.133,47.852,39.551,28.809,32.715,0
1583437474.203,32.715,51.270,40.039,32.715,27.832,0
1583437474.207,26.367,48.340,39.062,15.137,41.504,0
1583437474.211,18.555,41.504,39.551,8.789,51.758,0
1583437474.215,8.301,38.574,36.133,8.301,72.266,0
1583437474.219,2.930,43.457,47.852,8.789,46.387,0
1583437474.223,9.766,41.504,58.105,11.719,27.344,0
1583437474.227,5.859,45.410,41.504,-13.672,72.754,0
1583437474.230,-16.113,55.664,30.273,-39.551,20.508,0
1583437474.234,-43.945,47.852,33.203,-55.176,12.207,0
1583437474.238,-56.152,37.109,30.273,-70.312,73.242,0
1583437474.242,-68.359,43.945,23.926,-84.961,97.168,0
1583437474.246,-85.938,53.711,34.180,-99.609,36.621,0
1583437474.243,-92.773,51.758,42.969,-113.770,-5.859,0
1583437474.247,-107.422,51.758,30.273,-131.348,3.418,0
1583437474.251,-117.188,58.594,16.602,-131.836,-4.883,0
1583437474.255,-117.676,55.664,25.879,-131.348,24.414,0
1583437474.259,-127.441,53.223,29.785,-142.090,27.832,0
1583437474.263,-130.859,64.453,17.578,-148.926,45.410,0
1583437474.267,-131.348,58.105,25.879,-155.273,16.602,0
1583437474.270,-111.328,62.988,34.668,-138.184,-5.371,0
1583437474.274,-104.004,74.219,17.578,-134.277,20.020,0
1583437474.278,-106.445,64.941,18.066,-140.137,0.488,0
1583437474.282,-91.797,45.898,24.902,-126.953,-15.137,0
1583437474.286,-78.613,41.504,21.484,-110.840,-12.207,0
1583437474.283,-62.012,72.266,14.648,-90.332,49.805,0
1583437474.287,-40.527,85.449,12.207,-72.266,61.523,0
1583437474.291,-34.180,67.383,18.066,-59.082,57.617,0
1583437474.295,-18.066,63.965,30.273,-42.480,36.621,0
1583437474.299,-4.395,67.383,27.832,-28.320,26.367,0
1583437474.303,3.418,60.059,25.391,-13.184,76.172,0
1583437474.307,18.066,61.523,26.855,0.488,51.758,0
1583437474.310,28.320,55.176,19.043,5.859,49.316,0
1583437474.314,41.992,51.758,16.113,17.578,62.988,0
1583437474.318,49.316,55.176,13.184,30.273,32.227,0
1583437474.322,53.223,54.688,20.508,34.180,30.762,0
1583437474.326,62.012,38.574,20.508,41.016,69.824,0
1583437474.343,64.453,41.992,20.020,52.246,36.621,0
1583437474.347,66.406,57.617,30.273,57.129,52.246,0
1583437474.351,66.895,45.410,26.367,55.664,74.219,0
1583437474.355,68.359,46.387,29.785,61.035,22.949,0
1583437474.359,75.195,47.852,28.320,62.988,31.738,0
1583437474.363,72.754,41.016,17.090,63.477,25.391,0
1583437474.367,70.801,39.062,9.277,62.500,53.223,0
1583437474.370,74.707,39.551,10.742,63.477,81.543,0
1583437474.374,78.613,37.109,19.531,68.359,81.543,0
1583437474.378,82.520,35.156,17.090,75.195,51.270,0
1583437474.382,88.379,42.969,16.602,83.984,7.812,0
1583437474.386,85.938,42.480,0.000,77.148,20.508,0
1583437474.383,79.590,36.621,0.000,74.219,79.102,0
1583437474.387,78.125,31.250,25.391,74.707,63.965,0
1583437474.391,84.473,29.297,30.762,76.172,42.480,0
1583437474.395,83.984,33.203,32.227,79.590,92.285,0
1583437474.399,74.219,39.551,37.598,71.289,78.613,0
1583437474.403,81.055,49.805,42.969,76.172,45.898,0
1583437474.407,85.449,41.016,28.809,83.496,-9.766,0
1583437474.410,85.938,27.344,16.113,77.637,-20.996,0
1583437474.414,86.426,39.062,18.555,70.801,14.648,0
1583437474.418,80.078,46.387,14.160,67.383,49.316,0
1583437474.422,82.520,42.969,8.789,72.266,75.195,0
1583437474.426,76.660,40.527,11.719,72.754,-0.488,0
1583437474.423,70.801,31.250,17.578,69.336,-34.668,0
1583437474.427,73.242,23.926,24.902,69.824,17.090,0
1583437474.431,75.195,33.691,31.738,70.801,35.156,0
1583437474.435,75.195,28.809,22.949,69.824,32.715,0
1583437474.439,76.660,27.832,21.484,67.871,53.223,0
1583437474.443,75.195,29.785,33.691,65.430,49.316,0
1583437474.447,81.055,24.902,33.691,75.195,30.273,0
1583437474.450,78.613,36.621,24.414,75.195,58.594,0
1583437474.454,71.777,47.363,22.949,62.988,17.090,0
1583437474.458,71.777,44.434,24.902,65.918,33.203,0
1583437474.462,70.801,35.645,18.555,67.871,27.344,0
1583437474.466,67.383,34.180,14.648,68.359,-40.039,0
1583437474.483,60.547,37.109,20.508,68.359,-31.250,0
1583437474.487,62.988,39.551,18.066,64.941,15.625,0
1583437474.491,65.430,33.203,15.137,62.012,41.504,0
1583437474.495,66.895,28.320,33.203,62.012,68.359,0
1583437474.499,67.383,36.133,35.156,70.312,40.527,0
1583437474.503,60.547,33.691,21.973,63.477,18.066,0
1583437474.507,54.199,25.391,18.555,51.758,61.035,0
1583437474.510,56.641,39.551,24.414,61.035,26.367,0
1583437474.514,60.059,57.129,27.344,69.336,-13.672,0
1583437474.518,56.152,45.410,31.738,62.012,33.203,0
1583437474.522,48.828,35.645,33.203,52.246,34.180,0
1583437474.526,48.340,33.691,33.203,46.875,37.598,0
1583437474.523,57.129,36.621,27.344,54.688,54.688,0
1583437474.527,59.082,44.434,16.602,59.570,18.555,0
1583437474.531,59.570,42.969,22.461,57.617,28.809,0
1583437474.535,57.129,37.598,23.926,55.664,80.566,0
1583437474.539,47.852,40.039,21.973,55.664,48.340,0
1583437474.543,45.410,35.645,25.879,56.152,31.250,0
1583437474.547,50.781,40.039,24.902,56.152,35.645,0
1583437474.550,46.875,44.922,34.180,54.199,-41.016,0
1583437474.554,41.504,33.691,24.902,53.711,-22.949,0
1583437474.558,36.621,32.715,9.766,44.922,103.516,0
1583437474.562,41.504,40.527,27.832,43.457,58.105,0
1583437474.566,53.711,45.410,40.039,54.688,25.391,0
1583437474.563,48.828,42.480,25.391,53.711,73.730,0
1583437474.567,49.316,44.922,24.902,47.852,-22.949,0
1583437474.571,47.363,45.410,31.738,43.457,-40.039,0
1583437474.575,40.527,44.434,29.785,41.504,-1.953,0
1583437474.579,38.086,32.715,37.109,41.016,7.812,0
1583437474.583,38.086,23.438,33.203,40.527,1.465,0
1583437474.587,51.758,36.133,21.973,50.781,-23.926,0
1583437474.590,58.105,43.457,22.949,55.664,41.992,0
1583437474.594,31.250,39.062,31.738,37.109,65.918,0
1583437474.598,18.066,32.227,37.109,33.203,19.043,0
1583437474.602,28.809,30.273,39.551,40.039,4.395,0
1583437474.606,31.738,34.668,27.344,31.738,7.324,0
1583437474.623,38.574,38.574,24.902,34.180,11.230,0
1583437474.627,52.246,42.969,32.715,45.898,24.902,0
1583437474.631,48.828,39.062,24.902,41.016,45.898,0
1583437474.635,45.898,40.039,22.949,34.180,65.430,0
1583437474.639,41.992,46.875,28.809,31.250,74.707,0
1583437474.643,38.574,43.945,24.902,30.273,42.480,0
1583437474.647,37.598,30.762,22.949,35.156,17.578,0
1583437474.650,32.227,33.203,38.574,41.504,40.039,0
1583437474.654,30.762,40.039,46.387,36.621,18.555,0
1583437474.658,33.203,38.574,34.180,38.574,27.344,0
1583437474.662,30.273,42.480,27.344,41.504,58.105,0
1583437474.666,29.297,42.969,27.832,33.691,59.082,0
1583437474.663,36.621,52.734,36.133,35.645,104.004,0
1583437474.667,40.039,43.945,34.180,35.156,94.238,0
1583437474.671,34.180,30.762,20.020,31.738,79.102,0
1583437474.675,32.715,40.527,12.207,34.668,57.617,0
1583437474.679,40.039,37.109,22.949,35.156,60.547,0
1583437474.683,40.039,32.715,33.691,33.691,74.219,0
1583437474.687,40.527,45.898,31.250,36.133,24.414,0
1583437474.690,42.480,51.758,35.645,37.109,-14.160,0
1583437474.694,44.434,48.340,23.438,37.109,-19.043,0
1583437474.698,42.480,44.922,8.789,29.785,5.371,0
1583437474.702,41.992,45.898,29.785,32.227,15.137,0
1583437474.706,40.527,39.062,38.574,39.062,-0.488,0
1583437474.703,41.016,41.016,32.715,38.574,0.977,0
1583437474.707,38.086,37.598,38.574,36.621,0.488,0
1583437474.711,30.273,31.250,39.062,32.227,3.906,0
1583437474.715,33.203,35.645,31.250,35.156,4.883,0
1583437474.719,28.809,36.621,29.785,28.320,-2.930,0
1583437474.723,28.809,43.945,28.320,21.973,-6.348,0
1583437474.727,33.203,44.434,26.855,23.438,9.766,0
1583437474.730,29.297,39.551,35.645,22.461,35.156,0
1583437474.734,31.250,44.922,37.598,24.902,-19.531,0
1583437474.738,35.156,47.852,40.527,25.391,-42.480,0
1583437474.742,37.109,43.457,41.504,24.414,-13.672,0
1583437474.746,39.551,33.691,45.898,27.344,32.715,0
1583437474.763,39.062,24.414,43.457,28.320,92.773,0
1583437474.767,40.039,26.855,33.691,30.273,60.059,0
1583437474.771,41.016,35.156,29.785,32.715,-24.902,0
1583437474.775,40.039,29.785,20.020,28.809,-8.789,0
1583437474.779,48.828,46.387,24.414,37.109,47.852,0
1583437474.783,43.457,59.082,32.227,36.133,54.688,0
1583437474.787,35.156,45.410,24.414,24.902,9.277,0
1583437474.790,37.109,41.504,29.785,24.414,-15.625,0
1583437474.794,34.180,39.062,37.109,27.832,0.000,0
1583437474.798,31.738,36.621,38.574,31.250,-2.441,0
1583437474.802,30.762,37.109,37.109,21.973,3.906,0
1583437474.806,31.738,31.738,27.344,19.043,33.691,0
1583437474.803,38.086,38.574,27.344,32.227,34.668,0
1583437474.807,37.109,45.410,32.715,32.227,58.594,0
1583437474.811,38.574,29.785,21.973,33.691,64.453,0
1583437474.815,39.062,20.996,19.531,35.156,17.578,0
1583437474.819,48.340,38.086,43.457,43.945,29.297,0
1583437474.823,43.457,43.457,46.387,42.969,54.688,0
1583437474.827,19.043,38.574,32.715,22.461,-4.883,0
1583437474.830,20.020,41.992,37.598,23.926,-41.992,0
1583437474.834,18.555,36.133,36.621,25.879,-4.395,0
1583437474.838,0.488,32.715,28.320,3.418,37.109,0
1583437474.842,5.859,45.410,38.086,4.883,17.090,0
1583437474.846,13.672,44.434,49.805,16.113,10.742,0
1583437474.863,-22.949,28.809,40.527,-23.438,59.570,0
1583437474.867,-55.664,37.598,30.273,-61.035,16.602,0
1583437474.871,-71.777,43.457,36.133,-75.195,-9.277,0
1583437474.875,-82.520,42.480,42.969,-87.891,32.715,0
1583437474.879,-95.215,43.457,40.039,-103.027,28.320,0
1583437474.883,-120.605,33.691,37.598,-124.512,18.066,0
1583437474.887,-133.301,37.598,35.156,-137.695,21.484,0
1583437474.890,-141.113,42.969,31.738,-146.484,12.207,0
1583437474.894,-135.254,42.480,41.504,-141.602,34.180,0
1583437474.898,-125.488,49.805,45.410,-127.930,24.414,0
1583437474.902,-126.465,57.129,34.668,-120.605,29.785,0
1583437474.906,-129.395,42.480,21.484,-125.977,12.207,0
1583437474.903,-120.117,39.062,27.344,-123.535,26.855,0
1583437474.907,-102.051,48.340,42.480,-101.562,88.867,0
1583437474.911,-88.867,44.922,42.480,-87.891,57.617,0
1583437474.915,-76.172,47.363,51.758,-83.496,26.367,0
1583437474.919,-65.430,53.711,48.340,-67.383,28.809,0
1583437474.923,-60.547,53.711,33.691,-48.340,12.207,0
1583437474.927,-46.875,51.270,40.039,-31.250,-3.418,0
1583437474.930,-30.762,56.641,54.688,-16.113,31.250,0
1583437474.934,-13.672,48.828,57.617,-3.906,60.547,0
1583437474.938,4.395,46.875,61.035,19.043,18.066,0
1583437474.942,22.949,42.969,61.523,38.086,11.230,0
1583437474.946,34.180,37.109,45.410,45.898,41.992,0
1583437474.943,43.945,41.504,35.156,52.734,11.230,0
1583437474.947,52.734,36.133,26.367,57.617,16.113,0
1583437474.951,62.012,36.133,23.926,72.266,-6.348,0
1583437474.955,68.359,39.062,29.785,79.590,-5.371,0
1583437474.959,68.848,42.969,28.320,76.660,77.148,0
1583437474.963,79.590,41.016,26.367,83.008,32.715,0
1583437474.967,86.426,37.109,28.320,88.379,7.812,0
1583437474.970,83.984,35.156,26.367,87.891,7.812,0
1583437474.974,87.402,36.133,32.227,86.914,-24.414,0
1583437474.978,90.332,31.250,42.480,80.078,-13.672,0
1583437474.982,87.402,37.598,31.738,81.543,5.859,0
1583437474.986,85.449,51.270,9.766,86.426,9.766,0
1583437475.003,92.285,47.363,7.324,93.262,46.875,0
1583437475.007,92.773,40.527,19.531,90.820,46.387,0
1583437475.011,85.938,40.039,28.320,87.402,13.672,0
1583437475.015,84.961,39.062,28.809,95.703,74.219,0
1583437475.019,87.402,30.762,23.926,97.168,93.262,0
1583437475.023,94.238,40.039,26.855,101.074,61.035,0
1583437475.027,90.820,50.293,30.273,100.586,66.895,0
1583437475.030,82.520,51.758,21.484,92.285,79.590,0
1583437475.034,85.938,44.434,13.184,95.703,85.449,0
1583437475.038,85.938,33.691,0.977,95.215,30.762,0
1583437475.042,82.031,37.598,5.371,88.379,20.020,0
1583437475.046,77.148,37.598,23.438,82.520,65.918,0
1583437475.043,76.660,40.527,34.180,79.590,65.918,0
1583437475.047,78.125,45.410,39.062,79.590,40.527,0
1583437475.051,78.613,48.828,26.855,78.125,17.090,0
1583437475.055,81.055,41.016,26.367,78.125,62.988,0
1583437475.059,79.102,31.738,33.203,80.078,43.457,0
1583437475.063,74.707,45.898,31.738,75.684,15.625,0
1583437475.067,70.801,40.039,27.832,70.801,44.922,0
1583437475.070,65.430,28.320,10.254,66.406,65.430,0
1583437475.074,63.965,42.969,13.672,63.477,45.410,0
1583437475.078,65.430,51.270,29.297,64.453,66.895,0
1583437475.082,66.895,43.945,29.297,53.711,98.145,0
1583437475.086,69.824,44.922,32.715,49.316,80.078,0
1583437475.083,73.242,50.781,37.598,63.477,45.410,0
1583437475.087,64.453,35.645,24.414,63.477,46.875,0
1583437475.091,63.965,40.039,24.414,67.383,75.684,0
1583437475.095,68.848,55.664,31.738,65.918,11.230,0
1583437475.099,65.918,41.504,22.461,56.641,-10.254,0
1583437475.103,59.082,10.742,24.414,58.594,52.734,0
1583437475.107,51.758,15.137,34.668,58.594,29.785,0
1583437475.110,49.805,42.969,43.945,58.105,-1.953,0
1583437475.114,45.898,49.805,35.156,51.270,6.348,0
1583437475.118,45.410,50.293,20.020,49.805,8.789,0
1583437475.122,48.828,46.875,28.320,57.129,9.766,0
1583437475.126,50.293,39.551,36.133,53.711,22.949,0
1583437475.143,54.688,39.551,35.645,58.105,9.277,0
1583437475.147,55.176,37.109,25.879,57.617,29.297,0
1583437475.151,57.129,37.598,21.973,51.758,19.531,0
1583437475.155,55.176,39.062,19.531,57.617,15.137,0
1583437475.159,53.223,36.621,25.391,55.176,49.316,0
1583437475.163,52.734,40.527,46.875,50.781,12.695,0
1583437475.167,53.223,39.551,48.340,53.223,31.250,0
1583437475.170,58.594,36.133,38.574,47.852,7.324,0
1583437475.174,64.453,33.203,29.785,47.363,-45.410,0
1583437475.178,61.035,25.879,21.973,48.340,-4.395,0
1583437475.182,55.664,30.273,20.996,57.617,1.465,0
1583437475.186,56.641,46.387,37.598,59.570,-1.465,0
1583437475.183,43.945,42.480,36.621,43.457,37.598,0
1583437475.187,43.457,46.875,20.508,37.598,46.387,0
1583437475.191,56.152,45.410,19.531,43.457,-20.508,0
1583437475.195,52.246,22.461,22.949,48.828,-16.113,0
1583437475.199,42.969,31.250,23.438,42.480,65.430,0
1583437475.203,48.340,50.781,24.902,39.062,12.207,0
1583437475.207,46.875,48.340,24.902,39.062,-2.930,0
1583437475.210,37.109,42.480,28.320,42.480,21.973,0
1583437475.214,36.621,39.551,32.715,41.992,76.660,0
1583437475.218,38.574,35.156,31.250,36.133,71.289,0
1583437475.222,40.039,45.410,27.344,33.691,4.395,0
1583437475.226,39.551,51.758,18.066,38.086,58.594,0
1583437475.223,40.039,43.457,17.578,42.969,27.344,0
1583437475.227,43.945,28.809,34.180,39.551,9.766,0
1583437475.231,39.062,37.109,34.668,28.809,64.941,0
1583437475.235,31.250,43.457,26.367,23.438,100.586,0
1583437475.239,36.133,42.480,24.902,30.273,92.285,0
1583437475.243,36.133,49.805,32.715,28.809,49.316,0
1583437475.247,27.832,49.316,25.879,23.438,21.484,0
1583437475.250,28.809,52.734,18.555,25.879,-26.367,0
1583437475.254,26.367,51.758,23.926,21.973,10.254,0
1583437475.258,27.344,45.410,33.691,22.949,66.406,0
1583437475.262,26.367,33.203,31.738,25.879,23.438,0
1583437475.266,20.508,31.738,20.508,21.973,40.527,0
1583437475.283,25.879,44.922,20.508,22.949,62.500,0
1583437475.287,29.297,29.297,20.996,23.438,-7.324,0
1583437475.291,30.762,26.367,38.574,30.273,-0.488,0
1583437475.295,28.320,48.340,49.805,28.320,21.484,0
1583437475.299,21.973,54.688,39.551,20.996,20.996,0
1583437475.303,24.902,52.246,35.156,19.531,42.969,0
1583437475.307,27.832,45.410,33.691,15.625,50.781,0
1583437475.310,26.855,44.434,33.691,12.207,28.809,0
1583437475.314,32.227,49.316,22.949,20.996,42.969,0
1583437475.318,41.016,49.316,27.832,31.250,49.316,0
1583437475.322,39.062,39.062,37.109,26.367,54.199,0
1583437475.326,34.180,42.969,28.320,21.973,64.453,0
1583437475.323,37.109,42.969,39.551,26.855,49.316,0
1583437475.327,36.621,42.969,38.086,31.250,64.941,0
1583437475.331,38.086,47.852,21.973,30.762,72.754,0
1583437475.335,38.574,41.992,35.156,26.855,50.781,0
1583437475.339,35.645,41.016,43.457,27.344,56.641,0
1583437475.343,30.273,39.551,33.203,30.273,29.785,0
1583437475.347,27.344,37.109,23.926,27.832,-31.250,0
1583437475.350,32.715,44.434,22.461,24.902,-3.418,0
1583437475.354,35.156,52.246,32.227,26.367,12.695,0
1583437475.358,28.320,48.340,34.668,22.461,22.461,0
1583437475.362,32.227,51.270,31.738,24.414,52.734,0
1583437475.366,38.574,46.387,31.250,30.273,51.758,0
1583437475.363,29.785,23.438,29.297,24.902,38.086,0
1583437475.367,24.902,35.156,35.645,25.391,25.879,0
1583437475.371,22.949,51.270,30.762,31.250,55.176,0
1583437475.375,26.855,49.805,23.926,29.297,47.363,0
1583437475.379,30.762,45.898,33.203,26.855,73.242,0
1583437475.383,26.367,41.992,44.434,29.785,57.129,0
1583437475.387,23.926,38.574,45.898,31.738,17.090,0
1583437475.390,27.344,31.738,41.992,32.227,57.617,0
1583437475.394,33.203,29.297,39.551,29.785,35.156,0
1583437475.398,35.645,33.203,32.227,25.879,-9.766,0
1583437475.402,21.973,43.457,28.320,19.043,-15.137,0
1583437475.406,13.672,56.641,33.203,11.719,-0.488,0
1583437475.423,18.066,46.875,18.066,13.672,20.996,0
1583437475.427,20.508,34.668,15.625,19.531,47.363,0
1583437475.431,22.461,40.039,36.133,23.926,13.184,0
1583437475.435,22.949,39.551,28.320,21.484,1.465,0
1583437475.439,30.762,45.898,28.809,23.438,58.594,0
1583437475.443,38.574,46.387,45.410,24.414,79.590,0
1583437475.447,27.832,38.574,37.598,11.719,31.738,0
1583437475.450,23.926,43.457,31.738,8.301,19.043,0
1583437475.454,26.855,47.363,33.691,12.695,72.266,0
1583437475.458,32.227,48.828,28.809,13.672,85.449,0
1583437475.462,29.785,47.363,24.414,22.461,41.016,0
1583437475.466,24.902,48.340,32.715,31.250,49.805,0
1583437475.463,29.785,43.945,38.574,32.227,48.340,0
1583437475.467,23.926,34.668,33.203,29.297,26.367,0
1583437475.471,20.996,42.969,15.137,28.320,-6.348,0
1583437475.475,20.020,48.340,20.508,33.203,7.812,0
1583437475.479,15.137,46.875,42.969,29.785,17.578,0
1583437475.483,21.484,45.410,42.480,24.414,36.133,0
1583437475.487,26.367,40.039,35.156,25.879,66.895,0
1583437475.490,23.438,45.898,36.133,30.762,90.820,0
1583437475.494,25.391,43.945,38.086,38.086,64.941,0
1583437475.498,35.645,36.133,32.227,34.668,0.977,0
1583437475.502,33.203,42.480,28.320,25.879,9.277,0
1583437475.506,28.809,53.711,31.738,29.785,31.738,0
1583437475.503,43.945,62.012,29.785,41.016,19.531,0
1583437475.507,44.922,51.270,18.555,35.645,34.668,0
1583437475.511,38.086,46.875,17.090,30.273,104.980,0
1583437475.515,43.945,47.852,24.414,38.086,98.145,0
1583437475.519,43.457,41.992,21.973,40.039,29.297,0
1583437475.523,41.504,44.434,20.020,36.621,32.227,0
1583437475.527,40.527,36.621,24.902,32.227,24.414,0
1583437475.530,32.227,41.016,24.414,29.297,6.348,0
1583437475.534,30.762,51.758,31.738,22.461,34.180,0
1583437475.538,38.574,42.480,46.387,25.391,34.668,0
1583437475.542,35.645,45.410,42.969,31.738,24.414,0
1583437475.546,31.250,54.688,31.738,32.227,-0.488,0
1583437475.563,35.645,20.020,26.367,36.621,34.668,0
1583437475.567,44.922,23.438,30.273,46.387,83.496,0
1583437475.571,44.434,68.359,40.527,48.340,76.172,0
1583437475.575,35.645,53.223,34.180,38.086,42.969,0
1583437475.579,32.715,22.461,26.367,38.086,25.879,0
1583437475.583,35.645,21.973,20.020,38.086,33.203,0
1583437475.587,41.992,41.992,30.762,32.715,13.672,0
1583437475.590,45.410,59.570,48.828,31.738,16.113,0
1583437475.594,46.875,40.039,50.781,38.086,-11.719,0
1583437475.598,36.621,20.996,48.828,42.480,8.301,0
1583437475.602,37.109,46.875,38.086,42.480,19.043,0
1583437475.606,42.480,60.547,19.043,40.039,0.977,0
1583437475.603,44.922,32.227,34.180,41.016,-34.180,0
1583437475.607,43.457,22.461,59.082,41.504,-16.113,0
1583437475.611,41.504,48.828,47.852,39.551,8.301,0
1583437475.615,41.504,53.711,32.715,40.527,20.996,0
1583437475.619,41.016,40.039,37.109,37.109,7.324,0
1583437475.623,43.945,35.645,44.434,41.016,-0.977,0
1583437475.627,47.852,46.387,41.992,48.340,9.766,0
1583437475.630,46.875,39.062,34.180,49.805,-1.953,0
1583437475.634,40.039,29.785,33.691,44.922,62.012,0
1583437475.638,38.574,42.969,41.504,43.457,67.871,3
1583437475.642,38.574,42.969,42.480,41.016,47.363,0
1583437475.646,31.250,46.387,39.551,36.621,36.133,0
1583437475.643,27.832,47.363,32.227,34.668,9.766,0
1583437475.647,28.320,36.133,41.016,32.715,36.133,0
1583437475.651,29.297,35.645,43.945,32.715,71.289,0
1583437475.655,27.344,33.203,29.785,27.832,68.359,0
1583437475.659,35.645,39.551,40.527,32.715,17.090,0
1583437475.663,40.527,47.852,46.387,36.621,23.438,0
1583437475.667,36.133,34.668,40.039,35.156,21.484,0
1583437475.670,39.551,23.926,44.922,35.645,34.180,0
1583437475.674,40.039,32.715,44.434,25.391,120.605,0
1583437475.678,38.086,49.316,36.133,23.438,69.824,0
1583437475.682,37.598,46.387,32.715,29.297,9.277,0
1583437475.686,36.621,32.715,33.203,27.344,42.480,0
1583437475.703,41.992,37.109,21.973,30.273,21.484,0
1583437475.707,45.898,40.527,22.461,31.738,43.945,0
1583437475.711,36.133,32.715,39.062,29.785,29.297,0
1583437475.715,32.227,28.809,48.340,34.180,25.391,0
1583437475.719,30.762,36.621,43.457,36.621,93.262,0
1583437475.723,32.715,40.039,30.273,34.180,40.527,0
1583437475.727,32.715,37.109,25.391,22.949,27.832,0
1583437475.730,28.809,41.504,36.621,25.879,30.762,0
1583437475.734,26.855,45.410,31.738,29.785,-38.086,0
1583437475.738,27.344,46.875,23.438,20.508,-17.578,0
1583437475.742,30.273,47.852,39.062,22.949,24.902,0
1583437475.746,24.902,41.016,43.945,21.973,57.129,0
1583437475.743,25.879,44.922,38.086,20.508,80.078,0
1583437475.747,33.691,36.133,41.016,22.949,82.031,0
1583437475.751,38.574,19.531,39.062,23.438,94.238,0
1583437475.755,30.273,36.133,19.043,24.414,66.406,0
1583437475.759,21.973,36.621,29.297,18.066,46.387,0
1583437475.763,26.367,34.668,50.781,20.020,30.762,0
1583437475.767,33.203,40.527,50.293,29.297,-2.930,0
1583437475.770,28.320,35.645,40.527,27.344,-8.301,0
1583437475.774,26.855,36.621,35.156,30.762,-44.922,0
1583437475.778,29.297,42.480,35.645,34.180,16.113,0
1583437475.782,20.020,30.762,28.320,25.879,7.812,0
1583437475.786,22.949,23.438,36.621,31.738,-30.273,0
1583437475.783,32.227,28.809,46.387,44.434,14.648,0
1583437475.787,27.344,33.691,41.504,43.457,35.645,0
1583437475.791,20.020,48.340,37.109,36.621,70.801,0
1583437475.795,19.531,35.645,21.973,31.250,21.973,0
1583437475.799,24.902,26.367,22.949,33.691,-4.395,0
1583437475.803,21.973,36.133,34.668,31.250,4.883,0
1583437475.807,20.508,44.922,39.062,27.832,44.434,0
1583437475.810,28.320,47.363,47.363,25.391,106.934,0
1583437475.814,27.344,38.574,39.551,20.020,80.566,0
1583437475.818,25.391,28.809,31.250,27.832,95.703,0
1583437475.822,33.203,30.273,37.598,35.156,35.645,0
1583437475.826,36.133,33.691,34.668,32.227,1.465,0
1583437475.843,32.227,30.762,29.785,33.203,36.621,0
1583437475.847,31.250,42.969,28.809,35.156,39.062,0
1583437475.851,28.320,46.875,38.086,27.344,41.016,0
1583437475.855,24.414,40.039,48.340,18.066,17.578,0
1583437475.859,20.508,30.762,45.410,18.555,26.367,0
1583437475.863,19.043,22.461,42.480,22.461,27.832,0
1583437475.867,18.555,28.809,42.969,16.113,53.223,0
1583437475.870,20.020,35.645,43.457,17.090,28.809,0
1583437475.874,24.414,27.832,36.133,26.367,13.184,0
1583437475.878,28.809,35.156,37.109,30.762,77.637,0
1583437475.882,28.809,36.133,38.574,32.227,82.520,0
1583437475.886,25.879,24.902,33.203,27.832,20.020,0
1583437475.883,26.855,36.621,38.574,26.367,-16.602,0
1583437475.887,30.273,39.062,43.945,33.203,29.297,0
1583437475.891,27.832,26.855,20.020,33.203,66.406,0
1583437475.895,34.668,32.227,6.348,30.762,53.711,0
1583437475.899,38.086,37.598,27.344,30.273,16.113,0
1583437475.903,30.273,40.039,33.203,27.832,15.137,0
1583437475.907,26.855,34.180,24.414,28.809,56.641,0
1583437475.910,29.297,27.344,23.926,31.738,58.594,0
1583437475.914,33.203,35.645,35.645,34.668,13.672,0
1583437475.918,30.273,42.969,37.109,26.855,25.391,0
1583437475.922,30.762,42.480,36.133,23.438,13.184,0
1583437475.926,37.109,36.133,43.945,31.738,4.395,0
1583437475.923,28.809,33.691,45.410,26.855,11.719,0
1583437475.927,20.508,28.809,30.762,20.508,-4.395,0
1583437475.931,20.996,36.621,25.879,22.949,-8.789,0
1583437475.935,17.578,38.086,35.645,20.020,20.508,0
1583437475.939,18.555,20.508,34.180,18.555,39.551,0
1583437475.943,21.484,18.066,29.297,16.113,50.293,0
1583437475.947,22.461,34.180,30.762,18.066,49.316,0
1583437475.950,28.320,31.738,33.691,30.762,57.129,0
1583437475.954,21.484,20.020,34.668,25.391,58.594,0
1583437475.958,15.625,15.137,35.156,19.531,32.715,0
1583437475.962,15.137,12.695,28.320,21.973,25.879,0
1583437475.966,25.879,16.113,23.438,22.461,12.207,0
1583437475.983,39.062,-4.395,31.250,34.180,27.832,0
1583437475.987,32.715,-5.371,30.273,39.062,-6.348,0
1583437475.991,13.672,18.555,34.180,24.902,-35.645,0
1583437475.995,6.348,18.066,47.852,19.043,40.039,0
1583437475.999,16.113,12.207,42.480,26.855,80.566,0
1583437476.003,23.438,14.160,39.551,27.344,65.918,0
1583437476.007,28.320,16.113,47.363,17.090,47.363,0
1583437476.010,32.227,12.207,36.621,20.508,-6.348,0
1583437476.014,30.273,9.277,17.090,30.273,-17.578,0
1583437476.018,34.180,29.297,31.738,36.621,38.086,0
1583437476.022,36.621,41.992,47.363,36.621,36.621,0
1583437476.026,33.691,36.621,36.133,30.762,48.828,0
1583437476.024,38.574,33.691,31.250,34.180,37.598,0
1583437476.028,41.016,28.809,43.945,33.691,32.227,0
1583437476.032,38.086,21.973,40.039,28.320,31.250,0
1583437476.036,33.691,21.484,29.297,27.832,34.180,0
1583437476.040,33.203,32.227,41.504,28.809,65.430,0
1583437476.044,37.109,32.227,46.387,27.344,11.719,0
1583437476.048,36.133,35.156,40.527,25.391,-0.488,0
1583437476.051,31.738,35.156,45.410,21.973,72.754,0
1583437476.055,33.203,27.832,36.621,25.879,79.590,0
1583437476.059,33.691,27.344,19.531,28.320,34.668,0
1583437476.063,38.086,12.207,26.367,26.367,48.340,0
1583437476.067,40.039,15.137,35.645,26.367,104.492,0
1583437476.063,37.598,40.527,39.062,26.855,103.027,0
1583437476.067,33.203,45.410,33.203,25.879,48.340,0
1583437476.071,30.762,41.016,31.250,23.438,56.152,0
1583437476.075,36.621,44.434,47.363,23.438,48.340,0
1583437476.079,36.133,43.945,43.457,21.973,55.664,0
1583437476.083,36.133,39.551,37.598,20.996,31.738,0
1583437476.087,32.227,40.039,44.922,21.973,15.137,0
1583437476.090,25.879,37.109,32.227,14.648,68.359,0
1583437476.094,26.855,25.879,21.484,14.160,56.641,0
1583437476.098,26.855,25.391,32.715,23.438,58.594,0
1583437476.102,32.227,27.832,42.969,25.879,54.688,0
1583437476.106,37.109,30.273,40.527,23.438,42.480,0
1583437476.123,27.832,43.945,38.574,20.508,59.082,0
1583437476.127,31.250,44.922,46.875,22.949,27.344,0
1583437476.131,32.227,45.898,46.875,21.484,28.320,0
1583437476.135,28.320,52.734,44.434,20.996,43.457,0
1583437476.139,29.297,52.734,41.504,27.832,-5.859,0
1583437476.143,28.320,51.270,42.969,24.902,-8.789,0
1583437476.147,26.367,52.246,42.480,20.996,45.898,0
1583437476.150,35.156,52.246,29.297,27.344,52.246,0
1583437476.154,37.598,34.668,36.133,20.996,62.012,0
1583437476.158,34.668,32.715,49.316,19.043,28.320,0
1583437476.162,43.457,44.434,47.363,34.668,38.086,0
1583437476.166,36.133,40.527,44.434,29.785,-5.371,0
1583437476.163,27.344,48.828,40.039,19.531,-44.434,0
1583437476.167,26.855,53.711,41.504,23.926,8.789,0
1583437476.171,26.367,49.316,48.340,26.855,21.973,0
1583437476.175,27.832,45.898,43.945,26.367,59.570,0
1583437476.179,29.297,43.457,36.621,25.879,66.895,0
1583437476.183,32.227,40.527,41.504,22.949,42.969,0
1583437476.187,37.598,37.598,47.363,25.879,47.852,0
1583437476.190,35.645,35.156,41.016,26.367,13.672,0
1583437476.194,36.133,35.156,48.828,22.461,-7.324,0
1583437476.198,39.062,44.434,45.898,22.461,12.207,0
1583437476.202,35.645,44.922,31.738,24.902,45.898,0
1583437476.206,29.785,38.574,21.973,26.855,11.230,0
1583437476.203,27.832,39.551,32.227,28.809,-22.949,0
1583437476.207,29.785,43.945,66.406,31.250,6.836,0
1583437476.211,23.438,38.086,62.988,23.926,13.672,0
1583437476.215,23.926,30.273,52.246,23.438,1.465,0
1583437476.219,21.484,33.691,47.363,26.855,-21.973,0
1583437476.223,16.113,41.016,35.156,23.438,-28.320,0
1583437476.227,21.484,48.828,36.621,24.414,28.809,0
1583437476.230,25.879,50.781,41.504,25.391,8.789,0
1583437476.234,26.367,53.711,48.828,23.438,-7.324,0
1583437476.238,28.809,47.363,54.199,26.367,8.789,0
1583437476.242,32.227,45.898,54.199,26.855,-4.883,0
1583437476.246,26.855,44.922,45.410,25.879,49.805,0
1583437476.263,30.762,43.945,36.133,35.156,74.219,0
1583437476.267,35.645,46.875,39.551,35.156,81.055,0
1583437476.271,27.344,42.480,41.016,23.926,62.988,0
1583437476.275,23.926,46.875,38.574,20.996,54.199,0
1583437476.279,21.973,46.875,32.715,26.855,42.480,0
1583437476.283,24.414,41.992,40.527,30.273,61.523,0
1583437476.287,24.902,34.180,48.340,19.531,120.117,0
1583437476.290,27.832,27.832,55.176,25.391,56.152,0
1583437476.294,34.668,45.898,55.664,38.086,50.293,0
1583437476.298,31.250,54.688,45.898,30.762,60.059,0
1583437476.302,29.297,47.363,44.434,22.949,54.688,0
1583437476.306,29.297,46.875,41.504,21.484,78.125,0
1583437476.303,27.832,47.852,39.062,28.320,61.523,0
1583437476.307,30.273,33.203,35.156,27.832,22.461,0
1583437476.311,34.180,31.738,40.039,27.344,33.203,0
1583437476.315,30.273,46.387,35.645,28.320,56.152,0
1583437476.319,30.762,44.434,29.297,26.367,17.578,0
1583437476.323,32.715,39.551,43.457,28.809,41.016,0
1583437476.327,26.367,30.762,47.363,26.367,20.020,0
1583437476.330,28.320,22.461,42.480,25.879,-5.859,0
1583437476.334,34.180,38.086,41.992,31.738,12.695,0
1583437476.338,31.738,46.387,44.434,26.367,41.504,0
1583437476.342,32.227,41.016,39.551,25.391,80.566,0
1583437476.346,26.367,34.180,34.180,25.391,0.488,0
1583437476.343,31.738,37.598,50.781,30.273,-83.984,0
1583437476.347,37.598,41.016,64.941,36.621,-42.969,0
1583437476.351,27.344,38.574,40.527,28.809,-18.066,0
1583437476.355,29.297,35.156,33.203,29.297,-48.828,0
1583437476.359,33.203,33.691,53.223,27.832,-33.691,0
1583437476.363,31.738,42.480,43.457,28.320,24.414,0
1583437476.367,38.086,46.387,41.504,34.668,91.797,0
1583437476.370,39.551,48.340,53.711,29.785,74.707,0
1583437476.374,32.715,48.828,50.781,24.414,64.453,0
1583437476.378,28.809,44.922,45.410,24.902,28.809,0
1583437476.382,29.297,39.551,32.227,31.250,-19.531,0
1583437476.386,28.809,41.504,28.320,38.086,6.836,0
1583437476.403,27.832,42.969,40.039,28.320,13.672,0
1583437476.407,26.855,30.762,44.434,22.461,34.180,0
1583437476.411,24.902,24.414,38.086,30.273,57.617,0
1583437476.415,24.414,34.668,38.086,31.738,20.020,0
1583437476.419,26.855,42.969,47.363,30.762,4.395,0
1583437476.423,28.320,44.434,50.293,25.879,12.207,0
1583437476.427,27.344,41.016,45.898,28.320,-6.836,0
1583437476.430,32.227,37.598,41.992,39.062,-3.418,0
1583437476.434,34.668,40.527,35.645,35.156,57.617,0
1583437476.438,40.527,46.387,28.809,36.621,101.562,0
1583437476.442,41.016,33.691,34.180,33.691,83.008,0
1583437476.446,39.062,27.344,34.180,29.297,24.902,0
1583437476.443,41.504,46.387,33.203,40.039,23.438,0
1583437476.447,33.691,38.574,41.504,29.297,31.250,0
1583437476.451,36.133,39.551,45.898,28.809,56.152,0
1583437476.455,41.992,51.758,46.387,37.109,72.754,0
1583437476.459,31.738,42.480,44.434,26.367,49.805,0
1583437476.463,31.250,36.621,34.668,22.461,23.926,0
1583437476.467,33.203,35.156,26.367,25.879,-40.039,0
1583437476.470,31.250,36.621,45.410,32.227,-1.465,0
1583437476.474,34.668,41.504,42.480,35.156,65.430,0
1583437476.478,36.621,39.551,34.668,27.832,40.527,0
1583437476.482,40.039,35.645,48.828,27.832,-33.691,0
1583437476.486,41.016,33.203,43.457,33.203,-39.551,0
1583437476.503,38.574,26.855,40.039,34.668,12.695,0
1583437476.507,38.086,24.414,47.852,34.668,20.508,0
1583437476.511,32.715,36.621,43.457,32.715,20.996,0
1583437476.515,31.250,45.410,38.086,33.203,6.836,0
1583437476.519,32.227,41.504,41.992,34.668,0.488,0
1583437476.523,30.273,35.645,43.457,31.738,38.086,0
1583437476.527,30.762,38.086,39.062,28.320,-0.488,0
1583437476.530,34.668,46.387,28.320,29.785,-53.711,0
1583437476.534,36.133,45.410,26.855,36.621,8.301,0
1583437476.538,40.039,44.922,38.086,41.504,24.902,0
1583437476.542,41.504,44.922,44.922,36.621,5.859,0
1583437476.546,39.062,42.969,53.711,38.086,35.156,0
1583437476.543,43.457,41.992,57.129,43.945,56.641,0
1583437476.547,44.922,39.062,54.688,45.410,12.695,0
1583437476.551,40.039,34.668,51.758,40.039,-0.488,0
1583437476.555,35.156,22.461,40.039,30.762,35.156,0
1583437476.559,37.109,23.926,43.945,36.621,14.648,0
1583437476.563,41.504,37.109,49.316,41.992,16.602,0
1583437476.567,36.133,45.410,41.504,33.203,24.902,0
1583437476.570,35.156,49.805,40.527,27.832,35.156,0
1583437476.574,35.645,40.527,35.645,29.297,16.113,0
1583437476.578,35.156,31.250,27.832,36.133,14.160,0
1583437476.582,36.621,39.062,25.879,32.715,49.316,0
1583437476.586,35.645,47.363,30.762,24.414,-16.113,0
1583437476.583,40.039,44.922,47.363,28.809,-27.344,0
1583437476.587,41.016,46.387,51.270,31.738,3.906,0
1583437476.591,37.109,46.387,50.293,33.691,24.902,0
1583437476.595,40.039,41.504,54.199,28.809,37.598,0
1583437476.599,41.504,30.273,48.828,26.855,6.836,0
1583437476.603,40.527,21.973,48.340,34.180,4.883,0
1583437476.607,38.574,34.668,52.734,35.645,77.637,0
1583437476.610,37.598,45.410,49.316,33.691,47.363,0
1583437476.614,38.086,48.828,44.434,27.344,-27.832,0
1583437476.618,38.574,45.410,37.109,19.531,54.688,0
1583437476.622,40.527,43.457,31.738,24.902,36.133,0
1583437476.626,41.016,42.480,39.551,28.809,23.438,0
1583437476.643,46.387,34.668,41.992,30.273,76.172,0
1583437476.647,47.363,34.180,36.133,34.668,69.824,0
1583437476.651,42.480,39.551,41.504,36.621,43.945,0
1583437476.655,42.969,46.875,47.363,36.621,11.230,0
1583437476.659,40.039,53.223,47.852,29.785,10.254,0
1583437476.663,36.621,37.598,43.457,26.855,17.090,0
1583437476.667,34.668,19.043,44.922,31.738,-7.324,0
1583437476.670,37.109,45.898,55.664,35.645,-30.762,0
1583437476.674,33.691,64.941,52.734,29.297,-51.270,0
1583437476.678,29.785,56.152,49.805,25.391,20.020,0
1583437476.682,33.203,51.758,50.781,27.832,96.680,0
1583437476.686,29.297,48.340,40.527,29.297,66.406,0
1583437476.683,25.879,45.410,45.898,27.832,17.090,0
1583437476.687,29.785,46.875,48.340,24.902,17.090,0
1583437476.691,39.551,53.223,50.781,31.250,51.270,0
1583437476.695,38.086,52.246,58.594,37.109,60.547,0
1583437476.699,29.785,51.270,44.434,32.715,11.230,1
1583437476.703,35.156,41.504,40.039,30.273,-20.020,0
1583437476.707,35.156,14.160,53.711,33.691,8.789,0
1583437476.710,29.785,33.203,53.223,33.691,8.789,0
1583437476.714,28.320,66.895,45.410,31.738,25.879,0
1583437476.718,34.180,66.895,46.387,38.086,46.387,0
1583437476.722,33.203,58.105,40.527,33.203,38.574,0
1583437476.726,30.273,47.852,41.504,29.785,19.531,0
1583437476.723,35.645,41.992,54.688,33.691,7.324,0
1583437476.727,37.598,43.457,58.594,35.156,17.090,0
1583437476.731,36.621,41.504,46.875,39.062,31.738,0
1583437476.735,34.668,37.598,42.480,39.062,67.383,0
1583437476.739,29.785,40.527,43.457,39.062,72.754,0
1583437476.743,26.855,43.457,30.273,34.180,108.398,0
1583437476.747,37.598,43.457,37.109,37.598,67.383,0
1583437476.750,38.574,36.621,49.316,44.922,33.691,0
1583437476.754,31.738,33.203,43.945,33.691,25.391,0
1583437476.758,36.621,40.527,52.246,32.715,6.836,0
1583437476.762,40.039,41.992,50.293,38.574,32.227,0
1583437476.766,40.039,38.086,33.691,37.109,82.031,0
1583437476.783,37.598,42.480,38.086,38.574,78.613,0
1583437476.787,37.598,31.738,51.758,34.180,113.281,0
1583437476.791,42.969,26.367,43.945,33.691,95.703,0
1583437476.795,41.016,45.410,39.551,32.715,52.246,0
1583437476.799,33.203,51.270,49.805,30.762,43.457,0
1583437476.803,34.668,32.227,50.293,35.645,-17.578,0
1583437476.807,32.227,24.902,42.480,32.227,-5.859,0
1583437476.810,32.715,40.527,41.016,25.391,-25.391,0
1583437476.814,33.203,46.387,37.598,25.391,8.789,0
1583437476.818,27.344,41.016,31.738,28.320,61.035,0
1583437476.822,33.203,36.621,36.621,30.762,89.355,0
1583437476.826,33.203,34.180,34.180,28.809,97.168,0
1583437476.823,29.297,35.645,30.762,29.297,35.645,0
1583437476.827,30.762,34.668,35.156,32.227,3.418,0
1583437476.831,28.809,39.062,30.273,31.250,30.273,0
1583437476.835,29.785,38.574,33.691,27.832,20.508,0
1583437476.839,27.832,22.461,38.086,24.902,27.344,0
1583437476.843,20.996,30.762,32.227,23.926,76.660,0
1583437476.847,17.090,27.832,29.785,16.113,108.398,0
1583437476.850,24.414,26.855,32.715,18.555,60.059,0
1583437476.854,31.250,40.527,22.461,32.715,24.902,0
1583437476.858,25.879,28.320,9.277,34.180,28.809,0
1583437476.862,24.414,21.973,28.320,22.461,-17.578,0
1583437476.866,23.926,25.879,37.109,18.066,19.043,0
1583437476.864,24.414,25.391,35.156,25.391,51.270,0
1583437476.868,25.391,26.367,33.203,29.785,33.691,0
1583437476.872,24.902,31.250,26.367,32.227,5.859,0
1583437476.876,32.715,31.738,24.414,33.203,23.438,0
1583437476.880,37.109,29.297,23.926,30.273,72.754,0
1583437476.884,32.227,24.414,17.578,25.879,48.340,0
1583437476.888,30.273,27.832,20.996,23.438,6.348,0
1583437476.891,27.344,29.785,20.996,20.508,32.715,0
1583437476.895,37.598,25.391,10.742,15.137,36.133,0
1583437476.899,28.809,20.020,8.301,8.301,13.672,0
1583437476.903,11.719,4.883,17.090,6.348,23.438,0
1583437476.907,17.578,3.906,34.668,6.836,70.801,0
1583437476.923,22.949,22.949,31.738,1.465,46.387,0
1583437476.927,25.391,28.809,20.020,0.977,20.996,0
1583437476.931,25.391,27.832,20.508,10.742,27.832,0
1583437476.935,22.949,29.785,25.391,17.578,-0.488,0
1583437476.939,14.648,23.926,18.555,14.160,13.184,0
1583437476.943,16.113,21.973,10.254,16.602,-8.301,0
1583437476.947,19.531,23.926,24.414,23.926,-3.906,0
1583437476.950,16.602,20.508,24.902,15.625,-0.977,0
1583437476.954,20.508,27.344,14.648,15.137,-29.297,0
1583437476.958,21.973,20.020,12.695,15.137,-4.883,0
1583437476.962,26.367,14.160,20.508,17.578,27.832,0
1583437476.966,27.344,26.367,29.297,26.855,22.949,0
1583437476.963,34.180,18.555,26.855,33.203,37.598,0
1583437476.967,44.922,16.113,6.348,37.598,59.570,0
1583437476.971,27.344,19.531,12.695,20.996,59.082,0
1583437476.975,5.859,18.066,36.621,3.906,48.828,0
1583437476.979,6.836,23.438,36.621,10.254,43.457,0
1583437476.983,10.742,18.555,33.691,14.160,86.914,0
1583437476.987,14.648,7.812,31.738,15.625,55.176,0
1583437476.990,20.996,10.254,15.137,18.555,49.805,0
1583437476.994,23.438,25.879,6.836,20.508,95.215,0
1583437476.998,16.113,31.738,22.461,19.043,43.945,0
1583437477.002,13.672,21.484,27.344,13.184,-9.766,0
1583437477.006,17.578,25.391,22.949,16.113,25.391,0
1583437477.003,17.090,33.203,21.973,22.949,71.777,0
1583437477.007,16.602,21.484,24.414,23.926,63.965,0
1583437477.011,20.996,10.742,20.020,20.508,56.641,0
1583437477.015,26.855,11.719,16.113,22.461,36.133,0
1583437477.019,23.926,20.508,10.742,28.809,-37.109,0
1583437477.023,17.578,24.902,11.230,28.809,-55.664,0
1583437477.027,20.508,27.832,26.367,30.762,18.555,0
1583437477.030,21.484,27.832,33.691,31.250,14.160,0
1583437477.034,16.602,28.320,27.832,17.090,27.832,0
1583437477.038,19.043,29.297,33.203,15.137,30.762,0
1583437477.042,26.855,20.020,51.758,29.785,20.020,0
1583437477.046,28.809,16.602,43.945,30.273,65.918,0
1583437477.063,22.461,30.273,25.879,23.438,69.824,0
1583437477.067,22.949,36.621,26.855,27.832,59.082,0
1583437477.071,29.785,34.668,21.484,32.227,60.059,0
1583437477.075,29.785,25.879,19.531,27.832,57.617,0
1583437477.079,29.785,13.184,24.414,28.320,23.438,0
1583437477.083,33.203,23.438,14.648,33.203,45.898,0
1583437477.087,32.715,38.086,13.672,31.250,81.543,0
1583437477.090,33.691,33.691,18.555,27.344,56.152,0
1583437477.094,36.621,34.180,23.438,30.762,24.902,0
1583437477.098,33.691,41.504,34.668,32.715,1.953,0
1583437477.102,31.738,40.527,26.367,31.250,5.859,0
1583437477.106,33.691,40.527,18.555,25.879,-2.930,0
1583437477.103,32.227,35.645,32.715,24.902,-20.996,0
1583437477.107,28.809,23.438,34.180,27.344,33.691,0
1583437477.111,28.809,26.855,30.273,31.250,80.566,0
1583437477.115,32.715,39.062,33.203,33.203,42.969,0
1583437477.119,34.180,41.016,24.902,29.785,17.578,0
1583437477.123,29.297,36.133,10.254,27.344,-6.348,0
1583437477.127,24.902,23.438,16.113,27.832,16.602,0
1583437477.130,22.461,20.996,32.227,26.855,62.988,0
1583437477.134,29.785,32.715,29.297,23.926,68.848,0
1583437477.138,30.273,28.320,23.926,26.367,75.684,0
1583437477.142,28.320,25.391,24.902,27.344,70.312,0
1583437477.146,33.203,39.062,25.391,21.484,56.641,0
1583437477.143,29.297,41.504,18.555,15.625,40.039,0
1583437477.147,25.391,31.738,3.906,14.648,18.066,0
1583437477.151,23.926,29.297,1.465,17.090,30.762,0
1583437477.155,27.344,24.414,23.926,21.973,20.020,0
1583437477.159,24.902,23.926,48.828,15.137,72.754,0
1583437477.163,20.020,34.668,47.363,11.230,56.641,0
1583437477.167,22.461,29.785,39.551,16.113,-10.254,0
1583437477.170,23.926,30.273,33.691,17.090,9.766,0
1583437477.174,20.996,40.039,33.691,10.254,-4.883,0
1583437477.178,24.902,37.598,35.156,15.625,27.832,0
1583437477.182,20.020,31.250,25.391,21.973,46.387,0
1583437477.186,22.949,33.203,18.066,22.949,-11.230,0
1583437477.203,31.738,38.574,17.090,22.461,-14.648,0
1583437477.207,30.762,37.598,15.625,17.090,60.547,0
1583437477.211,31.738,34.180,27.344,18.555,52.734,0
1583437477.215,27.832,26.855,33.203,23.926,16.113,0
1583437477.219,26.367,27.344,34.180,22.461,10.254,0
1583437477.223,23.926,33.203,30.273,20.020,-35.645,0
1583437477.227,20.020,36.621,22.949,18.066,-0.488,0
1583437477.230,24.414,34.180,27.832,24.414,47.363,0
1583437477.234,25.391,31.250,33.691,32.227,41.016,0
1583437477.238,22.461,29.785,36.133,27.832,27.832,0
1583437477.242,27.344,30.762,38.086,26.855,71.289,0
1583437477.246,29.785,34.180,39.551,29.297,99.121,0
1583437477.243,24.902,34.668,31.250,26.367,78.613,0
1583437477.247,21.973,30.762,32.715,20.020,55.176,0
1583437477.251,31.250,29.297,38.574,23.926,26.367,0
1583437477.255,34.668,24.902,27.832,27.832,40.527,0
1583437477.259,23.926,32.715,28.320,25.391,21.973,0
1583437477.263,22.949,41.504,33.203,24.414,-17.578,0
1583437477.267,28.320,34.668,24.902,23.926,-9.766,0
1583437477.270,32.227,30.273,24.902,24.902,41.016,0
1583437477.274,31.250,37.109,35.156,26.855,56.641,0
1583437477.278,23.926,37.109,27.832,25.391,29.297,0
1583437477.282,23.926,34.180,19.531,19.531,-11.719,0
1583437477.286,27.832,39.551,21.973,23.438,-33.203,0
1583437477.283,31.250,43.457,31.250,33.203,7.812,0
1583437477.287,29.297,42.480,39.551,34.668,62.500,0
1583437477.291,27.832,36.133,32.715,30.762,54.688,0
1583437477.295,33.691,32.227,34.668,27.832,68.848,0
1583437477.299,32.715,39.062,39.062,26.367,38.086,0
1583437477.303,30.273,46.387,35.156,27.344,-9.277,0
1583437477.307,32.715,46.387,40.039,28.320,-7.324,0
1583437477.310,32.227,42.969,29.297,20.508,13.672,0
1583437477.314,33.691,35.645,11.719,12.695,16.113,0
1583437477.318,39.551,37.598,24.902,22.461,19.531,0
1583437477.322,41.504,49.805,43.457,26.855,27.344,0
1583437477.326,32.227,46.875,37.109,25.391,16.113,0
1583437477.343,26.855,39.062,19.531,31.250,20.996,0
1583437477.347,36.133,40.039,22.949,38.574,3.906,0
1583437477.351,40.039,46.875,26.367,36.621,20.020,0
1583437477.355,38.086,48.828,23.926,31.250,48.828,0
