timestamps,TP9,AF7,AF8,TP10,Right AUX,Marker0
1583421597.596,23.438,39.062,43.457,68.848,-57.129,0
1583421597.600,18.555,34.180,47.852,70.312,20.020,0
1583421597.604,23.438,36.621,49.316,71.289,41.504,0
1583421597.608,28.809,41.992,49.316,73.242,28.320,0
1583421597.612,32.227,45.410,47.363,76.172,66.895,0
1583421597.616,33.691,44.434,45.898,78.125,75.684,0
1583421597.620,36.621,45.410,48.828,76.172,-14.648,0
1583421597.623,40.039,43.945,49.316,70.312,-9.277,0
1583421597.627,34.180,39.062,48.340,69.824,80.078,0
1583421597.631,28.809,42.480,49.316,77.148,102.539,0
1583421597.635,26.855,45.410,45.898,79.590,94.238,0
1583421597.639,23.438,41.992,42.969,73.242,73.730,0
1583421597.634,25.879,44.434,45.410,74.707,67.871,0
1583421597.638,31.738,44.922,46.387,79.590,-7.324,0
1583421597.642,35.645,46.387,46.875,84.961,23.926,0
1583421597.646,38.086,46.875,42.480,81.543,80.566,0
1583421597.650,35.156,43.457,39.062,72.754,28.320,0
1583421597.654,33.203,43.945,43.457,70.312,30.273,0
1583421597.658,31.250,42.969,44.922,69.824,69.824,0
1583421597.661,27.832,43.945,43.945,69.336,39.551,0
1583421597.665,27.832,46.387,43.945,69.336,2.441,0
1583421597.669,28.809,43.945,43.945,70.312,3.906,0
1583421597.673,27.832,41.016,41.504,70.801,15.137,0
1583421597.677,22.949,41.016,35.156,71.289,62.500,0
1583421597.694,22.949,42.480,39.551,65.918,55.176,0
1583421597.698,24.414,41.504,48.340,55.176,-21.973,0
1583421597.702,22.461,38.574,46.387,56.152,4.395,0
1583421597.706,19.531,38.086,41.992,58.105,78.613,0
1583421597.710,18.066,38.086,41.016,57.129,63.477,0
1583421597.714,18.066,36.133,45.898,64.453,56.152,0
1583421597.718,21.484,36.621,45.410,70.312,51.758,0
1583421597.721,19.043,39.551,40.039,67.383,-43.457,0
1583421597.725,19.531,39.551,43.945,68.359,-38.086,0
1583421597.729,26.367,37.598,45.410,71.777,39.551,0
1583421597.733,23.926,38.574,42.480,72.266,37.109,0
1583421597.737,21.973,40.527,42.480,69.336,30.762,0
1583421597.734,20.020,40.527,42.969,68.848,14.160,0
1583421597.738,16.602,41.016,43.457,66.406,-19.043,0
1583421597.742,17.578,41.992,48.828,67.383,-24.902,0
1583421597.746,17.578,39.062,50.293,72.266,35.645,0
1583421597.750,18.066,37.109,45.410,74.707,56.641,0
1583421597.754,22.949,39.062,39.551,76.660,69.824,0
1583421597.758,25.391,39.551,42.480,75.195,91.309,0
1583421597.761,24.414,37.109,50.781,70.312,38.574,0
1583421597.765,26.855,37.109,53.223,73.242,45.410,0
1583421597.769,31.250,39.062,50.293,71.289,42.969,0
1583421597.773,28.320,34.180,47.852,62.988,30.762,0
1583421597.777,25.391,33.203,41.016,57.617,38.574,0
1583421597.774,26.855,36.621,39.062,59.082,37.598,0
1583421597.778,27.832,38.574,42.480,61.035,62.988,0
1583421597.782,33.203,38.574,43.457,58.105,38.574,0
1583421597.786,35.645,39.062,41.504,58.105,8.301,0
1583421597.790,29.785,41.992,32.227,69.336,28.320,0
1583421597.794,27.344,40.527,38.086,71.777,25.391,0
1583421597.798,27.832,38.086,45.410,66.406,46.875,0
1583421597.801,28.809,39.062,50.293,71.777,49.805,0
1583421597.805,24.902,38.574,47.852,74.707,23.438,0
1583421597.809,23.438,38.086,38.574,71.777,-11.719,0
1583421597.813,25.391,38.086,41.016,72.266,13.672,0
1583421597.817,25.391,38.574,43.457,69.824,55.176,0
1583421597.834,26.855,40.527,41.016,67.383,23.438,0
1583421597.838,28.320,39.551,41.992,65.430,-5.859,0
1583421597.842,20.996,40.039,40.527,61.035,-12.695,0
1583421597.846,18.066,42.969,34.668,59.570,56.641,0
1583421597.850,23.926,41.016,38.574,62.012,103.027,0
1583421597.854,26.855,42.480,41.992,66.895,90.820,0
1583421597.858,26.855,40.527,37.598,62.988,43.945,0
1583421597.861,22.949,34.180,38.574,57.617,23.926,0
1583421597.865,16.602,34.668,46.387,63.965,48.828,0
1583421597.869,19.531,37.598,47.852,65.430,38.086,0
1583421597.873,22.461,38.574,44.434,62.500,31.250,0
1583421597.877,21.484,41.992,40.527,62.012,-33.691,0
1583421597.874,23.926,42.480,36.621,64.453,-52.734,0
1583421597.878,20.996,36.621,37.598,61.523,22.461,0
1583421597.882,17.578,37.109,39.551,55.176,27.344,0
1583421597.886,18.066,36.621,40.527,55.176,8.301,0
1583421597.890,18.066,33.203,42.969,61.523,7.812,0
1583421597.894,19.531,35.156,45.898,61.035,-2.441,0
1583421597.898,19.043,36.133,37.109,62.500,63.477,0
1583421597.901,14.648,37.109,27.832,59.570,96.191,0
1583421597.905,11.230,35.645,38.086,55.664,50.781,0
1583421597.909,13.184,34.180,44.434,60.547,26.855,0
1583421597.913,11.719,31.738,38.086,61.523,53.711,0
1583421597.917,14.648,32.715,37.109,62.500,57.129,0
1583421597.914,20.996,38.574,41.504,63.477,64.453,0
1583421597.918,25.879,40.527,41.016,65.430,32.715,0
1583421597.922,29.297,39.062,44.434,71.777,33.203,0
1583421597.926,25.391,39.062,44.434,71.289,44.922,0
1583421597.930,20.996,39.062,39.551,67.871,33.691,0
1583421597.934,24.414,41.504,40.039,68.359,26.367,0
1583421597.938,20.996,40.039,36.621,67.383,42.480,0
1583421597.941,20.996,41.992,37.109,66.895,71.289,0
1583421597.945,24.414,43.457,40.039,63.477,37.598,0
1583421597.949,20.508,41.016,39.062,61.523,0.977,0
1583421597.953,15.625,40.527,42.969,63.477,74.219,0
1583421597.957,17.090,40.527,42.480,65.430,81.543,0
1583421597.974,24.902,40.527,42.480,66.406,38.086,0
1583421597.978,20.996,39.551,44.434,63.477,56.641,0
1583421597.982,21.973,40.039,41.992,62.500,51.270,0
1583421597.986,21.484,42.480,41.504,61.035,47.363,0
1583421597.990,12.207,42.969,41.016,62.012,27.344,0
1583421597.994,14.648,42.969,43.457,61.523,49.805,0
1583421597.998,15.625,45.410,46.387,53.223,38.574,0
1583421598.001,7.324,45.898,48.828,53.223,12.695,0
1583421598.005,-1.953,42.969,46.875,46.875,31.738,0
1583421598.009,-9.277,45.898,48.340,36.133,56.152,0
1583421598.013,-10.254,47.852,52.246,37.109,36.621,0
1583421598.017,-15.137,46.875,51.270,30.762,6.836,0
1583421598.014,-22.461,49.805,55.176,20.020,11.230,0
1583421598.018,-23.926,53.711,56.152,11.230,22.949,0
1583421598.022,-35.156,54.199,53.711,-3.906,76.172,0
1583421598.026,-54.199,52.734,56.641,-14.160,64.453,0
1583421598.030,-67.383,58.105,60.059,-23.926,29.297,0
1583421598.034,-77.637,67.383,62.500,-37.109,32.715,0
1583421598.038,-98.633,63.965,62.500,-52.246,30.273,0
1583421598.041,-114.746,62.012,58.105,-65.430,97.656,0
1583421598.045,-125.488,66.895,64.941,-72.754,101.074,0
1583421598.049,-134.277,67.383,67.383,-84.473,52.734,0
1583421598.053,-144.531,68.359,58.105,-102.539,62.500,0
1583421598.057,-151.367,63.965,58.105,-107.422,62.012,0
1583421598.054,-151.367,64.453,61.035,-107.910,59.082,0
1583421598.058,-158.203,71.289,55.176,-119.629,61.035,0
1583421598.062,-151.855,70.312,56.152,-122.559,36.133,0
1583421598.066,-145.996,66.895,54.199,-123.535,41.504,0
1583421598.070,-147.949,65.430,49.316,-125.000,29.297,0
1583421598.074,-141.602,64.453,49.805,-117.188,3.906,0
1583421598.078,-130.371,63.477,49.316,-105.957,5.859,0
1583421598.081,-125.000,62.012,50.293,-102.539,7.812,0
1583421598.085,-121.582,61.523,48.828,-98.633,0.977,0
1583421598.089,-108.398,55.664,47.363,-83.984,-13.672,0
1583421598.093,-97.656,51.758,48.828,-69.824,22.461,0
1583421598.097,-95.703,51.270,47.852,-62.988,43.457,0
1583421598.114,-83.496,49.805,47.852,-52.734,14.160,0
1583421598.118,-65.430,48.340,46.875,-39.062,-18.066,0
1583421598.122,-55.176,42.480,45.898,-32.227,-28.320,0
1583421598.126,-47.852,39.062,47.363,-26.855,13.672,0
1583421598.130,-33.691,37.598,46.387,-15.137,43.457,0
1583421598.134,-25.879,35.645,46.387,-5.371,-3.906,0
1583421598.138,-27.344,35.645,44.922,-7.324,5.859,0
1583421598.141,-21.484,37.109,42.480,-3.418,41.504,0
1583421598.145,-19.531,36.621,44.922,0.488,16.113,0
1583421598.149,-13.184,38.574,45.898,0.977,48.828,0
1583421598.153,-4.883,40.527,45.898,6.836,78.125,0
1583421598.157,-11.719,40.039,45.410,3.906,56.152,0
1583421598.154,-17.578,37.109,42.969,0.000,59.082,0
1583421598.158,-17.090,35.156,42.969,2.930,15.625,0
1583421598.162,-19.043,40.527,46.387,3.906,25.391,0
1583421598.166,-26.367,41.016,44.434,-4.395,68.848,0
1583421598.170,-30.762,38.086,39.551,-11.230,41.504,0
1583421598.174,-37.109,41.016,38.086,-13.672,46.387,0
1583421598.178,-45.898,41.504,41.504,-14.160,32.715,0
1583421598.181,-54.199,41.504,45.410,-18.066,7.812,0
1583421598.185,-57.617,46.387,49.805,-21.973,52.246,0
1583421598.189,-51.758,52.246,51.270,-24.414,44.922,0
1583421598.193,-53.223,53.223,49.805,-25.391,-13.672,0
1583421598.197,-60.547,48.828,48.828,-23.926,69.336,0
1583421598.194,-60.059,49.805,45.410,-28.809,98.633,0
1583421598.198,-54.688,50.781,50.293,-26.855,55.664,0
1583421598.202,-51.758,48.828,53.223,-21.484,73.242,0
1583421598.206,-50.293,47.363,49.805,-20.020,79.590,0
1583421598.210,-46.875,48.340,45.410,-18.066,54.199,0
1583421598.214,-43.457,49.316,45.410,-16.113,28.320,0
1583421598.218,-34.668,49.805,44.434,-5.371,-14.160,0
1583421598.221,-24.414,50.781,42.480,0.488,3.418,0
1583421598.225,-14.648,49.316,45.410,0.977,27.832,0
1583421598.229,-1.465,46.387,42.480,14.160,-5.371,0
1583421598.233,9.277,44.922,36.621,28.320,8.789,0
1583421598.237,25.879,43.945,35.156,44.434,-8.301,0
1583421598.254,46.875,41.992,39.551,61.523,-22.461,0
1583421598.258,53.711,41.992,37.109,74.707,-10.742,0
1583421598.262,63.965,42.969,29.785,89.355,-3.418,0
1583421598.266,83.984,40.527,30.273,107.422,51.270,0
1583421598.270,96.191,37.598,31.250,121.582,88.379,0
1583421598.274,112.305,40.527,28.320,133.789,59.570,0
1583421598.278,128.418,41.016,29.297,146.484,-0.977,0
1583421598.281,135.742,34.668,27.832,157.715,33.203,0
1583421598.285,142.578,30.762,21.973,169.922,43.457,0
1583421598.289,149.902,29.785,20.996,183.594,16.113,0
1583421598.293,157.715,31.250,21.973,190.918,75.684,0
1583421598.297,163.574,30.273,25.391,192.871,78.125,0
1583421598.294,167.969,29.297,32.715,200.195,82.520,0
1583421598.298,170.410,29.785,41.504,204.102,44.922,0
1583421598.302,173.340,28.809,32.715,208.008,-1.465,0
1583421598.306,177.246,29.297,25.391,211.426,24.414,0
1583421598.310,177.734,28.320,39.062,210.449,15.137,0
1583421598.314,173.340,27.832,42.969,211.914,6.348,0
1583421598.318,171.875,29.785,39.062,212.402,11.719,0
1583421598.321,164.551,25.879,35.645,206.055,36.621,0
1583421598.325,160.645,25.879,36.621,203.613,63.965,0
1583421598.329,164.062,30.762,34.668,204.590,48.828,0
1583421598.333,160.156,26.855,32.227,203.613,45.410,0
1583421598.337,161.133,25.391,37.109,202.637,56.152,0
1583421598.336,163.574,28.320,38.086,202.148,38.574,0
1583421598.340,162.598,30.762,34.180,202.637,66.895,0
1583421598.344,164.551,30.762,27.832,198.730,88.867,0
1583421598.348,160.645,29.297,28.809,190.918,36.133,0
1583421598.352,151.367,25.879,36.621,187.012,78.613,0
1583421598.356,147.949,26.367,44.434,190.918,58.105,0
1583421598.360,142.090,27.344,43.945,188.965,27.832,0
1583421598.363,132.812,26.855,36.621,177.734,61.035,0
1583421598.367,128.418,27.832,38.086,171.387,26.367,0
1583421598.371,125.977,27.832,42.480,173.340,6.836,0
1583421598.375,116.699,23.926,39.062,167.480,16.602,0
1583421598.379,112.793,25.879,40.527,155.273,58.594,0
1583421598.394,106.445,30.762,47.363,152.832,-2.441,0
1583421598.398,91.309,25.879,45.410,151.367,-37.598,0
1583421598.402,87.891,23.438,43.945,148.438,-16.602,0
1583421598.406,89.844,26.855,46.387,152.832,4.395,0
1583421598.410,89.355,30.762,45.898,153.809,41.992,0
1583421598.414,98.145,33.203,39.551,156.738,69.336,0
1583421598.418,103.027,32.715,30.273,156.250,123.047,0
1583421598.421,94.727,30.273,31.250,148.438,50.781,0
1583421598.425,86.426,30.762,40.527,143.066,19.043,0
1583421598.429,81.055,30.273,48.340,139.160,42.969,0
1583421598.433,76.660,33.691,45.898,134.766,50.781,0
1583421598.437,73.730,35.156,38.574,129.883,83.984,0
1583421598.434,69.824,33.203,40.527,125.488,79.102,0
1583421598.438,63.965,31.738,49.805,118.164,51.758,0
1583421598.442,64.941,30.762,50.781,115.723,-7.812,0
1583421598.446,71.289,33.691,47.363,119.141,-36.133,0
1583421598.450,72.266,34.668,47.363,117.676,31.250,0
1583421598.454,73.730,36.133,48.340,118.164,63.965,0
1583421598.458,73.730,39.062,40.527,124.512,50.293,0
1583421598.461,69.824,37.598,46.875,124.023,9.277,0
1583421598.465,71.777,38.574,56.152,124.023,-6.348,0
1583421598.469,67.383,39.062,49.805,118.652,39.062,0
1583421598.473,65.918,37.109,45.410,116.699,14.648,0
1583421598.477,65.918,40.527,48.828,118.652,18.066,0
1583421598.495,62.500,41.992,42.480,111.328,33.691,0
1583421598.499,59.082,38.574,41.016,106.934,17.090,0
1583421598.503,50.781,36.133,49.316,100.586,16.602,0
1583421598.507,49.805,36.621,32.715,98.633,14.160,0
1583421598.511,50.293,36.621,22.949,99.609,-1.953,0
1583421598.515,45.410,37.109,50.293,89.844,-17.578,0
1583421598.519,40.039,36.621,62.012,86.914,61.523,0
1583421598.522,38.086,37.598,54.688,89.355,68.848,0
1583421598.526,36.133,36.621,52.246,85.449,18.066,0
1583421598.530,38.086,35.645,50.781,83.496,27.344,0
1583421598.534,39.551,33.203,45.410,81.055,51.270,0
1583421598.538,40.039,33.691,42.480,82.520,70.801,0
1583421598.534,41.016,35.156,40.039,85.938,68.359,0
1583421598.538,39.062,35.156,40.039,83.496,57.617,0
1583421598.542,40.039,35.156,43.457,81.055,31.250,0
1583421598.546,44.922,38.574,34.668,83.496,-19.043,0
1583421598.550,47.363,40.039,25.879,86.426,-7.812,0
1583421598.554,44.922,37.598,42.969,81.055,56.641,0
1583421598.558,32.715,36.621,53.223,74.707,80.566,0
1583421598.561,23.438,34.668,47.852,73.242,70.801,0
1583421598.565,23.438,35.156,41.016,73.242,68.848,0
1583421598.569,23.926,34.668,41.016,76.660,48.828,0
1583421598.573,24.414,34.180,44.922,76.172,19.043,0
1583421598.577,25.879,33.691,43.945,75.195,20.508,0
1583421598.574,31.250,34.668,41.504,84.473,53.223,0
1583421598.578,37.598,36.133,35.156,85.938,31.738,0
1583421598.582,41.016,35.645,41.016,80.566,34.668,0
1583421598.586,40.527,36.133,50.293,80.078,62.988,0
1583421598.590,40.039,36.133,42.969,81.055,31.250,0
1583421598.594,41.016,35.645,43.457,83.496,47.363,0
1583421598.598,38.086,34.180,46.875,78.125,34.180,0
1583421598.601,36.621,32.715,50.293,70.312,37.109,0
1583421598.605,35.156,38.086,48.340,75.684,37.598,0
1583421598.609,29.297,42.969,31.738,76.660,51.758,0
1583421598.613,22.949,38.086,33.203,66.406,53.223,0
1583421598.617,18.066,33.203,38.574,58.105,42.480,0
1583421598.634,18.066,38.574,44.434,56.641,14.160,0
1583421598.638,18.555,44.434,49.805,59.082,-31.738,0
1583421598.642,17.090,41.504,38.086,62.012,-5.859,0
1583421598.646,15.625,38.086,34.668,61.035,22.949,0
1583421598.650,16.602,36.133,48.340,59.570,46.875,0
1583421598.654,21.484,34.180,51.758,66.406,45.410,0
1583421598.658,22.949,36.621,51.270,69.336,44.434,0
1583421598.661,22.949,41.016,50.293,65.430,-0.488,0
1583421598.665,25.391,40.039,44.922,64.941,-5.371,0
1583421598.669,29.297,38.574,43.457,69.824,35.156,0
1583421598.673,31.250,41.016,42.969,72.754,26.367,0
1583421598.677,35.156,44.434,47.363,74.219,44.922,0
1583421598.674,34.180,42.969,47.363,69.824,30.762,0
1583421598.678,33.203,42.969,47.852,64.941,51.758,0
1583421598.682,38.086,45.898,33.691,71.289,33.203,0
1583421598.686,38.086,42.480,30.762,71.289,11.230,0
1583421598.690,39.062,41.016,51.270,65.918,89.355,0
1583421598.694,41.504,43.457,55.664,66.406,126.953,0
1583421598.698,34.668,41.504,49.316,66.406,61.035,0
1583421598.701,32.227,40.527,46.387,64.941,41.504,0
1583421598.705,35.156,39.551,41.016,65.430,50.293,0
1583421598.709,33.203,41.016,36.621,66.406,42.480,0
1583421598.713,36.133,44.434,40.527,71.777,59.570,0
1583421598.717,30.273,40.527,38.086,74.219,17.090,0
1583421598.714,24.902,37.109,43.457,76.660,23.438,0
1583421598.718,22.461,40.039,48.340,74.707,65.918,0
1583421598.722,17.090,40.527,48.828,66.895,47.852,0
1583421598.726,20.020,40.039,47.363,73.242,-38.086,0
1583421598.730,20.020,36.133,49.805,78.125,-36.621,0
1583421598.734,22.949,36.133,56.152,77.637,61.035,0
1583421598.738,24.414,38.574,51.270,76.660,53.223,0
1583421598.741,25.391,37.109,51.758,78.125,-8.789,0
1583421598.745,22.461,37.109,44.922,76.660,6.836,0
1583421598.749,15.137,36.621,40.527,68.359,88.867,0
1583421598.753,18.066,36.133,48.340,73.730,92.773,0
1583421598.757,23.926,38.086,51.270,80.078,51.758,0
1583421598.774,23.926,39.551,50.781,75.684,50.781,0
1583421598.778,22.949,39.062,49.316,73.242,62.500,0
1583421598.782,28.809,41.016,41.504,70.312,47.363,0
1583421598.786,27.344,39.062,33.691,67.871,42.480,0
1583421598.790,20.996,36.621,39.551,67.383,26.367,0
1583421598.794,16.113,36.133,49.805,65.430,14.648,0
1583421598.798,19.043,34.668,52.734,63.477,93.750,0
1583421598.801,25.879,35.156,52.734,62.988,100.098,0
1583421598.805,27.832,36.133,48.828,65.430,45.410,0
1583421598.809,33.203,36.621,44.434,64.453,72.266,0
1583421598.813,36.621,37.109,39.062,61.523,55.176,0
1583421598.817,40.039,42.480,38.086,63.965,0.488,0
1583421598.814,38.086,38.574,35.645,66.406,-5.859,0
1583421598.818,35.156,36.621,38.574,62.988,-17.578,0
1583421598.822,33.691,39.551,45.898,60.059,-34.180,0
1583421598.826,27.344,35.645,42.969,61.523,24.414,0
1583421598.830,27.344,39.551,40.527,63.477,37.109,0
1583421598.834,27.344,36.621,37.109,60.547,6.348,0
1583421598.838,25.391,31.738,41.504,59.570,-14.648,0
1583421598.841,23.926,39.062,42.480,61.035,-5.859,0
1583421598.845,18.555,42.480,39.062,63.965,46.387,0
1583421598.849,21.484,38.086,44.434,69.824,38.574,0
1583421598.853,31.250,38.574,31.738,71.777,20.996,0
1583421598.857,33.203,41.016,33.203,71.777,4.883,0
1583421598.854,34.180,38.086,51.270,73.730,27.344,0
1583421598.858,35.645,37.109,53.711,77.637,55.176,0
1583421598.862,32.227,41.504,47.852,77.148,28.809,0
1583421598.866,35.645,41.504,49.316,76.172,31.250,0
1583421598.870,31.250,38.086,53.711,73.242,64.453,0
1583421598.874,24.902,39.551,52.734,72.266,53.711,0
1583421598.878,28.320,40.039,50.293,69.824,10.254,0
1583421598.881,26.855,37.598,40.527,67.383,7.324,0
1583421598.885,31.250,41.016,36.133,69.824,12.695,0
1583421598.889,31.250,38.574,43.945,68.359,45.898,0
1583421598.893,25.879,32.715,49.805,67.871,34.180,0
1583421598.897,27.832,33.691,45.410,65.430,10.254,0
1583421598.914,28.809,31.738,39.551,65.918,7.812,0
1583421598.918,29.297,31.738,42.480,72.754,72.754,0
1583421598.922,32.227,35.645,45.410,74.219,96.191,0
1583421598.926,32.715,37.598,43.945,70.312,-42.969,0
1583421598.930,34.180,38.574,44.922,66.895,-46.387,0
1583421598.934,35.645,36.621,37.109,69.336,-4.883,0
1583421598.938,32.715,36.133,39.062,69.824,48.828,0
1583421598.941,27.344,35.645,42.969,62.988,40.527,0
1583421598.945,21.484,32.227,25.879,60.059,1.465,0
1583421598.949,19.531,34.180,37.598,59.082,23.438,0
1583421598.953,22.949,35.645,49.805,59.082,35.645,0
1583421598.957,25.879,32.227,47.852,57.129,32.227,0
1583421598.954,20.508,31.738,39.062,53.711,8.301,0
1583421598.958,15.137,33.691,31.738,51.270,15.137,0
1583421598.962,19.531,30.273,41.016,52.734,27.832,0
1583421598.966,18.066,30.273,46.387,58.594,53.223,0
1583421598.970,21.484,34.180,49.316,63.477,48.340,0
1583421598.974,29.297,35.156,50.293,69.824,29.297,0
1583421598.978,31.738,35.156,45.410,73.242,47.363,0
1583421598.981,34.180,36.621,46.875,72.754,30.762,0
1583421598.985,38.574,36.621,47.852,77.637,25.391,0
1583421598.989,40.527,35.156,41.504,82.031,48.340,0
1583421598.993,32.227,33.203,46.387,73.242,84.961,0
1583421598.997,22.949,32.715,54.199,69.824,94.238,0
1583421598.995,22.949,37.598,50.293,72.754,105.469,0
1583421598.999,25.879,40.527,39.062,71.289,69.824,0
1583421599.003,28.809,37.598,44.434,68.359,46.387,0
1583421599.007,30.762,38.574,50.781,69.824,47.363,0
1583421599.011,30.273,40.527,41.992,72.754,22.461,0
1583421599.015,32.715,42.969,35.645,68.359,29.785,0
1583421599.019,32.227,41.992,39.551,57.617,0.488,0
1583421599.022,27.344,39.062,44.434,54.688,51.270,0
1583421599.026,26.367,39.551,40.527,55.664,63.965,0
1583421599.030,26.855,39.062,40.039,55.176,-16.113,0
1583421599.034,23.926,36.621,42.480,54.199,-16.602,0
1583421599.038,23.438,36.133,49.316,58.105,-11.230,0
1583421599.054,25.879,37.109,48.828,61.523,-17.090,0
1583421599.058,21.973,38.086,43.945,59.082,-2.441,0
1583421599.062,16.602,36.621,47.852,58.594,25.879,0
1583421599.066,17.090,37.598,50.781,59.082,12.695,0
1583421599.070,15.625,36.621,45.898,62.988,7.324,0
1583421599.074,15.137,35.156,47.363,62.500,63.477,0
1583421599.078,11.230,37.598,49.316,53.223,66.895,0
1583421599.081,1.953,38.086,47.363,46.875,26.367,0
1583421599.085,1.953,41.504,58.594,49.316,3.418,0
1583421599.089,2.441,42.969,59.570,50.293,22.461,0
1583421599.093,-2.930,39.551,53.711,44.434,30.762,0
1583421599.097,-4.883,42.480,58.105,39.551,47.852,0
1583421599.094,-9.277,44.922,56.641,33.203,76.660,0
1583421599.098,-13.184,48.340,58.105,26.855,53.711,0
1583421599.102,-23.438,51.758,58.594,19.531,23.438,0
1583421599.106,-39.062,49.316,52.246,1.953,68.848,0
1583421599.110,-44.434,48.340,53.711,-6.348,38.574,0
1583421599.114,-49.316,53.711,60.059,-5.859,9.277,0
1583421599.118,-58.105,58.594,63.477,-17.090,78.613,0
1583421599.121,-75.684,56.641,61.035,-39.062,92.773,0
1583421599.125,-85.938,55.664,60.059,-52.734,20.508,0
1583421599.129,-91.797,58.594,66.406,-58.105,-23.438,0
1583421599.133,-108.887,55.664,60.547,-72.266,62.500,0
1583421599.137,-121.582,46.875,53.711,-83.496,12.207,0
1583421599.134,-125.977,47.363,61.035,-86.914,4.883,0
1583421599.138,-134.766,47.363,66.895,-94.238,35.156,0
1583421599.142,-139.160,41.992,65.430,-99.121,39.551,0
1583421599.146,-135.254,41.992,59.082,-99.121,60.059,0
1583421599.150,-132.324,41.504,59.082,-103.027,47.363,0
1583421599.154,-131.348,39.062,62.012,-104.492,31.250,0
1583421599.158,-126.953,37.109,61.523,-100.098,35.645,0
1583421599.161,-112.793,36.621,61.523,-90.820,15.625,0
1583421599.165,-104.004,37.109,60.059,-88.867,-6.348,0
1583421599.169,-99.121,31.250,55.664,-83.984,47.363,0
1583421599.173,-83.008,32.227,57.617,-62.012,87.891,0
1583421599.177,-66.406,35.156,56.152,-47.852,42.969,0
1583421599.195,-52.734,34.180,49.805,-35.156,70.312,0
1583421599.199,-36.133,32.715,49.316,-15.137,71.777,0
1583421599.203,-27.344,34.180,45.410,-3.418,14.648,0
1583421599.207,-26.367,36.621,32.227,0.488,59.570,0
1583421599.211,-20.508,36.621,41.992,5.371,72.266,0
1583421599.215,-9.766,36.621,56.152,12.695,41.504,0
1583421599.219,-2.441,36.621,52.246,25.879,33.691,0
1583421599.222,1.953,36.133,48.340,35.156,20.020,0
1583421599.226,15.137,33.203,46.387,44.922,26.855,0
1583421599.230,25.879,32.715,45.410,51.758,0.977,0
1583421599.234,38.574,33.203,41.016,65.918,10.742,0
1583421599.238,51.758,32.715,39.551,81.055,1.465,0
1583421599.234,53.711,33.691,39.062,81.543,-21.973,0
1583421599.238,59.570,34.668,40.527,87.891,-33.691,0
1583421599.242,67.871,35.645,43.457,99.609,-16.602,0
1583421599.246,73.730,37.109,41.504,104.980,-34.180,0
1583421599.250,73.242,37.598,40.527,104.980,-24.414,0
1583421599.254,69.824,35.645,42.969,104.004,23.926,0
1583421599.258,73.730,34.668,41.016,104.492,22.461,0
1583421599.261,71.777,33.691,35.156,103.516,53.223,0
1583421599.265,72.754,33.691,34.668,105.469,71.289,0
1583421599.269,83.008,41.992,38.086,106.934,80.078,0
1583421599.273,80.078,43.945,37.109,106.445,42.969,0
1583421599.277,66.406,40.527,36.133,104.492,20.508,0
1583421599.274,54.688,40.039,39.062,96.680,87.891,0
1583421599.278,43.945,37.109,36.621,93.750,79.590,0
1583421599.282,35.645,40.039,39.551,90.820,22.949,0
1583421599.286,27.344,40.527,43.945,81.543,64.453,0
1583421599.290,24.414,37.598,36.621,77.637,74.219,0
1583421599.294,30.762,38.574,41.992,80.078,48.340,0
1583421599.298,31.738,37.109,51.270,76.660,49.316,0
1583421599.301,32.715,39.551,53.711,74.219,45.898,0
1583421599.305,35.645,42.480,52.734,74.219,53.711,0
1583421599.309,27.832,42.480,54.199,70.312,64.941,0
1583421599.313,25.391,43.457,52.734,66.895,61.035,0
1583421599.317,20.996,45.898,48.828,62.988,14.160,0
1583421599.334,3.906,40.527,57.617,55.176,-0.488,0
1583421599.338,-9.766,36.621,59.570,37.598,-6.836,0
1583421599.342,-18.555,42.480,62.500,25.391,-18.555,0
1583421599.346,-38.086,41.504,64.453,3.418,-3.418,0
1583421599.350,-63.965,40.039,62.012,-22.461,65.918,0
1583421599.354,-86.914,42.969,62.012,-44.434,70.312,0
1583421599.358,-107.422,46.875,62.500,-69.824,77.637,0
1583421599.361,-129.395,48.828,60.059,-86.914,66.895,0
1583421599.365,-146.973,46.875,58.105,-97.656,1.465,0
1583421599.369,-151.367,49.316,55.176,-107.910,-8.301,0
1583421599.373,-148.926,52.246,48.828,-112.793,59.082,0
1583421599.377,-145.996,50.781,50.293,-114.746,76.172,0
1583421599.374,-135.254,51.270,52.734,-104.980,69.336,0
1583421599.378,-120.117,52.734,51.758,-90.332,76.660,0
1583421599.382,-101.562,54.688,56.152,-68.848,-3.418,0
1583421599.386,-86.426,51.270,60.059,-47.852,-21.973,0
1583421599.390,-69.824,49.316,43.457,-28.809,36.133,0
1583421599.394,-48.340,49.805,27.832,-4.395,39.062,0
1583421599.398,-27.344,47.852,32.715,16.113,48.828,0
1583421599.401,-4.395,42.480,39.551,33.691,24.414,0
1583421599.405,14.648,35.645,51.758,46.387,53.711,0
1583421599.409,39.551,35.645,52.246,67.871,59.082,0
1583421599.413,62.500,36.621,41.016,88.379,-13.184,0
1583421599.417,80.566,36.133,36.133,108.398,-0.488,0
1583421599.414,97.168,39.551,30.273,126.465,6.348,0
1583421599.418,111.816,43.945,27.344,135.254,-12.207,0
1583421599.422,124.023,44.922,36.621,150.879,2.441,0
1583421599.426,126.953,40.527,33.691,160.156,27.344,0
1583421599.430,135.742,41.504,21.973,162.598,54.199,0
1583421599.434,147.949,44.922,20.508,174.316,41.992,0
1583421599.438,149.414,39.551,19.531,186.523,20.508,0
1583421599.441,149.414,38.086,29.297,187.500,-3.418,0
1583421599.445,148.438,37.109,38.574,187.012,1.953,0
1583421599.449,152.344,34.668,34.180,190.918,25.879,0
1583421599.453,157.715,34.180,33.203,196.289,-27.832,0
1583421599.457,160.156,38.086,33.203,200.684,-50.781,0
1583421599.474,161.133,44.434,35.156,198.242,25.391,0
1583421599.478,160.645,44.922,26.367,191.895,43.945,0
1583421599.482,158.203,40.527,24.902,190.918,54.199,0
1583421599.486,152.832,38.574,35.645,194.336,72.754,0
1583421599.490,146.484,36.621,33.203,187.012,-7.324,0
1583421599.494,149.414,37.598,28.320,185.547,-19.043,0
1583421599.498,148.926,38.574,33.691,182.129,58.105,0
1583421599.501,137.695,38.574,33.203,175.781,58.105,0
1583421599.505,136.230,37.109,28.320,178.223,-1.953,0
1583421599.509,138.184,35.156,26.855,178.223,9.277,0
1583421599.513,134.766,37.109,31.250,175.781,44.922,0
1583421599.517,124.023,37.598,32.715,165.527,57.129,0
1583421599.514,116.211,36.133,31.738,154.297,67.871,0
1583421599.518,112.793,34.180,37.109,150.879,53.711,0
1583421599.522,104.492,35.156,35.645,145.020,65.430,0
1583421599.526,103.516,40.039,26.367,142.090,99.121,0
1583421599.530,107.910,43.457,19.531,145.508,104.492,0
1583421599.534,100.098,40.527,32.715,140.137,26.367,0
1583421599.538,89.844,40.527,38.574,135.742,-6.348,0
1583421599.541,87.891,37.109,36.133,135.254,80.078,0
1583421599.545,90.820,31.250,46.875,135.254,52.246,0
1583421599.549,90.820,32.227,49.805,128.418,12.695,0
1583421599.553,86.914,33.691,48.340,120.117,3.906,0
1583421599.557,81.055,32.715,42.969,120.605,14.160,0
1583421599.554,81.055,33.691,39.551,123.047,39.551,0
1583421599.558,81.055,33.691,37.598,123.535,33.203,0
1583421599.562,77.637,35.156,40.527,116.211,72.754,0
1583421599.566,78.613,37.109,39.062,111.328,76.172,0
1583421599.570,79.102,36.133,26.367,113.770,62.988,0
1583421599.574,78.613,37.109,30.762,111.816,22.461,0
1583421599.578,77.637,36.621,37.598,105.957,62.500,0
1583421599.581,75.195,33.691,46.387,102.539,52.734,0
1583421599.585,70.801,31.250,52.246,99.121,-2.930,0
1583421599.589,70.312,34.668,45.410,103.027,36.621,0
1583421599.593,68.848,38.574,44.434,103.027,53.223,0
1583421599.597,65.430,39.551,43.457,95.703,85.449,0
1583421599.614,66.406,38.086,40.527,96.680,119.629,0
1583421599.618,61.523,34.180,36.621,93.750,95.215,0
1583421599.622,59.570,37.109,40.527,88.867,-26.855,0
1583421599.626,57.129,41.016,38.574,87.891,16.602,0
1583421599.630,53.223,43.945,19.531,95.703,129.395,0
1583421599.634,56.641,43.457,27.832,94.727,80.566,0
1583421599.638,52.734,39.062,52.734,80.566,34.180,0
1583421599.641,48.828,34.180,57.129,76.172,24.902,0
1583421599.645,52.734,35.156,54.688,77.637,-8.789,0
1583421599.649,47.852,37.109,45.410,80.566,-20.020,0
1583421599.653,44.434,39.551,44.922,84.961,34.668,0
1583421599.657,46.387,40.527,45.410,83.496,10.742,0
1583421599.654,48.340,40.527,41.504,82.520,11.230,0
1583421599.658,51.758,43.457,46.387,82.031,5.371,0
1583421599.662,54.199,37.109,47.852,84.473,-10.254,0
1583421599.666,51.758,32.227,48.828,82.520,26.367,0
1583421599.670,41.016,40.039,42.969,80.078,16.113,0
1583421599.674,40.039,43.945,38.086,82.520,19.043,0
1583421599.678,43.945,42.480,43.457,81.055,12.207,0
1583421599.681,42.480,40.039,49.316,78.125,-3.906,0
1583421599.685,46.875,42.480,50.781,77.637,77.637,0
1583421599.689,45.410,42.480,43.945,80.078,80.078,0
1583421599.693,45.898,39.551,41.504,79.590,-2.930,0
1583421599.697,49.805,43.457,40.527,80.078,5.859,0
1583421599.694,43.945,44.922,39.551,76.172,66.406,0
1583421599.698,39.551,42.969,41.504,73.242,83.984,0
1583421599.702,36.133,41.992,42.480,71.777,55.176,0
1583421599.706,32.227,36.133,42.969,69.336,41.992,0
1583421599.710,34.180,34.668,43.457,73.242,43.945,0
1583421599.714,30.273,39.062,45.898,75.684,99.609,0
1583421599.718,28.320,39.062,41.016,78.613,76.660,0
1583421599.721,31.250,34.668,36.621,80.566,1.465,0
1583421599.725,31.738,31.738,45.410,76.172,-19.531,0
1583421599.729,35.156,35.156,48.828,69.824,-35.645,0
1583421599.733,36.621,39.062,43.945,69.824,-8.301,0
1583421599.737,35.156,39.551,41.992,71.777,29.785,0
1583421599.754,36.621,42.480,41.992,68.848,25.391,0
1583421599.758,39.551,43.945,32.715,69.336,27.344,0
1583421599.762,41.992,39.062,36.133,73.730,55.664,0
1583421599.766,37.109,34.668,48.340,73.242,-16.113,0
1583421599.770,35.156,37.598,48.340,74.707,-43.945,0
1583421599.774,41.504,40.039,51.758,78.125,64.453,0
1583421599.778,41.504,40.527,47.852,74.219,73.242,0
1583421599.781,40.527,40.527,40.039,73.242,26.855,0
1583421599.785,41.992,37.109,48.828,69.336,47.852,0
1583421599.789,38.086,36.133,46.387,62.988,117.188,0
1583421599.793,39.062,43.457,35.156,68.359,100.098,0
1583421599.797,41.992,46.875,43.945,70.801,22.949,0
1583421599.794,36.133,40.527,51.758,67.871,-38.574,0
1583421599.798,26.367,36.133,50.781,67.383,-24.902,0
1583421599.802,21.973,38.086,47.852,66.406,13.184,0
1583421599.806,28.320,39.551,43.945,66.406,37.109,0
1583421599.810,31.738,38.086,44.922,67.871,47.852,0
1583421599.814,28.809,38.574,45.898,70.312,40.527,0
1583421599.818,20.508,38.574,49.316,67.871,20.996,0
1583421599.821,15.137,35.156,47.852,59.082,-0.977,0
1583421599.825,19.043,36.621,45.898,61.035,-18.555,0
1583421599.829,23.438,43.457,46.875,61.523,-3.418,0
1583421599.833,22.949,42.480,40.527,57.129,12.695,0
1583421599.837,25.879,37.109,42.969,59.570,6.836,0
1583421599.834,30.762,39.551,41.992,61.035,34.180,0
1583421599.838,35.645,39.062,34.668,65.918,23.438,0
1583421599.842,40.039,37.109,41.504,71.777,39.551,0
1583421599.846,36.133,38.574,51.758,69.824,13.184,0
1583421599.850,33.691,38.086,50.781,71.289,-49.805,0
1583421599.854,35.156,37.109,46.875,73.242,0.000,0
1583421599.858,28.809,35.156,47.363,69.824,2.930,0
1583421599.861,23.926,35.156,52.246,60.059,-25.391,0
1583421599.865,27.344,37.598,51.758,57.617,-5.859,0
1583421599.869,33.203,37.109,41.504,64.941,18.066,0
1583421599.873,35.645,37.109,40.527,68.359,18.555,0
1583421599.877,39.551,37.598,42.480,70.312,66.895,0
1583421599.914,43.457,33.203,41.992,66.406,45.410,0
1583421599.918,37.109,35.156,41.016,62.500,20.508,0
1583421599.922,29.297,41.504,40.039,64.453,75.195,0
1583421599.926,23.438,41.992,37.109,59.082,50.293,0
1583421599.930,19.043,39.551,37.109,55.664,56.641,0
1583421599.934,18.066,37.598,44.434,61.035,48.340,0
1583421599.938,18.066,35.156,43.457,64.453,-22.461,0
1583421599.941,17.578,34.180,40.527,63.477,-18.555,0
1583421599.945,16.113,30.273,37.109,62.012,0.977,0
1583421599.949,21.484,31.250,37.598,64.941,4.883,0
1583421599.953,34.180,39.062,43.457,71.777,61.523,0
1583421599.957,34.180,38.574,37.109,74.219,68.359,0
1583421599.936,26.855,31.738,35.645,71.289,40.527,0
1583421599.940,23.438,29.785,49.316,69.824,31.250,0
1583421599.944,20.020,30.762,52.734,72.754,-6.836,0
1583421599.948,20.020,33.203,50.781,73.242,-21.973,0
1583421599.952,16.602,34.668,44.434,67.383,13.184,0
1583421599.956,17.090,31.738,34.180,66.895,75.684,0
1583421599.960,24.902,32.715,38.086,72.754,90.820,0
1583421599.963,24.414,37.109,47.363,71.777,91.797,0
1583421599.967,24.902,38.574,54.688,70.312,42.969,0
1583421599.971,24.902,41.504,51.270,66.895,52.246,0
1583421599.975,24.902,43.457,43.457,63.965,64.941,0
1583421599.979,27.344,43.457,41.016,65.430,-20.508,0
1583421599.974,29.297,41.992,41.504,63.965,-36.621,0
1583421599.978,32.227,41.992,37.109,66.895,67.383,0
1583421599.982,32.715,41.504,38.086,64.941,82.031,0
1583421599.986,27.832,42.480,43.457,58.594,76.172,0
1583421599.990,31.738,45.898,37.109,61.523,106.934,0
1583421599.994,34.180,45.898,37.109,60.059,65.430,0
1583421599.998,33.691,41.504,44.922,58.105,56.641,0
1583421600.001,35.645,40.527,42.480,56.641,30.273,0
1583421600.005,30.273,42.969,45.410,51.270,-38.574,0
1583421600.009,22.461,42.969,51.758,49.805,-6.836,0
1583421600.013,25.391,41.504,49.805,54.199,-29.785,0
1583421600.017,41.016,40.039,48.828,76.660,-9.766,0
1583421600.034,43.457,43.945,42.480,80.078,37.598,0
1583421600.038,28.320,44.434,39.062,61.523,57.617,0
1583421600.042,38.086,41.016,42.969,70.312,95.215,0
1583421600.046,57.617,40.527,43.945,88.867,75.684,0
1583421600.050,66.406,37.109,44.434,96.680,19.531,0
1583421600.054,67.871,37.598,44.922,96.680,10.254,0
1583421600.058,63.965,42.969,38.574,98.633,29.785,0
1583421600.061,64.941,44.434,39.062,107.422,46.387,0
1583421600.065,64.453,45.898,44.434,108.398,65.918,0
1583421600.069,63.477,47.363,42.480,104.492,10.742,0
1583421600.073,69.336,49.805,41.992,100.586,-15.625,0
1583421600.077,64.453,48.828,42.969,95.215,6.348,0
1583421600.074,56.152,48.340,42.480,95.703,33.203,0
1583421600.078,54.688,48.828,42.969,99.609,29.297,0
1583421600.082,52.246,45.410,43.457,94.727,-16.602,0
1583421600.086,56.152,47.852,39.551,93.262,17.578,0
1583421600.090,53.223,47.852,35.156,92.285,48.828,0
1583421600.094,45.898,47.852,42.480,87.402,43.945,0
1583421600.098,46.387,48.828,47.363,84.961,55.664,0
1583421600.101,40.527,49.316,41.992,80.078,6.836,0
1583421600.105,41.504,52.246,41.016,80.566,5.371,0
1583421600.109,44.434,49.805,43.945,80.078,35.156,0
1583421600.113,36.133,47.852,40.039,80.078,22.461,0
1583421600.117,30.762,48.340,37.109,83.008,33.691,0
1583421600.134,33.203,46.875,40.527,82.520,45.410,0
1583421600.138,37.109,47.363,44.434,83.008,51.270,0
1583421600.142,33.203,44.434,47.852,80.078,29.785,0
1583421600.146,36.133,42.969,48.828,77.637,41.992,0
1583421600.150,40.039,43.945,49.316,81.543,51.270,0
1583421600.154,39.062,43.945,50.781,82.031,33.203,0
1583421600.158,38.574,43.457,48.828,82.031,41.504,0
1583421600.161,27.832,42.969,43.457,75.195,55.664,0
1583421600.165,19.531,41.504,42.480,69.824,27.832,0
1583421600.169,17.578,40.039,45.410,66.406,86.914,0
1583421600.173,17.578,37.598,47.852,64.453,123.535,0
1583421600.177,21.484,41.992,50.781,71.777,34.668,0
1583421600.174,24.414,43.945,38.574,71.289,28.809,0
1583421600.178,21.484,39.551,36.621,67.383,107.422,0
1583421600.182,17.578,44.434,52.246,65.918,124.023,0
1583421600.186,17.578,47.852,53.223,62.988,90.820,0
1583421600.190,23.438,47.363,47.852,60.059,14.160,0
1583421600.194,26.367,44.922,47.852,63.477,0.977,0
1583421600.198,24.414,41.992,46.387,66.406,27.832,0
1583421600.201,28.809,41.992,42.480,65.918,67.383,0
1583421600.205,37.598,41.016,41.504,68.848,77.148,0
1583421600.209,37.598,41.504,40.039,70.312,51.758,0
1583421600.213,35.156,39.551,43.945,68.848,17.090,0
1583421600.217,30.762,36.133,43.457,63.965,-37.109,0
1583421600.214,26.367,35.645,41.992,61.523,1.953,0
1583421600.218,27.832,38.086,42.480,62.988,64.941,0
1583421600.222,32.227,40.039,39.062,64.941,48.828,0
1583421600.226,36.621,39.551,35.156,67.871,19.531,0
1583421600.230,34.180,38.574,42.969,70.801,40.527,0
1583421600.234,37.109,35.645,51.270,69.824,65.918,0
1583421600.238,40.527,32.227,45.898,69.336,41.016,0
1583421600.241,41.504,36.621,43.945,74.707,33.203,0
1583421600.245,41.992,41.504,51.758,77.637,53.223,0
1583421600.249,32.715,39.062,57.617,75.195,29.297,0
1583421600.253,32.715,39.062,47.363,73.730,30.273,0
1583421600.257,50.293,41.504,44.434,85.938,52.734,0
1583421600.274,38.086,40.039,49.316,76.660,32.227,0
1583421600.278,8.789,39.551,45.898,46.387,37.109,0
1583421600.282,8.301,40.527,45.410,42.480,-10.254,0
1583421600.286,1.465,39.551,45.898,42.480,-16.113,0
1583421600.290,-15.137,35.645,37.598,38.086,54.199,0
1583421600.294,-24.902,34.668,29.785,35.156,17.578,0
1583421600.298,-27.832,40.527,33.203,27.344,7.324,0
1583421600.301,-34.668,40.039,36.133,19.531,1.465,0
1583421600.305,-43.457,32.227,36.133,13.184,31.250,0
1583421600.309,-38.574,28.809,33.203,12.695,35.645,0
1583421600.313,-34.180,30.762,39.551,12.695,24.414,0
1583421600.317,-28.809,33.691,46.387,14.648,33.691,0
1583421600.314,-24.414,29.297,37.598,19.531,8.301,0
1583421600.318,-17.578,28.320,32.227,25.391,26.855,0
1583421600.322,-12.207,30.762,34.668,27.832,12.207,0
1583421600.326,-3.906,29.297,37.598,27.344,-5.371,0
1583421600.330,12.207,32.715,40.527,34.180,35.645,0
1583421600.334,20.020,33.691,42.480,42.480,36.133,0
1583421600.338,20.508,30.273,37.598,43.945,13.184,0
1583421600.341,23.438,26.855,34.668,45.410,25.879,0
1583421600.345,20.020,26.367,41.016,49.805,54.199,0
1583421600.349,22.949,32.227,47.852,54.688,44.922,0
1583421600.353,26.367,36.621,53.711,53.711,18.066,0
1583421600.357,24.902,34.180,36.621,47.852,44.434,0
1583421600.355,27.344,33.691,33.691,49.805,22.461,0
1583421600.359,20.508,34.668,48.340,56.152,13.672,0
1583421600.363,11.719,28.320,50.781,57.129,-6.836,0
1583421600.367,13.672,31.738,52.246,56.152,-11.230,0
1583421600.371,11.719,37.109,47.363,58.105,28.320,0
1583421600.375,7.812,40.527,40.527,62.988,-8.301,0
1583421600.379,9.766,41.016,46.387,65.430,-14.160,0
1583421600.382,12.695,35.156,52.734,64.941,29.297,0
1583421600.386,17.090,38.086,56.641,67.383,45.898,0
1583421600.390,15.625,42.480,54.688,68.848,29.785,0
1583421600.394,18.555,43.945,42.480,72.266,38.574,0
1583421600.398,24.414,45.410,38.086,72.266,25.879,0
1583421600.414,23.926,44.922,49.316,67.383,-10.254,0
1583421600.418,24.414,43.945,38.086,65.918,31.250,0
1583421600.422,29.785,39.062,32.715,62.500,87.402,0
1583421600.426,31.738,33.203,51.270,60.059,62.988,0
1583421600.430,26.855,38.574,49.316,60.547,-5.371,0
1583421600.434,26.367,42.969,40.527,62.988,1.465,0
1583421600.438,29.785,44.922,47.363,66.895,31.250,0
1583421600.441,32.715,48.340,50.781,62.988,23.438,0
1583421600.445,29.297,43.457,46.875,59.082,31.250,0
1583421600.449,31.738,39.551,47.363,61.035,24.902,0
1583421600.453,36.133,42.480,38.574,64.453,56.641,0
1583421600.457,30.273,43.945,39.551,69.824,-0.977,0
1583421600.454,26.367,41.992,42.480,67.871,-32.715,0
1583421600.458,28.809,42.480,39.551,70.801,25.879,0
1583421600.462,28.320,44.434,44.922,73.730,36.133,0
1583421600.466,21.484,40.039,56.152,67.383,59.082,0
1583421600.470,18.555,39.062,59.082,68.848,48.340,0
1583421600.474,25.879,38.086,49.805,71.289,81.055,0
1583421600.478,34.180,35.645,51.758,78.125,70.801,0
1583421600.481,22.461,35.156,58.105,75.684,-6.348,0
1583421600.485,5.859,34.668,52.734,63.965,34.668,0
1583421600.489,13.184,34.668,49.316,67.871,55.176,0
1583421600.493,15.137,35.645,53.711,66.895,61.523,0
1583421600.497,12.695,35.645,43.457,66.406,45.410,0
1583421600.494,20.508,33.203,40.039,69.336,22.949,0
1583421600.498,20.996,30.273,55.664,62.500,39.551,0
1583421600.502,20.020,31.738,56.641,63.477,51.758,0
1583421600.506,24.414,37.109,44.922,67.871,20.996,0
1583421600.510,25.391,38.086,42.969,67.383,42.480,0
1583421600.514,22.949,39.551,57.617,67.383,67.871,0
1583421600.518,24.414,41.016,51.758,63.477,64.941,0
1583421600.521,23.438,40.039,48.340,61.523,66.406,0
1583421600.525,20.020,41.992,50.781,64.941,77.637,0
1583421600.529,22.949,44.922,39.551,62.988,71.289,0
1583421600.533,21.973,43.457,44.922,59.082,-31.738,0
1583421600.537,16.113,40.039,52.246,58.594,-11.719,0
1583421600.554,17.090,40.039,42.969,66.895,48.828,0
1583421600.558,15.137,42.480,43.457,66.895,-21.973,0
1583421600.562,9.766,38.574,47.363,54.688,-18.555,0
1583421600.566,7.324,38.086,48.340,53.223,70.312,0
1583421600.570,7.324,41.992,50.293,58.105,83.008,0
1583421600.574,13.184,40.039,49.805,62.012,11.719,0
1583421600.578,22.461,42.480,50.781,61.523,-12.207,0
1583421600.581,21.973,42.969,51.270,57.129,56.152,0
1583421600.585,17.090,39.551,48.340,55.664,51.270,0
1583421600.589,14.648,41.992,48.340,52.734,62.012,0
1583421600.593,9.766,43.457,50.781,48.828,53.223,0
1583421600.597,0.977,41.992,49.316,39.551,-0.977,0
1583421600.594,-1.465,43.945,49.805,36.621,3.418,0
1583421600.598,-7.324,43.457,51.758,34.180,31.250,0
1583421600.602,-24.902,45.898,49.316,26.367,38.574,0
1583421600.606,-38.086,50.781,51.758,15.137,53.223,0
1583421600.610,-44.922,53.711,58.105,1.953,48.340,0
1583421600.614,-49.805,55.176,57.617,-2.930,37.109,0
1583421600.618,-65.918,49.316,54.688,-21.973,95.215,0
1583421600.621,-84.961,47.363,58.594,-40.039,80.078,0
1583421600.625,-105.957,49.805,60.059,-53.223,20.020,0
1583421600.629,-117.676,47.852,62.988,-62.988,25.879,0
1583421600.633,-113.281,44.922,61.523,-65.918,9.766,0
1583421600.637,-115.234,44.922,58.105,-71.777,1.465,0
1583421600.654,-125.977,41.992,60.547,-84.961,3.418,0
1583421600.658,-125.000,38.574,67.871,-83.008,32.227,0
1583421600.662,-119.629,41.992,70.801,-71.289,56.641,0
1583421600.666,-121.582,41.992,64.941,-72.754,58.105,0
1583421600.670,-109.863,41.504,61.035,-64.941,62.500,0
1583421600.674,-93.750,44.922,51.270,-51.758,91.309,0
1583421600.678,-83.984,43.945,45.898,-42.480,76.172,0
1583421600.681,-66.895,45.410,50.781,-27.344,65.430,0
1583421600.685,-52.246,45.410,47.852,-18.555,56.641,0
1583421600.689,-38.574,45.898,36.133,-6.348,59.082,0
1583421600.693,-18.555,49.316,20.020,19.531,92.285,0
1583421600.697,-9.277,46.387,20.508,36.621,57.617,0
1583421600.694,5.859,44.922,27.344,53.223,54.688,0
1583421600.698,24.414,45.898,25.391,69.824,3.906,0
1583421600.702,34.180,48.828,25.391,79.102,-29.297,0
1583421600.706,42.480,51.758,30.273,85.449,10.254,0
1583421600.710,46.387,43.945,34.180,84.473,38.574,0
1583421600.714,55.176,37.109,34.180,87.891,22.461,0
1583421600.718,63.965,41.504,33.203,99.609,15.137,0
1583421600.721,70.312,42.969,29.785,107.422,62.012,0
1583421600.725,80.566,41.504,31.738,112.793,10.254,0
1583421600.729,79.590,41.992,33.203,120.117,-10.254,0
1583421600.733,72.266,41.504,30.762,124.023,-20.020,0
1583421600.737,77.637,41.992,32.715,125.977,-5.859,0
1583421600.734,81.543,43.457,31.250,125.977,18.066,0
1583421600.738,76.660,40.527,29.785,123.047,15.137,0
1583421600.742,76.172,36.621,30.762,124.023,30.762,0
1583421600.746,79.590,36.621,24.902,125.488,10.254,0
1583421600.750,78.125,38.086,22.461,122.559,34.180,0
1583421600.754,79.102,38.574,24.902,122.070,18.555,0
1583421600.758,80.566,40.527,28.809,121.582,-11.719,0
1583421600.761,80.078,40.039,30.762,118.164,1.953,0
1583421600.765,74.707,31.250,26.367,112.305,4.883,0
1583421600.769,75.195,33.691,25.391,109.375,71.777,0
1583421600.773,72.754,42.480,21.484,108.887,56.152,0
1583421600.777,68.359,41.016,24.414,108.887,32.715,0
1583421600.794,76.172,42.480,35.645,115.723,40.039,0
1583421600.798,77.148,41.504,34.180,112.305,30.273,0
1583421600.802,71.777,38.086,30.762,110.352,52.246,0
1583421600.806,73.242,43.457,25.879,117.188,29.785,0
1583421600.810,71.777,46.875,30.762,117.676,38.086,0
1583421600.814,69.336,38.574,44.922,113.281,66.406,0
1583421600.818,65.430,30.273,43.457,108.887,58.105,0
1583421600.821,53.711,33.691,41.504,100.586,29.297,0
1583421600.825,52.246,38.086,48.828,96.680,-2.930,0
1583421600.829,60.547,38.086,42.969,95.215,18.066,0
1583421600.833,69.824,38.574,35.156,89.355,12.695,0
1583421600.837,79.102,38.086,38.086,90.820,15.625,0
1583421600.854,81.055,36.621,41.016,94.238,45.898,0
1583421600.858,79.102,39.062,36.621,88.379,40.527,0
1583421600.862,81.543,36.133,36.621,86.914,23.926,0
1583421600.866,83.008,31.250,39.551,85.938,41.992,0
1583421600.870,78.125,35.645,40.527,83.984,49.805,0
1583421600.874,78.125,37.598,33.691,88.379,62.988,0
1583421600.878,75.195,32.227,37.109,85.938,81.055,0
1583421600.881,65.430,28.809,49.316,76.660,65.430,0
1583421600.885,67.383,32.227,49.316,73.242,32.715,0
1583421600.889,70.801,33.203,44.434,75.684,-2.441,0
1583421600.893,71.777,35.156,42.969,75.195,49.316,0
1583421600.897,77.148,37.109,42.480,74.219,84.473,0
1583421600.876,75.684,37.598,38.086,72.754,50.781,0
1583421600.880,68.359,37.109,36.133,72.266,33.203,0
1583421600.884,70.801,37.109,37.109,75.684,7.324,0
1583421600.888,58.594,37.598,45.410,67.871,29.785,0
1583421600.892,51.270,35.645,46.387,65.430,30.273,0
1583421600.896,59.570,37.109,45.898,74.707,24.414,0
1583421600.900,62.500,37.109,44.922,72.754,18.066,0
1583421600.903,63.477,34.668,40.527,67.383,44.434,0
1583421600.907,64.453,37.109,38.574,68.359,82.520,0
1583421600.911,68.848,42.480,36.133,75.684,74.707,0
1583421600.915,71.289,42.480,27.344,83.008,68.359,0
1583421600.919,69.824,40.039,32.227,80.078,5.371,0
1583421600.914,69.336,40.527,47.363,75.684,-3.906,0
1583421600.918,68.848,37.109,42.969,76.172,46.387,0
1583421600.922,67.383,35.645,45.898,75.684,86.914,0
1583421600.926,60.547,37.109,52.246,72.266,51.270,0
1583421600.930,57.617,33.691,44.922,72.754,-21.973,0
1583421600.934,62.988,33.203,39.551,77.637,-19.531,0
1583421600.938,62.988,43.945,37.109,76.660,20.996,0
1583421600.941,57.129,48.340,32.715,72.266,47.363,0
1583421600.945,52.734,46.387,38.086,66.406,18.555,0
1583421600.949,50.781,44.922,41.504,62.988,-15.137,0
1583421600.953,44.434,42.480,38.574,63.965,-32.227,0
1583421600.957,35.156,38.574,43.457,60.547,-4.883,0
1583421600.974,34.180,35.156,49.316,58.594,40.527,0
1583421600.978,37.598,36.133,50.781,59.570,33.691,0
1583421600.982,39.062,39.551,44.434,62.012,34.180,0
1583421600.986,41.016,38.574,40.527,67.383,4.883,0
1583421600.990,42.969,41.016,30.762,72.266,37.109,0
1583421600.994,44.922,43.945,34.180,72.266,81.055,0
1583421600.998,41.992,41.504,41.016,70.312,68.848,0
1583421601.001,34.668,39.062,45.410,66.406,28.809,0
1583421601.005,30.762,37.598,57.129,64.453,19.043,0
1583421601.009,38.086,37.109,55.664,68.848,19.531,0
1583421601.013,41.992,39.062,47.363,68.848,-0.488,0
1583421601.017,36.133,38.574,38.086,66.895,-2.441,0
1583421601.014,34.180,34.180,48.340,66.406,22.949,0
1583421601.018,36.133,32.227,52.734,60.059,52.246,0
1583421601.022,36.133,34.180,44.922,55.176,88.867,0
1583421601.026,39.062,36.133,41.016,60.547,46.875,0
1583421601.030,41.016,35.645,41.992,57.129,30.273,0
1583421601.034,48.340,34.668,41.016,54.199,37.109,0
1583421601.038,56.641,35.156,33.691,62.500,23.438,0
1583421601.041,49.316,36.133,38.574,64.453,26.855,0
1583421601.045,43.457,35.645,42.480,66.406,19.531,0
1583421601.049,42.480,38.086,37.109,70.312,-20.020,0
1583421601.053,39.551,40.039,43.945,66.406,-34.180,0
1583421601.057,38.574,38.574,53.223,65.430,-15.625,0
1583421601.054,40.527,37.598,50.781,68.359,20.020,0
1583421601.058,41.504,36.621,50.781,72.266,54.199,0
1583421601.062,42.969,39.062,42.480,74.219,53.223,0
1583421601.066,42.480,40.039,35.645,70.801,50.781,0
1583421601.070,37.109,38.574,49.316,69.336,-7.812,0
1583421601.074,31.250,38.574,50.293,68.359,4.883,0
1583421601.078,30.762,39.551,49.316,63.477,74.219,0
1583421601.081,34.180,41.504,49.805,63.477,7.324,0
1583421601.085,37.598,40.039,44.922,63.477,-0.488,0
1583421601.089,38.574,41.016,43.945,65.918,50.293,0
1583421601.093,35.645,41.504,43.457,73.242,43.457,0
1583421601.097,36.133,39.062,41.504,74.219,46.875,0
1583421601.114,41.992,43.457,34.180,76.172,36.621,0
1583421601.118,40.527,34.668,39.551,71.289,5.859,0
1583421601.122,38.574,24.414,62.500,62.988,19.531,0
1583421601.126,38.086,33.691,69.824,62.500,41.992,0
1583421601.130,31.250,36.133,64.453,63.477,77.148,0
1583421601.134,29.297,34.668,62.012,68.359,71.289,0
1583421601.138,25.879,36.621,58.594,65.430,67.383,0
1583421601.141,25.879,36.133,45.898,61.523,66.406,0
1583421601.145,30.273,38.086,39.062,62.988,31.738,0
1583421601.149,33.691,40.527,41.016,68.359,66.406,0
1583421601.153,39.062,41.016,49.805,72.266,65.918,0
1583421601.157,41.016,40.039,52.734,69.336,64.453,0
1583421601.154,41.992,41.016,48.340,70.801,38.574,0
1583421601.158,44.434,43.945,49.805,75.684,64.941,0
1583421601.162,41.504,41.992,46.875,77.637,76.660,0
1583421601.166,38.574,42.480,44.922,75.684,9.766,0
1583421601.170,36.621,46.387,45.898,73.730,0.000,0
1583421601.174,32.715,44.434,33.691,73.730,50.293,0
1583421601.178,31.250,42.969,31.738,77.148,64.453,0
1583421601.181,32.227,42.480,50.293,76.172,6.836,0
1583421601.185,29.785,41.016,44.922,67.871,1.953,0
1583421601.189,31.250,38.574,44.434,62.500,-7.324,0
1583421601.193,28.320,34.668,50.293,56.641,4.883,0
1583421601.197,23.926,34.668,43.457,58.105,60.059,0
1583421601.194,25.391,34.668,45.898,61.035,16.113,0
1583421601.198,25.879,32.227,49.805,57.129,-2.930,0
1583421601.202,35.156,38.574,45.410,62.500,21.484,0
1583421601.206,40.527,42.969,41.504,67.383,0.488,0
1583421601.210,41.016,42.969,35.645,66.406,-17.090,0
1583421601.214,44.922,41.992,34.668,69.824,-28.320,0
1583421601.218,39.551,40.039,41.992,71.289,-32.227,0
1583421601.221,33.691,39.551,53.223,73.730,39.551,0
1583421601.225,38.086,42.480,47.852,75.684,61.035,0
1583421601.229,41.504,41.016,38.086,79.590,44.434,0
1583421601.233,34.668,38.086,51.270,80.078,57.129,0
1583421601.237,24.414,35.156,60.547,69.336,44.922,0
1583421601.254,19.043,33.203,62.500,62.988,24.414,0
1583421601.258,20.020,32.715,50.293,63.965,29.785,0
1583421601.262,22.949,34.180,36.133,63.477,76.172,0
1583421601.266,19.043,32.715,43.945,59.082,76.660,0
1583421601.270,16.113,31.250,55.664,54.199,26.367,0
1583421601.274,19.531,34.180,64.453,60.547,11.230,0
1583421601.278,22.461,35.156,62.012,63.477,41.992,0
1583421601.281,20.020,37.109,49.805,60.547,37.109,0
1583421601.285,23.438,38.086,49.316,68.848,28.320,0
1583421601.289,26.855,36.621,30.273,71.777,34.668,0
1583421601.293,28.320,34.668,31.738,63.477,42.480,0
1583421601.297,30.273,30.762,57.617,64.941,29.297,0
1583421601.294,30.762,33.203,58.594,69.336,54.199,0
1583421601.298,30.762,38.086,60.059,66.406,104.492,0
1583421601.302,25.391,40.527,57.129,71.777,35.156,0
1583421601.306,20.996,41.016,53.223,71.777,-7.812,0
1583421601.310,25.879,38.086,58.105,70.801,-0.977,0
1583421601.314,27.344,36.621,50.293,74.219,14.648,0
1583421601.318,24.414,38.574,46.875,71.289,46.875,0
1583421601.321,25.879,35.156,55.176,69.336,35.645,0
1583421601.325,30.273,31.738,44.922,76.172,19.043,0
1583421601.329,28.320,35.156,39.551,69.824,34.668,0
1583421601.333,21.973,35.156,57.617,59.082,63.965,0
1583421601.337,18.066,38.086,59.082,62.500,47.852,0
1583421601.334,16.113,38.086,49.805,61.035,20.020,0
1583421601.338,20.996,39.551,47.852,62.988,41.016,0
1583421601.342,27.832,41.504,48.828,63.965,64.941,0
1583421601.346,29.297,41.016,48.340,62.012,44.434,0
1583421601.350,29.785,44.434,45.898,66.406,-17.090,0
1583421601.354,32.227,43.945,44.922,69.336,-24.902,0
1583421601.358,29.297,39.062,49.316,66.895,5.371,0
1583421601.361,30.762,43.457,49.805,66.406,46.875,0
1583421601.365,29.297,38.574,39.551,65.918,45.898,0
1583421601.369,25.391,33.203,43.945,62.988,0.488,0
1583421601.373,24.902,40.527,58.105,60.547,9.277,0
1583421601.377,25.391,40.527,53.223,59.570,33.203,0
1583421601.394,26.855,39.062,49.805,60.059,26.367,0
1583421601.398,27.832,41.016,47.363,63.965,14.648,0
1583421601.402,27.344,42.480,35.156,69.336,-17.090,0
1583421601.406,21.484,37.109,37.109,64.453,13.672,0
1583421601.410,17.090,33.691,48.340,59.082,70.801,0
1583421601.414,18.066,36.133,55.176,57.129,47.363,0
1583421601.418,16.602,37.598,53.711,58.594,36.621,0
1583421601.421,15.625,37.109,50.781,58.594,48.828,0
1583421601.425,19.531,35.645,48.828,59.570,-12.695,0
1583421601.429,24.902,36.133,36.133,64.453,-47.852,0
1583421601.433,25.391,41.504,32.715,65.430,22.949,0
1583421601.437,19.043,38.574,45.898,59.570,82.520,0
1583421601.434,20.508,36.133,41.992,58.105,76.660,0
1583421601.438,22.461,41.504,45.898,57.129,55.664,0
1583421601.442,14.648,41.992,52.246,57.617,39.062,0
1583421601.446,11.230,42.480,54.199,62.012,23.926,0
1583421601.450,9.766,39.551,57.617,58.105,5.371,0
1583421601.454,11.719,35.156,56.641,57.617,-16.113,0
1583421601.458,15.625,35.645,55.664,66.895,23.926,0
1583421601.461,15.137,35.156,43.945,71.777,68.359,0
1583421601.465,19.531,37.598,36.133,68.359,70.312,0
1583421601.469,23.438,44.922,47.363,69.336,36.621,0
1583421601.473,15.625,44.922,54.688,68.359,-8.789,0
1583421601.477,11.719,42.480,47.363,63.477,4.883,0
1583421601.494,20.020,43.457,46.875,69.336,50.781,0
1583421601.498,23.438,41.016,52.734,70.312,41.992,0
1583421601.502,22.461,39.062,43.945,64.941,48.828,0
1583421601.506,20.996,41.016,41.992,62.012,28.320,0
1583421601.510,19.531,41.992,50.293,58.594,35.645,0
1583421601.514,20.020,42.480,49.805,59.570,67.871,0
1583421601.518,20.508,38.574,53.711,64.453,52.246,0
1583421601.521,25.391,39.062,42.480,66.406,17.578,0
1583421601.525,22.949,41.016,36.133,62.500,-3.906,0
1583421601.529,19.531,37.598,53.223,63.477,22.461,0
1583421601.533,24.902,36.621,56.152,67.871,53.223,0
1583421601.537,25.391,37.598,53.223,70.312,41.504,0
1583421601.535,25.879,40.039,46.875,73.242,41.992,0
1583421601.539,27.832,42.480,42.480,75.684,37.109,0
1583421601.543,23.438,37.109,45.898,73.730,-39.551,0
1583421601.547,19.531,31.738,42.969,69.824,9.277,0
1583421601.551,24.414,35.156,47.363,72.266,103.516,0
1583421601.555,28.320,37.598,57.617,76.660,48.340,0
1583421601.559,26.367,35.645,49.316,74.707,26.855,0
1583421601.562,29.785,37.598,40.527,71.289,40.527,0
1583421601.566,33.203,40.039,44.922,71.777,17.578,0
1583421601.570,28.320,37.598,54.199,69.824,59.570,0
1583421601.574,28.320,36.133,57.129,64.941,51.270,0
1583421601.578,24.902,35.645,57.129,60.059,-48.340,0
1583421601.574,25.391,37.109,43.945,65.918,-19.531,0
1583421601.578,29.297,34.180,36.621,70.801,20.020,0
1583421601.582,25.391,33.691,53.711,65.430,14.648,0
1583421601.586,23.926,38.086,55.176,66.406,24.414,0
1583421601.590,22.949,35.645,48.828,66.406,28.320,0
1583421601.594,30.762,38.574,40.527,73.242,49.316,0
1583421601.598,33.203,39.551,36.133,78.613,55.664,0
1583421601.601,23.926,35.156,46.875,71.289,-7.812,0
1583421601.605,26.367,39.062,51.758,70.801,2.930,0
1583421601.609,25.879,39.062,53.223,69.824,65.430,0
1583421601.613,30.762,34.180,52.246,66.895,79.102,0
1583421601.617,33.203,33.691,47.363,69.824,94.727,0
1583421601.614,29.297,35.645,46.875,71.289,41.016,0
1583421601.618,32.715,37.109,52.246,71.777,18.555,0
1583421601.622,36.133,38.574,49.805,70.801,52.246,0
1583421601.626,37.598,38.086,47.852,77.148,26.367,0
1583421601.630,26.367,32.227,50.781,81.543,5.371,0
1583421601.634,12.695,27.344,50.781,71.289,-43.945,0
1583421601.638,15.625,26.855,55.176,69.336,-30.273,0
1583421601.641,18.066,32.715,58.594,70.801,31.250,0
1583421601.645,10.254,34.180,50.293,65.918,13.184,0
1583421601.649,11.719,34.180,43.457,66.895,-1.465,0
1583421601.653,12.207,32.715,44.434,64.453,9.277,0
1583421601.657,12.695,28.809,50.781,63.477,-0.488,0
1583421601.674,12.207,27.344,55.664,63.477,40.039,0
1583421601.678,17.090,27.832,53.711,62.012,53.223,0
1583421601.682,24.902,33.203,55.176,66.406,18.066,0
1583421601.686,26.367,39.551,46.387,67.383,16.113,0
1583421601.690,31.250,34.180,41.504,68.359,33.203,0
1583421601.694,37.598,33.691,29.297,75.684,25.391,0
1583421601.698,35.156,39.062,29.785,70.312,15.137,0
1583421601.701,29.297,34.180,60.547,57.129,34.668,0
1583421601.705,25.391,31.738,69.336,51.270,60.059,0
1583421601.709,27.344,32.715,65.430,52.246,57.129,0
1583421601.713,36.621,34.180,66.406,62.988,45.898,0
1583421601.717,38.086,35.156,53.223,69.824,20.020,0
1583421601.714,33.691,37.598,42.969,65.918,-2.930,0
1583421601.718,36.133,40.039,50.781,63.477,29.297,0
1583421601.722,39.551,40.527,43.945,67.871,26.367,0
1583421601.726,35.156,40.039,40.039,66.895,36.621,0
1583421601.730,31.250,37.109,51.758,64.941,-0.977,0
1583421601.734,34.180,36.133,49.316,61.523,16.113,0
1583421601.738,32.715,38.086,46.387,56.641,118.652,0
1583421601.741,30.273,40.527,42.480,60.547,28.320,0
1583421601.745,35.645,41.992,36.133,63.477,-50.781,0
1583421601.749,32.715,38.574,51.758,57.129,23.926,0
1583421601.753,21.973,36.621,45.898,58.594,76.172,0
1583421601.757,26.367,39.551,30.273,70.801,36.133,0
1583421601.774,30.273,36.133,39.551,72.754,29.785,0
1583421601.778,30.273,32.227,61.035,68.359,69.824,0
1583421601.782,32.715,32.715,64.941,68.359,35.156,0
1583421601.786,37.598,35.156,60.059,70.801,18.066,0
1583421601.790,40.527,41.504,50.781,71.777,1.465,0
1583421601.794,40.527,42.480,34.180,70.312,2.441,0
1583421601.798,42.969,41.504,37.598,68.359,35.156,0
1583421601.801,41.504,44.922,46.387,64.941,27.344,0
1583421601.805,32.227,40.039,50.781,59.082,25.391,0
1583421601.809,26.855,37.109,55.664,58.105,1.465,0
1583421601.813,31.738,40.527,51.270,64.453,7.324,0
1583421601.817,27.344,41.504,47.363,65.430,25.391,0
1583421601.814,26.855,42.480,37.598,62.988,-10.742,0
1583421601.818,34.668,43.457,37.109,60.547,-10.742,0
1583421601.822,31.738,41.504,44.434,54.688,13.672,0
1583421601.826,28.320,39.062,34.180,56.641,61.523,0
1583421601.830,31.738,39.062,41.992,64.941,65.918,0
1583421601.834,36.621,40.039,47.363,65.918,24.414,0
1583421601.838,39.062,39.551,46.387,63.965,6.836,0
1583421601.841,36.621,38.086,55.664,59.082,41.016,0
1583421601.845,38.086,39.062,52.246,57.617,6.348,0
1583421601.849,39.062,38.574,45.410,62.988,0.977,0
1583421601.853,34.180,39.062,49.805,62.500,20.020,0
1583421601.857,34.668,42.480,46.387,60.059,9.766,0
1583421601.854,35.156,40.527,49.316,68.848,-2.441,0
1583421601.858,29.785,35.156,56.152,69.336,40.527,0
1583421601.862,25.391,35.156,53.711,65.918,46.387,0
1583421601.866,26.855,34.668,51.758,65.918,45.898,0
1583421601.870,30.273,34.668,53.223,64.453,73.730,0
1583421601.874,30.273,38.086,47.363,66.895,54.688,0
1583421601.878,26.367,39.551,49.805,65.918,61.523,0
1583421601.881,23.926,39.062,47.852,59.570,66.406,0
1583421601.885,30.762,39.551,52.246,55.664,3.418,0
1583421601.889,33.203,36.133,57.617,54.688,18.555,0
1583421601.893,30.273,30.762,50.293,58.594,45.898,0
1583421601.897,31.250,32.715,48.828,63.477,12.695,0
1583421601.914,27.344,35.156,46.387,65.918,39.551,0
1583421601.918,23.438,35.645,40.527,66.406,67.383,0
1583421601.922,26.855,37.598,33.691,69.824,51.758,0
1583421601.926,36.621,40.527,40.527,75.195,65.918,0
1583421601.930,35.645,36.133,62.012,70.801,90.820,0
1583421601.934,31.250,35.156,63.477,69.824,42.969,0
1583421601.938,32.227,42.480,50.293,69.336,62.012,0
1583421601.941,33.203,41.992,49.316,66.895,62.500,0
1583421601.945,31.250,39.551,53.223,67.383,8.301,0
1583421601.949,29.297,38.086,55.664,63.477,16.113,0
1583421601.953,32.227,35.645,56.641,63.965,27.832,0
1583421601.957,33.691,38.086,57.617,68.359,20.508,0
1583421601.954,24.902,41.016,49.316,66.406,39.551,0
1583421601.958,23.438,36.621,39.551,65.430,83.008,0
1583421601.962,27.344,38.086,41.992,74.219,104.980,0
1583421601.966,28.320,40.527,52.246,76.660,84.473,0
1583421601.970,31.250,40.527,50.293,72.754,83.008,0
1583421601.974,32.227,38.086,46.387,68.848,60.059,0
1583421601.978,25.879,35.645,46.875,65.918,36.621,0
1583421601.981,22.461,37.598,46.387,63.477,28.320,0
1583421601.985,19.043,39.551,53.223,58.594,51.270,0
1583421601.989,20.996,40.527,55.664,60.547,99.121,0
1583421601.993,27.832,40.527,52.246,59.082,83.496,0
1583421601.997,30.762,41.992,42.969,59.082,60.547,0
1583421601.995,30.762,43.945,41.992,67.871,41.016,0
1583421601.999,27.344,42.969,48.340,65.430,12.695,0
1583421602.003,23.926,41.504,43.457,62.988,-19.043,0
1583421602.007,22.949,41.504,42.480,68.359,24.414,0
1583421602.011,24.414,40.527,51.758,64.941,63.965,0
1583421602.015,25.879,41.016,53.223,61.523,15.137,0
1583421602.019,26.367,38.574,48.828,58.105,20.508,0
1583421602.022,23.438,37.109,49.805,54.199,55.176,0
1583421602.026,24.902,39.062,39.551,56.641,47.363,0
1583421602.030,25.879,39.551,35.645,56.152,12.695,0
1583421602.034,17.578,32.715,44.434,52.734,3.418,0
1583421602.038,18.066,30.273,45.898,56.641,-16.113,0
1583421602.054,22.461,35.156,43.945,62.988,18.066,0
1583421602.058,25.879,37.598,43.945,66.895,34.668,0
1583421602.062,27.344,39.551,48.828,65.430,33.691,0
1583421602.066,29.785,38.574,46.387,65.430,77.148,0
1583421602.070,35.156,39.551,46.387,70.801,97.168,0
1583421602.074,39.062,42.969,47.363,72.754,52.246,0
1583421602.078,34.668,40.039,42.480,65.430,54.199,0
1583421602.081,31.738,38.574,44.922,59.082,56.152,0
1583421602.085,28.809,39.551,49.805,57.617,23.438,0
1583421602.089,26.367,37.109,47.363,58.105,19.043,0
1583421602.093,27.832,37.598,45.410,63.477,21.484,0
1583421602.097,28.809,41.504,48.340,62.012,38.574,0
1583421602.094,31.250,40.039,42.969,59.570,20.508,0
1583421602.098,38.086,36.133,32.227,64.453,-32.715,0
1583421602.102,33.691,36.133,40.039,62.500,11.719,0
1583421602.106,21.973,36.133,49.316,54.688,58.594,0
1583421602.110,24.902,34.668,52.246,52.734,20.996,0
1583421602.114,26.855,33.203,58.594,55.664,54.688,0
1583421602.118,27.832,31.738,56.152,61.035,104.004,0
1583421602.121,29.297,31.738,52.734,62.988,76.660,0
1583421602.125,26.367,32.227,49.805,61.523,46.875,0
1583421602.129,27.344,33.691,50.293,63.477,74.219,0
1583421602.133,30.273,37.109,54.688,63.965,62.500,0
1583421602.137,28.320,38.574,55.664,60.059,31.250,0
1583421602.134,30.273,39.062,53.223,63.965,41.504,0
1583421602.138,36.621,34.668,43.457,67.871,62.500,0
1583421602.142,37.598,36.133,43.457,69.336,36.133,0
1583421602.146,35.156,40.527,48.340,69.824,25.391,0
1583421602.150,38.086,37.598,43.945,71.289,48.340,0
1583421602.154,38.574,33.203,48.340,74.219,73.730,0
1583421602.158,41.016,29.297,51.270,78.613,59.570,0
1583421602.161,41.992,33.691,53.223,83.496,4.395,0
1583421602.165,39.062,41.016,48.340,79.590,26.367,0
1583421602.169,40.039,39.551,41.016,74.707,57.617,0
1583421602.173,37.598,34.668,46.875,72.754,32.715,0
1583421602.177,32.715,35.156,53.711,69.336,38.574,0
1583421602.194,35.645,37.109,52.246,64.453,65.918,0
1583421602.198,36.133,37.598,52.246,64.453,10.742,0
1583421602.202,31.250,39.551,49.805,68.359,28.809,0
1583421602.206,34.180,41.992,39.062,69.336,73.242,0
1583421602.210,35.645,41.504,40.039,67.871,-7.324,0
1583421602.214,38.086,40.039,45.410,67.383,-14.648,0
1583421602.218,35.645,41.016,47.363,68.848,46.387,0
1583421602.221,25.879,40.039,56.641,65.430,28.320,0
1583421602.225,31.250,41.016,56.152,63.477,11.719,0
1583421602.229,34.180,40.527,49.316,62.988,15.625,0
1583421602.233,27.344,41.016,50.293,62.012,30.762,0
1583421602.237,32.715,46.387,49.805,71.289,13.672,0
1583421602.235,34.668,42.480,39.062,69.336,30.762,0
1583421602.239,27.344,37.109,44.922,58.594,16.602,0
1583421602.243,23.926,37.598,58.594,60.059,3.906,0
1583421602.247,24.414,38.574,55.176,64.453,31.250,0
1583421602.251,29.297,40.527,47.363,65.918,33.691,0
1583421602.255,30.273,42.480,48.340,66.895,26.367,0
1583421602.259,30.762,41.504,51.270,67.383,59.570,0
1583421602.262,28.809,38.574,53.711,69.336,67.871,0
1583421602.266,26.855,37.598,53.711,72.266,-3.418,0
1583421602.270,30.762,41.992,48.828,74.707,-34.668,0
1583421602.274,31.250,42.480,44.922,71.777,-3.906,0
1583421602.278,34.180,41.504,50.293,72.266,56.152,0
1583421602.274,34.180,43.457,55.176,76.660,88.379,0
1583421602.278,31.738,43.457,51.758,72.266,46.875,0
1583421602.282,37.598,45.410,55.664,70.312,42.480,0
1583421602.286,40.039,48.340,55.176,73.730,35.645,0
1583421602.290,40.039,47.852,45.898,74.219,-20.996,0
1583421602.294,38.086,47.363,44.434,74.219,-13.184,0
1583421602.298,31.738,42.969,39.062,69.336,1.465,0
1583421602.301,34.180,40.527,41.504,71.289,-9.277,0
1583421602.305,38.086,43.457,56.152,69.336,61.523,0
1583421602.309,28.809,39.062,60.059,60.059,29.785,0
1583421602.313,20.996,33.203,56.641,58.594,-39.551,0
1583421602.317,23.926,36.621,57.617,59.570,39.551,0
1583421602.334,24.414,40.527,51.270,61.035,50.293,0
1583421602.338,23.438,39.551,48.340,59.570,26.367,0
1583421602.342,20.996,37.109,46.387,57.129,36.133,0
1583421602.346,18.555,41.504,43.457,54.688,31.250,0
1583421602.350,23.438,43.945,44.922,58.594,10.742,0
1583421602.354,27.832,40.039,44.434,63.965,30.273,0
1583421602.358,25.391,39.062,47.363,61.523,47.852,0
1583421602.361,28.320,39.551,38.574,58.105,0.977,0
1583421602.365,27.832,37.598,34.668,61.523,-16.113,0
1583421602.369,26.855,35.156,47.852,61.523,13.184,0
1583421602.373,37.109,35.645,46.387,65.918,28.320,0
1583421602.377,38.574,39.062,41.992,70.801,37.109,0
1583421602.394,26.367,38.574,41.504,63.477,34.668,0
1583421602.398,24.902,36.621,42.480,62.988,21.973,0
1583421602.402,32.715,35.156,43.945,68.848,2.930,0
1583421602.406,28.320,33.691,50.781,61.523,20.996,0
1583421602.410,25.391,34.668,58.105,60.059,66.895,0
1583421602.414,27.344,35.645,55.176,65.430,63.477,0
1583421602.418,28.809,35.156,51.758,62.012,71.289,0
1583421602.421,31.738,36.133,44.922,61.035,92.285,0
1583421602.425,32.227,38.086,40.039,63.477,64.453,0
1583421602.429,30.762,40.039,37.109,70.312,29.297,0
1583421602.433,24.902,39.062,37.598,71.777,68.359,0
1583421602.437,25.391,38.574,42.969,65.918,100.098,0
1583421602.414,26.367,39.551,53.711,62.500,19.531,0
1583421602.418,27.344,38.086,51.270,63.965,-45.898,0
1583421602.422,29.785,37.598,49.316,59.570,31.250,0
1583421602.426,32.715,35.645,52.246,59.570,65.918,0
1583421602.430,32.715,33.203,49.316,61.523,65.430,0
1583421602.434,34.668,36.133,45.410,63.965,67.871,0
1583421602.438,31.738,37.109,37.598,67.871,-23.926,0
1583421602.441,28.320,34.180,39.062,65.430,-38.574,0
1583421602.445,27.832,31.738,48.828,61.035,14.648,0
1583421602.449,24.414,34.668,45.410,59.082,7.324,0
1583421602.453,27.832,38.574,44.922,61.035,-29.785,0
1583421602.457,32.715,39.062,50.781,62.500,-43.945,0
1583421602.474,33.203,37.109,50.293,65.918,24.414,0
1583421602.478,31.250,33.203,43.945,63.477,36.621,0
1583421602.482,29.785,32.715,35.645,63.965,57.617,0
1583421602.486,29.785,36.133,35.156,67.871,66.895,0
1583421602.490,24.414,36.133,41.016,63.965,32.227,0
1583421602.494,29.297,40.039,37.598,70.312,-26.855,0
1583421602.498,34.180,39.551,37.109,74.707,-11.719,0
1583421602.501,28.320,34.668,43.457,66.895,33.203,0
1583421602.505,24.902,34.180,52.734,62.012,13.672,0
1583421602.509,19.043,33.203,57.617,54.199,28.320,0
1583421602.513,19.043,34.668,44.922,47.363,38.086,0
1583421602.517,21.973,37.109,45.898,48.828,42.480,0
1583421602.514,18.066,38.086,46.387,50.293,31.738,0
1583421602.518,15.137,36.133,41.016,47.852,50.781,0
1583421602.522,14.160,36.621,43.945,48.828,84.473,0
1583421602.526,10.742,34.668,46.875,54.199,81.055,0
1583421602.530,13.672,33.691,49.805,58.594,85.449,0
1583421602.534,13.184,35.645,51.270,58.105,74.707,0
1583421602.538,11.230,34.668,36.621,57.617,49.316,0
1583421602.541,18.555,38.574,34.180,62.988,33.691,0
1583421602.545,13.184,43.457,57.129,61.035,13.184,0
1583421602.549,10.254,46.387,62.012,60.059,-13.672,0
1583421602.553,3.906,44.434,51.758,44.922,10.254,0
1583421602.557,-1.953,45.898,52.246,39.551,33.203,0
1583421602.554,-6.348,47.363,52.734,39.062,63.477,0
1583421602.558,-12.695,46.387,51.270,25.391,93.262,0
1583421602.562,-13.672,53.223,62.500,21.484,35.645,0
1583421602.566,-33.203,51.758,60.547,3.906,21.973,0
1583421602.570,-45.410,52.246,55.664,-10.254,14.160,0
1583421602.574,-55.176,60.059,64.941,-17.578,18.066,0
1583421602.578,-78.125,62.988,62.012,-38.086,76.172,0
1583421602.581,-98.145,63.965,60.547,-61.523,56.641,0
1583421602.585,-112.793,62.988,65.918,-83.008,74.707,0
1583421602.589,-127.930,62.012,61.035,-98.145,105.957,0
1583421602.593,-132.324,66.895,56.641,-107.422,80.566,0
1583421602.597,-136.230,65.430,56.152,-117.188,41.504,0
1583421602.614,-142.090,64.453,63.477,-119.629,47.363,0
1583421602.618,-141.602,61.523,72.266,-117.188,53.223,0
1583421602.622,-132.324,55.176,69.336,-112.793,49.805,0
1583421602.626,-117.676,53.711,60.547,-99.609,72.266,0
1583421602.630,-96.680,49.805,51.270,-77.637,-6.348,0
1583421602.634,-70.801,47.363,52.246,-50.781,1.465,0
1583421602.638,-54.688,50.781,39.551,-31.250,121.582,0
1583421602.641,-40.527,48.340,29.297,-20.020,76.172,0
1583421602.645,-18.555,42.480,53.223,-2.441,-7.324,0
1583421602.649,2.930,39.062,52.246,17.090,5.859,0
1583421602.653,23.438,38.574,39.551,36.621,-8.301,0
1583421602.657,41.992,41.016,36.621,47.852,26.855,0
1583421602.654,54.688,38.086,31.250,55.664,74.707,0
1583421602.658,63.477,33.203,28.320,71.777,16.602,0
1583421602.662,67.383,33.691,29.297,83.496,34.180,0
1583421602.666,76.660,39.062,36.621,92.773,-3.906,0
1583421602.670,85.938,40.527,29.785,97.168,-20.508,0
1583421602.674,90.332,39.062,25.391,103.027,84.473,0
1583421602.678,100.098,40.527,33.203,115.723,80.078,0
1583421602.681,101.562,38.574,28.809,120.605,-3.906,0
1583421602.685,100.586,36.133,28.809,121.094,-8.789,0
1583421602.689,106.445,39.551,28.809,117.676,8.301,0
1583421602.693,107.910,39.551,27.832,119.141,6.348,0
1583421602.697,111.328,39.551,30.273,128.418,-5.371,0
1583421602.694,112.305,37.109,26.855,129.395,38.086,0
1583421602.698,116.211,36.133,29.297,128.418,44.922,0
1583421602.702,118.652,40.527,31.738,126.953,28.320,0
1583421602.706,105.469,37.598,36.621,121.582,73.242,0
1583421602.710,97.656,38.086,42.969,120.117,24.414,0
1583421602.714,93.750,38.574,39.062,117.676,-22.461,0
1583421602.718,85.449,35.645,34.180,115.234,13.184,0
1583421602.721,85.938,36.621,30.762,111.816,42.969,0
1583421602.725,88.379,37.598,22.949,105.957,41.504,0
1583421602.729,85.449,36.621,25.391,104.004,15.137,0
1583421602.733,79.590,35.156,30.273,104.492,-11.230,0
1583421602.737,75.195,34.668,32.227,104.980,-27.344,0
1583421602.754,78.125,34.668,45.410,103.516,-6.836,0
1583421602.758,83.008,33.203,42.480,100.098,56.641,0
1583421602.762,83.008,36.133,39.062,101.562,62.500,0
1583421602.766,79.102,36.621,40.039,103.027,53.711,0
1583421602.770,78.125,35.645,39.062,103.027,62.500,0
1583421602.774,80.566,42.480,43.945,106.445,61.523,0
1583421602.778,79.102,40.527,25.391,102.539,55.664,0
1583421602.781,70.801,34.180,24.414,99.121,47.363,0
1583421602.785,66.406,35.645,54.199,95.215,26.855,0
1583421602.789,63.477,31.738,52.734,88.379,-6.836,0
1583421602.793,66.895,37.598,41.992,88.379,-37.109,0
1583421602.797,69.336,39.551,39.551,87.891,-15.137,0
1583421602.794,67.871,35.645,45.898,90.332,-18.555,0
1583421602.798,65.918,36.621,51.758,96.680,-14.160,0
1583421602.802,62.012,36.621,42.480,94.727,34.180,0
1583421602.806,61.523,36.621,43.457,91.309,20.020,0
1583421602.810,57.129,34.668,49.805,91.797,-22.949,0
1583421602.814,56.152,33.203,53.223,92.773,-1.465,0
1583421602.818,62.012,35.156,48.340,90.332,40.527,0
1583421602.821,63.965,34.180,39.551,85.449,33.691,0
1583421602.825,59.570,34.668,48.340,89.355,73.730,0
1583421602.829,54.688,35.645,46.875,86.426,79.590,0
1583421602.833,48.340,32.227,37.598,75.195,64.941,0
1583421602.837,46.875,32.715,36.621,78.125,32.227,0
1583421602.834,45.410,37.598,38.574,81.543,15.137,0
1583421602.838,42.480,39.551,40.527,76.172,20.020,0
1583421602.842,37.598,36.621,40.527,71.289,-6.836,0
1583421602.846,36.133,37.109,42.480,68.359,14.648,0
1583421602.850,39.551,38.574,42.969,73.242,18.066,0
1583421602.854,41.504,37.109,38.086,82.520,20.020,0
1583421602.858,40.039,37.109,30.273,81.543,7.324,0
1583421602.861,35.645,38.574,23.438,74.219,35.645,0
1583421602.865,30.762,37.598,36.621,68.359,47.852,0
1583421602.869,27.344,32.715,52.246,64.941,-10.254,0
1583421602.873,23.438,31.250,53.223,65.430,6.348,0
1583421602.877,23.438,33.203,51.270,66.895,18.066,0
1583421602.894,28.320,34.180,49.805,70.312,-13.184,0
1583421602.898,31.250,35.156,45.898,74.707,50.781,0
1583421602.902,30.762,39.062,33.691,72.266,49.316,0
1583421602.906,27.832,37.109,39.062,64.941,47.363,0
1583421602.910,22.949,39.062,40.039,66.406,83.008,0
1583421602.914,23.926,43.945,39.551,70.801,72.754,0
1583421602.918,22.949,38.574,41.992,64.941,114.746,0
1583421602.921,16.602,35.156,37.598,61.035,7.812,0
1583421602.925,9.766,33.203,49.805,60.547,-30.762,0
1583421602.929,8.301,33.203,49.316,63.965,56.641,0
1583421602.933,9.277,35.156,42.969,69.336,45.410,0
1583421602.937,13.184,33.691,36.621,68.359,62.012,0
1583421602.934,19.043,34.180,39.062,65.430,66.895,0
1583421602.938,19.531,32.715,45.410,62.988,23.926,0
1583421602.942,19.531,32.227,39.551,60.059,41.016,0
1583421602.946,22.461,34.668,39.551,59.570,64.453,0
1583421602.950,23.926,37.109,41.992,57.129,55.176,0
1583421602.954,25.879,35.645,42.969,56.641,81.543,0
1583421602.958,32.227,33.691,39.551,61.523,91.309,0
1583421602.961,35.645,33.691,44.434,64.941,44.434,0
1583421602.965,40.527,38.086,44.434,67.383,5.371,0
1583421602.969,43.945,39.062,38.574,63.965,36.133,0
1583421602.973,41.992,35.645,40.039,62.500,45.410,0
1583421602.977,39.062,38.574,43.945,65.918,18.066,0
1583421602.974,36.621,41.992,36.621,65.430,27.832,0
1583421602.978,35.645,41.992,27.832,63.477,12.207,0
1583421602.982,37.598,39.551,33.691,63.965,3.418,0
1583421602.986,36.621,37.109,32.227,65.918,94.727,0
1583421602.990,34.180,33.691,33.691,68.848,111.328,0
1583421602.994,33.203,29.297,45.410,67.871,35.645,0
1583421602.998,35.156,30.762,58.105,68.848,41.016,0
1583421603.001,41.504,35.156,49.805,72.754,42.969,0
1583421603.005,40.527,33.691,46.875,66.406,3.418,0
1583421603.009,41.992,36.133,44.922,67.383,70.312,0
1583421603.013,49.316,35.156,29.297,78.613,57.617,0
1583421603.017,44.434,32.715,42.969,81.055,-56.152,0
1583421603.034,22.949,40.527,52.246,66.895,-23.438,0
1583421603.038,17.090,41.992,46.387,58.105,-6.348,0
1583421603.042,28.320,41.992,43.457,61.035,4.883,0
1583421603.046,27.344,40.039,40.527,56.641,79.102,0
1583421603.050,28.809,40.039,35.645,61.523,62.988,0
1583421603.054,32.227,43.457,38.086,61.523,-4.883,0
1583421603.058,27.344,39.551,41.504,60.059,60.059,0
1583421603.061,28.320,38.574,45.410,64.941,114.258,0
1583421603.065,27.832,40.039,42.969,63.477,50.293,0
1583421603.069,28.809,38.086,25.391,63.965,6.348,0
1583421603.073,36.133,38.086,41.016,62.988,4.883,0
1583421603.077,37.598,37.598,58.594,56.152,1.465,0
1583421603.074,38.574,36.133,46.387,59.082,15.625,0
1583421603.078,37.109,40.039,39.551,63.965,26.855,0
1583421603.082,34.180,37.598,44.922,62.988,111.816,0
1583421603.086,41.016,38.086,44.922,64.453,128.906,0
1583421603.090,39.551,41.504,41.504,68.359,-3.418,0
1583421603.094,28.809,39.062,38.574,71.289,34.180,0
1583421603.098,25.391,36.133,37.109,71.777,80.566,0
1583421603.101,29.297,33.203,42.480,68.848,-8.301,0
1583421603.105,31.738,38.574,49.805,69.824,5.859,0
1583421603.109,25.879,40.527,52.246,71.777,66.895,0
1583421603.113,28.320,37.598,51.758,67.383,39.062,0
1583421603.117,36.133,40.527,48.828,62.012,15.625,0
1583421603.114,38.086,41.992,43.457,62.988,34.180,0
1583421603.118,41.016,40.527,41.992,69.824,52.734,0
1583421603.122,41.504,44.434,44.922,68.848,23.438,0
1583421603.126,37.598,45.410,30.273,62.988,12.695,0
1583421603.130,37.109,41.504,29.297,63.477,48.340,0
1583421603.134,37.109,38.574,62.500,66.406,3.418,0
1583421603.138,38.086,36.133,62.012,69.336,-33.691,0
1583421603.141,39.551,37.598,50.781,66.406,12.207,0
1583421603.145,38.574,41.016,49.805,62.500,1.465,0
1583421603.149,40.039,41.016,46.875,66.895,40.039,0
1583421603.153,43.457,40.527,46.387,67.383,56.641,0
1583421603.157,42.969,40.039,49.316,65.430,7.812,0
1583421603.174,38.086,39.551,50.293,62.988,28.320,0
1583421603.178,39.062,40.039,41.016,62.500,91.309,0
1583421603.182,41.992,37.109,23.438,62.988,83.008,0
1583421603.186,42.969,35.645,29.297,62.500,15.625,0
1583421603.190,49.316,35.645,46.387,60.547,8.301,0
1583421603.194,44.434,37.598,53.223,57.129,5.371,0
1583421603.198,35.645,38.574,50.293,59.570,12.695,0
1583421603.201,36.621,38.086,51.270,61.523,62.500,0
1583421603.205,43.945,40.527,50.781,62.988,73.242,0
1583421603.209,46.875,42.480,43.945,65.918,65.918,0
1583421603.213,43.945,42.969,43.945,69.336,54.688,0
1583421603.217,44.434,40.039,42.480,72.266,23.926,0
1583421603.214,46.387,37.598,36.133,71.289,7.324,0
1583421603.218,49.316,36.621,43.457,69.824,-7.812,0
1583421603.222,50.293,35.156,37.598,73.730,-21.484,0
1583421603.226,44.922,36.621,37.598,74.707,14.648,0
1583421603.230,36.133,37.598,54.199,67.383,73.242,0
1583421603.234,34.180,38.574,51.270,63.477,53.223,0
1583421603.238,34.180,37.109,39.551,59.570,22.949,0
1583421603.241,32.715,37.109,41.016,58.105,53.223,0
1583421603.245,37.109,37.109,49.316,60.059,61.523,0
1583421603.249,38.574,34.180,52.734,58.105,37.598,0
1583421603.253,36.133,39.062,32.715,58.594,40.039,0
1583421603.257,36.133,42.969,29.785,59.082,14.648,0
1583421603.274,35.645,41.504,45.898,56.641,-10.742,0
1583421603.278,39.551,42.969,41.992,59.082,34.180,0
1583421603.282,41.016,44.922,41.504,58.105,49.316,0
1583421603.286,39.062,40.039,47.363,57.129,18.555,0
1583421603.290,39.551,39.551,43.457,62.988,43.457,0
1583421603.294,41.016,38.574,47.363,66.895,97.656,0
1583421603.298,39.551,37.598,55.176,68.848,60.547,0
1583421603.301,35.645,39.062,50.293,68.848,71.289,0
1583421603.305,36.133,39.551,46.387,68.359,96.680,0
1583421603.309,34.668,43.945,43.945,73.242,49.805,0
1583421603.313,30.762,43.945,46.387,72.754,38.086,0
1583421603.317,33.691,42.480,42.480,68.848,23.926,0
1583421603.314,38.574,42.480,45.898,65.430,-36.621,0
1583421603.318,37.598,41.016,45.898,60.547,9.766,0
1583421603.322,41.504,42.480,33.203,59.570,10.254,0
1583421603.326,44.434,40.527,35.645,62.500,-4.395,0
1583421603.330,42.969,38.086,48.340,62.988,-7.812,0
1583421603.334,42.969,37.598,51.758,64.453,3.418,0
1583421603.338,38.574,36.621,48.828,67.383,11.230,0
1583421603.341,37.109,42.480,45.898,69.824,58.105,0
1583421603.345,38.574,48.340,37.598,71.777,50.293,0
1583421603.349,41.504,47.852,39.551,70.801,49.316,0
1583421603.353,40.039,43.945,29.297,71.289,113.770,0
1583421603.357,36.133,38.574,20.996,70.312,108.398,0
1583421603.354,35.156,36.133,45.410,62.988,67.871,0
1583421603.358,39.062,36.133,56.641,60.059,41.992,0
1583421603.362,37.109,37.109,54.688,60.547,25.879,0
1583421603.366,34.668,39.551,49.316,57.129,30.273,0
1583421603.370,31.738,40.527,48.340,59.082,20.020,0
1583421603.374,27.344,38.574,47.363,64.941,17.578,0
1583421603.378,28.809,38.086,44.922,67.383,4.883,0
1583421603.381,34.180,39.551,41.992,64.941,37.598,0
1583421603.385,41.016,43.945,41.016,67.383,59.082,0
1583421603.389,38.086,41.992,46.875,69.336,79.102,0
1583421603.393,28.320,34.180,50.781,62.500,39.062,0
1583421603.397,27.344,31.250,51.758,59.570,13.672,0
1583421603.414,26.367,31.738,48.828,58.105,74.707,0
1583421603.418,26.367,33.203,47.852,58.594,9.277,0
1583421603.422,22.461,32.715,44.434,58.105,-35.645,0
1583421603.426,22.461,33.203,42.480,54.688,-49.805,0
1583421603.430,28.809,36.133,43.457,56.641,-29.785,0
1583421603.434,28.809,36.133,37.109,62.500,27.832,0
1583421603.438,35.156,38.574,37.109,62.988,65.918,0
1583421603.441,37.598,37.598,43.945,59.570,25.391,0
1583421603.445,30.762,30.273,43.457,57.129,0.977,0
1583421603.449,31.738,33.691,44.434,60.059,49.316,0
1583421603.453,34.180,39.551,30.273,64.941,72.754,0
1583421603.457,35.156,38.086,39.062,64.941,36.133,0
1583421603.454,33.691,32.715,57.617,62.012,53.711,0
1583421603.458,31.738,32.715,54.688,64.453,77.148,0
1583421603.462,29.785,39.551,47.852,63.477,3.906,0
1583421603.466,27.344,42.480,40.039,60.059,14.160,0
1583421603.470,26.855,40.039,45.898,58.105,41.992,0
1583421603.474,29.785,40.527,47.363,58.105,28.320,0
1583421603.478,34.668,41.016,43.945,59.082,70.312,0
1583421603.481,36.133,40.039,41.016,62.012,93.750,0
1583421603.485,32.715,41.016,30.273,63.965,38.574,0
1583421603.489,35.156,43.457,39.551,64.941,7.812,0
1583421603.493,38.574,42.480,54.199,64.941,9.766,0
1583421603.497,36.621,40.527,57.617,62.988,-14.648,0
1583421603.494,41.016,43.457,45.898,64.453,-21.484,0
1583421603.498,43.457,40.527,41.504,65.918,10.254,0
1583421603.502,44.434,41.016,44.922,69.336,21.973,0
1583421603.506,41.016,42.480,39.551,68.848,17.090,0
1583421603.510,42.480,41.992,51.270,65.918,41.016,0
1583421603.514,51.758,41.992,43.457,72.266,4.395,0
1583421603.518,42.480,38.086,30.273,69.824,5.371,0
1583421603.521,34.180,36.621,42.969,60.547,23.926,0
1583421603.525,36.133,36.621,58.594,59.570,-35.645,0
1583421603.529,32.715,38.574,52.246,58.594,28.320,0
1583421603.533,32.227,39.062,34.668,58.105,37.598,0
1583421603.537,35.156,35.645,39.062,62.012,19.531,0
1583421603.554,34.180,36.621,47.852,65.430,27.344,0
1583421603.558,39.062,40.039,42.969,66.895,-36.621,0
1583421603.562,43.457,41.016,41.016,67.871,0.000,0
1583421603.566,32.715,41.504,41.016,67.383,30.762,0
1583421603.570,30.273,41.992,36.133,65.430,27.832,0
1583421603.574,35.645,44.434,36.133,66.895,44.434,0
1583421603.578,38.574,45.898,37.598,66.895,86.914,0
1583421603.581,38.086,43.457,35.156,61.035,104.980,0
1583421603.585,38.574,41.504,37.598,63.477,63.965,0
1583421603.589,41.992,39.062,52.734,74.707,111.816,0
1583421603.593,37.598,36.133,55.664,69.824,66.895,0
1583421603.597,30.273,35.645,52.734,56.152,-24.414,0
1583421603.614,29.297,36.621,46.387,50.781,-16.602,0
1583421603.618,22.461,33.691,46.387,55.176,8.789,0
1583421603.622,19.531,32.715,44.434,59.082,37.109,0
1583421603.626,23.438,31.250,48.340,62.012,68.359,0
1583421603.630,24.414,30.762,61.523,65.918,78.125,0
1583421603.634,25.391,32.227,61.523,67.871,14.648,0
1583421603.638,26.367,31.738,53.711,70.312,-28.320,0
1583421603.641,30.273,33.691,42.480,72.266,22.949,0
1583421603.645,27.832,31.738,46.387,69.824,44.434,0
1583421603.649,22.461,32.715,60.547,66.895,18.555,0
1583421603.653,23.926,35.156,61.523,64.453,18.555,0
1583421603.657,23.926,34.180,57.617,62.012,19.531,0
1583421603.654,23.438,34.180,56.641,61.523,24.902,0
1583421603.658,25.391,33.203,46.387,62.988,27.344,0
1583421603.662,34.668,35.156,43.457,67.383,26.855,0
1583421603.666,33.691,38.574,47.363,66.895,67.871,0
1583421603.670,24.902,38.086,55.664,67.383,38.574,0
1583421603.674,28.320,36.133,56.641,73.730,16.602,0
1583421603.678,34.668,36.133,48.828,72.266,37.598,0
1583421603.681,42.969,40.527,50.781,72.754,6.348,0
1583421603.685,40.527,40.527,34.180,68.848,29.297,0
1583421603.689,27.344,39.551,30.762,59.082,65.430,0
1583421603.693,25.879,38.574,54.688,59.082,22.949,0
1583421603.697,25.391,35.645,62.988,57.617,-16.113,0
1583421603.694,23.926,33.203,40.039,56.641,56.152,0
1583421603.698,25.879,38.574,23.438,57.129,117.676,0
1583421603.702,21.484,41.016,44.922,57.617,72.754,0
1583421603.706,22.949,38.574,61.035,58.105,31.250,0
1583421603.710,27.832,34.668,55.664,58.105,-18.555,0
1583421603.714,28.320,36.621,48.340,62.988,-6.836,0
1583421603.718,28.809,39.062,50.293,66.406,12.695,0
1583421603.721,33.203,37.598,41.992,68.848,17.090,0
1583421603.725,36.621,36.133,43.457,69.824,61.523,0
1583421603.729,39.551,37.109,50.781,69.824,30.762,0
1583421603.733,34.180,38.086,49.805,69.824,66.895,0
1583421603.737,39.551,39.551,51.270,68.359,63.965,0
1583421603.734,42.969,41.504,41.504,65.918,-15.625,0
1583421603.738,33.203,38.574,37.598,61.523,25.879,0
1583421603.742,33.691,40.039,51.270,62.012,17.578,0
1583421603.746,33.203,41.016,51.270,62.988,-30.762,0
1583421603.750,32.227,38.086,48.340,60.547,25.391,0
1583421603.754,36.133,37.598,46.387,59.082,70.801,0
1583421603.758,33.691,39.062,48.828,61.035,76.172,0
1583421603.761,31.250,39.062,48.340,62.500,91.797,0
1583421603.765,32.715,37.598,38.574,60.547,66.895,0
1583421603.769,32.715,40.039,46.387,60.547,55.664,0
1583421603.773,31.738,42.480,47.852,59.082,103.516,0
1583421603.777,29.785,39.551,34.668,61.523,99.609,0
1583421603.774,33.203,41.504,40.527,70.312,55.176,0
1583421603.778,29.785,40.039,43.457,67.383,9.766,0
1583421603.782,28.809,37.598,55.664,60.547,27.344,0
1583421603.786,24.902,37.598,59.082,58.105,62.500,0
1583421603.790,18.555,36.621,50.781,55.664,79.590,0
1583421603.794,28.809,37.109,51.270,57.129,35.156,0
1583421603.798,34.668,37.598,46.387,59.570,-20.020,0
1583421603.801,35.156,39.551,41.992,63.477,52.246,0
1583421603.805,36.621,41.992,41.504,68.848,38.574,0
1583421603.809,32.227,40.527,39.062,68.359,-17.578,0
1583421603.813,35.645,40.039,41.016,69.824,-42.969,0
1583421603.817,40.039,41.016,46.387,74.219,-42.480,0
1583421603.834,30.273,38.574,44.434,68.848,62.988,0
1583421603.838,22.949,37.109,45.898,64.941,42.480,0
1583421603.842,24.414,36.133,43.457,60.059,-10.254,0
1583421603.846,25.879,34.668,47.852,56.152,25.391,0
1583421603.850,26.367,35.645,51.758,59.570,13.672,0
1583421603.854,33.203,39.062,48.340,63.965,-24.902,0
1583421603.858,37.598,39.062,48.340,57.617,15.625,0
1583421603.861,31.250,37.598,48.340,55.176,33.203,0
1583421603.865,29.785,38.086,38.086,64.453,38.086,0
1583421603.869,32.227,36.621,39.551,61.523,4.883,0
1583421603.873,30.273,37.109,47.363,59.570,-41.992,0
1583421603.877,24.902,37.598,45.410,59.082,13.672,0
1583421603.874,24.902,36.621,42.969,58.105,57.617,0
1583421603.878,31.250,37.109,37.109,61.035,43.945,0
1583421603.882,30.762,40.039,39.551,63.965,26.855,0
1583421603.886,26.367,41.504,40.039,60.059,25.879,0
1583421603.890,26.367,40.039,40.039,56.152,31.250,0
1583421603.894,29.297,38.574,52.734,60.059,24.902,0
1583421603.898,26.367,39.551,54.199,63.477,7.812,0
1583421603.901,25.391,39.062,41.992,63.477,17.578,0
1583421603.905,21.484,36.133,37.598,60.059,25.879,0
1583421603.909,24.414,39.062,49.316,65.430,32.227,0
1583421603.913,29.297,40.527,54.688,69.824,47.852,0
1583421603.917,27.344,40.527,48.828,69.824,55.176,0
1583421603.914,23.926,42.480,49.316,62.500,39.551,0
1583421603.918,22.949,41.016,49.316,60.059,38.574,0
1583421603.922,19.531,43.945,47.363,57.617,39.062,0
1583421603.926,18.555,46.387,49.316,53.223,2.441,0
1583421603.930,20.508,47.852,49.805,52.246,-18.066,0
1583421603.934,12.695,51.270,52.734,43.457,-46.875,0
1583421603.938,2.441,48.340,53.711,35.645,-27.832,0
1583421603.941,-5.859,50.781,52.246,33.203,25.879,0
1583421603.945,-21.484,56.152,57.617,18.066,3.906,0
1583421603.949,-50.293,50.781,55.176,-13.672,17.578,0
1583421603.953,-74.707,51.758,59.082,-33.691,45.898,0
1583421603.957,-96.680,56.641,66.406,-55.176,17.090,0
1583421603.974,-117.188,58.105,67.383,-80.566,41.504,0
1583421603.978,-135.742,59.570,67.871,-104.980,40.039,0
1583421603.982,-152.344,62.012,70.312,-123.047,-36.621,0
1583421603.986,-171.387,59.082,66.406,-137.695,42.480,0
1583421603.990,-181.641,53.711,65.918,-145.508,73.242,0
1583421603.994,-177.734,54.199,59.082,-141.602,10.254,0
1583421603.998,-176.758,58.105,56.152,-144.531,38.574,0
1583421604.001,-166.504,57.617,65.430,-139.648,1.953,0
1583421604.005,-140.625,55.176,63.477,-113.281,23.926,0
1583421604.009,-115.723,55.664,60.547,-94.238,107.422,0
1583421604.013,-94.238,56.641,46.387,-78.125,44.434,0
1583421604.017,-71.289,53.711,34.668,-54.199,12.207,0
1583421604.014,-51.758,55.664,41.992,-30.273,48.340,0
1583421604.018,-30.762,59.082,40.527,-11.719,6.836,0
1583421604.022,-4.883,56.152,35.156,6.836,6.836,0
1583421604.026,14.648,56.152,27.832,30.762,17.578,0
1583421604.030,27.344,56.641,17.578,54.199,-9.277,0
1583421604.034,38.574,50.293,17.090,68.848,21.484,0
1583421604.038,47.852,45.898,28.809,74.219,20.508,0
1583421604.041,59.570,44.434,37.598,83.496,8.789,0
1583421604.045,71.777,40.039,34.180,97.168,22.949,0
1583421604.049,80.566,37.109,25.879,105.469,60.547,0
1583421604.053,83.496,38.574,36.621,109.863,24.414,0
1583421604.057,89.355,38.086,40.527,115.234,-58.105,0
1583421604.054,99.609,38.574,29.785,123.047,-51.758,0
1583421604.058,105.469,37.109,29.785,130.859,-25.391,0
1583421604.062,105.469,38.086,34.180,131.836,0.977,0
1583421604.066,104.004,37.598,33.691,129.883,10.254,0
1583421604.070,104.980,31.250,28.320,134.766,43.457,0
1583421604.074,114.746,33.691,28.320,142.090,59.082,0
1583421604.078,111.816,34.180,31.250,137.207,64.941,0
1583421604.081,106.934,33.691,29.297,135.742,76.172,0
1583421604.085,111.816,34.668,33.691,141.113,41.992,0
1583421604.089,111.328,32.227,32.227,142.578,31.738,0
1583421604.093,104.492,34.180,24.414,138.184,39.062,0
1583421604.097,93.750,33.691,33.691,130.859,40.039,0
1583421604.114,89.844,33.203,46.875,130.859,39.062,0
1583421604.118,92.285,37.598,51.270,129.883,-7.812,0
1583421604.122,89.355,34.668,41.992,126.465,27.832,0
1583421604.126,84.961,30.762,38.574,127.441,51.270,0
1583421604.130,83.496,33.691,41.016,127.441,21.973,0
1583421604.134,84.473,38.574,29.785,126.953,-10.254,0
1583421604.138,83.008,33.691,38.086,118.652,53.223,0
1583421604.141,79.102,25.879,48.828,111.328,109.863,0
1583421604.145,77.148,27.344,46.875,109.375,20.020,0
1583421604.149,74.707,32.227,36.621,112.793,26.367,0
1583421604.153,70.312,32.227,30.762,113.770,69.824,0
1583421604.157,66.895,32.715,46.875,102.539,34.668,0
1583421604.154,64.453,32.715,50.293,99.609,53.223,0
1583421604.158,64.941,31.250,42.969,104.492,46.387,0
1583421604.162,66.406,35.645,44.434,101.562,18.555,0
1583421604.166,68.359,38.574,44.434,102.539,93.750,0
1583421604.170,64.941,38.086,44.434,103.027,91.309,0
1583421604.174,59.082,38.086,47.852,104.492,57.129,0
1583421604.178,57.129,37.598,48.828,107.422,145.996,0
1583421604.181,54.688,35.156,36.133,103.027,99.121,0
1583421604.185,52.246,32.715,40.039,95.703,36.133,0
1583421604.189,54.688,35.645,53.711,89.844,50.293,0
1583421604.193,53.223,36.133,49.805,85.938,24.902,0
1583421604.197,49.316,37.109,49.316,85.449,-4.883,0
1583421604.194,52.246,42.480,43.945,81.543,-50.781,0
1583421604.198,50.293,43.457,25.879,80.566,0.977,0
1583421604.202,46.387,39.062,35.645,83.496,69.336,0
1583421604.206,44.434,39.551,35.156,84.961,31.738,0
1583421604.210,42.480,40.527,30.762,86.426,68.359,0
1583421604.214,43.457,38.574,56.152,82.520,124.023,0
1583421604.218,41.992,35.645,60.547,82.520,66.895,0
1583421604.221,43.457,32.227,56.641,88.867,16.602,0
1583421604.225,45.410,33.203,52.246,86.914,-7.324,0
1583421604.229,42.480,29.785,49.316,82.031,29.297,0
1583421604.233,44.434,30.762,41.016,79.590,67.871,0
1583421604.237,46.875,34.668,30.273,80.078,85.449,0
1583421604.254,47.852,36.621,44.922,83.984,59.570,0
1583421604.258,46.875,39.062,41.016,79.102,6.348,0
1583421604.262,45.410,39.062,41.016,73.730,16.602,0
1583421604.266,45.410,37.598,56.641,75.684,31.738,0
1583421604.270,41.016,33.691,53.711,72.266,11.230,0
1583421604.274,45.410,37.109,58.594,70.801,-18.555,0
1583421604.278,47.852,42.480,55.176,71.777,-51.758,0
1583421604.281,34.668,39.062,48.340,71.777,-26.367,0
1583421604.285,36.133,37.109,46.875,73.730,46.387,0
1583421604.289,32.227,34.180,47.852,73.242,76.172,0
1583421604.293,30.273,33.691,37.598,71.777,23.438,0
1583421604.297,38.574,41.016,28.809,74.707,36.133,0
1583421604.294,35.156,40.527,45.410,76.660,31.250,0
1583421604.298,33.691,39.551,52.734,74.707,-4.883,0
1583421604.302,34.180,40.039,49.805,72.754,-0.488,0
1583421604.306,37.109,39.551,48.340,71.777,31.738,0
1583421604.310,38.086,40.039,48.828,74.219,45.898,0
1583421604.314,39.062,42.969,47.363,74.219,-35.156,0
1583421604.318,35.156,39.551,38.574,65.430,2.930,0
1583421604.321,28.809,37.109,42.480,60.547,-0.488,0
1583421604.325,32.715,40.527,53.711,61.523,-1.465,0
1583421604.329,35.156,39.551,41.504,59.082,62.012,0
1583421604.333,33.203,40.039,29.785,60.547,38.086,0
1583421604.337,34.180,43.457,47.852,65.918,26.855,0
1583421604.354,34.180,39.551,54.199,68.359,59.570,0
1583421604.358,33.691,35.645,49.805,67.871,33.203,0
1583421604.362,30.762,36.621,49.316,68.359,16.113,0
1583421604.366,29.785,34.180,48.340,67.871,13.672,0
1583421604.370,25.391,32.715,49.316,67.871,64.453,0
1583421604.374,30.273,35.645,51.758,74.707,71.777,0
1583421604.378,40.527,36.133,36.133,76.172,23.926,0
1583421604.381,39.551,35.645,33.203,64.941,78.613,0
1583421604.385,32.227,35.645,43.457,56.152,91.309,0
1583421604.389,25.879,31.738,46.387,56.152,74.707,0
1583421604.393,26.855,32.227,56.152,58.105,57.129,0
1583421604.397,26.855,36.621,52.246,58.105,11.230,0
1583421604.394,30.273,39.551,48.828,59.082,48.340,0
1583421604.398,34.180,38.574,51.758,62.012,85.938,0
1583421604.402,26.367,37.598,40.039,66.895,89.355,0
1583421604.406,27.344,38.574,29.297,74.707,30.762,0
1583421604.410,33.691,38.574,40.527,77.637,-2.930,0
1583421604.414,29.785,40.527,54.688,76.660,30.273,0
1583421604.418,26.855,40.039,54.199,71.777,12.695,0
1583421604.421,29.785,37.109,51.270,67.871,2.930,0
1583421604.425,34.668,38.574,44.922,66.406,21.484,0
1583421604.429,34.668,37.109,30.762,64.941,20.508,0
1583421604.433,35.645,35.645,41.504,66.406,59.082,0
1583421604.437,35.645,38.574,52.246,62.012,113.281,0
1583421604.434,28.320,35.156,45.898,59.082,60.547,0
1583421604.438,31.738,36.133,44.434,60.059,9.766,0
1583421604.442,34.668,36.621,42.480,55.176,31.738,0
1583421604.446,26.855,33.691,46.387,55.176,37.598,0
1583421604.450,24.414,36.621,45.410,57.129,53.223,0
1583421604.454,27.832,40.039,38.086,57.617,74.707,0
1583421604.458,28.320,40.527,34.180,57.617,38.086,0
1583421604.461,32.227,39.062,35.645,60.547,-19.043,0
1583421604.465,39.062,42.480,44.434,67.871,72.266,0
1583421604.469,40.527,40.527,55.664,63.965,102.539,0
1583421604.473,41.016,32.715,53.711,60.547,18.066,0
1583421604.477,44.922,35.156,48.340,67.871,30.762,0
1583421604.474,43.945,37.109,40.039,66.895,17.090,0
1583421604.478,40.527,38.086,40.527,64.941,-7.324,0
1583421604.482,35.156,35.156,50.781,68.848,28.809,0
1583421604.486,36.133,33.691,47.363,72.754,23.438,0
1583421604.490,41.016,38.086,40.527,77.637,-5.859,0
1583421604.494,37.109,39.551,39.551,80.078,-15.625,0
1583421604.498,32.715,39.551,46.387,74.707,-5.371,0
1583421604.501,32.227,39.062,46.875,67.383,12.207,0
1583421604.505,31.738,34.668,41.016,63.965,8.789,0
1583421604.509,26.855,33.691,46.387,66.895,39.551,0
1583421604.513,29.785,35.645,52.246,72.754,83.984,0
1583421604.517,33.203,35.645,47.852,76.660,54.199,0
1583421604.534,29.297,33.691,45.410,70.801,56.641,0
1583421604.538,30.762,33.203,41.992,61.523,109.375,0
1583421604.542,31.738,35.645,42.480,62.012,61.523,0
1583421604.546,25.391,37.109,47.852,65.430,23.438,0
1583421604.550,25.391,37.598,45.410,65.918,26.855,0
1583421604.554,27.344,38.086,43.945,62.500,89.355,0
1583421604.558,27.344,38.086,42.969,60.547,103.027,0
1583421604.561,26.855,39.551,41.016,62.012,64.453,0
1583421604.565,14.648,34.668,49.805,57.617,89.844,0
1583421604.569,3.906,28.809,57.617,49.316,72.266,0
1583421604.573,2.441,39.062,62.012,42.969,41.016,0
1583421604.577,-0.977,43.457,52.246,35.156,29.297,0
1583421604.574,-6.348,43.457,50.293,29.297,-9.766,0
1583421604.578,-7.324,48.828,61.523,27.344,17.090,0
1583421604.582,-16.602,48.340,60.059,19.043,57.617,0
1583421604.586,-28.320,49.316,63.477,5.859,33.691,0
1583421604.590,-43.945,54.199,64.941,-7.324,60.547,0
1583421604.594,-58.594,56.641,69.336,-20.020,50.293,0
1583421604.598,-78.125,54.688,70.801,-46.387,21.484,0
1583421604.601,-98.633,56.641,65.918,-68.359,65.430,0
1583421604.605,-123.535,60.547,61.523,-86.426,114.746,0
1583421604.609,-145.508,62.988,67.383,-114.258,58.105,0
1583421604.613,-167.480,58.594,73.730,-139.648,-14.160,0
1583421604.617,-179.199,57.617,72.754,-151.367,38.574,0
1583421604.614,-180.664,60.059,72.266,-154.297,58.105,0
1583421604.618,-183.105,61.523,68.848,-157.227,-14.648,0
1583421604.622,-177.246,62.012,60.059,-154.785,-41.504,0
1583421604.626,-163.086,61.523,59.082,-143.555,5.859,0
1583421604.630,-153.320,59.570,60.059,-136.230,45.898,0
1583421604.634,-146.973,58.594,58.594,-128.906,22.949,0
1583421604.638,-130.859,57.617,51.758,-114.746,-19.531,0
1583421604.641,-118.164,57.617,49.316,-100.586,-27.832,0
1583421604.645,-109.863,56.641,43.457,-86.914,52.246,0
1583421604.649,-88.867,55.664,28.809,-63.477,35.645,0
1583421604.653,-66.895,56.152,34.180,-42.969,-9.766,0
1583421604.657,-45.410,56.152,40.039,-21.484,18.066,0
1583421604.674,-25.391,54.688,35.156,-7.324,3.906,0
1583421604.678,0.000,50.781,24.414,10.742,-26.367,0
1583421604.682,28.320,55.176,18.066,42.480,-16.602,0
1583421604.686,41.016,51.270,19.531,57.129,14.648,0
1583421604.690,48.340,44.434,24.902,67.871,4.395,0
1583421604.694,64.453,46.387,26.367,83.984,42.480,0
1583421604.698,84.961,43.457,28.809,103.516,69.336,0
1583421604.701,100.586,39.062,28.809,120.117,-12.695,0
1583421604.705,107.910,40.039,21.973,124.512,9.766,0
1583421604.709,112.305,39.062,22.461,131.836,37.109,0
1583421604.713,121.582,41.016,29.785,143.555,15.137,0
1583421604.717,128.906,41.504,29.785,149.414,105.469,0
1583421604.714,132.324,43.457,29.297,153.320,117.676,0
1583421604.718,137.695,41.992,29.297,153.809,96.680,0
1583421604.722,141.113,36.133,25.391,156.738,74.707,0
1583421604.726,139.160,35.645,22.461,162.109,-12.207,0
1583421604.730,134.766,40.527,27.832,163.574,-3.906,0
1583421604.734,131.348,42.480,30.762,162.109,14.160,0
1583421604.738,125.977,38.574,27.344,158.203,50.781,0
1583421604.741,127.441,37.598,26.367,154.785,88.867,0
1583421604.745,127.930,39.551,21.973,153.809,69.824,0
1583421604.749,120.605,36.133,23.438,149.414,11.719,0
1583421604.753,119.141,33.203,34.668,149.902,29.297,0
1583421604.757,125.000,34.668,35.156,159.180,32.227,0
1583421604.754,125.488,34.668,26.367,155.762,2.441,0
1583421604.758,120.117,34.668,34.180,147.461,56.152,0
1583421604.762,110.840,33.691,37.598,143.555,81.543,0
1583421604.766,104.492,33.203,26.367,136.230,69.824,0
1583421604.770,102.051,33.203,21.973,129.395,50.293,0
1583421604.774,95.215,28.809,31.738,123.047,48.828,0
1583421604.778,92.285,32.227,45.410,122.559,48.340,0
1583421604.781,90.332,34.180,43.457,123.047,40.039,0
1583421604.785,82.520,27.832,36.133,116.699,21.973,0
1583421604.789,77.148,29.785,30.273,116.211,17.090,0
1583421604.793,76.660,34.180,12.207,118.164,86.914,0
1583421604.797,79.102,36.133,19.531,125.977,61.035,0
1583421604.814,77.148,35.156,44.922,128.418,64.453,0
1583421604.818,78.613,35.156,52.246,123.535,85.938,0
1583421604.822,84.961,33.203,50.293,119.141,41.016,0
1583421604.826,83.496,27.832,44.434,117.188,-34.668,0
1583421604.830,77.148,29.785,39.551,110.840,-61.035,0
1583421604.834,73.242,34.180,39.551,105.469,-16.113,0
1583421604.838,76.172,36.133,35.156,107.910,2.930,0
1583421604.841,81.055,35.156,27.344,106.445,6.836,0
1583421604.845,84.473,35.645,33.691,108.398,34.668,0
1583421604.849,81.055,38.086,48.340,109.375,56.152,0
1583421604.853,73.730,40.527,43.457,104.492,40.039,0
1583421604.857,73.730,40.039,24.414,100.586,45.410,0
1583421604.854,77.637,40.527,34.668,102.051,12.207,0
1583421604.858,61.523,38.086,48.340,94.238,-40.527,0
1583421604.862,46.875,32.715,46.875,85.449,-17.090,0
1583421604.866,45.898,34.180,48.828,85.449,11.230,0
1583421604.870,41.992,36.133,43.457,80.566,4.883,0
1583421604.874,45.410,38.086,39.062,81.543,-19.531,0
1583421604.878,46.387,36.621,39.551,80.566,12.207,0
1583421604.881,39.062,34.180,40.527,72.266,48.340,0
1583421604.885,42.480,39.551,41.504,67.871,25.879,0
1583421604.889,44.922,40.039,38.086,63.965,38.086,0
1583421604.893,39.551,34.180,36.133,64.941,55.664,0
1583421604.897,39.551,35.645,37.109,67.871,44.922,0
1583421604.914,44.922,39.062,38.574,70.312,-9.766,0
1583421604.918,41.992,36.133,46.387,76.172,3.906,0
1583421604.922,34.180,37.598,41.016,81.543,5.859,0
1583421604.926,35.645,41.504,42.969,81.543,13.672,0
1583421604.930,35.156,39.551,48.340,78.613,75.195,0
1583421604.934,39.062,41.016,48.340,77.637,-28.320,0
1583421604.938,42.969,40.527,36.621,76.172,-22.949,0
1583421604.941,41.992,43.457,20.996,74.219,40.527,0
1583421604.945,41.504,44.434,38.574,70.312,96.191,0
1583421604.949,43.457,42.480,57.617,69.824,74.219,0
1583421604.953,47.852,41.504,52.246,76.172,36.621,0
1583421604.957,48.340,40.527,45.410,80.566,46.387,0
1583421604.954,46.387,37.109,43.945,78.125,35.645,0
1583421604.958,51.758,37.598,33.203,80.078,59.082,0
1583421604.962,52.734,43.457,39.551,85.449,21.484,0
1583421604.966,50.781,43.945,45.898,88.379,9.277,0
1583421604.970,51.270,40.039,37.109,84.961,33.203,0
1583421604.974,47.852,38.086,47.363,79.102,48.340,0
1583421604.978,42.969,39.062,52.246,78.613,25.879,0
1583421604.981,37.109,37.109,53.711,77.148,71.777,0
1583421604.985,34.180,37.109,53.711,72.754,95.703,0
1583421604.989,38.086,39.062,52.734,71.777,28.809,0
1583421604.993,39.062,39.062,55.176,68.359,-10.254,0
1583421604.997,35.156,37.598,43.457,63.965,-11.719,0
1583421604.994,37.109,39.062,39.062,67.871,31.250,0
1583421604.998,33.691,38.086,42.480,67.871,55.176,0
1583421605.002,27.832,33.691,38.574,64.941,45.410,0
1583421605.006,25.879,37.109,40.527,65.430,84.473,0
1583421605.010,23.926,38.574,48.340,62.500,49.805,0
1583421605.014,28.809,36.621,53.711,65.430,1.953,0
1583421605.018,34.668,38.574,49.316,66.895,35.156,0
1583421605.021,30.273,38.574,42.969,62.012,-0.977,0
1583421605.025,29.297,40.527,41.992,59.082,-76.172,0
1583421605.029,29.785,39.062,41.016,54.688,-4.395,0
1583421605.033,26.367,36.621,34.668,54.199,47.363,0
1583421605.037,32.715,39.062,36.133,59.082,34.180,0
1583421605.054,39.551,41.016,33.691,66.406,30.273,0
1583421605.058,42.480,41.016,27.832,68.359,61.523,0
1583421605.062,45.410,40.527,36.133,65.918,55.176,0
1583421605.066,45.898,42.480,45.898,64.453,52.246,0
1583421605.070,46.875,41.504,36.133,65.918,70.801,0
1583421605.074,42.969,40.039,30.762,65.430,13.672,0
1583421605.078,34.180,41.016,47.363,60.547,-30.762,0
1583421605.081,33.203,40.527,42.969,58.105,17.090,0
1583421605.085,32.227,38.574,32.227,59.082,106.445,0
1583421605.089,33.691,38.574,37.598,62.988,58.594,0
1583421605.093,37.598,39.062,41.504,65.430,9.766,0
1583421605.097,42.480,40.039,38.574,62.988,-15.137,0
1583421605.094,41.504,41.504,37.109,63.477,0.000,0
1583421605.098,36.133,41.016,41.016,63.965,52.246,0
1583421605.102,37.598,40.039,44.434,65.430,43.945,0
1583421605.106,34.668,36.133,35.156,62.988,70.801,0
1583421605.110,32.715,38.086,29.785,59.570,71.289,0
1583421605.114,31.738,39.551,43.457,57.129,56.152,0
1583421605.118,25.879,36.133,48.828,50.781,43.457,0
1583421605.121,22.949,35.645,43.457,46.875,57.129,0
1583421605.125,22.461,37.109,39.062,47.852,76.172,0
1583421605.129,18.555,41.016,45.898,52.246,117.676,0
1583421605.133,20.996,42.480,39.551,53.223,103.027,0
1583421605.137,27.832,41.504,33.203,48.828,14.648,0
1583421605.154,30.762,42.480,39.551,51.758,-19.531,0
1583421605.158,28.809,42.480,40.039,55.664,-32.715,0
1583421605.162,26.367,43.945,34.668,55.176,-0.488,0
1583421605.166,22.949,42.480,22.461,51.758,20.020,0
1583421605.170,17.578,41.504,36.133,46.387,12.207,0
1583421605.174,17.090,41.992,48.828,48.340,41.016,0
1583421605.178,26.367,39.551,44.434,49.805,49.316,0
1583421605.181,32.227,39.062,40.039,54.199,21.973,0
1583421605.185,32.715,43.945,41.016,53.223,-0.488,0
1583421605.189,37.109,44.434,43.945,51.270,22.949,0
1583421605.193,40.039,43.945,43.945,56.641,33.691,0
1583421605.197,40.039,43.457,43.457,60.547,1.953,0
1583421605.194,40.527,43.457,44.922,62.988,22.461,0
1583421605.198,42.480,43.457,50.781,62.988,63.965,0
1583421605.202,44.922,42.969,50.293,65.430,26.367,0
1583421605.206,41.992,45.410,43.945,66.406,-4.883,0
1583421605.210,36.621,46.875,43.457,60.059,8.301,0
1583421605.214,38.574,44.922,51.270,60.059,24.414,0
1583421605.218,33.691,44.922,60.059,55.176,7.324,0
1583421605.221,30.762,45.898,59.570,52.734,-11.719,0
1583421605.225,24.414,43.457,53.711,46.875,11.230,0
1583421605.229,14.160,49.316,58.594,39.062,27.832,0
1583421605.233,-2.441,46.875,67.871,27.832,40.039,0
1583421605.237,-16.602,46.387,67.383,20.508,24.902,0
1583421605.234,-26.367,53.223,66.895,18.555,9.277,0
1583421605.238,-43.457,54.199,69.336,6.348,22.461,0
1583421605.242,-52.246,52.734,73.242,-5.371,-21.973,0
1583421605.246,-64.453,54.688,70.801,-17.090,20.020,0
1583421605.250,-77.637,62.988,65.430,-30.762,35.156,3
1583421605.254,-88.867,61.035,77.148,-53.223,9.766,0
1583421605.258,-106.445,55.176,83.984,-71.777,16.113,0
1583421605.261,-116.211,55.176,80.078,-86.914,-18.555,0
1583421605.265,-122.070,53.223,77.637,-98.633,-19.531,0
1583421605.269,-130.859,54.199,73.242,-104.004,19.531,0
1583421605.273,-133.789,57.617,69.336,-114.258,54.688,0
1583421605.277,-131.836,57.617,52.734,-112.305,43.945,0
1583421605.274,-123.047,57.617,45.898,-102.051,27.344,0
1583421605.278,-110.840,59.570,62.012,-97.168,79.102,0
1583421605.282,-99.121,59.082,66.406,-85.449,34.180,0
1583421605.286,-89.355,55.664,56.152,-71.289,-1.953,0
1583421605.290,-79.590,52.734,56.152,-58.594,23.438,0
1583421605.294,-64.453,46.875,56.152,-41.504,52.734,0
1583421605.298,-53.711,43.457,51.758,-27.344,110.840,0
1583421605.301,-41.992,48.340,55.176,-15.625,85.449,0
1583421605.305,-26.855,48.340,53.711,-2.441,19.531,0
1583421605.309,-14.160,44.922,46.387,10.742,87.402,0
1583421605.313,0.000,42.969,39.062,23.926,44.922,0
1583421605.317,13.672,37.109,38.086,40.527,-5.859,0
1583421605.334,23.926,35.645,38.086,56.152,43.457,0
1583421605.338,29.297,34.668,32.715,68.359,57.617,0
1583421605.342,37.109,32.227,26.367,79.590,-25.391,0
1583421605.346,50.781,30.273,27.832,87.402,-76.660,0
1583421605.350,64.453,30.762,28.320,96.191,-13.184,0
1583421605.354,69.336,31.250,23.438,106.445,17.090,0
1583421605.358,69.336,33.203,26.367,107.910,4.883,0
1583421605.361,76.172,33.691,36.621,114.746,67.383,0
1583421605.365,84.473,33.203,39.551,127.930,83.984,0
1583421605.369,88.867,32.715,29.297,130.371,51.758,0
1583421605.373,95.215,29.785,26.367,130.371,51.758,0
1583421605.377,104.004,30.273,33.203,133.301,61.523,0
1583421605.374,102.051,32.227,27.832,131.348,47.363,0
1583421605.378,97.656,33.691,24.414,129.395,62.012,0
1583421605.382,100.586,34.668,25.391,125.000,62.500,0
1583421605.386,101.074,31.250,28.809,118.652,23.438,0
1583421605.390,101.562,31.250,26.367,120.117,39.551,0
1583421605.394,103.027,35.156,25.391,122.559,27.832,0
1583421605.398,97.656,33.691,24.902,123.535,0.977,0
1583421605.401,91.309,29.785,23.926,119.141,24.414,0
1583421605.405,90.820,27.832,24.902,111.328,38.086,0
1583421605.409,92.285,30.762,24.902,115.723,-9.766,0
1583421605.413,90.332,30.762,26.367,116.211,19.043,0
1583421605.417,85.938,26.367,25.879,113.770,59.570,0
1583421605.414,82.031,26.367,29.785,112.793,121.582,0
1583421605.418,80.078,25.879,34.668,105.469,98.145,0
1583421605.422,76.660,28.809,38.086,103.516,15.137,0
1583421605.426,76.660,28.320,36.133,101.562,48.340,0
1583421605.430,79.590,29.297,28.809,91.309,-4.395,0
1583421605.434,77.637,33.691,28.809,88.379,27.832,0
1583421605.438,73.730,32.227,32.227,85.449,104.980,0
1583421605.441,77.637,31.738,32.715,83.008,30.273,0
1583421605.445,81.055,35.156,32.227,84.473,4.395,0
1583421605.449,70.312,31.250,36.133,85.938,14.160,0
1583421605.453,65.918,28.809,39.551,96.191,2.441,0
1583421605.457,63.965,30.762,37.109,105.957,1.465,0
1583421605.474,54.688,29.785,34.180,106.445,28.809,0
1583421605.478,53.223,27.344,34.180,101.562,44.922,0
1583421605.482,58.105,27.832,42.480,96.191,23.438,0
1583421605.486,53.711,30.273,43.945,93.262,35.156,0
1583421605.490,48.828,30.273,36.621,88.867,58.594,0
1583421605.494,53.711,32.227,42.480,86.426,-20.996,0
1583421605.498,59.082,35.645,42.480,83.496,-27.832,0
1583421605.501,56.641,33.203,38.086,84.473,29.297,0
1583421605.505,51.270,31.738,41.504,87.402,35.645,0
1583421605.509,48.340,36.133,43.945,81.543,44.922,0
1583421605.513,46.387,38.086,40.527,80.566,48.828,0
1583421605.517,43.457,38.574,41.016,77.148,-0.977,0
1583421605.514,45.898,36.621,39.062,72.266,49.316,0
1583421605.518,49.805,36.133,36.621,71.777,91.797,0
1583421605.522,43.945,40.527,41.504,66.406,35.156,0
1583421605.526,41.504,44.434,38.574,64.941,43.457,0
1583421605.530,41.992,43.457,30.273,66.895,82.031,0
1583421605.534,43.457,40.039,32.715,66.895,1.953,0
1583421605.538,47.363,41.504,34.668,65.918,6.348,0
1583421605.541,49.316,38.086,41.992,67.871,69.824,0
1583421605.545,53.711,32.227,37.109,74.707,30.273,0
1583421605.549,57.129,38.574,33.203,80.078,48.828,0
1583421605.553,51.270,40.039,35.645,80.078,44.434,0
1583421605.557,46.875,32.715,36.133,82.520,33.691,0
1583421605.554,43.457,31.250,48.828,84.961,44.434,0
1583421605.558,40.039,33.691,49.316,78.125,10.254,0
1583421605.562,41.992,37.109,42.480,72.754,5.371,0
1583421605.566,41.992,37.109,41.016,73.242,-13.184,0
1583421605.570,36.621,35.645,40.039,67.871,27.344,0
1583421605.574,37.598,38.574,34.180,62.988,44.434,0
1583421605.578,38.574,41.016,29.297,60.059,34.180,0
1583421605.581,38.086,41.016,37.109,55.176,54.199,0
1583421605.585,41.992,40.527,39.062,51.758,-14.160,0
1583421605.589,46.387,38.086,34.668,51.758,-61.523,0
1583421605.593,46.387,38.086,37.598,51.758,-7.324,0
1583421605.597,42.480,37.598,34.180,53.711,55.176,0
1583421605.614,46.875,39.551,33.203,62.500,95.703,0
1583421605.618,50.781,42.480,24.902,67.871,82.520,0
1583421605.622,49.316,39.062,16.113,66.406,20.020,0
1583421605.626,46.387,35.645,35.156,68.359,-9.766,0
1583421605.630,43.457,37.598,49.316,70.801,32.227,0
1583421605.634,42.480,39.062,50.781,75.684,89.355,0
1583421605.638,39.062,35.645,48.828,74.707,83.984,0
1583421605.641,34.180,31.738,41.504,71.777,51.270,0
1583421605.645,30.762,31.738,37.598,79.590,62.500,0
1583421605.649,34.180,33.691,41.992,86.426,64.453,0
1583421605.653,34.180,35.156,45.898,85.449,97.168,0
1583421605.657,25.391,30.273,48.828,73.730,50.293,0
1583421605.654,21.973,26.855,54.688,66.406,1.953,0
1583421605.658,33.203,33.691,43.945,74.219,-15.137,0
1583421605.662,38.086,37.598,33.203,76.660,4.883,0
1583421605.666,32.227,33.691,44.434,68.359,43.945,0
1583421605.670,33.203,34.668,49.316,62.012,57.129,0
1583421605.674,33.691,41.016,44.922,61.523,-23.926,0
1583421605.678,27.344,39.062,37.598,62.012,-43.945,0
1583421605.681,22.949,37.109,39.062,57.617,12.695,0
1583421605.685,26.367,41.504,45.898,60.059,46.875,0
1583421605.689,32.715,41.504,42.480,62.988,120.117,0
1583421605.693,36.133,37.598,36.621,63.477,109.863,0
1583421605.697,36.133,35.645,37.598,66.406,57.617,0
1583421605.694,33.691,34.180,40.527,65.918,88.867,0
1583421605.698,32.227,35.645,37.598,66.406,118.164,0
1583421605.702,37.598,39.062,28.320,72.754,53.711,0
1583421605.706,41.016,37.598,31.250,77.637,43.457,0
1583421605.710,35.645,37.109,43.945,69.336,59.082,0
1583421605.714,28.320,37.109,44.434,64.941,33.203,0
1583421605.718,27.832,35.645,43.457,67.383,2.441,0
1583421605.721,28.320,37.598,46.875,65.918,1.953,0
1583421605.725,26.367,38.086,44.922,62.012,65.918,0
1583421605.729,22.949,37.598,44.434,56.641,60.547,0
1583421605.733,18.555,38.086,44.922,50.293,40.527,0
1583421605.737,22.461,36.621,39.551,50.293,59.082,0
1583421605.754,19.531,36.621,34.180,50.293,22.461,0
1583421605.758,10.742,36.621,37.109,46.387,-52.246,0
1583421605.762,14.648,34.668,34.180,48.828,-4.395,0
1583421605.766,18.066,32.715,25.391,52.246,29.297,0
1583421605.770,20.996,32.715,33.691,54.688,28.320,0
1583421605.774,26.367,35.645,44.434,56.641,61.523,0
1583421605.778,23.926,37.109,43.457,54.199,94.238,0
1583421605.781,17.578,35.156,37.109,51.270,67.383,0
1583421605.785,18.066,34.180,37.109,51.270,25.391,0
1583421605.789,27.832,37.109,39.062,55.176,24.414,0
1583421605.793,36.133,38.086,38.086,61.035,36.133,0
1583421605.797,31.738,34.180,39.062,56.641,62.012,0
1583421605.795,27.344,32.715,34.180,56.641,59.082,0
1583421605.799,22.461,34.180,33.691,61.523,30.273,0
1583421605.803,19.531,35.156,37.598,60.547,20.020,0
1583421605.807,21.973,35.156,34.668,62.500,82.031,0
1583421605.811,23.926,35.156,35.156,64.941,93.750,0
1583421605.815,26.367,36.621,39.062,64.453,37.598,0
1583421605.819,28.809,36.621,39.551,60.547,36.133,0
1583421605.822,25.879,32.715,37.598,61.035,65.918,0
1583421605.826,24.414,30.273,40.039,65.430,82.520,0
1583421605.830,26.367,35.645,43.457,63.965,55.176,0
1583421605.834,30.762,38.574,42.969,60.547,21.973,0
1583421605.838,39.551,42.480,42.480,62.988,49.316,0
1583421605.834,41.992,42.969,41.016,65.430,34.668,0
1583421605.838,37.598,42.480,41.504,68.359,44.434,0
1583421605.842,34.180,44.922,41.992,67.383,58.594,0
1583421605.846,33.203,42.480,38.086,62.500,32.227,0
1583421605.850,39.062,41.016,33.203,70.801,32.715,0
1583421605.854,46.875,41.992,28.320,73.730,-27.832,0
1583421605.858,43.945,41.504,38.086,65.430,-35.645,0
1583421605.861,47.363,45.410,43.457,63.965,23.438,0
1583421605.865,49.805,42.480,41.504,61.523,21.484,0
1583421605.869,41.504,38.574,45.410,63.965,67.871,0
1583421605.873,40.527,41.016,47.852,64.941,54.199,0
1583421605.877,39.551,41.992,45.898,61.035,39.062,0
1583421605.894,42.969,41.504,39.062,62.012,56.152,0
1583421605.898,40.527,37.598,37.109,61.523,-17.090,0
1583421605.902,30.273,32.715,44.922,57.129,13.184,0
1583421605.906,30.762,36.133,49.316,57.617,50.781,0
1583421605.910,36.621,44.922,42.480,62.012,6.836,0
1583421605.914,35.156,48.340,46.387,61.523,-12.207,0
1583421605.918,33.691,45.410,56.641,62.012,56.152,0
1583421605.921,36.133,41.504,49.316,66.406,68.848,0
1583421605.925,37.598,42.480,37.109,66.406,50.293,0
1583421605.929,32.715,43.457,38.574,62.988,95.703,0
1583421605.933,27.344,40.039,47.852,59.570,62.988,0
1583421605.937,29.785,37.109,50.781,58.105,40.527,0
1583421605.934,31.250,41.992,44.434,60.547,19.043,0
1583421605.938,30.273,41.016,35.156,60.059,-1.953,0
1583421605.942,28.320,38.574,40.039,60.059,-10.254,0
1583421605.946,24.414,39.062,45.410,60.547,-33.203,0
1583421605.950,25.879,39.062,34.668,59.082,-40.527,0
1583421605.954,29.297,39.062,43.457,59.570,-0.977,0
1583421605.958,31.250,38.574,50.293,61.523,23.926,0
1583421605.961,29.297,35.645,46.387,61.523,5.859,0
1583421605.965,31.738,35.156,46.387,65.918,-25.391,0
1583421605.969,36.133,40.527,47.363,67.383,9.766,0
1583421605.973,35.156,41.016,42.969,62.500,-1.953,0
1583421605.977,33.203,39.062,40.527,63.965,-24.414,0
1583421605.974,32.227,37.598,35.645,62.500,60.547,0
1583421605.978,30.762,40.039,31.738,57.129,89.355,0
1583421605.982,31.250,40.527,37.598,52.734,22.949,0
1583421605.986,27.344,36.133,32.715,50.293,10.254,0
1583421605.990,21.973,37.109,32.227,46.875,41.016,0
1583421605.994,25.391,40.527,42.480,46.387,52.734,0
1583421605.998,24.902,38.574,36.621,46.875,57.129,0
1583421606.001,25.879,40.527,33.203,49.805,35.645,0
1583421606.005,21.973,41.504,28.809,44.922,29.785,0
1583421606.009,14.160,38.086,25.391,36.133,10.742,0
1583421606.013,11.230,36.133,32.227,37.109,67.383,0
1583421606.017,12.207,34.180,31.250,38.086,83.496,0
1583421606.034,21.484,36.621,24.414,41.504,-0.977,0
1583421606.038,24.902,38.086,24.902,43.945,50.781,0
1583421606.042,22.461,35.645,36.133,41.992,109.375,0
1583421606.046,31.250,38.086,43.457,47.852,48.828,0
1583421606.050,39.062,41.016,38.086,59.082,57.617,0
1583421606.054,35.645,41.016,33.203,62.988,45.410,0
1583421606.058,28.809,38.574,45.410,61.035,37.598,0
1583421606.061,34.668,40.039,44.434,63.965,101.562,0
1583421606.065,36.621,41.016,32.715,69.336,70.312,0
1583421606.069,31.250,38.086,35.645,69.824,2.930,0
1583421606.073,38.574,40.527,45.898,69.336,-24.414,0
1583421606.077,33.691,41.016,45.898,62.988,14.160,0
1583421606.074,24.414,35.645,38.574,56.641,16.113,0
1583421606.078,22.461,33.203,38.574,55.664,-26.855,0
1583421606.082,17.578,36.133,39.551,53.711,26.855,0
1583421606.086,15.137,38.086,36.133,56.152,67.383,0
1583421606.090,17.090,37.109,34.668,60.059,15.625,0
1583421606.094,23.438,35.645,40.527,63.477,10.742,0
1583421606.098,36.621,38.086,44.922,64.453,45.410,0
1583421606.101,43.457,42.480,44.922,63.965,25.879,0
1583421606.105,41.992,42.480,46.875,64.941,4.395,0
1583421606.109,40.039,41.504,46.387,64.453,0.977,0
1583421606.113,41.016,43.457,42.969,62.500,20.996,0
1583421606.117,38.574,43.945,38.086,62.500,44.434,0
1583421606.134,33.691,38.086,36.133,58.105,14.160,0
1583421606.138,30.273,36.133,41.992,54.199,-16.602,0
1583421606.142,20.996,38.574,44.434,52.246,66.406,0
1583421606.146,15.137,33.203,38.086,48.828,38.574,0
1583421606.150,16.602,31.250,39.062,47.852,8.789,0
1583421606.154,23.926,34.668,42.969,50.781,43.457,0
1583421606.158,25.391,37.109,39.062,54.688,0.977,0
1583421606.161,21.484,35.156,41.016,52.246,0.977,0
1583421606.165,19.043,31.250,45.410,49.316,22.949,0
1583421606.169,18.066,32.227,50.293,52.734,28.809,0
1583421606.173,19.043,33.203,50.781,56.641,20.996,0
1583421606.177,16.113,34.180,44.922,57.617,50.293,0
1583421606.174,13.672,36.621,40.527,55.664,105.957,0
1583421606.178,17.090,36.133,38.574,57.617,92.285,0
1583421606.182,16.602,38.086,41.504,56.152,62.012,0
1583421606.186,15.137,37.598,41.992,46.387,25.879,0
1583421606.190,19.531,36.133,33.691,43.945,23.438,0
1583421606.194,18.555,38.574,33.203,41.504,41.016,0
1583421606.198,13.672,38.574,45.410,33.203,8.789,0
1583421606.201,12.207,39.062,50.293,30.762,30.762,0
1583421606.205,9.766,43.945,51.758,33.691,1.465,0
1583421606.209,0.977,43.945,52.734,29.785,-6.348,0
1583421606.213,-1.953,46.387,52.734,23.926,47.363,0
1583421606.217,-7.812,45.898,51.270,20.020,3.418,0
1583421606.214,-16.602,45.410,52.734,11.719,-44.922,0
1583421606.218,-16.602,50.293,58.105,11.719,-49.805,0
1583421606.222,-30.762,51.270,61.035,4.883,-42.969,0
1583421606.226,-56.641,51.758,62.988,-18.555,0.488,0
1583421606.230,-73.242,55.664,63.477,-37.598,28.809,0
1583421606.234,-92.773,58.105,64.941,-59.082,37.598,0
1583421606.238,-120.117,56.152,63.965,-87.402,74.707,0
1583421606.241,-142.578,56.152,63.965,-110.352,95.703,0
1583421606.245,-148.926,62.988,59.082,-123.535,58.594,0
1583421606.249,-154.297,63.965,56.641,-137.695,-2.441,0
1583421606.253,-172.852,58.105,65.918,-152.344,-18.555,0
1583421606.257,-181.152,56.641,62.988,-154.297,35.645,0
1583421606.274,-174.805,58.594,56.641,-149.414,48.340,0
1583421606.278,-167.969,57.129,56.152,-147.461,46.387,0
1583421606.282,-159.668,56.641,46.875,-144.043,15.625,0
1583421606.286,-149.414,60.059,45.898,-138.672,-14.160,0
1583421606.290,-145.020,59.082,55.176,-133.789,62.500,0
1583421606.294,-144.531,56.641,54.199,-129.395,67.383,0
1583421606.298,-134.277,54.688,44.434,-120.605,-5.371,0
1583421606.301,-119.629,54.199,43.945,-103.516,-33.203,0
1583421606.305,-105.957,51.270,45.410,-88.867,30.762,0
1583421606.309,-87.402,49.316,42.480,-74.219,87.891,0
1583421606.313,-72.266,48.828,38.574,-58.594,43.457,0
1583421606.317,-58.105,49.805,38.086,-41.504,31.738,0
1583421606.314,-34.180,45.410,41.992,-18.555,60.547,0
1583421606.318,-13.672,42.480,34.668,-0.977,51.758,0
1583421606.322,0.488,43.457,30.273,13.672,12.695,0
1583421606.326,12.207,41.016,27.832,30.273,-1.953,0
1583421606.330,22.949,36.133,29.785,43.457,47.363,0
1583421606.334,32.715,35.156,31.738,57.617,85.449,0
1583421606.338,40.527,35.156,22.949,71.289,70.312,0
1583421606.341,43.457,32.227,26.855,79.590,32.715,0
1583421606.345,47.852,31.738,34.668,90.332,31.250,0
1583421606.349,56.641,32.227,34.668,98.145,46.875,0
1583421606.353,65.918,34.668,33.691,99.609,50.781,0
1583421606.357,73.242,35.156,31.738,97.168,17.578,0
