timestamps,TP9,AF7,AF8,TP10,Right AUX,Marker0
1583340685.287,21.973,30.273,33.691,16.113,60.059,0
1583340685.291,20.996,32.715,38.086,18.066,31.738,0
1583340685.295,32.715,34.180,38.574,12.207,27.344,0
1583340685.299,41.992,33.691,35.645,9.277,17.090,0
1583340685.303,29.785,32.227,34.180,11.719,68.359,0
1583340685.307,23.926,32.715,33.691,8.301,47.852,0
1583340685.311,34.668,33.691,34.668,10.742,-35.645,0
1583340685.314,38.574,35.156,36.621,18.066,-22.461,0
1583340685.318,29.297,34.180,38.086,9.766,-12.207,0
1583340685.322,20.996,32.715,36.621,5.371,-5.371,0
1583340685.326,27.344,36.621,38.086,15.137,14.160,0
1583340685.330,37.109,36.133,40.039,20.996,17.578,0
1583340685.347,30.762,32.227,40.527,19.531,4.395,0
1583340685.351,24.902,33.203,37.598,13.672,35.645,0
1583340685.355,26.855,33.691,37.109,11.719,60.547,0
1583340685.359,35.156,35.156,37.598,16.602,2.930,0
1583340685.363,39.551,34.180,35.645,18.066,23.438,0
1583340685.367,27.832,35.645,38.086,10.254,-19.531,0
1583340685.371,24.414,35.645,37.598,3.418,-21.973,0
1583340685.374,35.645,31.250,35.156,8.789,58.105,0
1583340685.378,40.527,31.738,36.621,14.648,39.062,0
1583340685.382,29.785,32.715,35.645,12.695,-3.418,0
1583340685.386,18.066,32.227,34.668,12.207,33.691,0
1583340685.390,27.344,29.785,36.133,22.461,64.453,0
1583340685.394,45.410,33.203,35.645,30.273,64.941,0
1583340685.398,28.320,37.109,31.250,9.766,73.242,0
1583340685.402,5.859,37.598,25.391,-8.301,41.016,0
1583340685.406,10.254,38.574,25.879,-1.465,50.293,0
1583340685.410,20.996,38.574,27.344,-0.977,78.613,0
1583340685.414,11.230,38.574,24.902,-11.719,83.496,0
1583340685.418,-1.465,40.527,21.973,-14.648,47.852,0
1583340685.421,3.906,40.039,22.949,-10.742,25.879,0
1583340685.425,9.277,36.621,25.879,-12.207,9.766,0
1583340685.429,9.277,35.645,23.926,-16.602,0.977,0
1583340685.433,2.930,33.691,21.973,-14.160,65.918,0
1583340685.437,1.465,33.203,22.949,-6.348,53.223,0
1583340685.427,12.207,31.738,24.414,2.930,0.488,0
1583340685.431,21.973,28.809,27.344,8.301,13.672,0
1583340685.435,21.484,27.344,30.273,9.766,15.137,0
1583340685.439,19.531,27.832,29.297,11.230,-10.254,0
1583340685.443,23.438,30.762,27.344,13.672,19.531,0
1583340685.447,31.738,31.738,30.762,22.949,11.230,0
1583340685.451,33.691,30.273,30.762,24.902,-10.742,0
1583340685.454,28.320,29.297,27.344,17.090,1.953,0
1583340685.458,32.227,29.297,26.855,20.020,10.742,0
1583340685.462,41.016,32.227,30.273,23.438,8.301,0
1583340685.466,36.621,32.715,31.250,17.090,17.578,0
1583340685.470,28.809,30.273,27.832,11.719,75.684,0
1583340685.487,26.855,33.691,30.762,10.742,35.156,0
1583340685.491,35.156,31.738,28.809,11.230,32.227,0
1583340685.495,48.340,29.297,22.949,16.602,69.336,0
1583340685.499,41.016,33.203,24.902,19.043,11.719,0
1583340685.503,33.203,35.156,28.809,19.531,4.883,0
1583340685.507,37.598,36.133,34.180,17.578,31.250,0
1583340685.511,37.109,35.645,37.598,9.766,81.055,0
1583340685.514,29.785,31.738,36.133,5.371,16.602,0
1583340685.518,24.414,31.250,31.250,10.254,-49.805,0
1583340685.522,28.809,34.180,27.832,15.137,55.664,0
1583340685.526,34.668,35.156,28.320,13.672,75.195,0
1583340685.530,29.297,35.156,27.344,10.254,22.949,0
1583340685.530,22.949,36.133,27.832,11.719,-25.391,0
1583340685.534,24.902,35.645,27.832,11.719,-42.480,0
1583340685.538,33.691,32.715,25.879,12.207,25.879,0
1583340685.542,32.715,33.691,30.762,20.996,8.789,0
1583340685.546,24.902,35.645,32.715,19.531,-36.621,0
1583340685.550,23.926,32.715,34.668,17.578,65.430,0
1583340685.554,28.809,31.250,34.668,19.531,92.773,0
1583340685.557,33.203,31.250,28.320,14.648,8.301,0
1583340685.561,24.902,32.227,29.297,12.695,-3.418,0
1583340685.565,17.578,33.203,34.668,12.695,-2.930,0
1583340685.569,21.973,33.203,33.691,18.066,-36.621,0
1583340685.573,26.855,31.250,34.668,21.973,1.953,0
1583340685.568,23.926,28.809,40.527,22.461,91.309,0
1583340685.572,15.137,30.762,43.457,26.855,96.191,0
1583340685.576,12.207,31.250,38.574,27.344,86.914,0
1583340685.580,22.949,29.785,34.668,28.809,59.570,0
1583340685.584,27.832,31.250,35.156,27.344,79.102,0
1583340685.588,18.066,31.738,36.621,18.555,75.684,0
1583340685.592,23.926,33.203,38.086,22.461,83.008,0
1583340685.595,35.645,36.133,39.062,27.832,92.285,0
1583340685.599,41.992,39.062,38.086,27.832,72.266,0
1583340685.603,48.828,41.992,34.180,34.668,38.574,0
1583340685.607,41.016,38.574,38.086,36.621,19.043,0
1583340685.611,26.367,30.762,45.898,22.461,60.059,0
1583340685.629,19.043,28.809,48.340,6.348,89.355,0
1583340685.633,13.672,28.320,51.270,6.348,42.969,0
1583340685.637,10.742,24.902,53.223,11.230,51.270,0
1583340685.641,9.277,21.973,51.758,4.883,88.867,0
1583340685.645,15.625,21.973,51.758,7.324,81.055,0
1583340685.649,15.625,21.484,54.199,7.324,82.520,0
1583340685.653,13.184,24.902,52.734,8.301,26.367,0
1583340685.656,25.879,26.367,49.316,15.137,14.160,0
1583340685.660,44.434,26.855,47.852,18.066,50.293,0
1583340685.664,44.434,28.320,44.922,23.438,68.848,0
1583340685.668,38.086,27.344,42.480,26.367,47.363,0
1583340685.672,41.992,27.832,41.992,25.879,-22.461,0
1583340685.667,51.270,29.785,40.527,31.250,-11.230,0
1583340685.671,49.316,26.367,39.551,36.621,-5.371,0
1583340685.675,39.062,25.391,41.504,36.133,-0.488,0
1583340685.679,36.621,28.809,44.922,35.156,38.574,0
1583340685.683,42.969,27.344,43.945,39.551,61.035,0
1583340685.687,43.457,24.902,41.992,38.086,69.824,0
1583340685.691,32.715,25.879,39.551,28.320,33.203,0
1583340685.694,24.902,24.902,39.551,28.320,7.324,0
1583340685.698,27.832,24.414,40.527,27.344,59.082,0
1583340685.702,30.762,24.902,41.504,15.625,85.449,0
1583340685.706,25.391,23.926,38.574,11.719,34.180,0
1583340685.710,26.367,24.902,37.598,15.625,26.855,0
1583340685.727,27.832,26.855,40.527,18.555,94.727,0
1583340685.731,23.926,28.809,38.574,17.578,70.312,0
1583340685.735,21.484,29.785,35.156,14.160,41.016,0
1583340685.739,12.207,29.785,33.691,10.742,47.363,0
1583340685.743,10.742,31.250,35.645,16.113,25.879,0
1583340685.747,22.461,29.785,37.109,22.949,19.531,0
1583340685.751,24.902,28.320,36.133,18.066,-18.066,0
1583340685.754,15.137,27.832,37.109,9.766,20.020,0
1583340685.758,15.137,27.832,36.133,11.230,41.016,0
1583340685.762,28.320,30.273,37.109,20.508,-30.273,0
1583340685.766,33.203,30.273,38.086,28.320,-61.523,0
1583340685.770,26.367,27.344,36.621,24.902,6.348,0
1583340685.787,23.438,26.367,37.109,22.461,87.891,0
1583340685.791,27.832,25.879,37.109,24.414,68.848,0
1583340685.795,37.598,23.926,36.133,29.297,30.762,0
1583340685.799,37.109,24.414,35.645,31.250,33.691,0
1583340685.803,26.367,24.414,36.133,32.715,9.766,0
1583340685.807,23.438,21.484,34.668,35.156,-20.020,0
1583340685.811,27.344,22.461,33.691,32.227,-8.789,0
1583340685.814,29.297,24.414,34.668,26.855,55.664,0
1583340685.818,23.438,25.391,36.621,20.996,80.078,0
1583340685.822,19.531,24.902,38.574,19.043,17.090,0
1583340685.826,25.879,24.902,40.527,18.066,-17.090,0
1583340685.830,29.297,21.973,36.621,12.695,16.113,0
1583340685.810,20.996,19.531,34.180,10.742,12.207,0
1583340685.814,13.184,23.438,35.645,9.766,17.578,0
1583340685.818,20.508,25.879,35.645,16.602,51.758,0
1583340685.822,28.809,23.926,36.621,20.020,12.207,0
1583340685.826,20.996,25.391,36.621,15.625,6.348,0
1583340685.830,13.184,24.902,32.227,9.277,33.203,0
1583340685.834,18.066,23.926,31.250,6.836,40.039,0
1583340685.837,24.902,23.926,31.738,7.324,74.707,0
1583340685.841,23.438,25.879,30.273,9.277,48.828,0
1583340685.845,20.020,28.809,34.180,11.230,21.484,0
1583340685.849,20.508,29.297,35.645,16.602,60.547,0
1583340685.853,23.438,28.320,32.715,19.531,125.000,0
1583340685.867,23.438,25.879,32.227,18.066,75.684,0
1583340685.871,14.160,25.391,31.738,16.602,15.625,0
1583340685.875,13.672,25.391,30.762,16.113,-1.465,0
1583340685.879,24.414,26.855,33.691,16.113,16.602,0
1583340685.883,34.180,29.785,35.156,18.066,44.434,0
1583340685.887,31.738,31.738,32.227,23.438,14.648,0
1583340685.891,27.344,32.715,33.203,22.461,28.809,0
1583340685.894,36.133,34.668,36.133,20.508,62.500,0
1583340685.898,44.434,33.691,36.133,22.949,0.488,0
1583340685.902,41.016,30.762,35.156,19.043,-21.484,0
1583340685.906,30.273,30.762,33.691,20.508,8.301,0
1583340685.910,35.645,31.738,34.180,30.762,-18.066,0
1583340685.927,46.387,31.738,35.645,26.855,4.395,0
1583340685.931,41.504,28.809,35.156,20.020,-4.395,0
1583340685.935,35.156,29.297,38.086,21.973,16.602,0
1583340685.939,36.133,31.738,38.574,28.809,59.570,0
1583340685.943,39.062,30.273,36.621,32.227,2.441,0
1583340685.947,37.598,28.320,37.598,29.785,22.949,0
1583340685.951,31.250,28.320,38.086,28.320,82.520,0
1583340685.954,28.320,29.785,38.574,29.297,76.660,0
1583340685.958,33.691,31.250,36.621,29.297,68.359,0
1583340685.962,33.203,30.762,32.715,23.926,37.598,0
1583340685.966,27.344,29.785,34.180,20.020,-9.277,0
1583340685.970,20.508,32.715,37.109,21.484,21.484,0
1583340685.950,22.461,35.645,37.109,20.508,45.410,0
1583340685.954,25.879,35.156,34.668,19.043,-7.324,0
1583340685.958,13.184,34.668,30.762,12.695,46.387,0
1583340685.962,-3.418,40.039,37.109,3.906,59.082,0
1583340685.966,-2.930,47.363,44.922,1.953,34.180,0
1583340685.970,-2.441,45.410,44.434,-5.859,49.805,0
1583340685.974,-14.648,43.945,43.457,-17.090,1.953,0
1583340685.977,-23.926,52.734,47.363,-22.949,-10.742,0
1583340685.981,-39.062,63.965,48.340,-44.434,1.465,0
1583340685.985,-52.734,68.848,44.922,-62.988,-11.230,0
1583340685.989,-64.941,71.289,50.781,-75.684,0.977,0
1583340685.993,-98.145,69.336,58.594,-101.562,13.184,0
1583340686.007,-121.582,68.359,56.641,-118.164,7.812,0
1583340686.011,-123.047,77.148,55.664,-129.883,-9.277,0
1583340686.015,-125.488,81.055,54.688,-141.602,29.785,0
1583340686.019,-134.277,82.031,51.758,-147.949,27.832,0
1583340686.023,-147.461,87.402,53.711,-155.762,9.766,0
1583340686.027,-145.020,91.309,51.270,-160.645,68.848,0
1583340686.031,-139.160,89.844,45.898,-164.062,32.715,0
1583340686.034,-132.812,89.844,45.898,-165.039,24.902,0
1583340686.038,-129.395,89.844,44.922,-157.227,64.941,0
1583340686.042,-131.348,83.984,42.969,-148.438,20.996,0
1583340686.046,-113.770,77.637,41.504,-141.113,18.555,0
1583340686.050,-91.309,74.707,43.945,-122.559,97.168,0
1583340686.047,-86.914,71.777,46.875,-104.980,89.355,0
1583340686.051,-76.172,64.453,40.039,-88.379,24.902,0
1583340686.055,-49.805,60.059,36.621,-69.336,10.254,0
1583340686.059,-28.320,55.176,38.086,-53.223,52.246,0
1583340686.063,-16.113,46.387,38.574,-37.598,62.988,0
1583340686.067,-7.324,39.551,36.133,-27.344,39.551,0
1583340686.071,11.719,39.551,29.297,-16.113,55.176,0
1583340686.074,35.156,38.574,25.879,-2.441,43.457,0
1583340686.078,41.016,31.738,25.879,10.254,10.742,0
1583340686.082,41.016,25.879,23.926,20.020,47.363,0
1583340686.086,52.734,20.996,21.484,23.926,85.938,0
1583340686.090,71.289,14.648,22.949,36.621,76.660,0
1583340686.087,83.008,13.184,23.926,50.293,10.742,0
1583340686.091,79.590,13.672,22.461,60.547,-24.414,0
1583340686.095,83.496,11.230,23.438,64.941,10.254,0
1583340686.099,99.121,9.766,24.902,70.312,-10.742,0
1583340686.103,106.445,10.254,24.902,78.125,7.812,0
1583340686.107,101.562,11.230,23.926,77.148,70.312,0
1583340686.111,102.051,12.207,21.484,81.543,65.918,0
1583340686.114,116.211,10.254,21.484,86.914,48.828,0
1583340686.118,121.582,10.254,22.461,89.355,56.152,0
1583340686.122,118.652,12.207,22.461,89.355,44.434,0
1583340686.126,113.281,10.254,25.391,90.332,2.441,0
1583340686.130,112.305,7.812,25.879,94.727,-12.207,0
1583340686.167,123.535,8.789,20.020,96.191,33.691,0
1583340686.171,120.605,10.742,20.020,90.820,54.688,0
1583340686.175,105.957,13.184,23.438,87.402,83.008,0
1583340686.179,108.398,13.672,23.438,93.750,61.523,0
1583340686.183,118.652,13.184,21.484,99.121,41.504,0
1583340686.187,114.746,13.672,20.508,94.238,52.246,0
1583340686.191,104.492,10.742,20.020,89.844,37.109,0
1583340686.194,102.051,9.277,23.926,91.797,54.688,0
1583340686.198,113.770,12.695,25.879,93.262,23.926,0
1583340686.202,119.629,14.160,24.902,91.309,47.363,0
1583340686.206,107.422,13.184,26.367,89.355,86.914,0
1583340686.210,100.098,17.578,28.809,93.750,83.496,0
1583340686.189,107.422,20.020,31.250,90.820,123.535,0
1583340686.193,107.422,16.602,30.273,83.984,133.789,0
1583340686.197,91.797,15.625,25.879,79.102,69.824,0
1583340686.201,83.496,17.578,24.902,75.684,18.066,0
1583340686.205,87.891,20.508,27.832,76.172,53.223,0
1583340686.209,91.309,20.508,29.785,75.195,-0.488,0
1583340686.213,85.449,19.531,28.320,73.242,-37.109,0
1583340686.216,72.266,20.508,25.391,66.406,11.230,0
1583340686.220,73.242,20.996,20.996,63.477,25.879,0
1583340686.224,82.520,22.949,23.438,62.500,0.977,0
1583340686.228,79.590,21.973,27.344,64.941,-6.348,0
1583340686.232,72.266,20.020,24.414,64.941,3.418,0
1583340686.227,68.359,20.996,24.902,59.570,-17.578,0
1583340686.231,70.801,25.391,28.809,60.547,3.906,0
1583340686.235,73.730,26.367,28.809,57.617,64.453,0
1583340686.239,64.941,22.949,27.832,51.270,72.266,0
1583340686.243,55.176,24.902,28.320,56.152,-7.812,0
1583340686.247,62.500,25.879,31.250,60.547,1.953,0
1583340686.251,74.219,24.902,33.203,57.617,13.184,0
1583340686.254,66.895,24.902,34.180,57.617,34.668,0
1583340686.258,56.152,24.902,34.180,52.734,88.867,0
1583340686.262,58.105,22.949,31.250,42.480,54.688,0
1583340686.266,62.012,22.949,28.320,41.992,17.578,0
1583340686.270,56.152,22.949,28.809,41.016,42.480,0
1583340686.287,46.387,24.414,30.762,42.480,71.777,0
1583340686.291,46.387,28.809,31.738,46.875,29.785,0
1583340686.295,49.805,25.879,33.203,42.480,-3.906,0
1583340686.299,48.340,25.391,33.691,38.574,25.391,0
1583340686.303,46.875,27.832,34.668,41.016,25.879,0
1583340686.307,44.922,27.832,36.621,41.992,26.855,0
1583340686.311,43.457,26.855,33.203,39.062,23.926,0
1583340686.314,44.434,25.391,31.738,36.133,48.340,0
1583340686.318,39.062,24.902,33.203,35.645,57.617,0
1583340686.322,34.668,25.879,33.691,35.645,42.969,0
1583340686.326,40.527,28.809,34.668,40.039,46.387,0
1583340686.330,45.898,29.785,34.180,41.504,50.293,0
1583340686.327,40.039,27.344,31.250,30.762,53.223,0
1583340686.331,28.809,27.344,28.809,23.438,7.812,0
1583340686.335,40.527,30.762,26.367,33.691,-6.348,0
1583340686.339,62.988,31.738,23.926,46.875,80.566,0
1583340686.343,48.340,31.250,32.227,37.109,80.078,0
1583340686.347,20.020,26.855,40.039,18.555,20.996,0
1583340686.351,24.902,23.926,39.551,19.531,54.199,0
1583340686.354,38.574,21.973,37.109,30.762,28.809,0
1583340686.358,35.645,20.020,36.133,27.832,-31.250,0
1583340686.362,19.043,21.484,39.062,15.137,8.789,0
1583340686.366,7.812,23.926,40.527,19.043,53.711,0
1583340686.370,13.184,24.414,38.574,30.762,48.340,0
1583340686.367,19.531,26.855,37.598,28.320,56.641,0
1583340686.371,8.301,27.344,36.133,24.902,58.105,0
1583340686.375,-7.812,25.879,40.039,25.879,63.965,0
1583340686.379,-8.789,26.367,40.039,24.902,33.691,0
1583340686.383,-4.883,29.297,38.574,26.855,59.082,0
1583340686.387,-11.719,28.320,38.574,21.973,66.895,0
1583340686.391,-26.367,30.273,30.762,15.137,-13.184,0
1583340686.394,-34.180,30.762,31.738,15.625,-4.883,0
1583340686.398,-31.738,27.832,37.109,10.254,-18.066,0
1583340686.402,-37.598,31.250,32.715,4.883,52.734,0
1583340686.406,-49.316,34.180,32.227,8.301,74.219,0
1583340686.410,-57.617,30.762,38.086,6.348,-17.578,0
1583340686.427,-52.246,30.273,40.527,3.418,-40.039,0
1583340686.431,-46.387,32.715,38.086,3.906,-70.801,0
1583340686.435,-57.617,29.297,34.180,3.418,-13.184,0
1583340686.439,-64.941,25.391,33.203,1.953,49.805,0
1583340686.443,-53.223,25.879,33.691,2.930,42.480,0
1583340686.447,-42.969,26.367,35.645,6.348,-13.672,0
1583340686.451,-45.410,27.344,35.156,1.953,-44.922,0
1583340686.454,-49.805,28.320,34.668,4.395,-10.254,0
1583340686.458,-43.945,28.809,34.668,13.184,3.906,0
1583340686.462,-31.738,30.273,31.738,18.066,33.203,0
1583340686.466,-39.062,31.250,32.715,14.160,5.859,0
1583340686.470,-44.922,29.297,35.156,9.277,-8.789,0
1583340686.467,-30.273,28.809,33.691,14.160,-26.367,0
1583340686.471,-18.555,27.344,31.738,18.555,-40.039,0
1583340686.475,-12.695,24.902,33.203,13.184,33.203,0
1583340686.479,-15.625,26.367,35.645,13.184,18.066,0
1583340686.483,-19.043,26.367,38.574,19.531,-17.090,0
1583340686.487,-8.789,25.391,38.086,19.531,-28.320,0
1583340686.491,2.441,25.391,33.691,16.113,-31.738,0
1583340686.494,-1.465,27.344,32.227,12.695,39.551,0
1583340686.498,-4.395,27.832,33.203,12.695,102.539,0
1583340686.502,7.812,27.344,36.621,20.996,51.758,0
1583340686.506,19.043,26.367,37.109,23.926,-14.160,0
1583340686.510,23.926,24.414,34.668,21.484,7.324,0
1583340686.507,23.438,24.902,35.645,24.414,20.020,0
1583340686.511,34.180,24.414,38.574,30.273,23.438,0
1583340686.515,50.293,25.391,40.039,36.133,20.020,0
1583340686.519,49.316,27.344,39.062,33.203,25.879,0
1583340686.523,45.410,26.367,38.086,28.320,27.344,0
1583340686.527,49.805,26.855,34.668,28.320,-7.324,0
1583340686.531,55.176,24.902,32.715,26.367,2.930,0
1583340686.534,60.547,26.855,37.598,26.855,-0.488,0
1583340686.538,54.199,29.785,41.504,24.414,-2.930,0
1583340686.542,50.293,25.879,36.133,22.461,19.043,0
1583340686.546,59.570,28.320,32.227,24.902,-18.555,0
1583340686.550,62.012,28.320,35.156,28.320,32.715,0
1583340686.567,54.199,25.391,37.109,30.762,96.191,0
1583340686.571,54.688,27.832,38.574,28.320,20.996,0
1583340686.575,57.617,28.320,38.574,28.809,-9.277,0
1583340686.579,63.477,29.297,36.133,31.738,32.227,0
1583340686.583,67.383,31.738,33.203,32.227,60.059,0
1583340686.587,62.012,30.762,35.156,33.203,65.918,0
1583340686.591,62.012,30.273,38.574,24.414,53.711,0
1583340686.594,65.430,30.762,37.109,21.484,75.684,0
1583340686.598,67.871,29.297,33.203,36.133,85.449,0
1583340686.602,62.012,32.227,35.156,38.574,29.785,0
1583340686.606,57.617,34.668,41.016,38.574,4.395,0
1583340686.610,59.570,32.715,42.969,40.527,37.598,0
1583340686.607,60.547,35.156,43.457,36.133,29.297,0
1583340686.611,50.781,33.691,41.016,32.715,1.953,0
1583340686.615,43.457,31.250,39.551,26.855,-37.598,0
1583340686.619,48.340,33.691,38.086,23.438,-16.602,0
1583340686.623,52.246,35.156,37.109,26.855,-3.418,0
1583340686.627,46.387,33.691,37.109,25.391,-20.020,0
1583340686.631,37.598,32.227,35.645,24.414,-13.184,0
1583340686.634,41.504,32.227,34.668,24.902,6.836,0
1583340686.638,48.828,32.227,32.227,23.926,93.750,0
1583340686.642,44.434,34.180,33.203,21.973,69.336,0
1583340686.646,35.645,33.203,29.785,14.160,28.320,0
1583340686.650,36.621,30.273,25.391,10.742,92.773,0
1583340686.647,47.363,31.738,27.344,17.578,46.875,0
1583340686.651,48.828,32.715,29.297,22.949,11.719,0
1583340686.655,40.527,33.691,31.250,21.484,27.832,0
1583340686.659,42.969,34.180,32.227,20.996,21.484,0
1583340686.663,50.293,34.668,29.297,23.438,35.645,0
1583340686.667,49.805,34.668,25.391,25.879,72.266,0
1583340686.671,41.504,32.715,26.367,25.879,70.312,0
1583340686.674,39.062,33.691,28.809,26.367,20.996,0
1583340686.678,44.922,34.668,29.297,23.438,30.273,0
1583340686.682,47.363,33.203,28.809,22.461,30.273,0
1583340686.686,40.527,33.691,33.203,23.438,32.227,0
1583340686.690,29.297,31.738,33.691,19.531,22.461,0
1583340686.707,31.738,30.762,32.715,19.043,47.852,0
1583340686.711,42.969,30.762,32.227,16.602,97.656,0
1583340686.715,44.434,31.250,29.785,14.160,82.031,0
1583340686.719,33.691,29.785,30.762,25.391,20.020,0
1583340686.723,27.344,28.809,28.809,29.297,37.109,0
1583340686.727,38.574,29.785,32.227,21.973,73.242,0
1583340686.731,42.969,29.297,37.109,12.695,40.039,0
1583340686.734,34.668,29.297,35.645,12.207,18.555,0
1583340686.738,28.809,28.320,35.156,17.578,60.059,0
1583340686.742,35.645,26.855,36.133,18.555,101.562,0
1583340686.746,43.945,29.297,35.645,22.949,66.895,0
1583340686.750,36.133,31.250,33.691,19.531,64.941,0
1583340686.749,31.738,29.785,34.668,17.578,79.590,0
1583340686.753,39.551,30.762,34.668,20.996,49.316,0
1583340686.757,43.457,30.762,33.691,24.902,64.453,0
1583340686.761,39.062,29.297,33.203,17.578,79.102,0
1583340686.765,29.785,31.250,33.691,11.230,35.156,0
1583340686.769,29.785,33.203,33.691,17.578,12.207,0
1583340686.773,39.062,33.203,32.715,18.555,12.695,0
1583340686.776,38.086,33.691,29.297,14.160,26.367,0
1583340686.780,28.809,31.250,30.273,13.672,55.176,0
1583340686.784,22.461,27.832,31.250,15.137,56.152,0
1583340686.788,27.832,26.855,25.391,13.184,30.273,0
1583340686.792,30.762,27.344,27.832,18.555,3.906,0
1583340686.787,21.484,28.320,33.691,18.555,-39.551,0
1583340686.791,18.066,28.809,32.227,19.043,-16.602,0
1583340686.795,22.461,29.297,28.320,21.973,60.547,0
1583340686.799,26.367,30.273,26.367,17.578,20.996,0
1583340686.803,22.949,33.203,30.273,12.695,-25.391,0
1583340686.807,16.113,33.203,32.227,12.695,40.039,0
1583340686.811,21.484,31.738,28.809,12.207,70.312,0
1583340686.814,28.809,32.715,30.273,6.348,-16.602,0
1583340686.818,22.949,33.203,31.738,5.371,-10.742,0
1583340686.822,13.184,32.715,31.250,10.742,48.828,0
1583340686.826,14.160,30.273,31.250,14.648,-8.301,0
1583340686.830,22.949,29.297,29.297,20.508,-24.414,0
1583340686.847,21.973,31.250,30.273,21.973,-9.277,0
1583340686.851,12.695,28.320,33.203,20.996,-2.930,0
1583340686.855,15.625,25.879,35.645,22.949,16.602,0
1583340686.859,26.855,25.879,37.109,24.902,62.988,0
1583340686.863,26.855,24.902,35.645,30.273,86.914,0
1583340686.867,19.043,24.902,34.668,28.320,86.426,0
1583340686.871,19.043,26.367,36.133,27.832,21.484,0
1583340686.874,29.297,25.391,37.598,30.762,-22.949,0
1583340686.878,32.227,23.438,38.086,29.297,4.883,0
1583340686.882,23.926,24.902,36.133,26.367,46.387,0
1583340686.886,15.137,26.367,37.598,20.996,122.559,0
1583340686.890,20.508,26.367,41.016,20.996,90.332,0
1583340686.887,29.785,27.344,38.574,21.973,27.832,0
1583340686.891,30.762,29.297,36.621,15.625,40.039,0
1583340686.895,17.090,31.250,39.551,15.137,59.082,0
1583340686.899,13.184,30.762,40.527,16.602,41.504,0
1583340686.903,25.391,30.762,40.039,16.602,12.695,0
1583340686.907,26.367,33.691,40.527,16.602,18.555,0
1583340686.911,17.090,33.691,36.621,16.113,17.578,0
1583340686.914,14.160,30.762,37.109,17.090,-13.672,0
1583340686.918,24.414,30.273,39.551,15.137,21.484,0
1583340686.922,24.414,30.273,37.109,11.230,42.480,0
1583340686.926,18.066,30.762,38.574,11.230,10.742,0
1583340686.930,11.719,31.250,40.527,14.160,-13.672,0
1583340686.927,14.160,30.273,40.527,18.066,11.719,0
1583340686.931,22.461,28.809,38.574,19.531,0.000,0
1583340686.935,16.602,27.344,33.203,12.695,-25.879,0
1583340686.939,8.301,28.809,29.785,10.254,-24.902,0
1583340686.943,10.254,32.715,28.809,15.625,-27.832,0
1583340686.947,15.137,32.715,24.902,10.254,34.668,0
1583340686.951,10.742,30.273,23.926,6.348,68.359,0
1583340686.954,5.371,31.250,27.832,6.348,13.184,0
1583340686.958,4.883,31.250,26.855,9.277,21.973,0
1583340686.962,15.137,32.715,25.879,19.043,12.695,0
1583340686.966,21.973,31.738,26.367,19.531,-14.648,0
1583340686.970,14.160,28.320,27.344,16.113,6.348,0
1583340686.987,8.301,28.809,29.785,11.230,38.086,0
1583340686.991,10.254,30.273,30.762,9.766,-6.836,0
1583340686.995,11.230,27.344,26.855,4.883,-43.945,0
1583340686.999,7.324,26.367,27.832,11.719,-19.043,0
1583340687.003,3.418,28.320,32.227,15.137,2.930,0
1583340687.007,9.277,30.762,30.273,8.301,51.758,0
1583340687.011,15.137,29.785,27.832,9.277,77.637,0
1583340687.014,17.578,27.344,26.855,14.160,27.344,0
1583340687.018,15.625,30.273,28.809,18.066,-21.484,0
1583340687.022,19.531,33.203,29.785,21.484,36.621,0
1583340687.026,30.762,29.785,27.344,25.391,65.430,0
1583340687.030,42.480,28.809,28.320,32.715,13.672,0
1583340687.027,40.527,35.156,27.344,28.809,27.344,0
1583340687.031,27.832,35.156,23.438,14.160,28.809,0
1583340687.035,28.320,34.180,20.996,7.812,27.832,0
1583340687.039,34.180,37.109,17.090,7.812,11.719,0
1583340687.043,27.832,39.062,21.973,13.672,52.734,0
1583340687.047,15.137,36.133,28.809,12.695,63.965,0
1583340687.051,11.719,31.250,27.832,3.906,11.230,0
1583340687.054,14.160,29.297,28.320,0.977,66.406,0
1583340687.058,11.230,30.273,26.855,5.859,68.359,0
1583340687.062,8.789,32.715,26.855,4.395,2.930,0
1583340687.066,19.531,33.691,28.320,6.348,26.367,0
1583340687.070,29.297,35.156,25.879,15.625,84.961,0
1583340687.067,24.414,35.156,25.879,14.648,96.191,0
1583340687.071,14.160,32.715,26.855,11.230,64.941,0
1583340687.075,18.066,36.133,24.414,11.719,53.223,0
1583340687.079,27.832,37.598,23.926,11.719,55.664,0
1583340687.083,24.414,37.109,24.902,17.090,41.504,0
1583340687.087,14.160,37.598,22.461,16.602,39.062,0
1583340687.091,10.254,35.156,23.926,12.695,5.859,0
1583340687.094,18.555,34.180,30.762,10.254,-2.441,0
1583340687.098,22.949,31.738,32.715,9.766,50.781,0
1583340687.102,16.602,31.738,31.250,16.113,25.879,0
1583340687.106,16.602,35.156,32.227,19.043,-10.254,0
1583340687.110,26.367,32.715,31.738,18.555,14.160,0
1583340687.127,32.227,30.273,31.738,17.090,29.297,0
1583340687.131,29.785,29.785,31.738,20.020,41.016,0
1583340687.135,25.391,29.297,31.738,24.902,33.203,0
1583340687.139,30.273,27.832,34.180,28.809,24.902,0
1583340687.143,39.062,27.832,32.715,27.344,30.273,0
1583340687.147,32.715,26.367,29.785,22.949,-18.066,0
1583340687.151,27.344,27.832,31.250,22.949,-22.461,0
1583340687.154,31.738,30.273,32.227,20.508,46.387,0
1583340687.158,35.156,27.344,29.785,17.578,49.316,0
1583340687.162,40.527,26.855,27.344,22.461,41.504,0
1583340687.166,36.133,28.809,27.832,22.949,32.227,0
1583340687.170,31.738,29.785,29.297,20.996,8.789,0
1583340687.168,40.527,29.785,29.297,23.926,26.855,0
1583340687.172,45.898,32.715,32.715,24.414,32.715,0
1583340687.176,39.551,34.180,30.762,24.414,24.414,0
1583340687.180,34.668,34.180,28.320,22.949,22.461,0
1583340687.184,37.109,33.203,32.227,20.020,16.602,0
1583340687.188,43.945,32.227,32.227,22.461,-29.297,0
1583340687.192,41.016,32.715,31.250,28.320,21.484,0
1583340687.195,32.715,31.250,33.203,34.668,63.477,0
1583340687.199,36.133,28.809,35.156,35.156,6.836,0
1583340687.203,45.898,29.297,37.598,31.250,-19.531,0
1583340687.207,38.086,27.832,37.109,31.250,-14.160,0
1583340687.211,26.855,28.809,31.738,29.297,67.871,0
1583340687.207,28.320,32.715,28.320,25.391,118.164,0
1583340687.211,38.574,38.086,28.320,23.438,35.156,0
1583340687.215,41.992,39.551,32.715,24.902,0.977,0
1583340687.219,36.621,36.621,33.691,21.484,41.992,0
1583340687.223,34.180,39.551,31.250,18.555,23.926,0
1583340687.227,35.645,40.527,29.297,22.461,-20.508,0
1583340687.231,40.039,40.527,30.762,26.367,-12.695,0
1583340687.234,31.250,41.504,31.250,18.066,32.715,0
1583340687.238,19.531,38.574,30.762,14.648,47.363,0
1583340687.242,26.855,34.668,33.203,17.090,24.414,0
1583340687.246,37.598,35.156,32.715,15.137,10.742,0
1583340687.250,32.715,36.621,29.297,18.555,10.254,0
1583340687.267,26.367,36.133,30.273,15.137,30.273,0
1583340687.271,28.809,36.621,32.715,13.672,10.254,0
1583340687.275,30.762,35.645,34.668,21.484,43.457,0
1583340687.279,30.273,34.668,33.691,25.879,39.062,0
1583340687.283,21.484,33.691,33.691,22.949,-18.066,0
1583340687.287,21.484,30.273,31.738,21.484,19.043,0
1583340687.291,34.668,29.785,30.762,23.926,-28.320,0
1583340687.294,38.574,29.785,30.273,26.367,-14.160,0
1583340687.298,31.738,29.297,31.250,26.855,42.480,0
1583340687.302,22.949,29.297,33.691,22.461,61.523,0
1583340687.306,25.391,32.227,32.715,20.020,83.496,0
1583340687.310,36.133,33.203,32.227,23.438,77.637,0
1583340687.307,34.180,34.180,31.738,23.926,61.035,0
1583340687.311,26.855,34.180,32.227,20.996,27.832,0
1583340687.315,33.203,31.250,31.738,22.461,25.391,0
1583340687.319,40.039,30.762,31.250,17.090,33.203,0
1583340687.323,33.203,29.297,30.762,14.648,21.973,0
1583340687.327,24.414,27.832,30.273,16.602,-6.836,0
1583340687.331,30.273,32.227,29.785,14.160,15.625,0
1583340687.334,37.598,32.715,28.809,12.207,-5.859,0
1583340687.338,31.738,33.691,32.715,12.207,0.977,0
1583340687.342,22.949,35.156,33.203,9.277,63.965,0
1583340687.346,20.508,31.738,31.738,11.719,-2.930,0
1583340687.350,24.902,32.715,34.668,19.531,-38.086,0
1583340687.347,29.785,34.180,36.133,21.484,23.438,0
1583340687.351,29.297,32.715,35.645,18.555,25.391,0
1583340687.355,29.785,33.203,35.645,17.090,49.805,0
1583340687.359,36.621,33.691,35.645,15.625,32.227,0
1583340687.363,44.434,31.738,33.691,12.695,20.996,0
1583340687.367,37.109,30.273,33.203,14.648,4.883,0
1583340687.371,28.320,33.691,30.273,17.090,35.156,0
1583340687.374,35.645,37.109,25.879,20.996,54.688,0
1583340687.378,41.992,35.645,27.832,20.508,8.789,0
1583340687.382,37.109,32.227,32.227,19.043,29.785,0
1583340687.386,28.809,31.738,34.668,20.508,31.738,0
1583340687.390,30.273,32.715,36.133,21.484,-14.160,0
1583340687.407,38.086,34.668,35.156,18.555,-33.691,0
1583340687.411,36.621,35.156,36.133,16.113,-50.293,0
1583340687.415,31.250,30.762,37.598,17.090,-40.527,0
1583340687.419,26.367,27.344,38.574,18.066,24.902,0
1583340687.423,27.832,27.832,39.062,19.043,0.488,0
1583340687.427,38.086,27.344,38.086,22.461,-4.395,0
1583340687.431,36.621,28.320,39.062,25.391,57.129,0
1583340687.434,26.855,28.320,39.062,29.785,72.266,0
1583340687.438,31.738,26.855,36.133,30.762,72.266,0
1583340687.442,39.062,30.273,36.133,28.320,45.898,0
1583340687.446,34.180,31.250,35.645,24.414,20.996,0
1583340687.450,25.879,27.832,35.156,22.949,30.273,0
1583340687.447,28.809,29.297,37.109,25.391,16.113,0
1583340687.451,34.668,29.785,35.156,23.926,-8.789,0
1583340687.455,31.738,28.320,37.109,26.855,65.430,0
1583340687.459,24.902,28.809,38.574,30.762,81.543,0
1583340687.463,22.949,26.855,38.574,25.391,37.109,0
1583340687.467,30.273,25.879,37.598,24.414,26.367,0
1583340687.471,38.574,25.879,33.691,26.367,-5.859,0
1583340687.474,33.203,26.367,34.180,25.391,-11.719,0
1583340687.478,20.020,28.320,39.062,16.602,70.801,0
1583340687.482,24.902,28.809,40.039,8.301,112.793,0
1583340687.486,32.715,26.855,32.715,11.719,52.734,0
1583340687.490,24.902,23.438,28.320,13.672,-3.418,0
1583340687.507,17.578,24.414,31.738,13.672,-23.926,0
1583340687.511,20.020,25.391,33.203,13.184,9.766,0
1583340687.515,25.391,24.414,32.227,19.043,40.527,0
1583340687.519,21.973,25.879,30.762,17.578,46.387,0
1583340687.523,15.625,27.344,30.273,7.324,58.594,0
1583340687.527,15.625,25.879,32.227,10.742,65.430,0
1583340687.531,22.461,26.855,35.156,15.137,32.715,0
1583340687.534,23.926,28.809,37.598,13.184,52.246,0
1583340687.538,15.625,26.855,34.180,9.766,92.773,0
1583340687.542,18.066,27.344,32.227,11.719,55.664,0
1583340687.546,29.785,27.832,31.250,16.113,35.156,0
1583340687.550,31.250,28.320,31.250,18.066,70.312,0
1583340687.547,25.879,29.785,35.645,16.602,43.945,0
1583340687.551,22.949,28.809,36.133,19.531,21.484,0
1583340687.555,35.645,32.715,38.086,20.996,6.836,0
1583340687.559,46.387,34.180,38.086,21.973,39.551,0
1583340687.563,36.133,32.715,35.156,24.902,78.613,0
1583340687.567,28.809,33.203,30.762,23.438,52.734,0
1583340687.571,33.691,29.785,26.367,20.996,58.105,0
1583340687.574,38.086,27.344,28.809,20.996,47.363,0
1583340687.578,33.203,27.344,31.250,22.949,34.668,0
1583340687.582,26.855,29.297,32.227,20.508,22.949,0
1583340687.586,24.414,30.762,32.715,17.578,46.875,0
1583340687.590,33.203,29.297,33.203,21.484,51.270,0
1583340687.588,35.156,31.738,33.691,20.020,1.465,0
1583340687.592,20.508,31.250,32.715,10.742,32.227,0
1583340687.596,16.113,28.320,32.715,9.277,51.758,0
1583340687.600,24.902,28.809,32.715,16.602,22.949,0
1583340687.604,28.320,28.320,32.227,20.508,6.836,0
1583340687.608,25.391,30.762,35.156,21.484,0.977,0
1583340687.612,23.926,33.203,35.645,19.531,-12.207,0
1583340687.615,29.297,33.203,36.133,17.578,-1.953,0
1583340687.619,34.668,34.180,38.086,18.555,40.527,0
1583340687.623,30.273,30.762,39.062,20.508,62.988,0
1583340687.627,20.508,28.809,39.551,22.461,50.293,0
1583340687.631,27.832,30.762,38.574,22.461,5.371,0
1583340687.647,38.086,32.227,40.527,20.508,-17.578,0
1583340687.651,33.691,31.250,41.016,19.531,29.297,0
1583340687.655,21.973,33.203,38.086,22.949,48.828,0
1583340687.659,26.367,36.133,37.109,28.809,11.230,0
1583340687.663,38.574,37.109,35.156,29.297,-2.441,0
1583340687.667,32.227,38.086,33.203,28.809,-5.859,0
1583340687.671,22.949,38.086,34.668,26.367,20.996,0
1583340687.674,24.414,37.598,36.133,19.531,12.695,0
1583340687.678,34.668,38.574,40.039,23.438,57.129,0
1583340687.682,37.598,38.574,41.504,32.227,79.102,0
1583340687.686,28.320,37.109,38.086,28.320,19.043,0
1583340687.690,20.508,34.668,38.574,20.020,40.527,0
1583340687.687,27.832,31.738,38.086,18.066,71.289,0
1583340687.691,37.109,30.762,36.621,21.973,32.227,0
1583340687.695,32.715,29.785,37.109,20.996,-0.488,0
1583340687.699,38.086,29.785,34.668,23.926,15.137,0
1583340687.703,44.922,28.809,34.668,23.926,18.555,0
1583340687.707,40.527,24.414,35.645,13.184,6.836,0
1583340687.711,37.598,22.949,34.668,16.113,-23.438,0
1583340687.714,35.645,23.438,35.645,25.391,-8.301,0
1583340687.718,31.738,22.949,38.574,22.949,-15.625,0
1583340687.722,33.203,22.949,41.992,25.879,-12.207,0
1583340687.726,35.156,22.949,43.945,27.832,54.199,0
1583340687.730,26.855,23.438,41.992,20.508,40.039,0
1583340687.727,21.973,23.438,38.574,18.066,15.625,0
1583340687.731,27.344,22.949,41.504,23.926,98.633,0
1583340687.735,33.691,21.484,42.969,30.273,130.859,0
1583340687.739,31.738,21.484,43.457,30.273,42.480,0
1583340687.743,27.344,22.949,43.945,28.809,8.789,0
1583340687.747,33.203,20.996,42.480,32.227,54.688,0
1583340687.751,39.551,23.926,40.039,40.039,24.902,0
1583340687.754,41.016,29.785,40.039,44.434,33.203,0
1583340687.758,34.668,31.738,43.945,35.156,45.898,0
1583340687.762,32.227,29.785,40.527,26.855,13.672,0
1583340687.766,41.504,30.762,36.133,27.832,27.832,0
1583340687.770,41.992,31.250,33.691,29.297,40.527,0
1583340687.787,33.691,31.250,32.227,30.273,17.090,0
1583340687.791,33.203,34.180,33.203,28.809,25.391,0
1583340687.795,41.504,33.203,33.691,25.879,35.156,0
1583340687.799,41.504,31.250,35.156,22.949,84.961,0
1583340687.803,33.203,36.621,35.156,26.855,105.469,0
1583340687.807,35.156,39.062,36.133,29.785,33.203,0
1583340687.811,43.457,36.621,36.133,31.738,3.418,0
1583340687.814,44.434,35.645,31.738,35.645,35.645,0
1583340687.818,34.180,33.203,29.297,30.762,54.199,0
1583340687.822,26.367,34.180,32.227,30.273,-8.789,0
1583340687.826,32.715,33.691,33.203,33.203,-1.465,0
1583340687.830,41.992,32.227,35.156,30.273,66.895,0
1583340687.827,35.156,32.227,30.762,26.855,15.625,0
1583340687.831,26.367,32.227,27.344,25.879,23.438,0
1583340687.835,26.855,34.668,30.762,24.414,64.941,0
1583340687.839,36.621,36.133,33.203,21.484,20.508,0
1583340687.843,36.621,34.180,36.133,25.879,38.086,0
1583340687.847,25.391,31.738,35.645,22.949,-5.859,0
1583340687.851,21.484,29.297,32.227,18.066,-30.762,0
1583340687.854,33.203,27.344,29.297,27.344,18.066,0
1583340687.858,48.828,31.250,27.344,32.715,25.879,0
1583340687.862,33.691,38.086,27.344,16.602,19.531,0
1583340687.866,14.160,39.551,24.414,0.977,38.086,0
1583340687.870,23.926,41.504,21.484,6.836,41.504,0
1583340687.867,29.785,41.504,22.461,11.230,-1.953,0
1583340687.871,22.461,37.109,23.438,9.277,67.871,0
1583340687.875,12.207,35.645,24.414,4.395,56.641,0
1583340687.879,6.348,34.180,23.438,1.953,-2.441,0
1583340687.883,16.113,31.250,18.555,3.418,21.973,0
1583340687.887,17.090,32.227,20.020,3.906,37.598,0
1583340687.891,10.742,32.715,24.902,8.301,48.340,0
1583340687.894,16.113,33.691,27.344,18.066,8.789,0
1583340687.898,25.879,35.645,26.855,19.531,-40.039,0
1583340687.902,31.250,34.668,27.832,12.207,9.277,0
1583340687.906,28.320,32.715,29.785,15.137,69.336,0
1583340687.910,26.855,34.180,29.297,21.973,24.414,0
1583340687.927,34.180,35.645,30.273,21.973,54.199,0
1583340687.931,38.086,34.668,30.273,18.555,90.332,0
1583340687.935,34.668,33.203,26.367,17.578,55.664,0
1583340687.939,29.297,32.227,24.902,16.113,33.691,0
1583340687.943,31.738,33.203,24.902,15.625,19.043,0
1583340687.947,41.016,32.227,28.320,23.926,-18.066,0
1583340687.951,35.645,33.691,33.203,25.391,-26.855,0
1583340687.954,24.414,34.180,33.203,18.066,19.043,0
1583340687.958,29.297,29.785,32.227,20.508,32.715,0
1583340687.962,40.039,30.273,35.645,25.879,-2.441,0
1583340687.966,37.109,30.762,36.621,21.973,-17.090,0
1583340687.970,19.531,27.344,30.762,17.578,23.926,0
1583340687.967,18.555,26.367,28.320,17.090,41.992,0
1583340687.971,30.762,25.879,31.250,18.555,34.180,0
1583340687.975,31.738,26.855,32.715,20.508,4.395,0
1583340687.979,24.414,29.785,33.203,22.949,2.441,0
1583340687.983,21.484,30.762,33.691,28.320,1.465,0
1583340687.987,28.809,30.273,29.297,28.809,8.789,0
1583340687.991,38.086,29.297,30.273,22.949,51.758,0
1583340687.994,34.180,30.762,32.715,23.438,-38.574,0
1583340687.998,25.391,33.203,28.320,22.949,-67.871,0
1583340688.002,24.902,33.203,29.785,26.855,0.488,0
1583340688.006,30.762,30.762,35.156,25.391,16.602,0
1583340688.010,29.785,30.273,36.133,19.043,29.785,0
1583340688.007,21.484,31.738,36.621,18.066,23.926,0
1583340688.011,21.484,29.297,35.645,20.020,41.992,0
1583340688.015,28.320,27.832,38.086,19.043,63.477,0
1583340688.019,29.297,29.785,38.086,18.555,105.469,0
1583340688.023,20.996,29.297,34.180,20.508,120.117,0
1583340688.027,16.602,28.809,32.715,15.625,62.012,0
1583340688.031,26.367,29.785,31.250,17.090,74.707,0
1583340688.034,33.691,34.180,34.180,18.066,70.312,0
1583340688.038,25.391,38.574,32.715,14.648,-15.625,0
1583340688.042,29.785,37.598,29.785,20.508,-7.324,0
1583340688.046,47.363,36.133,33.691,33.203,45.410,0
1583340688.050,39.551,32.227,40.039,26.367,74.707,0
1583340688.067,12.695,26.367,42.480,4.883,89.844,0
1583340688.071,-1.953,21.484,43.457,-2.441,56.152,0
1583340688.075,2.441,20.996,44.434,3.906,0.977,0
1583340688.079,11.230,20.020,46.387,8.789,13.672,0
1583340688.083,7.812,19.043,45.898,6.348,31.250,0
1583340688.087,-0.977,21.484,47.363,8.789,61.523,0
1583340688.091,0.000,24.414,51.270,10.254,107.422,0
1583340688.094,16.602,23.438,50.781,11.719,122.070,0
1583340688.098,22.461,24.414,49.316,15.625,88.379,0
1583340688.102,15.137,26.855,45.410,17.578,74.219,0
1583340688.106,14.160,26.367,41.016,21.484,42.480,0
1583340688.110,21.973,28.320,39.551,23.926,28.320,0
1583340688.107,28.809,28.320,41.992,23.926,56.152,0
1583340688.111,23.438,27.344,42.969,21.973,5.371,0
1583340688.115,18.066,29.297,39.551,19.531,-0.977,0
1583340688.119,23.926,28.809,41.504,30.762,41.504,0
1583340688.123,30.762,29.297,43.945,33.203,56.641,0
1583340688.127,26.855,31.738,41.016,21.484,45.898,0
1583340688.131,22.461,31.250,40.039,22.949,16.113,0
1583340688.134,23.926,33.691,40.527,25.391,45.410,0
1583340688.138,30.762,31.738,39.062,21.973,62.500,0
1583340688.142,29.785,29.297,40.527,21.484,13.184,0
1583340688.146,23.926,31.738,39.062,19.531,26.367,0
1583340688.150,29.785,32.715,33.691,21.484,82.520,0
1583340688.147,34.668,31.250,36.133,23.438,124.023,0
1583340688.151,35.156,30.273,37.109,20.996,79.590,0
1583340688.155,25.879,31.250,37.109,18.555,32.715,0
1583340688.159,18.066,31.250,35.645,18.555,57.617,0
1583340688.163,27.344,33.691,33.691,25.391,59.570,0
1583340688.167,32.715,31.738,38.086,24.902,21.484,0
1583340688.171,28.320,29.785,36.133,21.973,21.973,0
1583340688.174,27.344,31.738,35.156,20.996,12.695,0
1583340688.178,31.738,31.250,38.086,19.531,-39.062,0
1583340688.182,33.691,29.297,37.109,21.973,-1.953,0
1583340688.186,29.785,28.320,37.109,24.414,25.391,0
1583340688.190,20.508,28.320,36.621,18.555,19.043,0
1583340688.207,19.043,28.320,35.156,13.184,36.133,0
1583340688.211,25.391,27.344,32.715,11.230,33.203,0
1583340688.215,24.902,27.344,30.762,8.301,6.836,0
1583340688.219,20.020,28.809,32.227,6.836,14.160,0
1583340688.223,16.113,29.785,33.691,11.230,24.902,0
1583340688.227,24.902,29.785,37.109,18.555,17.090,0
1583340688.231,32.227,28.320,36.621,20.020,4.395,0
1583340688.234,22.461,27.344,36.621,17.090,27.344,0
1583340688.238,17.578,26.855,36.621,14.160,76.660,0
1583340688.242,24.902,26.855,33.203,12.207,18.555,0
1583340688.246,30.273,32.715,32.715,16.113,-5.859,0
1583340688.250,25.879,35.645,35.156,13.184,43.945,0
1583340688.247,20.020,31.250,33.691,10.742,39.062,0
1583340688.251,22.949,27.344,29.785,14.648,1.953,0
1583340688.255,30.762,31.738,31.250,14.160,74.707,0
1583340688.259,29.785,34.668,32.715,18.066,35.156,0
1583340688.263,22.461,33.203,32.227,20.020,-7.812,0
1583340688.267,22.949,33.203,31.738,17.578,25.391,0
1583340688.271,29.785,30.762,32.715,19.531,-17.090,0
1583340688.274,30.762,31.738,31.250,17.578,-20.508,0
1583340688.278,24.414,32.715,33.203,15.137,34.668,0
1583340688.282,24.902,31.738,35.156,16.602,39.551,0
1583340688.286,31.250,32.715,35.156,19.531,50.781,0
1583340688.290,38.574,34.668,37.598,21.973,74.219,0
1583340688.288,30.762,33.691,36.621,25.391,-2.930,0
1583340688.292,19.043,31.250,35.156,26.855,-57.129,0
1583340688.296,22.949,28.320,36.621,17.578,1.465,0
1583340688.300,26.367,26.367,36.621,10.742,93.262,0
1583340688.304,19.531,25.391,31.738,13.672,42.969,0
1583340688.308,12.695,22.461,30.762,16.113,-16.113,0
1583340688.312,16.113,23.438,35.645,20.996,42.480,0
1583340688.315,21.484,27.344,37.109,19.043,34.180,0
1583340688.319,20.508,27.344,35.645,11.719,9.277,0
1583340688.323,20.020,24.902,38.086,20.996,18.066,0
1583340688.327,21.973,27.832,35.645,26.367,43.945,0
1583340688.331,24.902,32.715,27.344,12.207,61.523,0
1583340688.348,20.996,33.691,26.855,-0.488,31.250,0
1583340688.352,5.371,32.715,23.926,-4.395,32.227,0
1583340688.356,-0.977,34.180,21.484,-5.859,70.312,0
1583340688.360,9.277,34.668,22.949,-1.953,21.484,0
1583340688.364,14.648,35.645,23.926,2.441,-4.883,0
1583340688.368,10.254,38.574,26.855,4.395,-0.488,0
1583340688.372,7.324,37.598,27.832,3.418,9.277,0
1583340688.375,16.602,36.133,23.926,8.789,28.809,0
1583340688.379,28.320,34.180,21.484,14.160,42.480,0
1583340688.383,23.438,34.668,23.438,13.184,46.875,0
1583340688.387,15.137,38.574,24.414,14.648,21.973,0
1583340688.391,20.508,38.574,21.973,17.090,44.922,0
1583340688.387,30.762,35.645,24.902,19.043,54.199,0
1583340688.391,34.180,37.109,31.738,23.926,22.461,0
1583340688.395,24.902,38.086,31.250,20.020,6.348,0
1583340688.399,23.926,40.039,29.785,13.672,-0.488,0
1583340688.403,35.156,41.504,31.250,19.531,-0.488,0
1583340688.407,39.551,41.992,31.250,27.344,8.789,0
1583340688.411,28.809,41.504,29.297,20.996,18.066,0
1583340688.414,23.438,36.133,28.809,14.648,70.801,0
1583340688.418,32.227,36.133,28.809,20.020,50.781,0
1583340688.422,36.133,37.109,29.785,19.043,3.418,0
1583340688.426,30.273,35.645,30.762,15.625,39.062,0
1583340688.430,25.391,35.645,32.227,17.578,35.645,0
1583340688.447,29.297,38.086,35.156,20.020,45.898,0
1583340688.451,39.062,36.133,35.645,25.879,40.039,0
1583340688.455,39.551,33.203,36.621,24.414,-24.902,0
1583340688.459,31.250,33.203,31.738,14.648,-14.160,0
1583340688.463,37.598,34.180,31.250,12.695,5.859,0
1583340688.467,49.805,34.668,33.691,17.090,-14.648,0
1583340688.471,53.711,36.133,28.809,17.090,24.902,0
1583340688.474,45.410,36.133,31.250,17.578,23.926,0
1583340688.478,36.133,35.156,31.250,20.996,20.020,0
1583340688.482,38.574,35.156,28.320,21.484,70.312,0
1583340688.486,39.062,37.109,29.785,18.066,63.477,0
1583340688.490,30.273,35.645,29.785,18.555,39.062,0
1583340688.488,23.926,33.203,35.645,19.043,64.941,0
1583340688.492,29.785,32.715,40.039,18.066,108.887,0
1583340688.496,32.715,29.785,39.551,20.508,104.004,0
1583340688.500,22.949,26.367,34.180,25.391,23.926,0
1583340688.504,11.719,22.461,33.203,23.926,54.688,0
1583340688.508,17.090,25.391,37.598,19.531,67.383,0
1583340688.512,27.832,27.344,36.133,21.973,8.301,0
1583340688.515,23.926,27.832,33.691,20.996,58.105,0
1583340688.519,17.090,27.344,35.645,20.020,77.637,0
1583340688.523,20.508,26.855,39.551,22.461,-2.930,0
1583340688.527,31.250,30.762,38.574,25.879,-24.414,0
1583340688.531,33.691,31.738,37.109,21.973,0.000,0
1583340688.568,23.438,31.250,35.156,17.578,80.078,0
1583340688.572,19.043,33.203,31.738,18.555,82.031,0
1583340688.576,28.809,33.691,33.691,21.973,-17.090,0
1583340688.580,34.668,32.227,33.203,20.996,-14.648,0
1583340688.584,26.855,32.715,31.738,19.531,59.570,0
1583340688.588,19.531,32.715,36.133,20.508,76.172,0
1583340688.592,26.855,34.180,34.180,19.531,45.898,0
1583340688.595,34.180,34.668,30.762,17.578,20.996,0
1583340688.599,29.297,35.156,30.762,10.742,26.367,0
1583340688.603,23.438,32.227,32.715,10.742,-35.156,0
1583340688.607,20.020,27.344,35.645,14.648,30.762,0
1583340688.611,26.855,27.832,35.156,19.531,67.383,0
1583340688.607,30.762,26.855,32.715,23.926,-42.969,0
1583340688.611,23.926,25.391,33.691,20.020,-43.457,0
1583340688.615,21.973,29.785,36.621,16.113,20.508,0
1583340688.619,27.832,31.250,36.133,16.113,61.035,0
1583340688.623,29.297,30.273,35.156,18.066,32.227,0
1583340688.627,18.555,27.832,36.621,17.090,41.504,0
1583340688.631,16.602,25.879,36.621,18.066,41.016,0
1583340688.634,25.391,29.785,35.156,20.508,-6.348,0
1583340688.638,35.645,31.738,34.668,23.438,48.828,0
1583340688.642,39.062,30.762,35.156,33.203,42.480,0
1583340688.646,41.992,32.715,33.691,42.480,-25.879,0
1583340688.650,43.457,28.809,38.086,41.016,6.836,0
1583340688.667,37.109,22.461,43.457,34.180,-12.207,0
1583340688.671,29.785,20.996,41.992,26.367,-7.324,0
1583340688.675,23.438,20.996,40.527,20.020,27.832,0
1583340688.679,26.367,21.973,41.504,21.973,51.270,0
1583340688.683,34.668,20.020,42.480,21.973,34.668,0
1583340688.687,32.227,20.020,41.016,15.137,38.574,0
1583340688.691,24.414,24.902,41.992,10.742,96.191,0
1583340688.694,24.414,25.879,41.504,14.648,60.059,0
1583340688.698,32.227,26.855,40.527,19.531,-2.441,0
1583340688.702,38.574,25.879,41.016,20.996,-11.230,0
1583340688.706,28.809,25.391,42.969,19.531,17.090,0
1583340688.710,23.926,29.785,42.969,19.531,18.066,0
1583340688.670,30.762,28.320,41.992,25.391,-15.625,0
1583340688.674,36.133,28.320,45.410,26.855,-1.465,0
1583340688.678,33.691,28.809,45.410,20.996,36.621,0
1583340688.682,25.879,27.344,43.945,19.531,51.758,0
1583340688.686,28.320,26.367,40.039,17.090,25.391,0
1583340688.690,38.086,25.879,35.156,16.113,30.273,0
1583340688.694,38.086,27.832,40.039,23.438,65.918,0
1583340688.697,28.320,30.762,40.527,18.555,60.059,0
1583340688.701,23.926,32.715,36.133,14.160,67.871,0
1583340688.705,33.203,33.203,36.621,18.066,53.223,0
1583340688.709,37.598,34.180,38.086,17.090,-17.090,0
1583340688.713,32.715,35.645,41.016,16.602,3.418,0
1583340688.707,25.391,32.227,39.551,19.531,41.992,0
1583340688.711,26.367,31.250,36.621,20.508,1.465,0
1583340688.715,31.250,32.715,36.621,20.020,34.668,0
1583340688.719,27.832,31.738,37.598,16.113,53.711,0
1583340688.723,25.391,31.250,37.598,13.672,73.242,0
1583340688.727,35.156,32.227,36.621,18.555,71.289,0
1583340688.731,40.527,31.250,36.133,22.461,35.156,0
1583340688.734,29.785,31.250,33.203,18.555,31.738,0
1583340688.738,20.508,32.715,32.715,16.113,11.230,0
1583340688.742,24.414,31.738,32.715,19.043,-6.836,0
1583340688.746,36.133,29.785,31.250,22.461,-13.672,0
1583340688.750,34.180,30.762,33.691,23.926,65.430,0
1583340688.768,20.508,34.668,39.551,23.926,65.430,0
1583340688.772,19.531,31.738,40.527,26.855,22.949,0
1583340688.776,31.738,31.738,37.598,30.273,41.992,0
1583340688.780,31.250,32.715,38.086,26.367,35.156,0
1583340688.784,23.926,31.738,36.621,23.438,28.809,0
1583340688.788,21.973,34.180,36.133,23.926,19.531,0
1583340688.792,26.367,33.691,33.203,21.484,1.953,0
1583340688.795,29.297,32.715,31.738,18.066,37.598,0
1583340688.799,25.879,33.691,30.762,16.602,60.059,0
1583340688.803,20.508,33.203,30.273,15.137,48.828,0
1583340688.807,18.555,34.180,33.691,13.672,12.207,0
1583340688.811,24.902,32.227,31.250,14.648,-17.090,0
1583340688.807,23.926,30.273,26.855,19.531,-24.902,0
1583340688.811,15.137,31.250,27.832,17.090,29.785,0
1583340688.815,20.508,28.320,30.273,15.137,42.969,0
1583340688.819,28.320,27.344,31.738,14.160,48.340,0
1583340688.823,27.344,29.297,32.227,12.695,8.789,0
1583340688.827,21.973,31.250,30.273,14.160,10.742,0
1583340688.831,21.973,34.668,29.297,20.508,93.750,0
1583340688.834,31.738,35.156,32.715,26.367,32.715,0
1583340688.838,34.180,36.133,35.156,31.250,-31.250,0
1583340688.842,22.461,33.691,34.180,26.855,22.461,0
1583340688.846,15.137,33.203,30.762,17.578,49.805,0
1583340688.850,22.949,36.133,32.227,17.578,22.461,0
1583340688.847,26.855,33.203,32.227,19.043,37.109,0
1583340688.851,21.973,32.715,35.156,19.043,44.434,0
1583340688.855,15.625,33.691,35.156,15.625,21.973,0
1583340688.859,20.508,33.203,34.180,16.113,-8.301,0
1583340688.863,31.250,33.203,37.598,24.414,5.371,0
1583340688.867,26.367,34.668,36.133,24.902,42.969,0
1583340688.871,20.996,36.621,33.203,20.508,68.848,0
1583340688.874,21.484,34.180,32.227,16.113,58.594,0
1583340688.878,28.320,30.762,32.227,14.648,30.762,0
1583340688.882,31.738,32.715,33.203,20.020,38.086,0
1583340688.886,22.461,32.715,31.738,19.043,31.738,0
1583340688.890,22.461,30.762,28.809,18.066,3.906,0
1583340688.907,31.738,31.250,29.297,20.020,-33.691,0
1583340688.911,28.320,31.250,30.762,17.090,-40.527,0
1583340688.915,18.555,29.785,29.297,14.160,40.527,0
1583340688.919,16.602,30.762,27.832,17.578,74.707,0
1583340688.923,20.508,31.250,26.855,18.555,26.367,0
1583340688.927,25.391,27.344,31.250,16.602,35.156,0
1583340688.931,19.531,27.832,33.203,16.602,65.430,0
1583340688.934,15.137,30.762,34.180,17.578,12.695,0
1583340688.938,23.438,30.273,36.621,20.996,20.020,0
1583340688.942,31.250,30.273,37.109,22.461,16.113,0
1583340688.946,28.320,31.738,35.156,17.578,-41.016,0
1583340688.950,22.949,33.691,32.715,18.066,40.039,0
1583340688.947,24.414,33.203,34.668,23.438,48.828,0
1583340688.951,33.203,30.273,35.156,20.508,31.738,0
1583340688.955,33.203,30.273,32.227,17.578,65.430,0
1583340688.959,25.391,31.738,31.250,20.020,51.270,0
1583340688.963,28.320,32.715,32.227,23.438,29.785,0
1583340688.967,36.621,33.203,32.715,27.344,39.062,0
1583340688.971,41.992,33.203,34.668,27.832,44.922,0
1583340688.974,40.527,32.227,35.645,25.391,7.812,0
1583340688.978,32.715,34.668,36.133,24.414,-6.836,0
1583340688.982,41.504,37.598,34.668,28.809,9.277,0
1583340688.986,50.781,37.109,39.062,37.109,20.508,0
1583340688.990,28.809,29.785,45.410,25.879,21.484,0
1583340689.007,9.277,26.855,44.434,9.277,-9.766,0
1583340689.011,17.578,29.785,44.434,13.672,1.953,0
1583340689.015,26.855,27.832,46.387,22.949,30.273,0
1583340689.019,15.625,24.902,46.387,17.578,55.176,0
1583340689.023,4.395,22.949,43.457,11.230,51.270,0
1583340689.027,9.277,24.414,41.504,14.648,7.324,0
1583340689.031,21.484,26.855,38.574,19.043,34.180,0
1583340689.034,25.879,27.832,37.598,15.625,77.148,0
1583340689.038,20.996,30.273,37.598,14.160,62.500,0
1583340689.042,14.160,28.320,41.016,14.648,44.434,0
1583340689.046,22.461,28.809,41.016,15.625,15.137,0
1583340689.050,34.180,33.203,38.574,17.578,11.719,0
1583340689.047,26.367,33.203,39.551,18.066,-0.977,0
1583340689.051,22.461,32.227,39.551,22.949,39.062,0
1583340689.055,28.320,29.785,38.086,23.926,77.637,0
1583340689.059,35.645,29.297,37.109,23.438,30.762,0
1583340689.063,30.762,33.203,40.039,27.832,7.324,0
1583340689.067,19.043,33.691,37.598,21.973,-9.277,0
1583340689.071,17.090,33.203,33.203,13.184,-17.578,0
1583340689.074,21.973,33.691,35.156,10.254,1.465,0
1583340689.078,20.508,32.715,34.668,5.859,35.156,0
1583340689.082,14.160,35.156,34.180,9.766,17.578,0
1583340689.086,16.602,36.133,35.645,16.602,41.016,0
1583340689.090,27.344,34.668,39.062,20.020,72.754,0
1583340689.087,35.645,36.133,39.062,26.855,10.254,0
1583340689.091,30.273,36.133,36.133,27.344,21.484,0
1583340689.095,25.391,35.156,36.133,22.461,38.086,0
1583340689.099,28.809,36.621,36.133,21.484,-0.488,0
1583340689.103,35.156,38.086,35.645,19.531,26.367,0
1583340689.107,28.320,37.598,33.203,20.508,50.781,0
1583340689.111,17.090,35.645,34.180,20.996,31.738,0
1583340689.114,21.973,34.668,36.621,22.461,27.344,0
1583340689.118,30.762,34.180,39.062,24.414,35.645,0
1583340689.122,29.297,33.203,39.551,25.391,20.508,0
1583340689.126,18.555,34.180,36.133,23.438,100.098,0
1583340689.130,20.508,35.156,36.133,25.391,88.867,0
1583340689.147,26.855,34.180,39.062,23.926,1.465,0
1583340689.151,22.461,33.203,40.039,20.508,-3.418,0
1583340689.155,13.184,34.180,37.598,19.043,42.480,0
1583340689.159,10.742,31.738,35.156,12.695,40.039,0
1583340689.163,18.066,30.273,36.133,11.719,-19.531,0
1583340689.167,20.996,28.809,35.156,12.695,-68.848,0
1583340689.171,11.230,27.832,36.133,12.207,-16.113,0
1583340689.174,9.766,28.320,37.109,10.254,46.387,0
1583340689.178,21.973,25.879,39.062,12.695,49.805,0
1583340689.182,29.785,28.320,41.504,16.602,54.688,0
1583340689.186,26.367,32.227,35.645,19.043,32.227,0
1583340689.190,18.066,29.297,33.691,21.973,33.203,0
1583340689.188,20.020,28.320,34.668,20.508,57.617,0
1583340689.192,30.273,29.785,36.133,20.996,78.613,0
1583340689.196,29.785,28.320,40.039,25.391,76.660,0
1583340689.200,23.438,25.879,40.527,20.996,41.016,0
1583340689.204,27.832,27.344,40.527,18.066,35.156,0
1583340689.208,37.109,27.344,38.574,19.531,16.602,0
1583340689.212,36.621,28.809,33.203,20.508,22.949,0
1583340689.215,30.273,31.250,35.645,19.531,38.086,0
1583340689.219,29.297,31.738,36.133,18.555,-17.090,0
1583340689.223,34.668,31.250,31.738,19.531,-12.695,0
1583340689.227,34.668,30.273,30.762,8.789,24.414,0
1583340689.231,27.344,29.785,30.762,7.324,22.949,0
1583340689.227,26.367,30.273,28.320,15.625,29.297,0
1583340689.231,29.297,29.785,25.391,14.648,29.297,0
1583340689.235,32.227,30.273,29.297,20.020,0.000,0
1583340689.239,31.250,27.832,29.785,23.438,13.672,0
1583340689.243,22.949,27.832,26.367,18.555,43.945,0
1583340689.247,22.949,31.738,27.832,13.184,22.461,0
1583340689.251,33.203,33.203,28.809,12.695,-0.977,0
1583340689.254,33.203,32.227,31.250,14.648,8.301,0
1583340689.258,26.367,33.203,32.227,11.230,29.297,0
1583340689.262,20.020,35.645,30.762,5.371,16.113,0
1583340689.266,20.996,35.645,30.273,7.324,-24.414,0
1583340689.270,24.414,34.180,29.297,9.766,6.348,0
1583340689.288,19.043,33.203,29.785,10.254,65.430,0
1583340689.292,14.160,32.227,31.738,13.184,85.449,0
1583340689.296,25.879,28.320,30.762,23.438,54.199,0
1583340689.300,43.457,31.738,26.855,36.621,16.113,0
1583340689.304,34.180,38.574,24.902,28.809,56.152,0
1583340689.308,17.090,37.598,22.949,11.719,50.781,0
1583340689.312,18.555,36.621,18.066,7.324,50.293,0
1583340689.315,29.785,35.645,14.648,7.812,73.242,0
1583340689.319,22.949,32.227,17.578,5.859,52.246,0
1583340689.323,8.301,32.715,21.484,6.348,85.449,0
1583340689.327,10.742,35.156,22.461,3.418,31.738,0
1583340689.331,18.555,34.668,26.855,3.418,8.789,0
1583340689.329,23.438,32.227,27.832,9.277,42.969,0
1583340689.333,15.137,33.203,24.902,12.207,-1.465,0
1583340689.337,12.695,35.156,25.391,21.973,-4.883,0
1583340689.341,25.391,34.668,23.926,20.020,-14.648,0
1583340689.345,32.715,33.203,20.020,12.695,-0.977,0
1583340689.349,28.809,35.645,21.973,15.625,14.160,0
1583340689.353,25.391,39.551,24.414,14.160,24.414,0
1583340689.356,37.109,38.086,26.367,14.160,-9.277,0
1583340689.360,47.852,34.180,27.832,16.602,42.969,0
1583340689.364,44.434,34.668,26.855,17.090,82.520,0
1583340689.368,35.645,33.691,26.855,15.137,11.719,0
1583340689.372,34.180,31.250,29.785,20.508,43.457,0
1583340689.367,39.062,29.297,29.297,21.484,45.898,0
1583340689.371,36.133,32.227,26.855,17.578,30.762,0
1583340689.375,27.344,36.133,29.785,21.484,30.762,0
1583340689.379,24.902,35.156,32.715,18.066,57.617,0
1583340689.383,28.320,34.668,31.250,18.066,16.113,0
1583340689.387,28.320,35.645,25.879,19.531,4.883,0
1583340689.391,20.508,33.203,22.461,14.160,23.438,0
1583340689.394,16.602,33.691,29.785,14.648,44.434,0
1583340689.398,21.484,35.156,33.691,11.719,58.105,0
1583340689.402,27.832,35.156,31.250,16.113,37.109,0
1583340689.406,28.320,32.227,33.691,22.949,62.500,0
1583340689.410,22.949,29.297,33.691,24.902,87.891,0
1583340689.427,26.855,30.273,29.785,26.855,137.207,0
1583340689.431,34.668,29.785,29.785,25.879,97.656,0
1583340689.435,29.785,30.273,32.715,22.949,75.684,0
1583340689.439,22.949,28.809,34.180,22.949,20.508,0
1583340689.443,27.344,27.832,32.715,22.461,21.484,0
1583340689.447,32.715,30.762,30.762,22.461,90.332,0
1583340689.451,34.180,33.691,29.297,21.484,50.293,0
1583340689.454,27.344,30.273,25.879,17.578,60.547,0
1583340689.458,20.020,28.320,24.414,15.137,33.203,0
1583340689.462,22.949,27.832,27.832,14.160,1.953,0
1583340689.466,25.391,27.344,28.320,13.184,-0.488,0
1583340689.470,17.090,31.250,29.785,12.695,14.648,0
1583340689.487,12.207,29.785,33.203,13.184,63.477,0
1583340689.491,22.461,28.809,32.715,16.113,16.602,0
1583340689.495,24.902,31.738,30.762,18.066,-4.395,0
1583340689.499,15.137,32.227,29.785,16.113,-11.230,0
1583340689.503,13.672,30.273,28.809,18.066,-1.953,0
1583340689.507,22.461,28.320,26.367,16.113,48.828,0
1583340689.511,30.762,29.297,29.785,12.695,38.574,0
1583340689.514,29.297,30.273,31.250,20.996,20.020,0
1583340689.518,23.438,30.762,30.762,25.879,38.086,0
1583340689.522,28.320,33.203,34.180,21.484,104.004,0
1583340689.526,36.133,32.227,35.645,24.414,90.332,0
1583340689.530,36.133,31.250,33.203,26.367,58.594,0
1583340689.509,32.227,34.668,33.691,27.832,69.336,0
1583340689.513,28.320,36.133,32.715,27.832,75.195,0
1583340689.517,36.133,36.133,32.227,22.461,60.059,0
1583340689.521,40.527,35.156,36.621,23.438,14.648,0
1583340689.525,32.227,35.645,36.133,21.484,11.719,0
1583340689.529,26.367,34.668,34.180,20.020,49.316,0
1583340689.533,35.156,33.203,35.156,21.973,51.270,0
1583340689.536,41.016,33.691,36.133,20.508,36.133,0
1583340689.540,32.715,37.109,36.133,20.508,10.742,0
1583340689.544,28.320,36.133,34.668,20.996,23.438,0
1583340689.548,35.645,33.203,29.785,21.484,8.789,0
1583340689.552,41.016,33.691,31.250,22.461,7.324,0
1583340689.567,41.016,35.156,36.133,26.367,-23.438,0
1583340689.571,36.621,37.598,37.109,23.926,-33.691,0
1583340689.575,36.133,36.133,37.109,21.484,-29.297,0
1583340689.579,41.504,32.715,36.621,27.832,-8.301,0
1583340689.583,39.551,32.227,37.109,27.344,36.133,0
1583340689.587,29.785,33.203,36.133,23.926,29.297,0
1583340689.591,29.785,33.203,40.039,22.461,35.156,0
1583340689.594,39.551,30.762,38.086,21.484,46.387,0
1583340689.598,39.551,33.203,35.645,23.926,79.102,0
1583340689.602,27.832,34.180,39.551,20.508,35.156,0
1583340689.606,21.973,28.320,36.133,17.578,-8.301,0
1583340689.610,26.367,25.879,31.738,18.066,2.441,0
1583340689.607,28.320,20.996,36.621,19.043,40.039,0
1583340689.611,21.973,21.973,37.109,19.531,64.453,0
1583340689.615,16.602,26.855,35.156,18.066,4.883,0
1583340689.619,24.414,29.297,35.156,18.555,7.324,0
1583340689.623,32.715,31.250,35.645,18.555,44.434,0
1583340689.627,31.738,31.738,35.645,19.531,23.926,0
1583340689.631,23.438,32.227,33.691,20.996,40.039,0
1583340689.634,19.531,29.785,32.227,20.020,25.391,0
1583340689.638,31.250,26.367,32.227,23.438,-35.645,0
1583340689.642,36.133,29.297,33.203,20.996,32.227,0
1583340689.646,26.367,32.227,35.645,17.578,61.035,0
1583340689.650,20.996,32.227,39.062,23.438,49.805,0
1583340689.667,29.297,30.762,39.551,20.508,97.168,0
1583340689.671,36.133,28.809,39.062,18.555,50.781,0
1583340689.675,28.320,28.320,39.551,21.973,9.766,0
1583340689.679,25.391,30.762,38.574,28.320,32.227,0
1583340689.683,31.738,32.227,36.133,25.391,16.602,0
1583340689.687,37.109,30.762,39.062,19.531,11.230,0
1583340689.691,28.809,29.297,39.062,18.555,35.156,0
1583340689.694,20.020,30.273,37.598,17.090,33.691,0
1583340689.698,23.438,31.250,39.551,12.695,4.883,0
1583340689.702,32.227,26.855,38.086,13.184,19.531,0
1583340689.706,29.785,28.809,39.551,18.066,49.316,0
1583340689.710,20.508,32.227,40.039,19.043,7.812,0
1583340689.707,18.066,27.832,40.039,18.066,7.324,0
1583340689.711,24.902,26.855,37.109,17.578,66.406,0
1583340689.715,29.297,30.273,36.621,20.020,65.430,0
1583340689.719,20.508,29.297,33.691,19.531,46.875,0
1583340689.723,21.973,27.832,31.738,27.344,23.438,0
1583340689.727,29.297,30.762,34.180,28.809,20.996,0
1583340689.731,23.926,37.109,28.320,12.207,91.797,0
1583340689.734,16.602,39.062,23.926,6.348,90.820,0
1583340689.738,15.137,37.109,26.367,7.324,19.043,0
1583340689.742,17.578,36.133,27.832,4.883,-19.531,0
1583340689.746,13.184,35.645,28.320,2.441,-1.953,0
1583340689.750,5.371,36.133,29.785,-2.441,2.930,0
1583340689.748,6.836,38.574,28.809,-3.418,-3.906,0
1583340689.752,12.695,37.598,26.855,3.418,15.625,0
1583340689.756,25.391,37.109,26.367,6.348,20.020,0
1583340689.760,27.344,36.133,25.879,11.230,10.742,0
1583340689.764,16.113,33.691,23.926,14.648,-33.203,0
1583340689.768,14.648,31.250,26.855,15.137,5.371,0
1583340689.772,26.367,34.180,30.273,18.066,18.555,0
1583340689.775,30.762,34.668,30.273,14.648,-0.488,0
1583340689.779,27.344,32.227,32.227,11.719,7.324,0
1583340689.783,22.949,33.691,32.227,13.184,27.344,0
1583340689.787,23.926,32.227,29.785,11.719,79.102,0
1583340689.791,31.738,31.250,31.250,10.742,52.246,0
1583340689.787,24.902,32.715,32.715,14.160,82.031,0
1583340689.791,18.066,32.227,32.227,19.531,92.285,0
1583340689.795,21.973,32.715,33.203,20.508,45.410,0
1583340689.799,30.273,31.738,32.715,21.973,48.828,0
1583340689.803,32.227,34.180,29.297,26.367,18.555,0
1583340689.807,26.367,37.109,27.344,26.367,-20.508,0
1583340689.811,33.691,37.598,29.297,24.902,-16.113,0
1583340689.814,43.945,41.016,33.203,23.438,39.551,0
1583340689.818,40.039,40.527,34.180,22.949,48.828,0
1583340689.822,36.133,40.039,34.180,25.391,4.395,0
1583340689.826,34.668,41.016,33.203,30.273,-0.488,0
1583340689.830,48.828,40.527,32.227,38.086,-4.883,0
1583340689.847,53.223,44.434,30.273,34.180,29.297,0
1583340689.851,29.785,48.828,23.926,15.137,82.031,0
1583340689.855,21.973,49.316,16.113,4.883,105.469,0
1583340689.859,37.598,48.828,18.555,14.160,82.031,0
1583340689.863,31.250,43.457,25.391,13.184,95.703,0
1583340689.867,12.207,41.016,26.367,0.977,72.754,0
1583340689.871,14.160,43.945,26.367,-0.977,30.273,0
1583340689.874,12.695,42.969,27.832,-4.883,79.102,0
1583340689.878,15.625,40.039,27.344,-0.488,54.688,0
1583340689.882,18.066,38.574,26.367,6.348,31.250,0
1583340689.886,13.672,40.527,27.832,8.301,43.457,0
1583340689.890,15.625,40.039,26.855,7.812,29.297,0
1583340689.887,27.832,39.551,24.414,12.207,56.152,0
1583340689.891,32.715,41.016,27.832,20.020,79.102,0
1583340689.895,23.926,40.527,26.367,20.508,87.891,0
1583340689.899,25.391,40.039,25.879,22.461,81.543,0
1583340689.903,35.645,39.062,29.785,25.879,45.410,0
1583340689.907,42.480,39.551,31.738,26.855,10.254,0
1583340689.911,34.668,36.133,31.738,20.020,13.184,0
1583340689.914,27.344,33.203,31.738,14.648,26.855,0
1583340689.918,35.156,37.598,32.227,21.973,19.043,0
1583340689.922,39.062,37.598,34.180,24.902,-2.441,0
1583340689.926,32.715,34.180,35.156,18.555,27.344,0
1583340689.930,29.297,33.691,34.668,19.531,10.742,0
1583340689.927,29.785,32.715,32.227,19.043,-41.016,0
1583340689.931,36.133,33.203,31.738,21.484,22.949,0
1583340689.935,38.086,32.227,32.715,21.973,110.840,0
1583340689.939,30.762,31.250,30.273,19.043,72.266,0
1583340689.943,31.738,30.273,29.297,18.555,75.195,0
1583340689.947,42.480,31.738,32.227,19.531,106.934,0
1583340689.951,40.527,32.227,31.738,20.020,45.410,0
1583340689.954,28.809,29.785,30.762,15.625,-9.277,0
1583340689.958,25.879,30.273,31.250,12.207,48.828,0
1583340689.962,30.273,29.297,27.832,17.090,70.312,0
1583340689.966,34.180,28.320,23.926,20.020,49.316,0
1583340689.970,29.297,30.762,25.879,17.578,43.945,0
1583340689.987,24.414,31.738,33.203,19.043,36.621,0
1583340689.991,29.785,32.227,34.668,20.020,32.715,0
1583340689.995,31.250,32.715,34.180,18.555,2.441,0
1583340689.999,24.902,31.250,35.156,17.578,20.508,0
1583340690.003,18.555,31.250,36.621,19.043,-4.395,0
1583340690.007,17.090,30.273,37.598,17.578,-26.367,0
1583340690.011,21.973,28.320,32.227,10.742,28.809,0
1583340690.014,22.949,29.297,28.809,11.719,44.922,0
1583340690.018,14.160,30.762,33.203,15.137,13.184,0
1583340690.022,17.578,29.785,34.180,10.254,16.602,0
1583340690.026,29.785,32.715,35.156,11.719,2.441,0
1583340690.030,28.320,32.227,37.109,14.160,-20.020,0
1583340690.027,17.090,26.855,35.645,13.672,7.324,0
1583340690.031,14.648,27.344,37.109,13.672,-27.344,0
1583340690.035,21.484,28.320,34.668,13.184,-28.809,0
1583340690.039,27.344,29.785,33.203,13.672,1.465,0
1583340690.043,27.832,34.668,34.180,16.602,47.363,0
1583340690.047,29.297,35.645,30.762,23.438,59.082,0
1583340690.051,29.297,29.297,33.691,25.879,56.641,0
1583340690.054,27.344,25.879,38.574,18.066,19.531,0
1583340690.058,23.926,29.785,41.016,14.648,12.695,0
1583340690.062,14.648,30.762,42.480,16.113,16.113,0
1583340690.066,16.113,30.273,41.016,18.555,10.254,0
1583340690.070,30.762,33.203,41.992,23.926,40.039,0
1583340690.068,37.109,33.691,44.922,26.855,-8.301,0
1583340690.072,32.715,32.715,41.992,27.344,12.695,0
1583340690.076,26.855,32.227,41.504,23.926,21.973,0
1583340690.080,31.738,28.809,41.504,20.508,8.301,0
1583340690.084,36.133,24.902,39.551,23.926,39.551,0
1583340690.088,24.902,24.414,38.574,21.973,13.184,0
1583340690.092,17.090,26.367,39.062,13.672,-16.602,0
1583340690.095,21.973,27.832,35.645,14.160,-10.254,0
1583340690.099,27.344,26.367,31.250,16.113,15.137,0
1583340690.103,29.785,28.809,34.180,16.602,4.883,0
1583340690.107,24.902,30.762,34.668,16.602,12.207,0
1583340690.111,22.949,29.297,32.715,16.602,60.059,0
1583340690.127,30.762,32.715,33.691,20.508,30.762,0
1583340690.131,23.926,34.668,34.668,22.949,38.086,0
1583340690.135,12.207,31.738,36.133,21.484,63.965,0
1583340690.139,18.066,32.227,34.668,20.020,79.102,0
1583340690.143,31.250,33.203,33.691,20.508,80.078,0
1583340690.147,29.297,31.250,36.133,19.043,30.762,0
1583340690.151,18.066,28.809,36.621,15.137,17.090,0
1583340690.154,19.043,31.250,34.668,16.602,25.391,0
1583340690.158,23.926,32.715,34.668,15.137,25.879,0
1583340690.162,27.832,32.715,33.691,14.160,31.250,0
1583340690.166,21.973,33.203,31.250,14.160,44.922,0
1583340690.170,14.160,31.250,32.227,9.766,27.832,0
1583340690.187,20.996,27.344,30.762,14.648,-1.465,0
1583340690.191,25.391,29.297,26.855,18.066,34.180,0
1583340690.195,21.484,31.250,29.297,14.160,45.898,0
1583340690.199,18.555,30.762,32.227,15.137,1.465,0
1583340690.203,22.461,30.273,36.621,19.531,3.418,0
1583340690.207,28.809,28.320,41.504,22.461,2.930,0
1583340690.211,25.879,28.809,41.016,23.926,34.180,0
1583340690.214,16.602,28.809,39.551,19.043,103.516,0
1583340690.218,13.184,27.832,37.598,14.648,40.527,0
1583340690.222,20.020,28.320,32.227,16.113,31.738,0
1583340690.226,23.438,27.344,31.738,14.648,1.465,0
1583340690.230,17.578,27.344,33.203,11.230,-19.531,0
1583340690.210,14.160,29.297,32.715,12.207,37.598,0
1583340690.214,20.508,33.691,35.645,18.555,37.598,0
1583340690.218,24.414,33.691,37.109,16.602,-21.973,0
1583340690.222,18.066,31.738,31.738,11.719,-50.293,0
1583340690.226,16.113,32.227,24.414,11.230,7.324,0
1583340690.230,22.461,30.273,26.367,10.254,76.660,0
1583340690.234,28.809,29.785,31.250,17.090,42.969,0
1583340690.237,25.879,29.785,32.227,17.578,13.184,0
1583340690.241,22.461,30.273,35.156,17.090,17.578,0
1583340690.245,23.926,28.320,34.668,18.066,2.930,0
1583340690.249,29.785,27.344,31.250,15.625,11.230,0
1583340690.253,26.855,27.344,31.738,16.113,30.762,0
1583340690.267,15.625,22.949,31.250,14.160,53.223,0
1583340690.271,16.113,22.949,30.762,16.113,59.082,0
1583340690.275,25.391,26.367,33.203,17.578,70.801,0
1583340690.279,26.367,29.785,32.227,10.254,51.270,0
1583340690.283,19.531,31.738,31.738,8.301,11.230,0
1583340690.287,14.648,34.180,32.715,8.789,-0.488,0
1583340690.291,21.484,33.691,30.762,2.441,50.781,0
1583340690.294,31.250,30.273,26.367,3.418,76.660,0
1583340690.298,30.273,31.250,26.367,12.695,12.207,0
1583340690.302,32.715,35.156,28.809,27.344,36.133,0
1583340690.306,37.109,33.691,33.691,32.715,33.691,0
1583340690.310,27.344,28.809,40.527,15.625,-9.766,0
1583340690.348,13.672,26.855,40.039,5.859,13.672,0
1583340690.352,13.672,26.367,40.039,10.742,43.945,0
1583340690.356,15.137,23.926,38.086,5.371,38.574,0
1583340690.360,15.137,22.949,36.133,6.836,20.020,0
1583340690.364,16.113,23.926,37.598,12.207,-16.113,0
1583340690.368,9.277,22.949,38.086,11.719,-20.020,0
1583340690.372,9.277,22.949,38.086,15.625,59.082,0
1583340690.375,21.484,23.926,37.109,20.020,76.660,0
1583340690.379,26.367,22.461,36.621,16.113,72.754,0
1583340690.383,21.973,22.461,35.645,9.766,35.156,0
1583340690.387,21.484,23.926,33.691,11.719,36.133,0
1583340690.391,33.691,24.902,34.180,15.137,57.617,0
1583340690.367,42.969,24.414,35.645,15.625,65.430,0
1583340690.371,36.133,22.949,37.109,13.184,46.875,0
1583340690.375,30.762,24.902,38.086,12.207,7.324,0
1583340690.379,35.156,23.438,35.156,14.648,37.598,0
1583340690.383,37.109,24.902,35.156,18.555,46.387,0
1583340690.387,33.203,30.762,38.086,22.461,44.434,0
1583340690.391,21.973,31.738,39.551,20.020,61.523,0
1583340690.394,17.578,32.227,38.086,13.672,88.867,0
1583340690.398,22.461,30.273,37.598,11.719,71.289,0
1583340690.402,21.484,27.344,37.109,12.695,68.848,0
1583340690.406,15.137,28.320,39.551,17.090,34.668,0
1583340690.410,16.113,30.762,39.551,17.090,30.762,0
1583340690.407,26.855,33.691,35.156,21.484,40.527,0
1583340690.411,33.691,32.227,37.109,29.297,37.598,0
1583340690.415,32.227,28.809,36.133,36.133,43.945,0
1583340690.419,26.855,28.809,33.203,33.691,-18.066,0
1583340690.423,29.785,28.320,37.109,26.367,-1.953,0
1583340690.427,37.109,30.273,41.016,25.879,84.961,0
1583340690.431,28.809,32.227,37.598,20.996,118.164,0
1583340690.434,18.066,31.738,32.715,20.508,35.156,0
1583340690.438,24.414,32.715,35.645,25.391,8.789,0
1583340690.442,32.715,33.203,36.133,27.344,77.637,0
1583340690.446,29.785,33.691,33.203,23.438,22.949,0
1583340690.450,19.043,31.738,33.691,16.113,21.484,0
1583340690.447,18.066,29.785,34.180,16.602,32.715,0
1583340690.451,31.738,33.691,34.180,22.949,3.418,0
1583340690.455,34.668,34.668,34.668,19.043,15.625,0
1583340690.459,22.461,34.180,35.645,17.090,19.531,0
1583340690.463,18.066,34.668,33.203,18.066,27.344,0
1583340690.467,27.832,33.691,30.762,16.113,35.156,0
1583340690.471,41.504,37.109,30.273,23.926,-1.465,0
1583340690.474,37.598,38.086,37.109,27.832,-44.434,0
1583340690.478,18.066,33.203,45.410,19.531,-48.340,0
1583340690.482,17.578,26.855,46.875,14.648,12.207,0
1583340690.486,20.508,23.438,50.781,14.648,24.414,0
1583340690.490,10.742,18.555,52.246,11.719,65.430,0
1583340690.507,13.672,16.113,53.711,12.695,89.355,0
1583340690.511,21.973,15.625,59.570,17.090,3.906,0
1583340690.515,23.438,16.113,54.199,18.555,19.043,0
1583340690.519,16.113,19.043,51.270,9.277,69.824,0
1583340690.523,4.395,18.066,49.316,3.418,75.684,0
1583340690.527,5.371,18.066,42.480,6.348,52.734,0
1583340690.531,17.578,19.043,46.387,10.742,25.879,0
1583340690.534,20.508,20.020,47.852,7.324,25.879,0
1583340690.538,10.742,17.090,45.898,7.324,37.109,0
1583340690.542,9.277,15.137,45.410,14.160,-29.297,0
1583340690.546,18.066,17.578,45.898,18.555,-55.176,0
1583340690.550,24.902,21.973,47.363,24.414,-13.184,0
1583340690.549,20.508,23.438,49.316,25.879,35.156,0
1583340690.553,15.137,18.555,46.875,23.438,57.129,0
1583340690.557,17.090,18.555,39.062,24.414,39.551,0
1583340690.561,23.926,21.973,37.109,23.926,-11.719,0
1583340690.565,27.344,22.461,38.574,20.996,15.625,0
1583340690.569,18.555,24.414,36.133,21.484,65.918,0
1583340690.573,20.020,24.902,39.551,20.508,32.715,0
1583340690.576,31.738,24.902,42.969,20.508,18.555,0
1583340690.580,34.668,25.391,41.504,26.855,32.227,0
1583340690.584,30.273,27.344,42.969,32.715,4.883,0
1583340690.588,29.297,26.367,41.992,27.344,21.484,0
1583340690.592,35.645,24.902,41.016,25.879,48.340,0
1583340690.589,40.039,27.344,41.992,30.762,-18.066,0
1583340690.593,36.133,28.320,42.480,31.738,27.344,0
1583340690.597,30.273,29.297,42.480,28.809,79.102,0
1583340690.601,33.203,26.855,40.039,25.391,25.879,0
1583340690.605,39.551,25.391,40.527,29.785,35.645,0
1583340690.609,34.668,25.879,40.527,33.691,66.406,0
1583340690.613,25.879,24.414,38.086,28.320,26.855,0
1583340690.616,28.320,25.391,35.645,26.855,1.465,0
1583340690.620,36.621,24.902,36.621,25.879,26.367,0
1583340690.624,34.668,20.996,39.551,23.438,3.418,0
1583340690.628,25.391,19.043,40.039,23.926,23.438,0
1583340690.632,21.973,19.531,40.527,20.996,16.113,0
1583340690.647,25.879,20.020,37.598,19.043,29.785,0
1583340690.651,28.809,24.902,34.180,15.137,89.844,0
1583340690.655,20.996,27.832,33.203,17.090,60.547,0
1583340690.659,18.555,27.832,34.180,19.531,2.930,0
1583340690.663,23.926,27.832,32.715,14.160,-17.578,0
1583340690.667,26.367,30.273,30.762,10.254,5.859,0
1583340690.671,21.973,30.762,37.109,12.695,12.207,0
1583340690.674,15.137,28.809,38.086,9.766,18.555,0
1583340690.678,18.066,28.320,33.203,10.742,27.344,0
1583340690.682,20.020,27.832,31.250,19.531,-41.016,0
1583340690.686,19.043,28.320,32.715,18.555,-15.625,0
1583340690.690,17.090,31.250,34.668,18.066,29.785,0
1583340690.687,18.555,31.250,33.203,15.137,-5.859,0
1583340690.691,24.414,28.809,35.156,9.277,49.316,0
1583340690.695,21.484,28.320,36.133,7.324,85.449,0
1583340690.699,11.719,29.297,34.668,10.742,48.340,0
1583340690.703,12.207,32.715,37.109,10.742,36.621,0
1583340690.707,22.949,33.203,34.180,6.348,-2.441,0
1583340690.711,24.902,32.227,32.227,9.766,31.738,0
1583340690.714,17.090,30.762,34.180,9.277,45.898,0
1583340690.718,18.066,33.203,33.691,7.812,49.805,0
1583340690.722,23.926,33.691,32.227,11.230,76.172,0
1583340690.726,25.879,29.785,31.738,8.301,33.203,0
1583340690.730,20.996,29.297,28.320,7.812,44.434,0
1583340690.727,15.137,30.762,26.855,10.742,49.316,0
1583340690.731,17.578,31.250,29.297,11.230,16.602,0
1583340690.735,28.320,27.832,29.785,10.254,83.008,0
1583340690.739,30.273,29.297,28.809,10.254,117.676,0
1583340690.743,22.949,34.180,26.855,8.789,74.219,0
1583340690.747,25.879,33.203,25.879,10.254,80.078,0
1583340690.751,39.551,33.691,23.438,16.602,36.621,0
1583340690.754,52.734,38.574,22.949,24.902,-0.488,0
1583340690.758,41.016,33.691,32.227,27.344,-34.668,0
1583340690.762,22.461,26.367,39.062,18.066,-8.301,0
1583340690.766,19.043,24.902,44.922,17.090,58.594,0
1583340690.770,13.184,21.973,49.805,12.207,45.898,0
1583340690.787,12.207,23.438,48.828,11.719,33.691,0
1583340690.791,17.090,23.438,46.387,15.137,29.297,0
1583340690.795,14.160,19.531,47.852,4.395,30.762,0
1583340690.799,19.531,23.926,42.969,3.906,-4.883,0
1583340690.803,22.949,29.297,37.598,11.230,45.898,0
1583340690.807,19.531,30.273,41.016,13.184,40.527,0
1583340690.811,25.391,31.738,40.039,11.230,30.273,0
1583340690.814,33.203,30.762,36.621,11.230,68.848,0
1583340690.818,33.691,30.762,38.574,18.555,-19.531,0
1583340690.822,24.414,31.738,40.039,20.996,4.883,0
1583340690.826,24.414,34.180,41.504,25.391,27.832,0
1583340690.830,37.598,36.133,43.945,30.273,-0.488,0
1583340690.827,43.457,35.156,40.527,31.738,29.297,0
1583340690.831,39.062,37.598,36.133,30.762,28.320,0
1583340690.835,34.668,40.527,37.598,34.180,20.020,0
1583340690.839,42.969,37.109,37.109,37.598,35.645,0
1583340690.843,48.828,35.645,36.621,35.156,7.324,0
1583340690.847,39.062,38.086,41.992,30.762,-21.973,0
1583340690.851,32.227,41.016,45.898,28.809,-20.996,0
1583340690.854,38.086,40.527,43.457,26.367,8.789,0
1583340690.858,41.016,38.086,43.457,25.879,8.301,0
1583340690.862,34.180,37.598,40.039,24.902,27.832,0
1583340690.866,30.273,40.039,36.133,24.414,41.992,0
1583340690.870,36.133,40.527,35.645,25.879,28.320,0
1583340690.867,39.551,37.109,33.691,24.414,64.941,0
1583340690.871,31.738,35.645,34.180,21.973,67.383,0
1583340690.875,24.902,35.156,36.133,23.926,23.438,0
1583340690.879,26.855,35.156,36.133,28.809,-9.277,0
1583340690.883,35.156,32.715,34.180,25.879,34.180,0
1583340690.887,38.086,33.691,34.180,23.438,90.820,0
1583340690.891,29.785,37.598,32.715,28.320,35.645,0
1583340690.894,23.926,37.598,35.156,30.273,13.184,0
1583340690.898,30.273,36.133,39.062,26.367,66.895,0
1583340690.902,35.156,35.645,36.621,19.043,29.297,0
1583340690.906,31.250,33.691,35.156,15.625,36.621,0
1583340690.910,26.855,33.691,35.156,14.160,75.684,0
1583340690.928,28.320,34.180,36.133,14.648,83.008,0
1583340690.932,31.738,34.180,34.180,11.719,-7.324,0
1583340690.936,27.344,34.180,31.250,9.766,-21.973,0
1583340690.940,22.461,32.715,31.250,14.160,47.363,0
1583340690.944,23.926,35.156,30.273,21.484,28.320,0
1583340690.948,26.855,36.621,34.180,30.273,-2.441,0
1583340690.952,27.832,35.156,37.109,21.484,17.578,0
1583340690.955,19.531,35.645,31.738,15.625,45.410,0
1583340690.959,18.066,37.109,28.320,20.020,13.672,0
1583340690.963,30.273,35.645,33.203,21.973,0.977,0
1583340690.967,35.645,37.109,34.668,20.996,-29.785,0
1583340690.971,26.855,40.039,33.203,15.137,29.785,0
1583340691.047,20.508,34.668,29.785,11.719,80.566,0
1583340691.051,25.879,34.668,28.809,14.648,22.461,0
1583340691.055,29.785,36.621,33.203,16.113,-2.441,0
1583340691.059,24.414,31.738,33.203,18.066,21.484,0
1583340691.063,17.578,29.785,31.250,12.695,54.688,0
1583340691.067,20.996,29.785,32.715,9.277,25.879,0
1583340691.071,30.762,30.762,34.180,17.578,24.414,0
1583340691.074,28.809,32.227,35.645,17.090,80.078,0
1583340691.078,26.367,31.250,34.180,14.648,61.523,0
1583340691.082,31.250,32.715,36.133,17.090,34.180,0
1583340691.086,36.133,34.668,36.133,18.066,45.410,0
1583340691.090,37.598,32.715,32.227,20.508,85.449,0
1583340691.127,30.273,34.180,36.621,24.902,90.820,0
1583340691.131,27.832,32.715,36.133,27.832,27.832,0
1583340691.135,32.715,29.785,37.109,31.250,1.465,0
1583340691.139,31.738,28.809,38.574,23.438,43.945,0
1583340691.143,23.438,27.832,35.156,18.555,70.801,0
1583340691.147,18.066,29.297,35.156,17.090,44.434,0
1583340691.151,24.902,29.297,35.156,17.578,-9.277,0
1583340691.154,30.762,29.785,34.668,21.973,27.344,0
1583340691.158,23.926,30.762,32.715,20.508,55.664,0
1583340691.162,22.949,33.203,30.762,19.531,-1.953,0
1583340691.166,28.320,34.668,30.762,16.113,0.000,0
1583340691.170,31.738,30.273,27.344,12.695,39.551,0
1583340691.148,28.320,27.832,30.273,11.719,30.273,0
1583340691.152,20.020,28.320,35.645,17.578,29.297,0
1583340691.156,36.133,30.273,34.668,30.273,42.969,0
1583340691.160,49.805,38.086,32.715,29.785,23.926,0
1583340691.164,33.203,41.016,31.250,17.090,7.324,0
1583340691.168,14.648,38.574,35.645,8.301,24.414,0
1583340691.172,14.160,32.715,37.109,6.836,-17.090,0
1583340691.175,27.344,33.203,33.691,15.625,-37.598,0
1583340691.179,36.133,37.109,32.715,19.043,-15.625,0
1583340691.183,30.273,36.133,33.203,21.484,12.207,0
1583340691.187,24.902,37.109,37.109,25.391,3.418,0
1583340691.191,28.809,35.156,39.551,20.020,24.902,0
1583340691.152,32.227,31.250,35.645,17.090,3.418,0
1583340691.156,26.855,30.762,33.203,16.113,-26.855,0
1583340691.160,19.043,28.320,40.527,22.461,12.695,0
1583340691.164,19.043,28.320,44.922,25.391,-2.930,0
1583340691.168,28.809,29.785,41.016,20.996,0.977,0
1583340691.172,29.297,30.273,36.133,19.531,-3.906,0
1583340691.176,21.484,31.738,33.691,16.602,8.789,0
1583340691.179,26.367,32.227,35.156,23.926,3.418,0
1583340691.183,36.133,35.156,34.668,30.762,-32.715,0
1583340691.187,35.645,33.203,36.621,25.391,15.625,0
1583340691.191,27.832,32.227,38.574,21.973,50.781,0
1583340691.195,23.438,32.715,36.621,20.508,25.879,0
1583340691.188,28.809,33.203,33.691,18.555,62.012,0
1583340691.192,34.180,32.227,33.691,20.020,72.266,0
1583340691.196,27.832,33.691,35.156,19.043,55.176,0
1583340691.200,17.578,35.645,34.668,14.160,58.105,0
1583340691.204,24.902,32.227,37.598,18.555,27.344,0
1583340691.208,35.156,28.809,40.039,21.973,-4.883,0
1583340691.212,26.367,30.273,37.109,22.461,66.406,0
1583340691.215,20.996,33.691,37.598,24.902,81.543,0
1583340691.219,23.438,33.691,37.598,21.484,18.066,0
1583340691.223,33.691,34.180,35.156,23.438,28.809,0
1583340691.227,40.039,35.645,35.156,26.855,-9.277,0
1583340691.231,27.832,35.645,36.621,20.996,-14.648,0
1583340691.192,24.902,34.668,35.156,22.461,23.926,0
1583340691.196,31.738,33.691,36.133,18.066,75.195,0
1583340691.200,31.738,33.203,39.062,12.207,78.125,0
1583340691.204,24.414,31.738,39.551,20.996,46.387,0
1583340691.208,20.020,29.297,35.156,16.113,12.207,0
1583340691.212,29.297,30.273,30.273,11.230,-14.648,0
1583340691.216,39.062,36.133,32.715,13.184,23.438,0
1583340691.219,28.809,35.645,35.156,8.789,11.719,0
1583340691.223,22.949,32.715,33.691,12.207,11.230,0
1583340691.227,30.762,33.203,33.691,16.602,80.566,0
1583340691.231,37.598,33.203,33.691,18.066,43.945,0
1583340691.235,34.180,32.715,34.180,16.602,47.852,0
1583340691.248,25.879,35.645,34.180,22.949,68.359,0
1583340691.252,26.367,37.109,35.645,30.762,13.184,0
1583340691.256,36.133,38.574,41.016,33.691,32.227,0
1583340691.260,37.598,39.062,39.062,33.691,41.504,0
1583340691.264,27.832,37.598,37.598,27.344,50.781,0
1583340691.268,23.926,34.668,40.527,19.531,26.855,0
1583340691.272,31.250,32.227,36.133,21.973,1.465,0
1583340691.275,39.551,32.227,32.227,30.273,5.859,0
1583340691.279,31.738,31.738,29.785,29.297,16.113,0
1583340691.283,21.973,29.785,33.691,19.531,65.430,0
1583340691.287,24.902,28.809,38.574,22.461,58.105,0
1583340691.291,24.414,29.297,35.645,20.020,49.805,0
1583340691.287,18.555,31.250,35.156,18.066,14.648,0
1583340691.291,16.602,33.203,33.691,24.902,22.949,0
1583340691.295,21.484,33.203,33.691,19.531,54.199,0
1583340691.299,33.691,35.645,32.715,22.461,57.129,0
1583340691.303,41.504,39.551,30.762,29.785,101.562,0
1583340691.307,31.738,36.621,35.645,28.320,76.172,0
1583340691.311,19.531,29.297,41.992,27.832,38.086,0
1583340691.314,21.973,27.832,43.945,29.297,7.324,0
1583340691.318,29.785,27.832,44.434,24.902,-10.254,0
1583340691.322,28.809,26.855,44.922,24.414,0.000,0
1583340691.326,18.555,28.809,44.922,20.996,18.066,0
1583340691.330,25.391,27.832,46.387,18.066,32.715,0
1583340691.347,41.016,27.344,46.387,16.113,9.766,0
1583340691.351,34.180,27.344,41.992,18.066,12.207,0
1583340691.355,24.902,24.902,38.574,17.578,35.156,0
1583340691.359,25.391,26.367,40.039,13.672,37.109,0
1583340691.363,34.180,26.855,41.016,17.578,35.156,0
1583340691.367,37.109,32.227,41.504,21.484,58.594,0
1583340691.371,24.902,33.691,41.016,14.648,28.809,0
1583340691.374,22.949,30.273,38.086,10.742,3.906,0
1583340691.378,29.785,34.668,37.598,18.066,29.785,0
1583340691.382,28.809,34.668,39.551,21.973,16.113,0
1583340691.386,21.973,32.715,41.992,17.578,24.414,0
1583340691.390,15.625,30.762,41.992,12.207,36.621,0
1583340691.387,23.438,30.762,39.551,15.137,5.859,0
1583340691.391,31.738,31.250,38.574,19.043,-6.348,0
1583340691.395,21.973,29.297,35.156,18.066,-10.742,0
1583340691.399,14.160,31.738,32.715,21.484,31.738,0
1583340691.403,23.926,33.691,33.203,21.973,21.973,0
1583340691.407,35.156,32.715,33.203,20.996,-30.273,0
1583340691.411,26.367,31.250,32.227,20.996,-12.695,0
1583340691.414,17.578,30.273,34.180,17.578,37.598,0
1583340691.418,30.273,30.762,37.598,19.531,0.488,0
1583340691.422,34.180,29.785,33.691,18.066,-3.906,0
1583340691.426,27.832,27.832,31.738,17.578,17.090,0
1583340691.430,26.855,30.762,33.691,19.531,52.246,0
1583340691.427,27.832,29.785,36.133,17.578,89.355,0
1583340691.431,33.203,28.809,36.133,19.531,52.246,0
1583340691.435,31.738,32.227,36.621,25.391,19.043,0
1583340691.439,22.461,31.250,38.574,25.391,45.410,0
1583340691.443,23.438,31.738,38.574,18.555,54.199,0
1583340691.447,25.879,32.227,37.109,17.090,13.184,0
1583340691.451,26.367,30.762,32.715,20.508,45.410,0
1583340691.454,25.391,33.203,32.715,17.578,59.082,0
1583340691.458,21.484,33.691,33.691,13.672,9.766,0
1583340691.462,26.855,29.785,31.738,15.137,69.824,0
1583340691.466,34.180,31.738,35.645,24.414,88.379,0
1583340691.470,28.809,31.738,35.156,25.879,54.199,0
1583340691.488,20.020,28.320,35.156,18.555,40.527,0
1583340691.492,23.926,27.344,36.621,17.578,19.531,0
1583340691.496,34.668,29.785,37.598,21.484,25.879,0
1583340691.500,32.227,32.227,39.062,23.438,4.883,0
1583340691.504,20.020,31.738,37.598,15.625,22.461,0
1583340691.508,19.531,30.273,36.133,12.695,1.465,0
1583340691.512,29.297,30.762,34.668,16.602,-14.160,0
1583340691.515,29.785,32.227,36.621,16.113,30.273,0
1583340691.519,21.484,31.250,35.645,13.672,52.246,0
1583340691.523,18.066,31.738,30.762,19.531,19.043,0
1583340691.527,28.320,27.832,30.762,22.949,16.113,0
1583340691.531,40.039,25.391,31.250,24.902,20.996,0
1583340691.527,42.969,33.203,26.367,25.391,-5.371,0
1583340691.531,31.738,37.598,23.926,15.137,35.156,0
1583340691.535,32.227,37.109,25.879,11.719,58.105,0
1583340691.539,33.203,36.621,27.832,13.672,69.824,0
1583340691.543,23.438,36.133,28.320,12.207,44.434,0
1583340691.547,23.438,35.156,29.785,14.648,73.242,0
1583340691.551,25.391,35.156,29.785,19.531,66.895,0
1583340691.554,28.809,33.691,31.250,16.602,55.176,0
1583340691.558,31.250,32.715,28.809,15.625,32.715,0
1583340691.562,23.926,34.180,28.320,14.648,-5.859,0
1583340691.566,22.461,31.738,28.320,14.160,27.832,0
1583340691.570,38.086,31.738,25.879,22.461,55.664,0
1583340691.588,40.039,34.180,28.320,23.926,3.418,0
1583340691.592,29.785,37.598,30.762,22.461,4.395,0
1583340691.596,25.879,37.598,33.203,20.996,21.484,0
1583340691.600,29.785,33.203,35.645,19.043,-0.488,0
1583340691.604,36.133,33.203,33.203,20.508,43.457,0
1583340691.608,29.785,33.203,33.203,20.020,14.160,0
1583340691.612,20.996,32.227,33.691,20.996,-20.996,0
1583340691.615,26.367,33.203,30.762,22.949,36.133,0
1583340691.619,33.203,32.227,30.273,19.043,43.457,0
1583340691.623,30.762,32.227,34.668,21.484,37.598,0
1583340691.627,21.973,32.715,36.621,26.367,37.598,0
1583340691.631,19.531,30.762,37.109,25.879,19.043,0
1583340691.628,23.438,28.809,38.086,20.996,29.785,0
1583340691.632,27.344,28.320,34.180,19.531,37.598,0
1583340691.636,23.438,28.809,34.668,21.973,36.621,0
1583340691.640,18.555,27.344,36.621,19.531,-15.137,0
1583340691.644,24.902,27.832,35.645,21.973,13.672,0
1583340691.648,28.320,33.203,37.109,21.973,41.504,0
1583340691.652,22.461,30.762,32.227,16.602,-3.906,0
1583340691.655,19.531,27.344,31.738,19.531,53.711,0
1583340691.659,28.809,28.809,37.109,24.902,91.797,0
1583340691.663,38.574,29.785,37.109,27.344,20.508,0
1583340691.667,32.715,32.715,35.645,23.926,28.320,0
1583340691.671,21.484,33.203,35.156,18.555,66.895,0
1583340691.668,22.461,31.738,37.598,20.020,30.273,0
1583340691.672,30.273,31.250,37.109,22.949,31.250,0
1583340691.676,28.320,29.297,35.156,19.043,65.430,0
1583340691.680,18.555,27.344,34.668,17.578,60.547,0
1583340691.684,18.066,26.855,35.645,20.020,81.543,0
1583340691.688,25.879,29.297,36.133,18.066,72.266,0
1583340691.692,28.320,30.273,36.133,20.020,43.945,0
1583340691.695,20.508,30.273,35.156,18.555,81.543,0
1583340691.699,18.555,32.715,35.156,14.648,83.984,0
1583340691.703,26.855,33.203,37.109,19.043,20.508,0
1583340691.707,31.738,30.762,32.227,21.484,16.602,0
1583340691.711,25.391,30.762,32.227,20.508,19.043,0
1583340691.714,20.020,32.227,32.227,18.066,-17.578,0
1583340691.718,25.391,30.273,31.250,16.602,-14.160,0
1583340691.722,31.250,32.715,34.180,19.043,48.340,0
1583340691.726,26.367,34.668,36.133,21.484,19.043,0
1583340691.730,19.043,30.273,33.691,19.043,-16.602,0
1583340691.734,25.879,30.273,32.715,18.066,0.488,0
1583340691.738,35.645,32.227,32.715,22.461,17.578,0
1583340691.741,33.203,33.203,28.809,16.113,58.105,0
1583340691.745,23.438,33.203,29.297,8.789,16.602,0
1583340691.749,23.926,29.297,31.738,15.625,48.828,0
1583340691.753,32.227,27.832,31.250,18.066,47.852,0
1583340691.757,32.227,25.879,33.203,14.160,22.949,0
1583340691.767,23.926,26.367,35.645,19.043,15.137,0
1583340691.771,20.020,27.832,30.762,23.926,-28.320,0
1583340691.775,25.879,27.344,30.762,19.043,-7.812,0
1583340691.779,30.762,25.879,33.691,20.508,43.457,0
1583340691.783,27.832,25.879,33.203,26.855,1.465,0
1583340691.787,23.438,26.367,33.203,29.785,-6.348,0
1583340691.791,23.926,24.902,31.738,22.949,26.367,0
1583340691.794,32.227,26.855,33.691,20.996,44.922,0
1583340691.798,31.250,28.320,36.621,25.879,60.547,0
1583340691.802,21.973,26.855,33.203,23.926,21.973,0
1583340691.806,23.438,27.344,30.273,18.066,-19.043,0
1583340691.810,30.762,30.273,32.227,14.648,9.277,0
1583340691.828,28.809,30.273,34.668,17.578,-15.137,0
1583340691.832,19.531,27.832,34.180,16.602,-28.809,0
1583340691.836,14.648,25.879,33.203,15.137,24.414,0
1583340691.840,23.438,25.879,32.227,14.648,29.785,0
1583340691.844,28.809,26.855,31.250,12.207,6.836,0
1583340691.848,20.996,25.879,32.715,13.672,5.859,0
1583340691.852,15.137,23.926,31.738,14.160,15.625,0
1583340691.855,18.555,23.438,29.297,17.090,18.555,0
1583340691.859,27.344,28.320,28.320,15.137,35.645,0
1583340691.863,25.879,30.273,30.273,9.766,61.523,0
1583340691.867,20.020,30.762,29.785,11.230,82.520,0
1583340691.871,25.391,34.180,26.855,18.066,54.199,0
1583340691.847,37.109,33.203,31.738,20.020,-8.789,0
1583340691.851,36.621,34.180,33.203,21.484,37.598,0
1583340691.855,23.438,35.645,31.250,18.066,109.863,0
1583340691.859,21.484,28.809,31.738,13.184,91.797,0
1583340691.863,33.203,28.809,36.621,19.043,59.082,0
1583340691.867,37.109,31.738,38.574,25.391,94.238,0
1583340691.871,29.297,31.250,38.086,25.879,57.129,0
1583340691.874,31.250,33.691,34.180,29.297,-18.555,0
1583340691.878,42.969,31.738,29.785,29.297,6.348,0
1583340691.882,29.297,25.879,34.668,20.508,4.883,0
1583340691.886,14.648,28.320,36.133,21.484,-3.418,0
1583340691.890,18.066,27.832,35.156,25.879,21.973,0
1583340691.907,21.484,25.879,38.086,18.066,37.109,0
1583340691.911,26.855,26.367,38.086,11.719,47.363,0
1583340691.915,23.926,27.344,39.062,16.113,7.812,0
1583340691.919,20.996,32.715,39.062,20.996,6.836,0
1583340691.923,27.344,31.738,37.109,22.949,18.066,0
1583340691.927,35.645,28.809,40.527,23.926,28.809,0
1583340691.931,32.715,28.320,40.527,23.926,51.758,0
1583340691.934,17.090,26.855,38.086,22.949,33.691,0
1583340691.938,13.672,29.785,38.574,20.020,15.625,0
1583340691.942,23.926,34.180,39.062,21.484,18.555,0
1583340691.946,27.832,33.691,38.086,24.414,25.879,0
1583340691.950,22.949,31.738,33.691,23.926,25.391,0
1583340691.950,23.438,32.227,38.086,26.855,27.832,0
1583340691.954,31.738,32.715,41.016,28.320,7.812,0
1583340691.958,37.598,31.250,34.180,29.297,13.672,0
1583340691.962,27.344,32.715,32.227,24.902,3.418,0
1583340691.966,19.531,32.715,33.203,21.973,30.273,0
1583340691.970,29.297,29.785,37.598,29.785,59.082,0
1583340691.974,37.598,31.250,38.086,24.902,48.340,0
1583340691.977,33.691,32.227,34.668,17.578,53.223,0
1583340691.981,25.879,32.715,35.156,18.555,14.648,0
1583340691.985,28.809,31.738,34.180,18.066,-37.598,0
1583340691.989,36.621,29.297,31.250,20.508,54.688,0
1583340691.993,37.109,31.250,32.227,26.367,85.449,0
1583340692.007,29.785,30.762,32.715,25.879,55.176,0
1583340692.011,29.297,30.273,32.715,24.414,76.660,0
1583340692.015,40.527,31.738,35.156,28.809,83.984,0
1583340692.019,40.527,30.273,36.133,25.879,22.949,0
1583340692.023,32.227,29.785,32.227,20.996,19.531,0
1583340692.027,30.762,32.227,31.738,24.902,8.301,0
1583340692.031,35.156,33.203,33.691,23.438,20.996,0
1583340692.034,35.156,33.203,35.156,18.066,55.664,0
1583340692.038,23.926,33.203,36.621,19.043,29.297,0
1583340692.042,17.578,31.250,32.227,22.949,-1.465,0
1583340692.046,20.996,30.273,33.203,23.438,-7.812,0
1583340692.050,28.809,29.785,37.109,26.367,42.969,0
1583340692.047,29.297,28.320,35.645,24.414,12.695,0
1583340692.051,22.949,27.832,35.156,17.090,-27.832,0
1583340692.055,26.367,27.832,34.668,16.602,65.430,0
1583340692.059,38.086,30.762,31.738,19.531,81.055,0
1583340692.063,37.598,35.645,29.785,21.484,81.055,0
1583340692.067,27.344,35.156,30.273,20.020,102.051,0
1583340692.071,23.926,31.738,34.668,20.508,47.363,0
1583340692.074,33.203,32.227,39.062,23.926,5.371,0
1583340692.078,34.668,32.715,38.574,27.344,11.719,0
1583340692.082,24.414,32.715,35.645,22.949,28.320,0
1583340692.086,20.508,34.668,37.109,15.625,20.508,0
1583340692.090,26.855,37.109,34.180,12.695,24.414,0
1583340692.089,29.297,34.668,29.297,12.207,53.223,0
1583340692.093,21.484,31.738,32.227,12.695,103.516,0
1583340692.097,19.043,35.645,36.621,18.066,97.656,0
1583340692.101,25.879,36.133,35.645,21.973,10.254,0
1583340692.105,34.180,35.645,35.645,19.043,-0.977,0
1583340692.109,31.250,34.668,38.086,21.973,41.016,0
1583340692.113,22.461,33.203,34.668,17.578,20.020,0
1583340692.116,27.832,34.668,33.691,16.113,-23.926,0
1583340692.120,35.645,36.133,34.180,16.602,-22.949,0
1583340692.124,31.738,36.133,30.762,12.207,11.230,0
1583340692.128,27.344,36.621,32.715,15.625,4.883,0
1583340692.132,27.344,34.180,35.156,19.531,29.785,0
1583340692.167,37.109,34.180,35.156,22.461,34.668,0
1583340692.171,40.039,35.156,35.645,21.973,65.918,0
1583340692.175,27.832,35.645,34.180,17.578,52.734,0
1583340692.179,20.508,36.133,32.715,17.090,-61.035,0
1583340692.183,24.902,36.133,35.156,14.160,-33.203,0
1583340692.187,33.691,37.109,38.086,12.207,13.672,0
1583340692.191,29.785,35.156,38.086,10.742,-23.926,0
1583340692.194,16.113,31.738,37.109,4.395,31.250,0
1583340692.198,22.461,31.250,36.621,5.859,71.777,0
1583340692.202,35.156,32.227,35.645,8.301,20.508,0
1583340692.206,30.273,29.297,30.762,13.672,-2.441,0
1583340692.210,24.414,29.297,25.879,11.719,32.227,0
1583340692.189,29.297,34.180,31.250,11.719,72.754,0
1583340692.193,35.645,34.180,34.180,18.066,43.945,0
1583340692.197,33.691,31.738,34.180,13.672,76.172,0
1583340692.201,25.391,31.738,37.109,12.695,70.801,0
1583340692.205,24.414,34.668,38.086,14.648,-0.977,0
1583340692.209,30.762,31.250,37.109,16.602,29.785,0
1583340692.213,30.762,27.832,33.691,19.043,18.555,0
1583340692.216,20.508,28.320,30.762,17.090,28.809,0
1583340692.220,16.602,29.785,30.762,18.066,103.516,0
1583340692.224,25.391,31.250,33.203,20.020,58.594,0
1583340692.228,34.180,31.250,34.180,24.414,117.676,0
1583340692.232,33.203,33.203,31.738,26.855,150.391,0
1583340692.228,27.344,35.156,31.738,22.949,65.918,0
1583340692.232,26.855,35.156,37.598,23.438,11.230,0
1583340692.236,33.691,36.621,40.039,23.438,9.277,0
1583340692.240,33.203,36.133,37.598,23.438,15.625,0
1583340692.244,24.414,36.133,36.621,26.855,0.000,0
1583340692.248,25.879,39.551,35.645,23.926,11.719,0
1583340692.252,33.691,39.551,38.574,22.461,32.715,0
1583340692.255,33.691,39.551,41.992,24.902,26.855,0
1583340692.259,23.926,36.621,41.016,21.484,1.465,0
1583340692.263,25.391,29.785,37.109,24.902,24.902,0
1583340692.267,44.922,26.855,37.109,38.574,43.945,0
1583340692.271,55.664,34.180,35.156,37.598,3.906,0
1583340692.287,34.180,37.598,30.273,20.508,-37.109,0
1583340692.291,16.113,40.527,24.902,4.395,-19.043,0
1583340692.295,26.855,46.387,19.043,5.371,0.000,0
1583340692.299,42.969,45.410,15.137,11.719,1.953,0
1583340692.303,38.574,48.828,10.254,2.930,31.738,0
1583340692.307,29.785,57.617,5.859,-1.953,48.828,0
1583340692.311,36.133,58.105,5.859,-2.930,36.621,0
1583340692.314,44.434,54.688,7.324,-4.883,14.648,0
1583340692.318,41.992,50.781,7.812,-1.953,8.789,0
1583340692.322,23.926,46.387,8.789,-2.441,27.344,0
1583340692.326,18.066,44.434,8.789,-0.977,21.484,0
1583340692.330,34.180,47.363,13.184,6.348,43.457,0
1583340692.367,38.574,46.387,14.648,8.789,58.105,0
1583340692.371,31.250,43.457,14.648,6.348,39.551,0
1583340692.375,28.809,45.410,18.555,10.254,-9.766,0
1583340692.379,29.785,44.434,18.066,13.184,7.812,0
1583340692.383,32.715,42.969,18.555,14.160,8.301,0
1583340692.387,24.902,43.945,20.020,14.648,-8.301,1
1583340692.391,13.184,43.945,20.020,10.742,29.297,0
1583340692.394,17.090,41.016,17.090,8.301,114.258,0
1583340692.398,28.809,40.527,21.484,8.301,44.922,0
1583340692.402,31.738,41.016,27.344,10.742,-23.438,0
1583340692.406,24.902,39.551,21.484,12.695,27.832,0
1583340692.410,25.879,37.109,20.508,18.066,35.645,0
1583340692.427,38.574,35.156,27.832,22.461,29.785,0
1583340692.431,39.062,36.621,26.855,27.344,39.062,0
1583340692.435,29.785,40.039,24.414,26.855,55.664,0
1583340692.439,25.879,40.039,27.832,21.484,43.457,0
1583340692.443,30.762,35.645,29.297,24.414,79.102,0
1583340692.447,32.715,34.180,26.367,23.438,84.473,0
1583340692.451,25.391,35.645,25.879,22.461,20.996,0
1583340692.454,20.508,36.133,27.344,23.438,14.648,0
1583340692.458,28.809,38.086,26.855,18.066,29.785,0
1583340692.462,37.598,39.062,26.855,17.578,25.391,0
1583340692.466,35.156,39.551,29.297,22.461,23.926,0
1583340692.470,29.297,39.551,32.227,22.461,63.477,0
1583340692.430,29.297,37.598,27.344,22.461,79.590,0
1583340692.434,37.109,39.551,24.902,22.461,52.734,0
1583340692.438,36.621,41.504,30.273,20.020,25.879,0
1583340692.442,27.832,41.992,33.203,23.926,20.996,0
1583340692.446,28.320,42.480,35.645,28.809,-2.930,0
1583340692.450,38.574,41.992,35.156,28.809,-7.812,0
1583340692.454,37.598,40.527,30.762,24.414,29.785,0
1583340692.457,29.297,39.062,29.785,18.555,16.602,0
1583340692.461,25.391,38.574,30.273,18.555,-4.883,0
1583340692.465,30.762,35.645,29.297,15.625,-2.930,0
1583340692.469,38.086,35.645,29.297,14.648,10.254,0
1583340692.473,35.156,38.574,32.227,15.625,48.828,0
1583340692.467,27.832,38.574,33.691,16.113,39.062,0
1583340692.471,35.645,36.621,32.227,21.973,-0.977,0
1583340692.475,46.875,35.645,33.203,26.367,16.113,0
1583340692.479,45.410,37.598,32.715,27.832,24.902,0
1583340692.483,40.527,39.062,27.832,20.996,-25.879,0
1583340692.487,40.039,37.598,28.809,20.508,-12.695,0
1583340692.491,45.898,36.133,31.738,26.855,42.969,0
1583340692.494,43.457,36.621,33.691,24.902,20.020,0
1583340692.498,34.668,34.180,34.180,22.461,67.871,0
1583340692.502,34.668,35.156,34.180,25.879,84.961,0
1583340692.506,40.039,38.086,36.133,18.066,32.715,0
1583340692.510,38.086,35.645,36.621,18.066,19.531,0
1583340692.507,30.762,33.691,34.668,26.367,43.457,0
1583340692.511,28.320,35.645,34.668,20.996,30.762,0
1583340692.515,34.668,37.109,35.645,21.484,-27.344,0
1583340692.519,36.133,37.109,33.691,20.996,35.645,0
1583340692.523,31.250,35.156,30.273,20.996,95.703,0
1583340692.527,38.086,38.574,28.320,30.762,86.914,0
1583340692.531,43.457,39.551,30.762,33.691,24.902,0
1583340692.534,30.762,32.715,40.039,23.438,13.672,0
1583340692.538,17.090,30.273,43.457,14.160,51.270,0
1583340692.542,14.648,28.320,43.945,13.672,57.617,0
1583340692.546,15.137,26.855,48.340,16.113,47.852,0
1583340692.550,22.949,27.344,50.781,14.160,49.316,0
1583340692.567,23.926,28.320,46.875,12.695,33.203,0
1583340692.571,12.207,28.320,43.945,14.648,8.301,0
1583340692.575,11.719,25.879,41.504,18.555,55.176,0
1583340692.579,25.879,25.879,40.527,20.508,84.473,0
1583340692.583,32.715,28.809,42.480,24.902,45.898,0
1583340692.587,20.996,28.809,41.992,29.785,32.715,0
1583340692.591,15.625,26.855,43.457,26.855,40.039,0
1583340692.594,20.508,23.438,41.504,22.949,33.691,0
1583340692.598,25.391,26.855,36.133,23.926,27.832,0
1583340692.602,21.973,30.762,34.668,23.438,18.555,0
1583340692.606,14.160,27.832,36.621,26.367,26.367,0
1583340692.610,15.137,27.832,38.086,24.414,14.160,0
1583340692.608,23.926,28.809,38.574,22.949,-28.809,0
1583340692.612,25.879,26.367,37.109,22.949,-55.664,0
1583340692.616,16.602,23.926,34.180,15.625,-14.648,0
1583340692.620,13.672,25.391,37.109,15.625,16.602,0
1583340692.624,22.949,28.809,36.133,20.996,9.766,0
1583340692.628,25.879,30.762,31.738,21.973,-31.250,0
1583340692.632,18.555,27.344,32.715,19.043,-36.621,0
1583340692.635,17.578,26.367,34.668,22.949,20.508,0
1583340692.639,28.320,28.809,34.668,27.832,78.613,0
1583340692.643,29.785,29.297,35.645,21.484,24.414,0
1583340692.647,21.484,27.344,35.156,16.602,-3.418,0
1583340692.651,21.484,29.785,35.156,20.508,-1.465,0
1583340692.648,26.367,31.738,37.109,23.926,9.766,0
1583340692.652,32.715,33.691,37.109,28.320,41.504,0
1583340692.656,29.297,33.691,37.109,29.785,10.742,0
1583340692.660,23.926,32.227,35.156,27.344,-0.488,0
1583340692.664,27.344,31.738,34.668,29.785,-10.742,0
1583340692.668,33.203,33.691,36.621,31.738,-6.836,0
1583340692.672,34.180,35.645,37.109,28.320,37.598,0
1583340692.675,27.344,34.668,38.086,25.879,122.559,0
1583340692.679,32.227,33.691,38.574,25.391,107.910,0
1583340692.683,44.434,36.621,38.086,34.668,18.555,0
1583340692.687,41.992,36.133,36.133,35.645,-4.395,0
1583340692.691,31.250,32.715,36.621,30.273,22.949,0
1583340692.707,29.785,35.645,36.133,23.926,3.418,0
1583340692.711,37.598,37.598,36.621,20.020,-7.324,0
1583340692.715,42.480,35.156,35.645,21.484,18.066,0
1583340692.719,38.086,32.227,33.203,22.461,26.367,0
1583340692.723,34.668,32.715,36.133,23.438,21.484,0
1583340692.727,39.551,35.645,38.574,25.879,24.414,0
1583340692.731,41.504,35.645,39.551,26.855,79.590,0
1583340692.734,36.133,33.691,38.574,23.926,62.500,0
1583340692.738,28.809,36.621,38.574,21.973,36.621,0
1583340692.742,28.320,34.668,37.598,25.391,35.156,0
1583340692.746,35.645,31.250,35.645,33.691,42.480,0
1583340692.750,36.621,32.715,34.180,28.320,24.902,0
1583340692.747,25.391,34.180,33.691,20.996,5.371,0
1583340692.751,18.555,34.668,36.133,23.926,0.488,0
1583340692.755,26.367,34.180,35.156,21.973,17.578,0
1583340692.759,28.809,34.180,36.133,24.414,94.727,0
1583340692.763,22.949,32.715,37.109,29.297,90.332,0
1583340692.767,19.043,32.227,33.691,25.879,23.438,0
1583340692.771,26.367,29.297,31.738,18.555,-10.254,0
1583340692.774,34.180,27.344,37.598,20.996,14.160,0
1583340692.778,26.855,27.344,39.551,23.926,43.457,0
1583340692.782,17.090,27.832,37.109,20.020,29.785,0
1583340692.786,17.090,24.902,36.133,9.277,30.762,0
1583340692.790,25.391,25.391,33.203,9.277,62.500,0
1583340692.789,27.344,28.809,35.645,16.113,92.773,0
1583340692.793,20.996,28.320,36.133,14.160,79.590,0
1583340692.797,23.438,29.297,34.180,13.184,23.926,0
1583340692.801,35.645,28.320,33.203,14.160,15.137,0
1583340692.805,33.691,26.855,32.227,11.719,36.133,0
1583340692.809,20.508,32.227,33.691,14.160,48.828,0
1583340692.813,19.531,31.738,34.668,16.113,57.129,0
1583340692.816,32.715,29.297,36.621,19.043,48.340,0
1583340692.820,34.668,28.320,37.109,21.973,65.918,0
1583340692.824,29.297,26.855,35.645,18.555,27.832,0
1583340692.828,28.809,27.344,36.133,23.438,19.043,0
1583340692.832,32.715,30.762,35.156,27.832,35.156,0
1583340692.847,37.598,32.715,32.715,25.879,1.953,0
1583340692.851,30.273,30.273,34.668,26.855,4.883,0
1583340692.855,22.461,27.344,35.156,22.461,59.570,0
1583340692.859,28.809,26.367,35.156,13.184,56.641,0
1583340692.863,35.645,26.367,37.109,13.184,14.160,0
1583340692.867,31.738,27.832,34.180,18.066,12.695,0
1583340692.871,27.832,30.762,31.738,15.625,-3.906,0
1583340692.874,39.062,29.785,33.203,13.184,23.438,0
1583340692.878,49.316,27.832,34.180,26.367,17.090,0
1583340692.882,37.109,26.367,36.133,20.996,-16.113,0
1583340692.886,18.555,26.367,35.645,9.277,21.484,0
1583340692.890,18.066,29.785,34.668,14.648,48.828,0
1583340692.887,24.414,30.273,35.156,18.555,28.809,0
1583340692.891,28.809,30.273,34.180,12.695,57.129,0
1583340692.895,22.949,31.738,34.180,12.207,71.777,0
1583340692.899,18.066,30.762,35.156,19.531,-9.277,0
1583340692.903,27.832,30.273,32.227,16.113,-26.855,0
1583340692.907,33.691,27.832,31.738,16.113,19.531,0
1583340692.911,25.391,25.879,32.227,17.090,2.441,0
1583340692.914,15.137,24.902,29.297,18.066,12.695,0
1583340692.918,22.461,25.391,28.809,17.090,88.867,0
1583340692.922,32.227,26.367,34.180,9.766,74.707,0
1583340692.926,32.227,23.926,36.621,5.371,30.273,0
1583340692.930,24.902,22.461,34.180,14.160,10.742,0
1583340692.927,24.414,24.414,33.691,19.531,4.395,0
1583340692.931,37.109,24.902,37.598,22.461,43.945,0
1583340692.935,33.691,25.879,41.016,26.367,37.109,0
1583340692.939,23.926,28.320,41.992,17.578,34.180,0
1583340692.943,30.762,28.809,44.434,20.020,9.277,0
1583340692.947,38.086,28.809,41.992,24.902,-21.484,0
1583340692.951,38.086,27.344,40.527,26.855,-5.371,0
1583340692.954,34.180,27.832,43.457,31.250,36.621,0
1583340692.958,24.902,26.855,43.945,25.879,13.672,0
1583340692.962,26.367,28.320,42.969,27.832,-8.789,0
1583340692.966,34.180,29.297,42.969,35.156,38.574,0
1583340692.970,29.297,26.855,40.527,30.762,46.875,0
1583340692.988,20.996,27.344,36.133,20.996,7.812,0
1583340692.992,22.949,27.832,35.156,17.090,19.043,0
1583340692.996,31.250,26.367,36.133,17.090,39.062,0
1583340693.000,30.273,25.879,34.668,19.531,28.809,0
1583340693.004,21.973,27.344,35.156,18.066,38.086,0
1583340693.008,17.578,28.809,40.039,16.602,36.621,0
1583340693.012,30.273,29.785,42.480,20.508,41.992,0
1583340693.015,37.598,29.297,40.039,17.090,-12.695,0
1583340693.019,25.879,26.855,38.574,16.602,-9.766,0
1583340693.023,16.113,26.855,39.551,16.113,40.527,0
1583340693.027,18.555,28.320,41.992,12.207,27.344,0
1583340693.031,23.926,27.344,39.062,14.160,0.000,0
1583340693.027,20.020,26.855,32.715,9.766,18.066,0
1583340693.031,13.184,27.344,35.156,8.789,31.250,0
1583340693.035,15.137,27.344,39.062,15.137,31.250,0
1583340693.039,23.926,28.320,38.574,18.555,78.125,0
1583340693.043,19.531,29.785,37.598,17.578,36.133,0
1583340693.047,13.184,31.738,34.668,17.090,-13.672,0
1583340693.051,18.555,34.668,32.227,12.695,-11.719,0
1583340693.054,21.484,32.227,32.715,15.137,17.578,0
1583340693.058,20.508,32.227,34.180,8.789,-9.766,0
1583340693.062,17.090,34.180,35.156,4.395,5.859,0
1583340693.066,15.137,34.180,33.691,11.719,34.180,0
1583340693.070,23.438,32.715,32.715,12.207,-10.742,0
1583340693.067,30.762,31.738,33.203,13.672,-29.297,0
1583340693.071,23.438,30.762,31.738,18.555,48.340,0
1583340693.075,15.625,33.203,26.367,9.277,89.355,0
1583340693.079,24.414,35.156,23.438,-0.977,12.695,0
1583340693.083,34.180,28.320,28.809,3.906,-14.160,0
1583340693.087,24.902,24.902,34.180,9.277,48.340,0
1583340693.091,16.602,28.809,32.715,14.648,61.523,0
1583340693.094,21.484,27.344,31.738,13.184,63.477,0
1583340693.098,32.715,26.367,33.203,17.578,41.992,0
1583340693.102,32.715,29.785,34.668,23.926,-8.789,0
1583340693.106,17.578,29.297,35.156,16.113,-9.766,0
1583340693.110,17.578,28.320,36.133,12.695,29.785,0
1583340693.127,26.855,30.762,36.133,13.672,65.430,0
1583340693.131,28.809,30.273,33.691,11.230,53.223,0
1583340693.135,16.602,25.879,31.250,10.254,32.715,0
1583340693.139,12.207,24.902,28.809,10.254,40.039,0
1583340693.143,24.902,27.344,27.832,14.648,13.672,0
1583340693.147,30.273,30.273,28.320,12.207,28.320,0
1583340693.151,19.043,30.762,30.273,3.418,97.656,0
1583340693.154,16.602,27.344,31.738,9.277,15.625,0
1583340693.158,26.855,26.367,30.273,21.484,26.855,0
1583340693.162,29.785,28.320,31.250,16.602,89.844,0
1583340693.166,21.973,27.832,34.180,11.230,9.766,0
1583340693.170,14.648,29.297,32.227,15.625,-7.324,0
1583340693.167,18.066,31.738,31.738,18.066,14.648,0
1583340693.171,26.367,30.273,35.645,18.555,29.297,0
1583340693.175,24.414,28.320,36.133,12.695,16.602,0
1583340693.179,16.602,28.320,35.645,14.160,36.621,0
1583340693.183,13.672,28.809,36.621,14.648,75.195,0
1583340693.187,21.484,33.691,37.109,17.090,60.547,0
1583340693.191,28.809,34.180,38.086,19.043,38.574,0
1583340693.194,24.902,29.785,38.086,10.742,45.898,0
1583340693.198,23.438,30.273,36.621,13.672,60.059,0
1583340693.202,29.297,31.738,37.598,12.207,46.387,0
1583340693.206,33.691,31.738,38.086,9.277,3.906,0
1583340693.210,31.738,31.250,36.621,15.137,29.785,0
1583340693.207,26.855,31.250,33.691,20.508,38.574,0
1583340693.211,28.320,28.809,34.180,20.508,50.781,0
1583340693.215,34.180,27.832,38.574,20.996,58.594,0
1583340693.219,30.762,29.785,39.551,22.461,8.789,0
1583340693.223,20.996,28.809,38.574,23.926,-12.695,0
1583340693.227,16.602,25.391,36.621,18.555,1.465,0
1583340693.231,24.902,25.879,35.645,20.508,78.125,0
1583340693.234,27.832,27.832,37.109,18.066,66.406,0
1583340693.238,23.438,29.785,37.598,16.113,0.000,0
1583340693.242,24.902,32.227,36.621,24.902,3.906,0
1583340693.246,37.598,30.762,38.086,36.621,16.602,0
1583340693.250,45.410,30.762,40.527,35.645,0.488,0
1583340693.267,36.133,31.738,38.574,22.461,5.371,0
1583340693.271,23.438,27.344,37.109,18.066,-4.883,0
1583340693.275,30.273,26.855,34.180,17.090,25.391,0
1583340693.279,38.574,33.203,34.668,19.531,18.066,0
1583340693.283,30.762,34.668,32.715,19.531,0.000,0
1583340693.287,21.484,32.227,30.762,17.578,38.086,0
1583340693.291,24.902,30.273,29.785,10.742,27.344,0
1583340693.294,37.109,29.785,29.785,9.277,4.395,0
1583340693.298,34.180,31.738,31.738,14.160,15.625,0
1583340693.302,24.414,29.785,30.273,6.836,46.875,0
1583340693.306,25.879,29.785,31.250,7.812,51.758,0
1583340693.310,32.715,33.691,31.250,18.066,114.746,0
1583340693.328,33.691,35.645,30.273,21.973,90.820,0
1583340693.332,27.344,36.133,34.180,20.020,-2.930,0
1583340693.336,26.855,31.250,37.109,19.043,29.785,0
1583340693.340,34.180,28.809,37.109,18.555,68.359,0
1583340693.344,36.621,32.227,34.180,19.531,41.992,0
1583340693.348,29.297,34.180,35.645,28.809,34.180,0
1583340693.352,23.926,30.762,36.621,30.273,41.016,0
1583340693.355,29.297,26.367,35.645,21.484,85.449,0
1583340693.359,35.156,28.809,41.992,26.367,103.516,0
1583340693.363,31.250,31.738,42.969,26.367,87.402,0
1583340693.367,23.438,32.715,40.039,21.484,54.688,0
1583340693.371,25.391,33.691,41.992,23.438,12.695,0
1583340693.367,34.180,33.203,36.621,27.832,46.387,0
1583340693.371,30.762,33.203,31.250,30.762,77.148,0
1583340693.375,27.344,34.180,36.133,29.297,11.719,0
1583340693.379,30.273,33.691,34.668,30.273,-12.695,0
1583340693.383,35.156,32.715,29.785,32.227,20.020,0
1583340693.387,36.133,30.273,30.762,30.762,29.785,0
1583340693.391,32.715,29.297,35.156,27.832,-2.441,0
1583340693.394,30.762,30.762,40.039,26.367,-31.738,0
1583340693.398,33.691,28.809,40.039,29.785,-3.906,0
1583340693.402,42.969,28.809,36.133,28.320,75.195,0
1583340693.406,42.480,34.668,36.621,20.996,73.242,0
1583340693.410,35.156,37.598,37.598,23.926,20.996,0
1583340693.407,40.039,35.645,36.621,22.461,3.418,0
1583340693.411,52.246,33.691,38.086,16.113,20.020,0
1583340693.415,47.852,38.086,38.574,18.066,43.457,0
1583340693.419,33.691,39.062,34.668,23.926,44.922,0
1583340693.423,32.715,35.156,34.668,24.414,29.297,0
1583340693.427,42.969,39.062,38.574,23.926,21.973,0
1583340693.431,41.504,40.527,39.062,24.414,6.348,0
1583340693.434,25.879,34.668,37.598,17.578,48.340,0
1583340693.438,25.391,34.180,34.180,15.137,57.129,0
1583340693.442,35.645,34.180,32.715,20.996,20.508,0
1583340693.446,32.715,33.691,36.133,24.414,34.180,0
1583340693.450,24.414,34.668,37.598,20.996,-36.133,0
1583340693.467,16.113,34.180,37.109,17.578,-41.016,0
1583340693.471,20.508,32.715,38.574,15.137,3.906,0
1583340693.475,24.902,30.762,37.598,22.461,10.254,0
1583340693.479,19.043,32.715,37.109,23.926,2.441,0
1583340693.483,17.578,35.156,37.109,20.020,-20.020,0
1583340693.487,26.855,32.227,31.738,20.996,-21.973,0
1583340693.491,36.133,36.621,30.762,19.531,48.340,0
1583340693.494,32.715,39.062,35.645,22.461,89.355,0
1583340693.498,24.902,35.645,36.133,21.484,56.641,0
1583340693.502,23.926,35.156,34.180,16.113,54.199,0
1583340693.506,30.762,35.645,33.203,21.973,44.434,0
1583340693.510,26.367,37.109,35.156,29.297,27.344,0
1583340693.508,17.578,34.180,34.180,22.461,-6.836,0
1583340693.512,26.367,32.715,34.668,15.137,17.090,0
1583340693.516,34.668,34.180,36.621,17.578,75.684,1
1583340693.520,32.715,35.645,33.691,15.137,34.668,0
1583340693.524,26.367,34.668,32.715,16.602,24.414,0
1583340693.528,21.484,33.691,33.691,20.508,86.914,0
1583340693.532,32.227,36.133,35.645,26.855,54.688,0
1583340693.535,43.945,38.574,35.645,25.391,-6.836,0
1583340693.539,36.133,39.551,33.691,19.531,39.551,0
1583340693.543,26.367,40.039,34.668,23.926,89.355,0
1583340693.547,29.297,38.086,36.621,21.484,21.484,0
1583340693.551,38.574,35.156,33.691,22.949,4.883,0
1583340693.547,35.645,35.156,34.180,29.297,56.641,0
1583340693.551,23.926,32.227,37.598,23.438,10.742,0
1583340693.555,22.949,31.250,38.574,18.555,11.719,0
1583340693.559,27.832,35.645,36.621,17.578,80.078,0
1583340693.563,28.320,35.156,34.668,17.578,12.207,0
1583340693.567,21.484,31.250,35.156,16.113,31.738,0
1583340693.571,13.672,32.227,34.668,13.184,105.957,0
1583340693.574,20.508,33.691,36.621,14.648,23.438,0
1583340693.578,27.344,32.227,38.086,13.184,-59.082,0
1583340693.582,18.066,31.738,37.598,12.207,-41.504,0
1583340693.586,13.184,32.227,39.551,15.137,49.316,0
1583340693.590,21.484,30.273,42.480,15.137,27.344,0
1583340693.587,28.320,29.785,36.133,18.066,-63.965,0
1583340693.591,24.902,31.738,31.250,23.926,-34.180,0
1583340693.595,16.113,29.297,34.180,22.949,45.410,0
1583340693.599,19.531,30.273,37.598,23.926,52.246,0
1583340693.603,27.344,31.738,37.598,26.855,35.156,0
1583340693.607,28.809,29.297,37.598,22.461,15.137,0
1583340693.611,24.414,30.273,35.156,16.113,6.348,0
1583340693.614,18.066,29.297,32.227,9.277,24.414,0
1583340693.618,27.344,27.832,34.668,8.301,24.414,0
1583340693.622,29.297,29.785,34.668,4.883,3.418,0
1583340693.626,18.555,27.832,35.645,6.348,-6.348,0
1583340693.630,19.043,29.785,35.156,13.184,-9.766,0
1583340693.647,25.879,33.203,30.762,12.207,-9.766,0
1583340693.651,31.738,32.227,29.297,9.766,-25.879,0
1583340693.655,24.414,32.227,31.738,6.348,-22.949,0
1583340693.659,23.438,33.203,34.668,5.371,9.766,0
1583340693.663,34.668,34.180,35.156,14.648,14.648,0
1583340693.667,43.945,35.645,32.715,22.461,47.363,0
1583340693.671,43.945,36.621,31.738,19.043,33.691,0
1583340693.674,33.691,36.133,33.691,22.461,7.812,0
1583340693.678,31.738,35.156,33.691,25.391,36.133,0
1583340693.682,40.527,36.133,34.668,24.414,28.809,0
1583340693.686,42.969,34.180,33.691,26.855,-13.672,0
1583340693.690,35.156,35.156,36.621,28.809,24.414,0
1583340693.687,31.738,37.598,40.039,30.762,48.340,0
1583340693.691,34.668,36.621,37.598,29.785,6.836,0
1583340693.695,37.109,34.180,34.668,28.809,17.578,0
1583340693.699,30.273,31.250,33.691,27.344,-12.695,0
1583340693.703,27.344,31.250,35.156,25.879,-29.785,0
1583340693.707,36.621,29.297,34.180,28.320,19.531,0
1583340693.711,38.086,28.320,33.691,30.762,78.613,0
1583340693.714,28.809,30.762,36.133,21.973,83.984,0
1583340693.718,25.391,27.344,34.668,13.184,53.223,0
1583340693.722,28.809,26.367,33.691,16.602,54.688,0
1583340693.726,31.250,31.250,35.156,19.043,90.820,0
1583340693.730,25.879,28.809,36.133,16.602,77.637,0
1583340693.748,17.090,27.832,38.086,21.484,3.906,0
1583340693.752,23.438,31.250,38.086,22.461,1.953,0
1583340693.756,33.203,32.715,36.621,23.438,9.277,0
1583340693.760,31.738,32.715,33.691,23.926,33.203,0
1583340693.764,22.461,32.715,31.738,21.973,39.551,0
1583340693.768,23.438,32.227,33.203,24.414,56.152,0
1583340693.772,36.621,32.715,33.691,27.832,59.082,0
1583340693.775,39.551,32.715,33.203,26.367,44.922,0
1583340693.779,30.762,33.691,32.227,20.508,55.664,0
1583340693.783,27.344,34.180,31.738,20.508,53.711,0
1583340693.787,36.621,32.715,35.645,26.855,54.688,0
1583340693.791,44.434,33.203,35.645,30.273,50.293,0
1583340693.787,39.551,32.715,30.762,31.738,76.660,0
1583340693.791,32.227,33.691,28.320,27.832,50.293,0
1583340693.795,37.109,33.203,32.715,31.250,34.668,0
1583340693.799,47.852,32.715,37.109,40.039,5.859,0
1583340693.803,45.898,34.668,36.621,37.109,8.301,0
1583340693.807,33.203,33.203,34.180,31.250,71.289,0
1583340693.811,32.227,32.715,33.691,29.297,41.992,0
1583340693.814,41.016,34.180,37.598,30.762,-2.930,0
1583340693.818,42.480,36.133,39.062,33.691,31.738,0
1583340693.822,33.203,35.645,37.109,37.598,59.570,0
1583340693.826,27.832,34.180,41.504,34.180,23.438,0
1583340693.830,35.645,32.715,42.969,28.320,50.781,0
1583340693.827,42.969,31.738,38.574,31.738,12.695,0
1583340693.831,36.621,33.203,37.598,34.668,-42.969,0
1583340693.835,26.855,33.691,38.086,28.320,31.250,0
1583340693.839,36.621,34.180,37.598,26.855,30.762,0
1583340693.843,41.992,36.133,38.086,26.855,17.090,0
1583340693.847,32.227,37.109,38.086,20.020,21.484,0
1583340693.851,29.785,36.133,36.621,15.137,14.160,0
1583340693.854,34.668,36.133,36.621,18.066,8.789,0
1583340693.858,41.992,34.668,38.086,23.438,37.109,0
1583340693.862,41.992,36.133,39.062,20.508,95.703,0
1583340693.866,33.203,37.109,40.039,15.137,74.219,0
1583340693.870,31.250,32.227,37.109,10.742,82.520,0
1583340693.867,38.086,33.203,35.645,16.602,70.801,0
1583340693.871,38.574,33.691,37.109,21.484,18.066,0
1583340693.875,28.320,31.250,34.668,16.113,33.203,0
1583340693.879,19.531,33.691,32.715,13.672,12.695,0
1583340693.883,21.973,30.762,34.180,15.137,33.203,0
1583340693.887,28.809,28.320,32.227,18.066,8.301,0
1583340693.891,26.855,31.250,30.273,16.602,-3.418,0
1583340693.894,17.090,29.785,31.738,14.648,71.289,0
1583340693.898,17.090,27.344,34.668,13.184,33.203,0
1583340693.902,23.438,28.809,37.109,13.184,-5.371,0
1583340693.906,20.996,27.344,36.621,16.602,42.480,0
1583340693.910,15.137,26.855,38.574,16.113,6.836,0
1583340693.927,16.113,29.785,36.133,18.066,-15.625,0
1583340693.931,21.484,33.203,28.320,20.996,16.602,0
1583340693.935,22.461,31.738,26.367,10.254,36.133,0
1583340693.939,20.508,29.297,32.715,4.395,-6.348,0
1583340693.943,14.160,28.809,34.180,13.184,-20.996,0
1583340693.947,27.832,31.738,34.180,30.762,50.293,0
1583340693.951,32.227,30.762,36.133,25.879,35.645,0
1583340693.954,9.766,27.832,35.156,6.836,25.879,0
1583340693.958,12.207,25.391,35.645,11.230,-23.438,0
1583340693.962,21.973,24.414,36.133,16.113,-46.387,0
1583340693.966,24.414,30.273,36.621,15.625,26.367,0
1583340693.970,20.996,30.762,36.621,16.602,-3.418,0
1583340693.967,19.531,31.738,34.668,15.625,-15.625,0
1583340693.971,22.461,36.621,32.715,18.066,33.203,0
1583340693.975,26.855,38.086,32.715,18.555,62.012,0
1583340693.979,30.273,37.598,31.250,20.996,32.227,0
1583340693.983,24.902,34.180,32.715,26.367,22.461,0
1583340693.987,24.902,32.227,30.762,23.926,48.340,0
1583340693.991,34.180,32.227,30.273,22.949,60.059,0
1583340693.994,32.227,32.715,33.691,19.531,60.547,0
1583340693.998,23.438,33.691,33.691,15.625,-5.371,0
1583340694.002,20.020,34.668,37.109,18.066,20.996,0
1583340694.006,24.414,32.227,39.062,21.484,22.461,0
1583340694.010,26.855,29.785,37.109,24.414,36.133,0
1583340694.007,15.625,31.250,33.203,19.531,64.941,0
1583340694.011,13.672,30.762,34.668,8.301,73.242,0
1583340694.015,23.926,31.738,37.109,19.531,93.262,0
1583340694.019,26.855,30.762,36.621,21.484,53.711,0
1583340694.023,24.414,27.832,35.156,10.254,17.090,0
1583340694.027,21.484,28.320,34.180,17.578,-6.836,0
1583340694.031,22.461,26.367,33.691,18.555,-8.789,0
1583340694.034,29.297,28.809,37.109,15.625,31.250,0
1583340694.038,30.273,33.691,39.551,14.160,16.113,0
1583340694.042,18.066,32.715,38.086,8.301,11.719,0
1583340694.046,17.578,31.738,36.621,10.254,40.039,0
1583340694.050,30.273,30.273,36.133,17.578,16.113,0
1583340694.087,30.762,29.297,35.645,21.973,22.461,0
1583340694.091,20.020,32.715,34.180,14.160,49.805,0
1583340694.095,17.578,29.297,33.203,9.766,80.078,0
1583340694.099,22.949,27.832,36.621,13.672,61.035,0
1583340694.103,26.855,33.203,33.691,16.602,9.766,0
1583340694.107,20.508,31.250,30.762,18.066,34.668,0
1583340694.111,18.066,30.273,35.645,17.090,41.992,0
1583340694.114,26.855,32.227,37.598,21.973,22.949,0
1583340694.118,33.691,35.156,35.645,26.367,75.195,0
1583340694.122,30.762,34.180,37.598,19.043,43.945,0
1583340694.126,23.926,31.250,39.062,15.137,17.090,0
1583340694.130,27.832,32.227,37.109,22.461,27.832,0
1583340694.110,34.180,32.715,38.574,27.344,20.508,0
1583340694.114,31.738,32.715,39.551,23.438,24.414,0
1583340694.118,20.508,33.203,38.086,24.902,-22.461,0
1583340694.122,15.137,31.738,36.621,25.879,0.000,0
1583340694.126,20.020,29.785,35.645,18.066,8.789,0
1583340694.130,21.973,31.250,33.203,15.137,-4.395,0
1583340694.134,17.578,31.738,35.645,16.113,34.668,0
1583340694.137,13.672,31.738,37.109,17.578,-3.418,0
