timestamps,TP9,AF7,AF8,TP10,Right AUX,Marker0
1583437737.284,65.430,38.574,47.852,72.754,45.898,0
1583437737.288,63.477,25.879,41.016,63.477,-12.207,0
1583437737.292,65.430,34.668,30.273,62.988,30.762,0
1583437737.296,65.918,44.434,37.598,64.941,53.223,0
1583437737.300,65.430,28.809,42.480,63.965,42.969,0
1583437737.304,63.477,22.461,28.809,58.105,4.395,0
1583437737.308,59.082,39.062,14.160,52.734,-36.133,0
1583437737.311,52.246,36.621,33.203,52.734,2.441,0
1583437737.315,52.246,32.715,37.109,51.270,20.508,0
1583437737.319,54.199,46.387,18.555,48.340,23.926,0
1583437737.323,58.105,44.434,34.668,54.688,38.086,0
1583437737.327,54.688,39.551,49.316,54.688,4.883,0
1583437737.323,43.945,30.273,34.180,44.434,-9.277,0
1583437737.327,42.969,29.297,31.250,44.922,21.484,0
1583437737.331,42.969,31.738,32.715,43.945,11.719,0
1583437737.335,44.434,26.855,32.227,46.875,15.137,0
1583437737.339,48.828,34.668,19.531,51.758,34.668,0
1583437737.343,46.387,38.574,19.043,47.852,4.883,0
1583437737.347,45.410,18.555,37.109,44.434,-12.695,0
1583437737.350,50.781,22.949,43.457,45.898,19.043,0
1583437737.354,50.781,37.598,48.340,44.434,73.730,0
1583437737.358,47.363,34.180,31.738,39.551,76.172,0
1583437737.362,37.109,44.922,20.508,30.762,37.109,0
1583437737.366,38.574,52.246,39.062,28.320,-17.090,0
1583437737.363,44.434,40.039,43.457,37.598,26.855,0
1583437737.367,42.969,30.273,39.062,43.457,75.195,0
1583437737.371,44.434,31.738,23.926,41.016,16.602,0
1583437737.375,50.781,41.992,20.508,42.969,-11.719,0
1583437737.379,46.875,49.316,39.062,42.480,50.293,0
1583437737.383,36.621,44.922,44.922,37.109,71.289,0
1583437737.387,40.527,36.133,34.180,38.086,21.973,0
1583437737.390,46.387,33.203,20.996,40.039,-3.418,0
1583437737.394,39.551,34.180,17.090,29.297,18.066,0
1583437737.398,32.715,39.551,17.578,24.414,31.738,0
1583437737.402,30.273,41.992,26.367,31.250,30.762,0
1583437737.406,31.738,30.273,41.992,35.645,32.227,0
1583437737.423,46.387,34.668,48.828,47.852,36.621,0
1583437737.427,45.410,48.828,37.109,37.598,13.672,0
1583437737.431,27.344,39.062,30.762,12.207,16.602,0
1583437737.435,21.973,34.668,30.273,10.742,11.719,0
1583437737.439,20.508,41.016,27.344,16.602,0.488,0
1583437737.443,25.879,44.434,26.367,23.926,55.176,0
1583437737.447,29.785,35.156,35.645,29.297,49.316,0
1583437737.450,20.996,25.391,17.090,15.137,12.207,0
1583437737.454,17.578,38.574,3.906,13.672,41.504,0
1583437737.458,21.973,53.223,20.508,27.832,5.371,0
1583437737.462,27.832,46.875,18.066,31.250,-21.973,0
1583437737.466,27.344,32.715,15.625,26.855,23.926,0
1583437737.484,25.391,40.039,22.949,23.438,55.176,0
1583437737.488,20.508,42.480,22.949,23.438,61.523,0
1583437737.492,16.602,37.598,20.508,24.902,35.156,0
1583437737.496,23.926,24.902,30.762,24.414,21.484,0
1583437737.500,26.855,22.949,34.668,25.879,56.641,0
1583437737.504,35.156,39.551,24.414,28.809,106.934,0
1583437737.508,46.875,46.875,36.133,38.574,56.641,0
1583437737.511,36.621,34.668,41.992,40.527,22.949,0
1583437737.515,31.250,30.762,23.926,35.156,40.527,0
1583437737.519,32.715,40.527,14.648,33.203,77.637,0
1583437737.523,31.738,43.945,21.973,29.297,54.688,0
1583437737.527,37.598,40.039,25.391,35.645,16.113,0
1583437737.505,42.969,40.039,26.367,42.480,62.500,0
1583437737.509,35.645,36.133,21.484,39.062,63.477,0
1583437737.513,32.227,38.574,29.785,38.086,36.133,0
1583437737.517,31.738,43.945,47.363,32.715,47.852,0
1583437737.521,34.180,35.156,47.363,34.668,32.715,0
1583437737.525,32.715,26.367,44.434,34.668,53.711,0
1583437737.529,31.250,26.367,37.109,34.668,94.238,0
1583437737.532,43.945,36.621,39.062,47.852,65.430,0
1583437737.536,42.969,30.762,26.855,40.039,21.484,0
1583437737.540,34.180,39.062,20.508,31.250,2.441,0
1583437737.544,33.691,42.969,39.062,35.156,0.000,0
1583437737.548,35.156,32.715,32.227,37.109,31.250,0
1583437737.563,35.156,33.203,10.254,42.480,28.809,0
1583437737.567,37.109,31.250,25.879,35.156,-10.254,0
1583437737.571,32.227,27.344,45.898,30.762,-0.488,0
1583437737.575,25.879,24.414,46.875,37.598,15.137,0
1583437737.579,32.715,32.227,51.758,37.598,20.508,0
1583437737.583,34.180,36.621,43.945,38.086,21.484,0
1583437737.587,26.855,33.691,31.738,29.785,41.504,0
1583437737.590,28.809,36.621,33.203,29.785,69.336,0
1583437737.594,35.156,31.738,42.969,41.016,61.523,0
1583437737.598,35.645,22.949,37.598,38.086,75.684,0
1583437737.602,32.227,22.949,26.855,30.273,60.059,0
1583437737.606,41.016,41.016,35.645,38.574,49.805,0
1583437737.603,41.504,54.688,23.926,41.992,37.109,0
1583437737.607,31.738,39.551,15.625,32.715,-16.602,0
1583437737.611,27.344,30.273,31.738,26.367,15.625,0
1583437737.615,31.250,30.762,39.062,28.320,64.941,0
1583437737.619,42.480,21.484,40.039,36.133,109.375,0
1583437737.623,39.551,30.762,45.898,37.598,75.684,0
1583437737.627,22.461,52.734,49.805,33.203,64.941,0
1583437737.630,18.555,44.434,46.387,29.297,59.082,0
1583437737.634,18.555,29.297,43.457,32.227,-17.090,0
1583437737.638,22.949,28.320,43.457,35.156,-36.133,0
1583437737.642,20.508,28.809,41.504,25.879,-16.113,0
1583437737.646,24.902,33.691,32.715,29.785,4.395,0
1583437737.643,33.203,39.551,27.832,41.016,29.297,0
1583437737.647,26.367,34.668,35.645,35.645,43.457,0
1583437737.651,30.273,39.062,47.852,31.250,7.812,0
1583437737.655,33.203,39.062,45.898,34.180,96.191,0
1583437737.659,29.297,33.203,34.180,38.086,91.797,0
1583437737.663,34.180,31.250,40.527,40.527,-17.090,0
1583437737.667,34.668,26.367,44.434,40.039,8.301,0
1583437737.670,32.715,28.809,40.527,32.227,48.340,0
1583437737.674,38.574,27.832,51.270,25.391,-29.785,0
1583437737.678,32.227,25.391,42.480,27.832,-45.898,0
1583437737.682,29.297,43.457,43.457,37.598,30.762,0
1583437737.686,33.203,49.805,48.828,38.574,21.973,0
1583437737.704,31.250,40.527,37.598,34.180,3.906,0
1583437737.708,34.180,34.668,37.109,31.738,26.367,0
1583437737.712,35.645,29.297,34.668,31.738,62.012,0
1583437737.716,37.109,32.715,34.180,33.203,33.203,0
1583437737.720,36.621,40.039,40.039,31.738,-59.082,0
1583437737.724,41.016,45.898,35.156,36.133,7.324,0
1583437737.728,38.086,41.504,21.973,31.250,54.199,0
1583437737.731,30.273,29.785,24.902,24.414,37.598,0
1583437737.735,35.645,27.832,37.109,31.250,-11.230,0
1583437737.739,44.922,34.180,44.922,36.621,-11.719,0
1583437737.743,41.992,39.551,42.969,37.598,41.016,0
1583437737.747,34.180,45.898,42.969,34.668,86.914,0
1583437737.743,40.039,49.316,48.340,36.133,95.703,0
1583437737.747,41.016,48.340,37.109,33.203,74.707,0
1583437737.751,34.668,34.180,23.438,27.832,34.180,0
1583437737.755,28.320,20.508,28.320,28.809,-13.184,0
1583437737.759,26.367,31.738,36.621,23.438,26.367,0
1583437737.763,30.273,48.340,40.527,23.438,69.824,0
1583437737.767,27.344,43.945,47.363,26.367,11.719,0
1583437737.770,24.902,35.156,46.387,26.855,-20.996,0
1583437737.774,20.996,39.551,39.062,24.902,42.480,0
1583437737.778,26.367,50.293,40.039,25.391,36.133,0
1583437737.782,28.320,43.457,29.297,22.949,2.930,0
1583437737.786,20.508,31.738,14.648,22.949,14.648,0
1583437737.783,15.625,29.785,35.645,25.391,52.246,0
1583437737.787,18.555,36.133,55.176,24.902,57.129,0
1583437737.791,13.184,43.945,57.129,20.996,45.898,0
1583437737.795,7.812,38.574,57.129,16.113,66.406,0
1583437737.799,8.301,33.691,53.223,20.508,68.359,0
1583437737.803,-0.488,33.691,47.852,2.930,69.336,0
1583437737.807,-1.953,37.598,49.316,-5.859,25.391,0
1583437737.810,-0.488,47.363,50.293,0.488,-5.371,0
1583437737.814,-14.160,41.016,45.898,-19.531,41.016,0
1583437737.818,-33.203,19.043,38.574,-39.551,44.922,0
1583437737.822,-43.945,30.762,42.480,-44.434,40.039,0
1583437737.826,-55.664,48.828,59.082,-51.758,53.711,0
1583437737.843,-77.637,36.133,54.199,-74.707,-12.207,0
1583437737.847,-83.008,31.738,53.711,-89.844,-72.266,0
1583437737.851,-87.891,40.527,49.805,-98.633,27.832,0
1583437737.855,-101.562,38.086,39.062,-104.980,94.238,0
1583437737.859,-103.516,39.551,56.152,-104.004,50.293,0
1583437737.863,-107.910,51.270,62.500,-108.887,12.207,0
1583437737.867,-104.980,55.664,47.852,-109.863,13.184,0
1583437737.870,-101.562,42.480,35.645,-105.469,50.781,0
1583437737.874,-94.727,34.180,32.227,-96.680,32.227,0
1583437737.878,-83.496,36.133,37.109,-92.285,-53.711,0
1583437737.882,-82.031,43.945,46.875,-92.285,5.371,0
1583437737.886,-74.219,62.012,61.523,-81.543,62.500,0
1583437737.883,-60.059,54.688,50.781,-64.941,79.102,0
1583437737.887,-52.734,41.992,52.734,-57.617,110.840,0
1583437737.891,-47.363,53.223,51.270,-52.734,83.496,0
1583437737.895,-29.785,54.199,22.461,-37.109,18.555,0
1583437737.899,-18.555,45.898,23.438,-24.414,15.625,0
1583437737.903,-13.184,41.992,52.734,-16.602,51.270,0
1583437737.907,-0.488,29.297,66.406,-2.930,57.617,0
1583437737.910,7.324,23.926,59.570,1.953,68.848,0
1583437737.914,15.625,43.457,46.875,20.020,20.508,0
1583437737.918,30.762,58.105,48.340,39.551,-30.762,0
1583437737.922,34.180,50.781,49.805,30.273,5.859,0
1583437737.926,43.457,32.227,41.504,38.574,74.219,0
1583437737.924,55.664,30.273,40.039,54.688,78.613,0
1583437737.928,56.152,46.875,35.645,53.711,43.457,0
1583437737.932,60.547,37.109,33.203,57.129,-23.438,0
1583437737.936,70.312,28.809,42.480,64.453,4.883,0
1583437737.940,64.941,46.387,40.527,64.453,9.277,0
1583437737.944,65.918,48.828,36.133,69.336,-35.645,0
1583437737.948,68.359,41.992,31.738,76.172,19.531,0
1583437737.951,70.312,41.016,23.438,73.730,-12.207,0
1583437737.955,78.125,31.738,40.039,71.777,0.977,0
1583437737.959,83.496,25.391,55.664,79.102,44.922,0
1583437737.963,83.984,34.668,44.434,85.938,3.906,0
1583437737.967,77.148,28.320,22.949,85.938,-26.855,0
1583437737.983,72.266,25.879,25.391,78.613,4.395,0
1583437737.987,71.777,32.715,29.297,71.289,27.344,0
1583437737.991,74.707,28.320,26.367,75.684,60.059,0
1583437737.995,78.125,43.945,32.227,76.660,51.758,0
1583437737.999,81.543,48.340,35.156,74.707,56.641,0
1583437738.003,84.961,43.457,26.367,79.590,84.473,0
1583437738.007,83.496,40.527,24.902,79.102,9.766,0
1583437738.010,78.125,35.156,31.738,76.172,21.973,0
1583437738.014,78.613,32.227,26.855,74.707,89.844,0
1583437738.018,80.566,31.250,32.227,74.219,101.562,0
1583437738.022,76.660,36.133,37.598,72.754,57.129,0
1583437738.026,72.266,36.621,29.297,69.336,57.617,0
1583437738.023,72.266,39.551,31.738,72.266,53.711,0
1583437738.027,66.406,38.574,33.691,71.777,68.359,0
1583437738.031,63.477,36.133,26.367,70.312,112.305,0
1583437738.035,62.012,41.016,25.391,70.801,37.109,0
1583437738.039,63.477,34.180,37.109,68.848,2.441,0
1583437738.043,65.430,29.297,39.062,65.918,40.039,0
1583437738.047,55.664,24.414,30.762,57.617,39.062,0
1583437738.050,53.223,29.785,24.414,58.105,46.875,0
1583437738.054,61.035,45.410,26.855,62.012,-3.906,0
1583437738.058,62.988,43.457,38.574,56.152,-11.230,0
1583437738.062,60.547,34.180,37.598,52.734,16.113,0
1583437738.066,61.035,42.969,36.133,55.664,40.527,0
1583437738.064,60.547,50.781,47.852,57.129,36.621,0
1583437738.068,55.664,44.434,40.527,50.781,39.551,0
1583437738.072,57.129,47.363,24.414,51.270,96.191,0
1583437738.076,60.547,55.176,33.691,54.688,108.398,0
1583437738.080,49.316,32.227,25.879,47.363,78.613,0
1583437738.084,47.363,20.508,27.832,43.945,32.715,0
1583437738.088,57.129,43.457,39.551,43.945,10.254,0
1583437738.091,55.664,45.898,28.809,43.945,27.832,0
1583437738.095,47.852,34.180,10.254,44.922,82.520,0
1583437738.099,53.223,27.832,17.578,47.363,69.824,0
1583437738.103,56.641,32.227,42.969,45.410,48.340,0
1583437738.107,51.758,48.828,48.340,44.922,-16.113,0
1583437738.123,51.270,43.457,39.551,40.527,-25.879,0
1583437738.127,70.312,39.551,34.180,49.316,65.918,0
1583437738.131,81.055,39.551,30.762,66.895,26.855,0
1583437738.135,62.012,42.480,41.016,60.547,31.738,0
1583437738.139,47.363,41.504,56.152,52.246,59.570,0
1583437738.143,42.480,29.785,62.012,47.852,37.598,0
1583437738.147,38.086,21.973,62.012,42.480,53.223,0
1583437738.150,39.062,16.113,58.594,48.828,-0.488,0
1583437738.154,45.898,18.066,48.828,61.035,-20.020,0
1583437738.158,46.875,22.949,36.621,65.430,29.297,0
1583437738.162,46.387,18.066,47.852,64.941,61.523,0
1583437738.166,49.805,12.695,69.336,65.918,72.754,0
1583437738.163,58.105,7.324,70.801,67.871,41.504,0
1583437738.167,59.570,7.812,56.641,73.730,40.039,0
1583437738.171,56.641,26.855,56.641,70.312,49.316,0
1583437738.175,53.223,22.949,49.805,64.941,13.184,0
1583437738.179,53.223,12.695,41.504,65.430,65.918,0
1583437738.183,42.969,30.273,50.781,57.129,37.109,0
1583437738.187,35.156,42.480,69.336,57.129,-18.066,0
1583437738.190,41.504,41.016,61.523,59.082,8.789,0
1583437738.194,37.109,33.691,40.527,49.316,43.945,0
1583437738.198,31.738,24.902,41.016,41.992,106.445,0
1583437738.202,32.227,24.902,41.992,44.434,77.148,0
1583437738.206,42.480,24.902,55.664,50.293,39.551,0
1583437738.204,39.551,22.949,62.012,41.992,35.156,0
1583437738.208,32.715,22.461,58.594,41.016,19.531,0
1583437738.212,31.250,20.996,52.734,45.898,29.297,0
1583437738.216,29.785,33.203,47.363,46.875,20.020,0
1583437738.220,30.273,39.551,50.781,46.387,41.016,0
1583437738.224,30.273,35.645,52.734,44.922,39.062,0
1583437738.228,32.715,40.527,43.457,48.828,-20.508,0
1583437738.231,31.250,48.340,39.062,41.016,29.297,0
1583437738.235,35.645,44.922,29.297,34.668,110.352,0
1583437738.239,46.387,39.062,41.016,48.340,62.988,0
1583437738.243,40.527,20.996,53.223,45.898,-14.648,0
1583437738.247,34.668,19.043,43.457,37.598,18.066,0
1583437738.264,39.551,40.039,45.410,39.551,50.781,0
1583437738.268,38.086,45.898,37.598,41.504,30.273,0
1583437738.272,33.203,39.551,26.855,41.992,96.191,0
1583437738.276,29.785,42.969,37.109,40.039,78.613,0
1583437738.280,28.809,47.852,47.852,38.086,77.637,0
1583437738.284,27.832,36.133,43.457,34.180,101.562,0
1583437738.288,31.738,20.508,47.363,37.109,14.160,0
1583437738.291,32.715,23.438,40.039,42.969,3.418,0
1583437738.295,30.273,36.621,38.574,37.598,6.836,0
1583437738.299,39.551,39.551,56.641,41.016,6.836,0
1583437738.303,33.691,36.621,45.410,35.645,3.906,0
1583437738.307,27.832,38.574,28.809,29.785,-0.488,0
1583437738.304,32.227,44.922,38.086,31.738,20.020,0
1583437738.308,36.133,46.875,46.875,32.227,-3.418,0
1583437738.312,41.016,36.133,38.574,32.715,-39.062,0
1583437738.316,40.527,34.180,38.574,35.156,65.430,0
1583437738.320,39.551,25.879,36.621,34.668,67.383,0
1583437738.324,37.598,17.090,35.156,31.250,-1.953,0
1583437738.328,25.391,26.855,38.086,34.180,-15.625,0
1583437738.331,15.625,36.133,34.668,33.203,49.316,0
1583437738.335,20.996,43.457,42.969,30.273,63.965,0
1583437738.339,32.227,47.852,42.480,31.738,14.648,0
1583437738.343,36.133,42.969,26.855,25.879,-3.906,0
1583437738.347,39.062,40.527,26.855,20.508,-12.207,0
1583437738.343,40.039,41.504,36.621,20.996,12.207,0
1583437738.347,35.156,39.062,45.410,21.973,11.230,0
1583437738.351,29.297,35.156,44.922,20.020,-15.625,0
1583437738.355,20.508,25.879,30.273,20.020,10.742,0
1583437738.359,14.160,27.832,25.391,26.855,62.012,0
1583437738.363,15.137,42.480,41.016,25.391,67.871,0
1583437738.367,23.926,38.574,49.316,29.297,12.695,0
1583437738.370,34.668,38.086,46.875,36.133,7.812,0
1583437738.374,32.715,49.805,49.316,32.715,27.344,0
1583437738.378,13.184,48.340,44.922,25.391,7.324,0
1583437738.382,5.371,39.062,44.922,19.531,-7.324,0
1583437738.386,24.902,22.949,45.410,29.297,53.223,0
1583437738.404,35.156,24.902,47.852,40.039,99.609,0
1583437738.408,29.785,41.992,48.340,43.945,70.801,0
1583437738.412,31.738,41.504,49.805,44.434,87.891,0
1583437738.416,36.133,39.551,32.227,40.527,53.223,0
1583437738.420,32.715,28.809,20.508,38.574,45.410,0
1583437738.424,29.297,25.391,44.434,41.504,43.945,0
1583437738.428,29.785,34.668,39.551,41.504,-27.344,0
1583437738.431,30.273,30.762,28.320,36.133,-0.488,0
1583437738.435,24.902,29.297,50.293,30.273,6.348,0
1583437738.439,21.973,30.762,60.059,34.180,49.316,0
1583437738.443,29.785,39.062,53.711,40.039,78.125,0
1583437738.447,32.227,32.715,35.645,33.691,62.012,0
1583437738.443,27.344,30.762,36.621,27.832,71.777,0
1583437738.447,27.832,34.668,52.734,28.320,39.062,0
1583437738.451,25.391,35.645,49.316,35.156,0.977,0
1583437738.455,22.461,48.340,29.785,33.203,-6.836,0
1583437738.459,34.668,55.664,16.113,34.668,-13.672,0
1583437738.463,41.016,46.875,31.250,42.969,-24.902,0
1583437738.467,41.016,32.227,46.875,40.527,13.184,0
1583437738.470,40.039,26.855,43.945,32.227,75.195,0
1583437738.474,43.945,41.016,49.316,31.250,69.824,0
1583437738.478,50.293,40.039,44.922,32.227,30.273,0
1583437738.482,44.922,23.438,35.645,36.133,23.926,0
1583437738.486,43.945,33.203,33.691,39.551,54.688,0
1583437738.503,47.363,40.039,28.809,36.621,84.961,0
1583437738.507,47.363,35.645,33.691,39.062,63.965,0
1583437738.511,52.246,35.645,49.805,48.828,9.277,0
1583437738.515,55.664,33.203,42.969,52.246,20.996,0
1583437738.519,50.781,39.062,20.996,47.852,60.059,0
1583437738.523,46.875,31.738,29.785,47.363,31.250,0
1583437738.527,49.316,23.438,49.316,55.176,-11.230,0
1583437738.530,43.945,40.527,44.434,41.504,-0.488,0
1583437738.534,41.504,47.852,44.434,33.203,23.438,0
1583437738.538,41.504,43.457,51.270,41.016,2.441,0
1583437738.542,35.645,38.574,39.062,34.668,6.348,0
1583437738.546,34.180,39.551,31.738,36.621,-5.371,0
1583437738.544,34.180,31.250,43.457,35.645,-3.906,0
1583437738.548,33.691,28.320,41.992,30.762,32.715,0
1583437738.552,33.691,24.902,33.203,34.180,41.016,0
1583437738.556,35.156,20.996,35.156,34.668,-21.484,0
1583437738.560,28.809,24.414,35.645,31.250,-10.254,0
1583437738.564,23.926,12.207,29.297,26.367,37.598,0
1583437738.568,21.484,14.648,31.250,20.996,39.551,0
1583437738.571,29.785,41.504,50.293,23.438,64.453,0
1583437738.575,36.133,44.434,51.758,27.344,76.660,0
1583437738.579,25.879,29.785,40.527,19.531,102.539,0
1583437738.583,22.949,24.414,34.668,11.230,59.082,0
1583437738.587,22.461,30.762,30.762,16.602,46.875,0
1583437738.585,19.531,38.086,27.344,18.066,11.230,0
1583437738.589,14.160,33.203,31.738,15.625,-15.625,0
1583437738.593,20.508,29.297,40.527,18.555,-4.883,0
1583437738.597,24.414,35.645,33.203,13.672,20.020,0
1583437738.601,25.879,35.156,26.855,18.066,54.688,0
1583437738.605,32.227,17.090,28.809,25.391,72.754,0
1583437738.609,29.785,17.090,23.926,21.973,44.434,0
1583437738.612,29.785,35.645,19.043,25.879,-15.137,0
1583437738.616,26.367,44.434,29.297,25.391,7.324,0
1583437738.620,24.414,55.664,49.316,22.949,29.785,0
1583437738.624,29.785,43.945,52.734,21.484,-9.277,0
1583437738.628,31.250,37.109,41.016,19.531,-25.391,0
1583437738.644,32.227,46.387,23.438,29.785,28.809,0
1583437738.648,28.809,31.738,22.461,34.180,41.504,0
1583437738.652,35.156,28.809,36.621,38.086,25.879,0
1583437738.656,54.688,43.945,41.016,47.363,76.172,0
1583437738.660,38.574,47.363,37.598,36.621,77.148,0
1583437738.664,16.113,40.527,19.531,20.020,-1.953,0
1583437738.668,20.020,36.133,12.207,16.113,38.086,0
1583437738.671,28.320,36.621,30.762,19.043,129.883,0
1583437738.675,35.156,39.062,41.504,30.762,100.586,0
1583437738.679,33.203,41.016,38.574,32.715,38.086,0
1583437738.683,35.645,41.504,44.434,31.250,84.473,0
1583437738.687,35.645,36.621,33.691,30.273,86.426,0
1583437738.683,28.320,27.344,23.926,25.391,28.809,0
1583437738.687,33.691,34.180,39.062,26.855,56.152,0
1583437738.691,41.992,39.062,39.062,30.273,3.418,0
1583437738.695,33.691,39.062,27.344,27.344,-57.129,0
1583437738.699,24.414,38.574,20.020,20.020,-39.551,0
1583437738.703,24.414,33.203,29.785,24.414,-3.906,0
1583437738.707,32.227,48.340,45.410,39.551,79.590,0
1583437738.710,34.668,49.805,39.551,40.527,117.676,0
1583437738.714,30.273,38.574,19.531,30.273,56.641,0
1583437738.718,24.414,38.086,20.996,25.879,6.836,0
1583437738.722,18.066,40.039,35.156,21.973,66.406,0
1583437738.726,17.578,33.203,37.598,16.113,78.613,0
1583437738.724,25.879,32.227,30.762,20.508,46.875,0
1583437738.728,28.320,47.363,36.133,27.344,38.574,0
1583437738.732,24.902,41.504,37.109,30.273,32.715,0
1583437738.736,26.855,29.297,39.062,26.367,17.090,0
1583437738.740,34.180,40.039,52.734,28.809,91.309,0
1583437738.744,27.344,47.852,39.062,28.320,60.059,0
1583437738.748,19.043,49.316,32.227,24.414,-3.418,0
1583437738.751,21.484,48.340,41.016,27.344,24.414,0
1583437738.755,24.414,41.016,24.414,25.879,3.906,0
1583437738.759,24.414,34.668,24.902,22.461,47.852,0
1583437738.763,24.414,37.109,50.293,25.391,13.184,0
1583437738.767,24.902,33.203,48.340,24.414,-24.902,0
1583437738.783,23.926,26.367,30.273,20.020,55.176,0
1583437738.787,33.691,39.062,26.855,21.973,61.035,0
1583437738.791,43.457,47.852,38.574,36.133,8.789,0
1583437738.795,39.062,39.551,37.598,37.109,41.992,0
1583437738.799,34.668,41.016,28.809,33.203,8.789,0
1583437738.803,32.227,43.457,35.156,35.156,20.508,0
1583437738.807,29.785,37.109,42.480,36.133,66.406,0
1583437738.810,26.855,31.250,40.039,33.691,34.180,0
1583437738.814,26.367,38.574,43.945,35.156,63.477,0
1583437738.818,24.414,39.551,29.785,29.297,89.355,0
1583437738.822,30.273,32.715,29.785,33.203,62.500,0
1583437738.826,37.598,22.461,44.922,38.574,77.148,0
1583437738.823,34.180,23.926,36.133,31.738,40.527,0
1583437738.827,31.250,40.039,41.992,30.273,10.742,0
1583437738.831,25.879,45.898,48.340,20.020,67.383,0
1583437738.835,24.902,38.086,53.223,17.090,3.418,0
1583437738.839,29.297,31.738,47.852,22.949,-19.531,0
1583437738.843,36.621,38.086,27.832,25.879,42.969,0
1583437738.847,32.715,42.969,30.762,25.879,24.902,0
1583437738.850,29.297,38.086,37.109,26.855,32.715,0
1583437738.854,34.180,30.762,36.133,27.344,56.152,0
1583437738.858,41.992,36.133,44.922,32.715,56.152,0
1583437738.862,40.527,43.457,40.527,28.809,3.418,0
1583437738.866,36.133,32.715,39.062,25.879,7.324,0
1583437738.863,38.086,17.090,35.645,35.156,51.758,0
1583437738.867,38.086,29.297,41.992,37.598,12.695,0
1583437738.871,35.645,40.039,43.457,35.156,-8.789,0
1583437738.875,34.668,39.551,39.062,29.785,51.758,0
1583437738.879,31.738,37.598,43.945,30.273,1.953,0
1583437738.883,28.320,21.484,47.363,33.691,-35.645,0
1583437738.887,32.715,24.902,40.527,28.809,51.758,0
1583437738.890,39.551,41.504,29.297,30.762,88.379,0
1583437738.894,29.297,41.504,30.273,23.926,11.230,0
1583437738.898,29.297,37.109,40.527,21.484,6.836,0
1583437738.902,32.227,34.180,50.293,30.273,89.844,0
1583437738.906,22.461,34.180,42.480,22.461,47.363,0
1583437738.924,27.832,32.715,35.645,24.902,-29.785,0
1583437738.928,29.785,28.320,26.367,28.320,-45.898,0
1583437738.932,32.715,31.738,34.668,28.320,-89.844,0
1583437738.936,35.156,35.645,52.734,26.855,-8.301,0
1583437738.940,30.273,41.504,43.457,21.973,17.578,0
1583437738.944,26.367,41.992,30.762,24.414,-45.410,0
1583437738.948,26.855,34.668,39.551,23.926,63.965,0
1583437738.951,27.832,33.691,30.762,16.113,78.125,0
1583437738.955,27.344,43.457,27.832,17.090,33.691,0
1583437738.959,33.691,51.758,37.598,25.879,63.965,0
1583437738.963,35.645,43.457,31.738,27.832,62.012,0
1583437738.967,28.809,35.156,38.574,22.461,77.637,0
1583437738.963,26.855,33.203,46.387,21.973,40.527,0
1583437738.967,34.668,31.250,47.852,29.785,35.156,0
1583437738.971,39.551,34.180,32.715,35.645,34.180,0
1583437738.975,40.527,36.621,26.367,37.598,6.836,0
1583437738.979,35.156,37.598,43.457,34.180,53.223,0
1583437738.983,27.832,39.551,43.457,30.762,39.062,0
1583437738.987,34.180,32.715,33.203,39.551,17.578,0
1583437738.990,42.480,33.691,47.363,48.340,-1.953,0
1583437738.994,29.297,38.086,55.664,32.715,74.219,0
1583437738.998,21.484,38.574,44.922,21.973,121.582,0
1583437739.002,24.902,39.551,36.133,21.484,55.664,0
1583437739.006,23.438,26.855,26.855,25.879,-3.418,0
1583437739.003,23.926,19.043,31.738,28.320,-27.832,0
1583437739.007,28.320,33.691,41.016,26.855,5.859,0
1583437739.011,30.762,31.250,44.434,32.227,10.254,0
1583437739.015,27.344,32.715,46.387,36.621,12.695,0
1583437739.019,26.855,45.898,30.273,33.691,20.996,0
1583437739.023,29.297,41.504,38.086,29.785,-44.434,0
1583437739.027,24.902,38.086,48.828,26.855,-3.906,0
1583437739.030,20.508,36.133,27.832,22.461,75.684,0
1583437739.034,22.949,33.691,15.137,18.555,30.762,0
1583437739.038,23.926,25.391,20.020,21.484,53.711,0
1583437739.042,23.438,21.484,35.645,24.902,92.285,0
1583437739.046,22.461,25.879,49.805,21.973,23.438,0
1583437739.064,22.461,41.504,51.270,21.973,-9.277,0
1583437739.068,27.344,48.828,44.434,21.484,43.945,0
1583437739.072,35.156,36.621,38.086,19.531,40.527,0
1583437739.076,43.945,35.156,31.250,30.273,7.812,0
1583437739.080,51.758,34.668,25.391,38.086,17.578,0
1583437739.084,44.434,33.691,26.367,38.086,14.648,0
1583437739.088,22.461,28.320,40.527,26.367,41.504,0
1583437739.091,5.859,21.973,45.410,15.137,74.707,0
1583437739.095,11.230,26.367,46.387,30.762,41.016,0
1583437739.099,17.090,25.879,53.711,35.645,40.527,0
1583437739.103,11.719,25.879,50.781,23.926,5.371,0
1583437739.107,11.719,28.809,41.016,22.461,-30.762,0
1583437739.103,18.066,24.414,39.551,30.762,61.035,0
1583437739.107,25.879,24.414,34.180,37.598,94.727,0
1583437739.111,23.926,26.855,17.578,27.344,7.324,0
1583437739.115,26.855,34.180,25.391,24.414,4.395,0
1583437739.119,22.461,40.039,42.969,27.344,45.898,0
1583437739.123,18.555,36.621,49.316,26.855,41.992,0
1583437739.127,24.902,38.086,43.945,27.344,65.430,0
1583437739.130,28.320,39.551,42.480,23.438,56.641,0
1583437739.134,30.762,40.527,51.270,24.902,57.617,0
1583437739.138,33.203,32.715,47.363,27.344,48.340,0
1583437739.142,37.109,33.691,25.391,25.391,38.086,0
1583437739.146,42.969,33.691,36.621,34.668,11.719,0
1583437739.144,37.109,26.367,47.852,34.180,32.715,0
1583437739.148,29.297,33.691,41.504,26.367,78.613,0
1583437739.152,24.902,34.668,42.480,27.344,59.570,0
1583437739.156,25.391,31.738,31.738,29.297,6.348,0
1583437739.160,25.879,39.551,38.086,31.738,-18.066,0
1583437739.164,23.926,38.574,35.156,31.738,8.301,0
1583437739.168,28.320,33.203,29.297,31.738,23.926,0
1583437739.171,25.391,39.062,34.180,35.156,21.973,0
1583437739.175,28.809,36.133,31.738,33.203,31.250,0
1583437739.179,38.086,24.902,50.293,38.086,42.480,0
1583437739.183,28.320,18.066,55.176,37.598,111.328,0
1583437739.187,24.414,35.645,44.922,30.762,80.078,0
1583437739.203,29.785,39.062,35.156,31.738,70.312,0
1583437739.207,27.832,26.855,31.250,31.250,48.340,0
1583437739.211,22.949,34.668,38.574,34.180,19.043,0
1583437739.215,21.484,39.551,28.320,35.156,69.824,0
1583437739.219,33.203,34.180,25.391,37.109,34.668,0
1583437739.223,36.133,37.109,51.758,41.016,51.270,0
1583437739.227,31.250,40.039,46.387,39.551,41.992,0
1583437739.230,42.969,35.156,41.992,44.922,71.777,0
1583437739.234,43.945,33.691,57.129,40.527,115.234,0
1583437739.238,34.668,34.668,48.340,30.273,57.129,0
1583437739.242,37.598,27.832,25.391,34.668,32.715,0
1583437739.246,39.062,18.066,23.926,34.180,56.641,0
1583437739.264,33.691,34.180,27.344,30.762,28.320,0
1583437739.268,34.180,49.316,32.715,29.785,17.578,0
1583437739.272,33.691,49.805,44.922,30.762,19.043,0
1583437739.276,37.109,52.734,47.852,38.574,1.953,0
1583437739.280,36.133,46.387,45.898,31.250,-6.348,0
1583437739.284,28.809,31.250,36.621,22.461,16.113,0
1583437739.288,29.297,24.414,38.086,26.367,35.645,0
1583437739.291,32.715,35.156,24.414,28.809,-2.441,0
1583437739.295,36.133,42.480,8.789,33.691,27.344,0
1583437739.299,36.621,34.668,32.715,29.297,57.129,0
1583437739.303,39.551,28.320,50.781,28.809,43.945,0
1583437739.307,41.016,31.250,50.293,35.645,58.594,0
1583437739.283,39.551,31.738,42.969,34.180,55.176,0
1583437739.287,36.133,29.297,35.156,29.785,35.645,0
1583437739.291,38.086,40.039,46.875,29.297,13.184,0
1583437739.295,36.621,50.781,45.410,30.273,38.086,0
1583437739.299,33.691,39.551,20.508,27.832,78.613,0
1583437739.303,35.645,34.668,19.043,28.320,71.289,0
1583437739.307,35.156,38.574,32.227,30.273,27.832,0
1583437739.310,31.250,34.180,44.434,31.738,41.992,0
1583437739.314,31.250,30.762,51.758,29.785,64.941,0
1583437739.318,32.227,31.250,39.551,26.367,75.195,0
1583437739.322,30.762,41.016,30.762,26.855,27.344,0
1583437739.326,28.320,48.340,28.320,26.855,-30.762,0
1583437739.343,27.832,35.645,27.832,28.320,56.641,0
1583437739.347,33.691,35.156,43.457,29.785,46.387,0
1583437739.351,26.855,42.969,40.039,25.391,8.789,0
1583437739.355,29.297,35.645,21.484,26.367,30.762,0
1583437739.359,35.645,23.926,21.973,31.250,53.711,0
1583437739.363,29.297,35.645,30.273,27.832,34.668,0
1583437739.367,24.414,48.340,24.414,15.625,4.883,0
1583437739.370,28.809,46.387,30.273,18.066,62.500,0
1583437739.374,28.320,38.574,49.316,23.926,14.160,0
1583437739.378,26.855,43.945,45.898,24.902,-30.762,0
1583437739.382,33.203,48.828,44.922,25.879,24.902,0
1583437739.386,23.438,35.156,36.133,17.578,13.672,0
1583437739.383,20.020,30.273,21.973,21.973,-11.230,0
1583437739.387,21.484,39.062,24.414,27.344,32.227,0
1583437739.391,21.484,37.598,36.621,25.879,51.758,0
1583437739.395,24.414,33.203,29.297,22.461,-10.254,0
1583437739.399,25.879,38.086,37.109,21.973,11.719,0
1583437739.403,24.902,41.504,49.316,24.902,78.613,0
1583437739.407,27.832,44.434,35.156,25.391,57.129,0
1583437739.410,27.344,35.645,21.973,23.926,51.758,0
1583437739.414,25.391,25.879,21.973,26.855,58.594,0
1583437739.418,19.531,36.133,35.156,21.484,69.824,0
1583437739.422,22.949,45.410,37.598,21.484,95.215,0
1583437739.426,25.879,35.645,27.344,28.809,54.199,0
1583437739.423,16.113,20.996,31.250,23.438,38.086,0
1583437739.427,18.555,27.832,31.250,25.879,35.156,0
1583437739.431,13.672,43.457,18.066,23.926,-2.930,0
1583437739.435,7.324,49.316,17.578,17.578,-1.953,0
1583437739.439,9.766,43.945,25.879,17.090,1.953,0
1583437739.443,20.020,41.016,30.762,24.902,18.555,0
1583437739.447,19.043,36.133,32.715,31.738,14.648,0
1583437739.450,16.113,25.391,32.227,28.320,-4.883,0
1583437739.454,24.414,21.973,24.414,25.879,58.105,0
1583437739.458,28.320,24.414,27.832,29.297,55.664,0
1583437739.462,27.344,33.691,41.016,27.344,9.766,0
1583437739.466,24.414,43.457,31.738,25.879,15.137,0
1583437739.484,30.762,47.363,20.996,31.250,18.555,0
1583437739.488,31.738,39.062,8.789,26.367,13.184,0
1583437739.492,35.645,44.922,13.672,28.809,19.043,0
1583437739.496,41.504,41.992,32.715,34.668,-1.953,0
1583437739.500,29.785,27.344,36.621,27.832,3.418,0
1583437739.504,28.320,27.832,35.645,25.879,81.543,0
1583437739.508,28.320,29.785,36.133,23.926,32.715,0
1583437739.511,25.879,29.297,39.062,27.344,-41.504,0
1583437739.515,39.551,31.738,25.879,35.645,59.570,0
1583437739.519,44.434,44.922,22.461,33.203,62.500,0
1583437739.523,31.738,42.969,7.324,30.762,38.086,0
1583437739.527,33.691,46.875,6.836,37.598,47.363,0
1583437739.523,42.480,43.945,46.875,39.551,36.621,0
1583437739.527,39.062,29.297,42.969,29.297,31.250,0
1583437739.531,41.992,37.109,26.367,27.832,16.113,0
1583437739.535,39.551,43.457,16.113,32.227,40.039,0
1583437739.539,30.762,43.457,15.625,28.809,62.012,0
1583437739.543,26.855,41.016,29.785,20.996,2.441,0
1583437739.547,23.926,29.785,35.645,20.508,23.926,0
1583437739.550,23.438,19.531,29.297,25.391,62.500,0
1583437739.554,23.926,33.203,21.973,24.414,59.082,0
1583437739.558,20.996,39.551,24.414,8.789,15.625,0
1583437739.562,28.809,37.598,37.598,14.648,26.367,0
1583437739.566,31.250,33.203,32.715,26.855,53.711,0
1583437739.563,24.414,24.902,26.855,20.508,35.645,0
1583437739.567,29.297,31.738,21.484,24.414,40.527,0
1583437739.571,27.832,36.133,13.672,23.926,24.902,0
1583437739.575,28.809,21.484,14.160,25.879,34.180,0
1583437739.579,31.250,20.020,8.301,32.227,43.457,0
1583437739.583,31.738,43.457,24.414,30.273,49.805,0
1583437739.587,36.621,55.664,36.133,29.297,61.523,0
1583437739.590,28.320,43.457,37.598,20.996,-11.230,0
1583437739.594,24.414,34.668,37.598,11.230,-21.973,0
1583437739.598,31.738,36.133,26.367,19.531,13.184,0
1583437739.602,32.227,39.551,23.438,26.367,15.137,0
1583437739.606,35.156,31.250,18.555,27.832,-20.996,0
1583437739.624,41.992,18.066,2.441,32.715,-14.648,0
1583437739.628,39.062,32.715,13.184,36.133,105.957,0
1583437739.632,32.715,31.738,27.344,31.250,117.676,0
1583437739.636,36.133,28.320,30.273,34.180,32.227,0
1583437739.640,38.574,36.133,36.621,40.039,16.602,0
1583437739.644,29.297,32.715,27.832,34.668,16.113,0
1583437739.648,28.320,35.156,23.926,33.203,27.832,0
1583437739.651,34.668,31.250,26.855,35.645,55.664,0
1583437739.655,33.691,29.785,20.020,35.156,102.051,0
1583437739.659,37.109,39.551,22.461,37.598,83.496,0
1583437739.663,37.598,38.574,30.762,38.574,85.449,0
1583437739.667,34.180,36.621,28.809,34.668,84.961,0
1583437739.663,41.016,41.504,30.273,41.504,35.156,0
1583437739.667,35.156,27.344,21.973,41.992,-19.531,0
1583437739.671,34.668,23.926,17.090,37.109,11.230,0
1583437739.675,33.691,35.156,25.391,35.645,24.414,0
1583437739.679,33.691,31.738,30.762,39.062,-1.465,0
1583437739.683,36.621,34.668,29.785,39.551,62.012,0
1583437739.687,34.668,37.598,39.551,35.645,62.500,0
1583437739.690,40.527,35.156,31.250,35.156,9.766,0
1583437739.694,40.527,42.969,18.066,34.668,10.254,0
1583437739.698,32.227,37.598,31.738,27.832,11.719,0
1583437739.702,32.227,40.527,53.223,30.762,97.656,0
1583437739.706,35.156,36.621,50.293,35.156,85.449,0
1583437739.705,33.203,20.020,31.738,25.879,20.508,0
1583437739.709,30.273,19.531,35.156,25.391,27.832,0
1583437739.713,23.926,22.461,35.156,29.297,68.359,0
1583437739.717,22.949,27.832,37.109,24.902,41.992,0
1583437739.721,26.367,38.086,53.711,23.438,-16.113,0
1583437739.725,22.461,36.133,41.504,23.926,-8.301,0
1583437739.729,19.531,33.691,28.809,25.879,2.441,0
1583437739.732,24.902,45.410,38.574,30.273,-4.883,0
1583437739.736,17.090,36.621,43.457,18.066,3.906,0
1583437739.740,14.160,26.855,49.316,15.137,28.320,0
1583437739.744,18.555,30.273,42.480,21.484,-9.277,0
1583437739.748,19.043,33.203,38.574,26.367,-28.320,0
1583437739.763,20.996,27.344,44.434,28.320,-18.066,0
1583437739.767,30.273,18.555,44.922,31.738,5.371,0
1583437739.771,41.016,34.668,33.691,33.203,60.547,0
1583437739.775,24.902,45.410,19.043,13.672,38.086,0
1583437739.779,18.555,39.062,33.691,6.348,18.066,0
1583437739.783,31.250,41.504,47.852,16.113,19.043,0
1583437739.787,29.785,43.457,44.922,14.648,-1.953,0
1583437739.790,25.391,35.156,37.598,17.578,1.465,0
1583437739.794,32.715,27.344,31.738,25.879,83.984,0
1583437739.798,30.762,40.527,30.273,28.320,81.543,0
1583437739.802,25.879,48.828,36.621,25.391,83.008,0
1583437739.806,37.598,44.434,25.879,29.297,96.680,0
1583437739.804,44.922,44.434,24.902,36.133,30.273,0
1583437739.808,37.109,43.457,46.387,26.367,83.496,0
1583437739.812,43.945,31.738,60.059,30.762,62.012,0
1583437739.816,47.363,27.832,59.570,44.434,37.598,0
1583437739.820,31.250,34.668,41.504,38.086,85.938,0
1583437739.824,29.297,35.645,27.832,36.621,39.551,0
1583437739.828,30.762,35.156,31.738,35.156,2.441,0
1583437739.831,21.973,40.527,35.645,31.250,26.855,0
1583437739.835,21.973,46.387,33.203,34.180,8.301,0
1583437739.839,20.996,49.316,39.062,28.320,0.000,0
1583437739.843,22.461,37.598,45.410,22.461,19.531,0
1583437739.847,30.762,34.668,44.434,26.855,16.113,0
1583437739.843,20.020,39.062,36.133,28.320,6.348,0
1583437739.847,16.113,24.902,41.016,27.832,18.066,0
1583437739.851,22.949,29.297,34.180,21.973,3.906,0
1583437739.855,25.391,35.156,20.020,19.531,-11.719,0
1583437739.859,25.391,34.180,33.691,23.926,5.371,0
1583437739.863,27.344,45.410,51.270,25.879,27.832,0
1583437739.867,27.344,47.852,53.223,23.438,29.785,0
1583437739.870,23.926,38.086,43.945,16.602,52.246,0
1583437739.874,25.391,31.738,38.574,21.484,86.914,0
1583437739.878,29.297,40.527,40.527,34.180,28.809,0
1583437739.882,25.879,32.715,40.039,28.320,3.906,0
1583437739.886,22.949,15.137,42.480,23.926,32.715,0
1583437739.903,27.832,18.555,46.387,28.809,12.207,0
1583437739.907,32.227,31.738,35.156,30.273,0.977,0
1583437739.911,35.156,39.062,20.020,28.809,10.254,0
1583437739.915,31.738,45.410,28.320,25.879,19.531,0
1583437739.919,30.762,44.922,40.527,26.367,54.199,0
1583437739.923,25.879,31.738,40.527,21.484,51.270,0
1583437739.927,28.809,30.273,46.387,21.973,95.703,0
1583437739.930,43.457,36.133,41.016,32.227,83.984,0
1583437739.934,40.527,24.902,32.715,29.785,34.180,0
1583437739.938,34.180,24.902,40.039,27.344,44.922,0
1583437739.942,29.785,39.062,49.316,25.879,11.719,0
1583437739.946,31.250,35.156,32.715,25.879,24.414,0
1583437739.944,34.668,26.367,13.184,27.832,24.902,0
1583437739.948,33.691,36.621,36.133,28.809,23.926,0
1583437739.952,31.250,35.645,55.176,28.320,10.254,0
1583437739.956,33.203,23.926,45.898,28.809,-12.207,0
1583437739.960,42.969,29.297,42.969,36.621,62.988,0
1583437739.964,36.621,28.320,39.062,38.086,108.887,0
1583437739.968,27.832,16.602,29.785,33.691,63.477,0
1583437739.971,27.832,21.973,34.668,31.738,21.973,0
1583437739.975,27.344,34.668,34.668,30.273,28.809,0
1583437739.979,30.273,37.598,32.715,29.785,26.367,0
1583437739.983,30.273,39.062,42.480,34.180,-9.766,0
1583437739.987,31.250,37.109,42.969,33.691,-8.789,0
1583437739.984,26.367,25.391,30.273,26.367,-15.137,0
1583437739.988,33.691,24.902,41.016,34.668,0.977,0
1583437739.992,33.691,20.020,41.992,32.227,27.344,0
1583437739.996,32.715,16.113,38.086,26.367,35.156,0
1583437740.000,38.574,28.809,48.828,31.250,63.477,0
1583437740.004,31.738,27.344,39.551,27.344,44.434,0
1583437740.008,31.250,28.320,32.227,28.809,35.645,0
1583437740.011,31.738,28.809,31.250,26.855,16.113,0
1583437740.015,34.668,19.043,24.414,24.414,41.016,0
1583437740.019,34.668,25.879,20.996,25.879,53.223,0
1583437740.023,38.574,41.504,35.156,29.297,3.906,0
1583437740.027,41.992,30.273,50.293,32.715,-14.648,0
1583437740.044,37.109,23.926,46.387,29.297,22.949,0
1583437740.048,32.227,35.156,52.246,26.855,38.086,0
1583437740.052,32.715,25.391,54.199,25.879,50.781,0
1583437740.056,32.715,18.555,46.387,30.762,26.367,0
1583437740.060,27.344,22.461,37.109,31.738,14.160,0
1583437740.064,32.715,27.344,38.086,28.809,30.273,0
1583437740.068,31.250,23.926,31.250,24.902,14.648,0
1583437740.071,34.668,26.855,17.090,32.715,16.113,0
1583437740.075,43.457,40.039,34.180,44.922,8.789,0
1583437740.079,40.527,31.250,56.641,38.086,24.414,0
1583437740.083,35.156,21.484,33.203,25.391,55.176,0
1583437740.087,31.738,24.414,8.301,28.320,46.875,0
1583437740.083,30.762,30.273,33.203,35.645,38.086,0
1583437740.087,23.926,30.762,60.547,29.297,68.359,0
1583437740.091,20.996,23.926,62.500,27.344,38.086,0
1583437740.095,22.949,19.531,47.852,31.738,-4.395,0
1583437740.099,28.320,20.508,42.969,36.621,-0.977,0
1583437740.103,39.551,26.367,49.805,43.945,13.672,0
1583437740.107,37.109,29.297,44.434,40.527,12.695,0
1583437740.110,33.691,22.461,15.137,34.668,12.695,0
1583437740.114,33.691,30.273,10.254,33.203,34.180,0
1583437740.118,29.297,37.109,41.992,30.762,48.340,0
1583437740.122,31.738,25.879,56.152,30.762,10.254,0
1583437740.126,30.762,22.461,55.176,29.297,18.066,0
1583437740.143,36.133,30.762,45.410,35.156,67.383,0
1583437740.147,37.598,29.297,34.668,35.156,65.430,0
1583437740.151,36.621,34.668,39.551,33.203,42.480,0
1583437740.155,40.039,43.457,52.246,34.180,65.430,0
1583437740.159,34.180,36.621,43.945,28.809,74.707,0
1583437740.163,30.762,29.297,28.809,29.785,41.016,0
1583437740.167,32.715,20.020,19.531,28.320,61.523,0
1583437740.170,38.086,18.066,27.832,26.367,47.363,0
1583437740.174,38.574,29.297,51.758,31.250,31.738,0
1583437740.178,31.738,36.621,52.246,30.762,35.156,0
1583437740.182,32.227,36.621,48.340,30.273,44.922,0
1583437740.186,35.645,36.621,42.969,30.762,64.941,0
1583437740.183,29.297,31.250,30.273,23.926,42.969,0
1583437740.187,32.715,40.527,42.480,32.227,78.125,0
1583437740.191,35.156,46.875,48.340,38.086,77.148,0
1583437740.195,30.762,38.086,34.668,28.320,37.598,0
1583437740.199,31.738,35.645,21.484,22.461,5.371,0
1583437740.203,32.227,26.855,36.133,29.297,6.836,0
1583437740.207,31.738,18.555,48.340,36.133,47.852,0
1583437740.210,25.879,26.367,28.320,29.785,29.785,0
1583437740.214,27.344,30.273,31.250,26.855,26.367,0
1583437740.218,32.227,23.438,39.062,26.367,29.785,0
1583437740.222,35.645,31.250,44.922,29.297,11.230,0
1583437740.226,42.480,39.551,49.805,37.109,43.457,0
1583437740.223,33.203,29.297,43.945,28.320,28.809,0
1583437740.227,25.391,23.926,21.973,22.461,11.230,0
1583437740.231,36.133,22.949,2.441,33.203,67.871,0
1583437740.235,38.574,32.227,30.273,32.715,43.457,0
1583437740.239,20.508,37.109,49.316,16.113,-5.371,0
1583437740.243,11.719,33.203,41.992,13.672,-28.320,0
1583437740.247,20.508,28.320,45.898,23.438,4.883,0
1583437740.250,27.832,19.043,43.457,23.438,50.293,0
1583437740.254,25.391,20.996,34.180,19.043,80.566,0
1583437740.258,33.691,33.691,45.410,26.855,89.355,0
1583437740.262,33.691,31.250,36.621,34.180,27.344,0
1583437740.266,22.949,20.508,18.555,37.109,7.812,0
1583437740.283,30.762,25.391,41.992,42.480,54.199,0
1583437740.287,32.227,27.344,56.641,37.598,33.691,0
1583437740.291,33.203,19.531,56.152,37.598,21.484,0
1583437740.295,35.156,18.555,43.457,41.504,57.129,0
1583437740.299,33.203,24.902,33.691,37.598,70.801,0
1583437740.303,28.809,15.625,40.527,31.250,93.750,0
1583437740.307,24.902,18.555,44.434,26.367,82.520,0
1583437740.310,30.273,40.039,48.828,24.902,26.855,0
1583437740.314,31.738,38.574,39.551,25.879,51.758,0
1583437740.318,34.180,30.273,11.719,29.785,41.992,0
1583437740.322,45.410,31.738,25.879,39.551,37.109,0
1583437740.326,38.574,22.461,37.109,38.086,66.406,0
1583437740.323,32.227,18.066,23.926,32.227,14.648,0
1583437740.327,43.457,20.996,34.180,34.668,15.137,0
1583437740.331,45.410,31.250,48.828,36.621,6.348,0
1583437740.335,33.203,29.785,51.758,34.668,43.457,0
1583437740.339,31.250,20.508,40.527,34.668,109.375,0
1583437740.343,31.250,30.762,42.480,34.668,28.320,0
1583437740.347,31.250,35.645,37.109,28.809,-18.555,0
1583437740.350,31.250,30.762,24.414,27.344,43.945,0
1583437740.354,24.902,20.020,24.902,23.438,63.965,0
1583437740.358,26.855,21.484,35.156,26.367,56.641,0
1583437740.362,33.203,24.902,42.969,26.855,30.762,0
1583437740.366,28.320,19.531,32.227,17.578,22.461,0
1583437740.363,28.809,28.320,29.785,25.879,9.766,0
1583437740.367,31.738,26.855,40.039,28.809,11.719,0
1583437740.371,32.227,19.531,43.945,30.762,6.836,0
1583437740.375,40.039,19.043,20.996,34.668,37.598,0
1583437740.379,38.086,26.855,19.531,39.551,62.988,0
1583437740.383,30.762,32.715,40.527,43.945,70.312,0
1583437740.387,32.715,36.133,28.320,42.480,52.246,0
1583437740.390,35.645,40.039,19.531,43.457,-17.578,0
1583437740.394,31.250,33.203,28.809,33.203,-4.883,0
1583437740.398,27.344,35.156,42.969,30.762,0.977,0
1583437740.402,32.715,39.062,58.594,40.527,35.645,0
1583437740.406,27.832,26.367,57.617,31.738,48.340,0
1583437740.423,23.438,12.695,43.945,26.367,65.430,0
1583437740.427,23.926,15.137,33.203,32.227,55.664,0
1583437740.431,27.344,24.902,19.531,33.203,33.691,0
1583437740.435,28.809,16.602,2.930,27.832,20.508,0
1583437740.439,34.668,24.902,24.414,24.902,25.391,0
1583437740.443,34.180,42.480,46.387,25.879,47.852,0
1583437740.447,26.367,39.062,41.504,26.367,43.457,0
1583437740.450,33.203,37.598,39.062,23.926,35.156,0
1583437740.454,31.738,33.691,38.574,20.508,-22.949,0
1583437740.458,32.715,37.109,47.363,29.785,11.719,0
1583437740.462,35.156,34.180,46.875,36.621,43.457,0
1583437740.466,33.203,20.996,34.668,30.273,-3.418,0
1583437740.463,35.645,23.926,32.715,22.949,34.668,0
1583437740.467,32.715,30.762,22.461,22.949,25.879,0
1583437740.471,36.621,27.344,13.672,32.715,-2.930,0
1583437740.475,42.480,25.879,8.789,36.133,42.480,0
1583437740.479,33.203,21.973,30.762,34.180,58.594,0
1583437740.483,26.855,31.738,56.152,30.273,18.066,0
1583437740.487,29.785,38.574,52.734,32.715,43.945,0
1583437740.490,34.668,40.039,50.293,41.504,70.801,0
1583437740.494,31.250,43.945,42.969,32.227,-21.484,0
1583437740.498,28.809,37.598,42.480,28.320,-48.828,0
1583437740.502,24.902,34.668,44.922,30.762,48.828,0
1583437740.506,28.320,23.438,34.180,43.457,98.145,0
1583437740.503,39.551,29.297,27.832,55.176,41.016,0
1583437740.507,23.438,35.645,18.066,28.320,20.020,0
1583437740.511,8.301,32.715,21.973,7.812,36.621,0
1583437740.515,5.859,38.574,30.273,3.906,26.367,0
1583437740.519,6.348,40.039,27.344,-0.488,-0.977,0
1583437740.523,7.812,41.992,23.438,-6.348,47.852,0
1583437740.527,5.371,38.086,22.461,-7.324,90.332,0
1583437740.530,-6.836,41.016,7.812,-15.137,62.012,0
1583437740.534,2.441,48.828,2.441,-15.625,34.668,0
1583437740.538,12.695,50.293,8.789,-8.301,14.648,0
1583437740.542,2.441,53.223,0.000,-11.230,-20.996,0
1583437740.546,7.812,45.410,-4.395,-7.812,-38.574,0
1583437740.563,8.789,39.062,10.254,-4.883,15.625,0
1583437740.567,8.301,46.875,32.715,-4.883,46.875,0
1583437740.571,14.648,48.828,34.668,-0.488,68.848,0
1583437740.575,17.578,53.711,27.344,7.324,63.965,0
1583437740.579,18.555,45.410,20.996,7.324,22.461,0
1583437740.583,20.508,26.855,20.996,4.883,34.668,0
1583437740.587,26.367,36.133,28.320,7.324,9.766,0
1583437740.590,22.461,52.734,20.996,10.742,-2.441,0
1583437740.594,20.996,50.781,4.395,15.625,69.336,0
1583437740.598,23.438,34.668,1.465,18.066,58.594,0
1583437740.602,26.855,36.133,20.996,20.020,41.504,0
1583437740.606,30.762,41.504,29.785,14.648,0.977,0
1583437740.604,29.297,40.527,29.785,12.695,28.320,0
1583437740.608,30.762,46.875,37.598,18.555,124.023,0
1583437740.612,32.715,40.527,37.109,17.090,87.402,0
1583437740.616,28.320,29.297,32.227,17.578,8.301,0
1583437740.620,24.902,22.461,33.691,21.484,27.832,0
1583437740.624,36.133,37.598,32.227,35.156,107.910,0
1583437740.628,34.180,39.551,10.742,39.551,59.570,0
1583437740.631,15.137,25.879,6.348,38.086,-20.020,0
1583437740.635,11.719,38.086,25.391,39.551,-9.277,0
1583437740.639,15.137,47.363,42.480,36.621,-2.441,0
1583437740.643,16.113,39.062,49.316,28.809,-24.902,0
1583437740.647,22.949,34.180,40.527,27.344,-16.602,0
1583437740.644,30.762,39.551,31.250,35.156,65.918,0
1583437740.648,32.227,37.598,37.598,36.621,41.016,0
1583437740.652,30.273,27.832,38.574,29.785,18.555,0
1583437740.656,29.785,13.672,30.273,26.367,31.250,0
1583437740.660,30.273,12.695,35.156,29.785,65.918,0
1583437740.664,40.527,33.203,34.668,43.945,62.988,0
1583437740.668,41.504,52.734,25.879,44.922,24.902,0
1583437740.671,37.598,51.270,35.156,34.180,-8.789,0
1583437740.675,34.668,43.457,29.297,26.855,4.883,0
1583437740.679,28.809,40.039,24.902,26.855,28.320,0
1583437740.683,29.297,40.039,46.875,30.762,14.648,0
1583437740.687,29.297,37.109,47.363,27.832,20.020,0
1583437740.704,31.738,31.250,41.504,27.344,34.180,0
1583437740.708,35.645,22.949,24.902,25.879,69.336,0
1583437740.712,38.086,16.113,17.090,27.832,77.637,0
1583437740.716,39.551,42.969,34.180,35.156,56.641,0
1583437740.720,35.156,56.641,26.367,28.320,62.500,0
1583437740.724,34.668,52.734,16.602,30.762,55.664,0
1583437740.728,43.457,58.105,35.156,38.086,51.758,0
1583437740.731,32.227,41.992,47.852,27.832,20.020,0
1583437740.735,24.414,30.762,51.758,23.438,7.812,0
1583437740.739,27.344,30.762,42.480,25.391,13.184,0
1583437740.743,25.391,26.367,34.668,28.809,33.203,0
1583437740.747,29.297,30.762,42.480,28.320,33.203,0
1583437740.743,29.785,21.484,37.109,26.367,0.000,0
1583437740.747,30.273,18.066,29.297,24.902,-7.812,0
1583437740.751,32.227,34.668,34.668,27.832,13.184,0
1583437740.755,27.832,44.434,44.922,34.180,28.320,0
1583437740.759,26.855,52.246,41.016,29.785,92.773,0
1583437740.763,27.832,50.293,23.438,22.461,83.984,0
1583437740.767,35.156,48.828,33.691,33.691,23.438,0
1583437740.770,38.574,41.016,48.828,33.691,67.871,0
1583437740.774,39.062,35.645,50.293,26.855,30.273,0
1583437740.778,32.227,27.832,38.574,20.508,32.227,0
1583437740.782,24.414,29.297,29.297,13.184,26.855,0
1583437740.786,29.785,25.391,31.738,26.855,-42.969,0
1583437740.784,30.273,29.297,35.645,33.203,13.184,0
1583437740.788,27.832,48.828,44.922,26.855,13.672,0
1583437740.792,31.250,41.504,45.410,25.879,30.762,0
1583437740.796,35.645,36.133,41.016,29.297,38.574,0
1583437740.800,33.691,41.992,43.457,28.809,-29.297,0
1583437740.804,23.438,36.133,41.016,23.926,-10.742,0
1583437740.808,30.273,39.551,34.668,31.250,0.000,0
1583437740.811,35.156,38.574,42.480,36.133,46.387,0
1583437740.815,23.438,22.949,33.203,25.879,73.730,0
1583437740.819,26.855,26.855,28.809,27.832,41.992,0
1583437740.823,31.738,30.273,38.574,27.832,32.715,0
1583437740.827,31.250,38.574,33.691,25.879,20.508,0
1583437740.843,31.250,44.922,40.527,27.832,1.465,0
1583437740.847,29.785,34.668,52.246,24.414,-21.973,0
1583437740.851,30.273,27.832,52.734,24.414,11.719,0
1583437740.855,31.250,36.621,47.852,32.227,10.742,0
1583437740.859,44.434,41.992,41.992,48.828,54.688,0
1583437740.863,47.363,37.598,40.039,52.246,50.293,0
1583437740.867,29.785,36.621,41.504,33.691,18.066,0
1583437740.870,22.461,37.109,37.598,29.785,63.477,0
1583437740.874,33.203,42.480,35.156,44.434,47.363,0
1583437740.878,31.250,34.668,50.293,46.387,7.812,0
1583437740.882,17.090,16.113,60.547,37.109,70.312,0
1583437740.886,19.043,11.719,53.223,34.668,67.383,0
1583437740.884,28.320,27.832,39.551,43.945,-31.250,0
1583437740.888,31.250,38.086,43.945,48.828,18.066,0
1583437740.892,31.738,34.668,63.965,43.945,28.809,0
1583437740.896,30.273,23.926,58.594,38.086,-11.230,0
1583437740.900,29.297,26.367,44.434,34.668,-1.465,0
1583437740.904,31.738,25.391,44.922,35.156,59.082,0
1583437740.908,34.668,22.949,40.039,38.574,103.516,0
1583437740.911,33.203,28.809,38.086,36.133,83.008,0
1583437740.915,30.273,36.133,43.945,30.762,97.168,0
1583437740.919,37.109,39.062,53.711,35.645,26.855,0
1583437740.923,34.180,20.020,43.945,36.621,-4.883,0
1583437740.927,31.738,23.926,26.367,31.738,57.129,0
1583437740.923,35.156,42.480,38.574,33.691,121.582,0
1583437740.927,33.691,39.062,35.645,35.156,78.125,0
1583437740.931,35.156,39.062,30.762,29.785,12.695,0
1583437740.935,34.180,39.551,47.363,29.297,42.480,0
1583437740.939,33.203,31.250,57.617,28.809,28.320,0
1583437740.943,35.156,26.855,57.617,28.320,-11.719,0
1583437740.947,32.715,33.203,56.152,29.297,-26.855,0
1583437740.950,34.180,39.551,48.828,26.367,41.016,0
1583437740.954,31.738,27.832,35.156,17.578,52.246,0
1583437740.958,27.344,31.738,39.062,22.461,-4.883,0
1583437740.962,37.598,44.434,46.875,41.504,-18.555,0
1583437740.966,36.133,29.785,32.715,39.551,28.809,0
1583437740.983,29.297,28.809,31.738,28.809,74.219,0
1583437740.987,29.297,40.527,42.969,25.879,24.902,0
1583437740.991,27.344,39.551,32.715,24.902,15.625,0
1583437740.995,22.461,39.062,36.133,25.391,35.645,0
1583437740.999,23.926,38.574,39.551,26.367,71.289,0
1583437741.003,28.809,37.109,36.133,29.785,100.586,0
1583437741.007,29.785,39.551,38.574,30.273,55.176,0
1583437741.010,30.762,45.898,36.133,31.738,38.574,0
1583437741.014,30.273,33.691,43.457,31.250,33.691,0
1583437741.018,34.668,29.785,43.457,30.762,12.695,0
1583437741.022,35.645,42.969,33.203,31.250,0.977,0
1583437741.026,34.180,34.668,29.297,31.738,-2.441,0
1583437741.023,38.086,34.668,35.156,38.086,-7.324,0
1583437741.027,34.668,36.621,38.574,35.645,29.297,0
1583437741.031,33.203,30.762,32.227,35.645,30.762,0
1583437741.035,35.156,33.691,30.273,40.527,19.043,0
1583437741.039,39.551,32.227,36.621,41.992,12.695,0
1583437741.043,43.457,33.203,41.016,41.992,14.648,0
1583437741.047,43.457,52.734,43.457,41.016,11.230,0
1583437741.050,44.922,52.734,47.363,40.039,83.008,0
1583437741.054,47.363,30.762,44.922,44.922,87.891,0
1583437741.058,43.457,26.367,42.969,36.621,20.996,0
1583437741.062,41.992,40.039,44.434,27.344,77.637,0
1583437741.066,45.898,46.875,30.273,37.598,70.801,0
1583437741.063,44.434,41.016,22.949,40.527,4.395,0
1583437741.067,47.363,44.434,39.062,41.992,25.391,0
1583437741.071,58.594,48.340,22.461,46.875,67.871,0
1583437741.075,59.570,29.785,11.719,54.688,55.176,0
1583437741.079,40.039,25.879,44.434,49.805,51.758,0
1583437741.083,22.461,39.062,62.988,32.715,24.902,0
1583437741.087,25.879,40.039,59.570,35.645,-5.859,0
1583437741.090,29.297,34.180,48.828,39.551,14.648,0
1583437741.094,29.297,32.227,40.039,38.086,10.742,0
1583437741.098,35.645,35.645,43.945,43.457,33.691,0
1583437741.102,33.691,21.484,48.828,35.156,32.227,0
1583437741.106,32.715,22.461,49.316,32.715,19.043,0
1583437741.123,30.762,40.039,46.875,33.203,44.434,0
1583437741.127,33.203,42.969,41.992,36.621,62.500,0
1583437741.131,38.574,46.387,38.574,42.480,31.250,0
1583437741.135,32.227,44.434,20.508,34.180,15.137,0
1583437741.139,30.273,41.992,19.531,37.598,51.270,0
1583437741.143,34.180,35.156,45.898,38.574,59.570,0
1583437741.147,32.715,33.203,46.875,32.227,63.965,0
1583437741.150,29.297,30.762,37.109,33.691,103.516,0
1583437741.154,32.715,24.414,51.270,40.039,94.238,0
1583437741.158,30.273,25.391,57.617,39.551,33.203,0
1583437741.162,21.484,33.691,51.758,31.250,66.406,0
1583437741.166,25.391,45.898,49.316,31.250,56.641,0
1583437741.183,23.438,46.387,39.551,27.344,69.336,0
1583437741.187,23.438,38.086,43.945,27.832,81.543,0
1583437741.191,30.273,37.598,39.551,35.156,13.184,0
1583437741.195,31.250,36.133,23.926,34.668,36.621,0
1583437741.199,32.227,28.809,29.785,36.133,57.129,0
1583437741.203,33.203,32.227,39.062,40.039,28.320,0
1583437741.207,32.715,39.551,41.504,39.551,-8.789,0
1583437741.210,33.203,37.109,42.969,38.574,-2.930,0
1583437741.214,31.738,38.086,44.434,34.180,54.688,0
1583437741.218,31.738,30.762,42.969,26.855,42.969,0
1583437741.222,34.668,29.785,42.969,28.320,10.742,0
1583437741.226,29.785,41.016,38.086,32.715,3.418,0
1583437741.203,35.645,41.504,35.156,37.598,35.645,0
1583437741.207,35.645,37.598,43.945,38.574,16.113,0
1583437741.211,21.484,33.691,44.922,31.250,23.926,0
1583437741.215,20.508,36.133,46.875,26.855,122.559,0
1583437741.219,25.391,38.086,48.340,23.438,83.496,0
1583437741.223,29.785,39.062,38.086,25.391,70.312,0
1583437741.227,30.762,41.504,33.691,30.762,90.820,0
1583437741.230,31.250,41.992,32.227,31.738,53.223,0
1583437741.234,30.273,41.504,36.133,28.320,60.059,0
1583437741.238,27.344,35.645,39.551,24.902,36.133,0
1583437741.242,25.879,25.391,30.273,27.344,10.254,0
1583437741.246,27.344,30.273,31.250,32.715,-38.574,0
1583437741.263,23.926,40.527,40.527,28.320,-29.297,0
1583437741.267,17.578,36.133,30.762,16.602,60.059,0
1583437741.271,25.879,34.668,23.926,27.832,33.691,0
1583437741.275,30.762,34.180,31.738,35.645,28.320,0
1583437741.279,27.344,36.133,39.551,29.785,57.129,0
1583437741.283,24.414,40.039,56.641,26.367,10.254,0
1583437741.287,23.438,38.086,47.852,22.949,7.324,0
1583437741.290,30.762,27.832,35.645,34.180,35.156,0
1583437741.294,34.668,25.391,45.898,40.527,14.648,0
1583437741.298,33.203,42.480,49.316,35.645,24.414,0
1583437741.302,33.691,47.852,37.109,37.109,35.645,0
1583437741.306,35.645,45.410,28.809,39.062,15.625,0
1583437741.303,35.156,35.645,33.691,39.551,47.852,0
1583437741.307,34.180,28.320,34.180,39.551,46.875,0
1583437741.311,33.691,41.992,38.086,37.598,6.348,0
1583437741.315,35.156,50.293,27.832,39.062,27.832,0
1583437741.319,35.156,46.387,21.484,38.574,36.621,0
1583437741.323,30.762,44.434,36.621,32.227,11.719,0
1583437741.327,28.809,37.109,41.016,31.250,19.043,0
1583437741.330,33.691,34.668,35.645,37.598,-5.859,0
1583437741.334,37.109,41.016,40.527,41.992,7.324,0
1583437741.338,29.785,38.574,53.223,27.832,62.500,0
1583437741.342,31.738,38.574,41.504,21.484,95.215,0
1583437741.346,32.227,38.574,11.719,29.297,107.422,0
1583437741.343,24.902,34.180,18.555,30.273,90.820,0
1583437741.347,23.438,38.086,42.480,26.367,24.414,0
1583437741.351,24.902,42.969,44.434,19.531,18.066,0
1583437741.355,21.973,37.598,41.992,19.043,4.883,0
1583437741.359,25.879,40.527,46.387,22.461,-16.113,0
1583437741.363,30.762,37.109,32.227,22.949,-61.523,0
1583437741.367,41.992,33.691,26.367,25.879,-20.996,0
1583437741.370,37.598,34.180,38.574,15.625,41.504,0
1583437741.374,25.879,41.016,33.203,14.160,54.199,0
1583437741.378,32.715,51.758,29.297,34.180,27.344,0
1583437741.382,23.438,32.715,34.668,37.109,6.348,0
1583437741.386,24.902,20.996,41.016,45.898,4.883,0
1583437741.403,33.203,35.156,46.875,44.434,38.574,0
1583437741.407,20.508,32.227,46.387,22.949,61.523,0
1583437741.411,17.090,23.438,36.621,18.555,49.805,0
1583437741.415,16.602,31.738,20.996,12.695,69.824,0
1583437741.419,15.137,45.410,20.996,3.906,20.020,0
1583437741.423,11.230,48.340,20.020,-5.371,-19.043,0
1583437741.427,6.836,46.875,20.020,-12.207,-23.438,0
1583437741.430,19.531,57.617,28.809,-2.441,35.645,0
1583437741.434,8.789,53.223,21.484,-10.254,31.250,0
1583437741.438,3.418,39.551,18.555,-13.184,100.586,0
1583437741.442,13.672,40.039,14.160,-3.906,119.629,0
1583437741.446,18.555,31.738,5.371,1.465,73.242,0
1583437741.443,17.090,25.879,8.789,-2.441,95.703,0
1583437741.447,9.766,49.316,17.578,-3.906,27.344,0
1583437741.451,9.766,61.523,18.555,3.418,-6.348,0
1583437741.455,16.602,50.781,19.043,4.395,36.621,0
1583437741.459,23.926,41.992,22.461,3.418,-13.672,0
1583437741.463,19.531,41.504,18.555,4.883,-10.742,0
1583437741.467,18.066,41.016,20.996,10.254,80.566,0
1583437741.470,32.227,44.922,40.527,16.602,85.938,0
1583437741.474,28.809,42.480,46.387,14.648,66.895,0
1583437741.478,22.461,36.133,34.180,4.395,14.160,0
1583437741.482,30.273,27.344,26.367,11.719,8.789,0
1583437741.486,36.133,22.461,27.832,25.879,41.504,0
1583437741.484,34.668,35.156,28.809,23.926,-2.930,0
1583437741.488,35.645,51.270,25.879,23.438,3.906,0
1583437741.492,39.062,53.223,16.113,31.738,12.695,0
1583437741.496,39.551,46.875,23.926,35.156,54.688,0
1583437741.500,40.039,42.969,35.645,32.227,56.152,0
1583437741.504,37.109,41.504,27.344,31.250,35.645,0
1583437741.508,31.738,36.133,35.645,28.809,59.082,0
1583437741.511,26.855,22.949,32.227,24.902,110.840,0
1583437741.515,29.785,20.020,17.090,26.855,119.629,0
1583437741.519,38.086,41.016,32.227,32.227,55.176,0
1583437741.523,33.691,37.109,39.062,30.273,39.551,0
1583437741.527,27.344,29.297,40.039,30.273,56.152,0
1583437741.543,28.320,41.016,30.273,34.180,50.293,0
1583437741.547,31.250,42.480,13.672,36.621,-32.715,0
1583437741.551,31.250,30.273,35.645,39.062,-47.363,0
1583437741.555,35.645,24.902,50.293,45.410,-6.836,0
1583437741.559,40.527,33.691,39.062,41.992,-15.625,0
1583437741.563,37.598,26.855,25.391,32.227,8.301,0
1583437741.567,34.668,20.508,17.578,27.344,19.043,0
1583437741.570,35.645,34.668,25.879,33.691,50.293,0
1583437741.574,35.156,35.156,38.086,39.062,64.453,0
1583437741.578,41.504,34.668,41.992,45.410,32.715,0
1583437741.582,42.480,31.250,35.156,43.945,1.953,0
1583437741.586,36.133,19.043,29.297,36.621,53.711,0
1583437741.583,41.016,27.344,32.715,40.527,111.328,0
1583437741.587,45.410,33.203,34.668,44.434,-0.488,0
1583437741.591,44.922,27.832,32.227,45.410,-31.250,0
1583437741.595,44.922,28.809,33.203,45.898,16.113,0
1583437741.599,46.387,30.273,38.086,45.410,18.066,0
1583437741.603,40.527,28.809,31.738,40.527,14.160,0
1583437741.607,38.574,31.250,37.109,35.156,0.488,0
1583437741.610,33.203,31.250,42.969,33.203,29.297,0
1583437741.614,30.762,31.738,19.531,30.762,41.016,0
1583437741.618,25.391,24.414,10.254,24.414,57.129,0
1583437741.622,29.297,25.391,38.574,29.785,28.320,0
1583437741.626,39.551,32.715,54.688,35.156,4.395,0
1583437741.643,34.668,27.344,40.527,32.715,16.602,0
1583437741.647,35.645,31.250,29.297,34.180,22.461,0
1583437741.651,33.203,34.180,20.996,29.297,4.883,0
1583437741.655,32.715,33.203,27.832,28.320,23.926,0
1583437741.659,37.109,34.668,47.363,33.203,57.617,0
1583437741.663,41.016,26.367,41.016,34.180,68.359,0
1583437741.667,37.109,35.156,29.297,31.738,53.711,0
1583437741.670,31.250,39.551,30.762,21.484,62.012,0
1583437741.674,39.062,34.180,43.457,24.902,23.926,0
1583437741.678,31.250,28.320,47.852,29.785,-27.344,0
1583437741.682,26.855,33.691,41.016,27.832,14.648,0
1583437741.686,38.574,48.340,36.621,36.133,38.574,0
1583437741.683,33.203,41.016,33.691,32.715,36.621,0
1583437741.687,24.902,34.668,40.039,29.297,8.789,0
1583437741.691,22.949,35.645,29.785,30.273,29.785,0
1583437741.695,22.461,29.297,10.254,27.832,73.242,0
1583437741.699,23.926,18.555,23.438,28.320,74.707,0
1583437741.703,18.066,20.508,46.387,25.879,67.383,0
1583437741.707,15.625,41.504,37.598,26.367,36.621,0
1583437741.710,22.461,44.434,32.227,25.879,62.988,0
1583437741.714,27.832,36.133,43.457,22.949,56.152,0
1583437741.718,30.762,39.062,48.340,29.785,-28.809,0
1583437741.722,26.367,38.574,39.062,29.297,-55.664,0
1583437741.726,25.391,28.320,38.574,20.508,-17.090,0
1583437741.724,23.926,23.438,37.109,17.090,20.508,0
1583437741.728,34.180,34.668,30.273,25.391,61.035,0
1583437741.732,36.133,42.480,34.180,30.762,45.898,0
1583437741.736,24.414,36.621,20.996,24.414,41.992,0
1583437741.740,26.367,37.598,18.066,20.996,77.637,0
1583437741.744,31.250,37.109,41.016,25.391,92.285,0
1583437741.748,32.715,26.367,34.180,33.203,104.004,0
1583437741.751,34.668,29.785,31.738,36.133,21.973,0
1583437741.755,35.156,39.062,47.852,26.367,-20.996,0
1583437741.759,30.273,38.574,41.992,20.508,11.230,0
1583437741.763,36.621,40.039,42.480,30.273,-21.484,0
1583437741.767,38.086,41.016,41.504,30.762,29.785,0
1583437741.783,36.621,41.504,25.879,31.250,87.402,0
1583437741.787,32.227,36.621,29.785,25.391,47.363,0
1583437741.791,21.973,31.738,46.875,21.484,53.223,0
1583437741.795,28.320,40.039,53.223,34.180,77.637,0
1583437741.799,22.461,36.133,46.875,28.320,21.484,0
1583437741.803,16.113,31.738,32.227,20.996,1.953,0
1583437741.807,16.602,33.203,20.996,18.555,-29.297,0
1583437741.810,6.348,30.273,35.156,4.883,-10.254,0
1583437741.814,8.789,25.391,34.668,5.371,71.289,0
1583437741.818,23.926,27.344,28.809,20.996,37.109,0
1583437741.822,14.648,30.762,30.273,20.996,22.949,0
1583437741.826,-8.789,32.227,33.691,5.371,76.660,0
1583437741.823,1.953,49.805,49.805,12.695,33.203,0
1583437741.827,3.906,42.969,61.035,12.695,6.348,0
1583437741.831,-6.836,25.391,58.105,0.488,24.414,0
1583437741.835,-4.395,27.344,36.133,2.930,11.719,0
1583437741.839,-2.441,25.391,41.016,4.395,24.414,0
1583437741.843,4.395,19.043,56.641,12.207,2.930,0
1583437741.847,-1.953,20.996,53.711,4.883,15.625,0
1583437741.850,-1.953,27.832,55.664,5.371,30.762,0
1583437741.854,6.836,27.832,64.941,17.090,-25.391,0
1583437741.858,1.953,23.926,54.199,10.254,37.109,0
1583437741.862,15.137,21.973,52.246,14.160,80.078,0
1583437741.866,16.602,23.438,57.617,13.672,23.926,0
1583437741.863,3.906,17.578,62.500,12.207,43.945,0
1583437741.867,6.836,18.555,69.824,19.531,53.223,0
1583437741.871,6.348,22.461,54.688,9.766,38.086,0
1583437741.875,13.672,20.996,55.176,11.719,29.297,0
1583437741.879,13.672,22.461,52.246,17.090,-12.207,0
1583437741.883,10.742,21.484,52.734,19.043,26.367,0
1583437741.887,27.344,26.855,49.805,29.297,43.457,0
1583437741.890,31.250,29.785,46.875,32.715,47.852,0
1583437741.894,17.090,16.602,54.688,26.855,81.055,0
1583437741.898,24.902,18.555,63.965,36.133,70.312,0
1583437741.902,27.832,25.879,65.430,38.574,62.988,0
1583437741.906,25.391,20.996,44.434,31.250,37.598,0
1583437741.923,33.203,25.879,47.363,38.086,32.227,0
1583437741.927,27.344,32.715,55.664,36.621,20.508,0
1583437741.931,30.273,27.344,47.852,39.551,39.062,0
1583437741.935,41.016,28.320,39.062,44.434,50.293,0
1583437741.939,38.574,38.574,41.504,44.434,40.527,0
1583437741.943,40.039,29.785,48.340,49.805,70.801,0
1583437741.947,40.527,22.461,42.480,47.363,31.250,0
1583437741.950,37.109,27.344,18.555,35.156,79.102,0
1583437741.954,43.457,27.344,8.301,40.527,46.387,0
1583437741.958,39.551,22.461,29.297,45.898,-15.625,0
1583437741.962,37.598,25.391,61.523,46.875,32.715,0
1583437741.966,31.738,33.691,68.848,36.133,-17.578,0
1583437741.964,6.348,33.203,48.828,11.719,-13.672,0
1583437741.968,3.906,24.902,31.738,9.766,69.336,0
1583437741.972,20.020,21.973,27.344,25.391,69.336,0
1583437741.976,26.855,34.180,34.668,33.691,51.758,0
1583437741.980,32.227,38.574,29.785,35.156,54.199,0
1583437741.984,37.109,37.598,23.926,38.086,48.340,0
1583437741.988,43.457,39.551,30.762,42.480,40.039,0
1583437741.991,43.945,31.738,37.109,40.527,25.391,0
1583437741.995,39.551,21.484,38.086,37.109,50.293,0
1583437741.999,40.039,24.902,40.527,39.062,51.270,0
1583437742.003,41.504,20.020,43.457,40.039,-4.395,0
1583437742.007,39.551,9.277,31.738,40.039,-13.184,0
1583437742.003,46.875,31.250,36.621,48.828,41.992,0
1583437742.007,50.293,45.898,49.805,45.410,13.184,0
1583437742.011,42.480,30.273,41.504,35.156,-43.945,0
1583437742.015,39.551,19.043,38.574,37.598,25.879,0
1583437742.019,38.574,23.438,32.227,35.645,29.785,0
1583437742.023,40.527,29.785,13.184,34.668,-5.859,0
1583437742.027,42.480,29.785,14.160,32.227,24.414,0
1583437742.030,41.992,31.738,37.598,32.715,26.367,0
1583437742.034,41.992,33.691,51.270,36.621,59.570,0
1583437742.038,39.062,33.691,40.039,29.297,72.754,0
1583437742.042,43.945,31.250,33.691,33.203,55.664,0
1583437742.046,52.246,28.320,38.574,48.340,81.543,0
1583437742.063,41.504,29.785,38.086,43.457,92.285,0
1583437742.067,24.902,26.855,26.855,32.715,49.805,0
1583437742.071,22.949,23.438,17.090,30.273,-7.812,0
1583437742.075,39.062,29.785,34.668,48.340,6.836,0
1583437742.079,41.504,34.668,51.270,56.152,16.113,0
1583437742.083,40.527,22.461,33.203,45.898,3.418,0
1583437742.087,43.457,19.043,26.855,40.039,11.719,0
1583437742.090,39.062,34.668,36.133,33.691,18.066,0
1583437742.094,43.457,37.598,44.434,42.480,13.672,0
1583437742.098,44.922,34.668,49.805,43.945,60.059,0
1583437742.102,46.387,37.598,36.133,40.039,44.922,0
1583437742.106,48.340,33.203,34.668,43.945,13.672,0
1583437742.103,47.852,36.133,44.434,47.852,59.570,0
1583437742.107,46.387,37.109,43.457,44.922,79.590,0
1583437742.111,42.969,28.320,29.297,36.621,0.488,0
1583437742.115,50.293,26.367,22.949,44.922,-22.461,0
1583437742.119,52.246,25.879,25.391,54.199,55.176,0
1583437742.123,39.551,30.273,18.555,45.898,70.312,0
1583437742.127,34.180,36.133,37.109,41.016,92.285,0
1583437742.130,30.273,32.227,53.223,41.504,51.270,0
1583437742.134,27.344,23.438,42.480,41.992,7.812,0
1583437742.138,30.273,24.902,37.598,41.992,19.531,0
1583437742.142,35.156,30.273,38.086,41.504,15.137,0
1583437742.146,41.016,27.344,32.227,42.480,-17.090,0
1583437742.143,41.016,28.809,36.621,47.852,-4.883,0
1583437742.147,41.992,34.668,44.922,53.711,54.688,0
1583437742.151,39.551,39.551,36.133,47.363,77.148,0
1583437742.155,43.457,41.504,31.250,41.016,41.016,0
1583437742.159,40.039,37.598,37.109,36.621,15.625,0
1583437742.163,36.133,29.297,38.574,38.574,41.016,0
1583437742.167,40.527,21.484,37.598,43.945,60.059,0
1583437742.170,33.691,27.344,40.527,35.156,29.297,0
1583437742.174,28.809,32.715,36.133,27.832,-13.672,0
1583437742.178,27.832,35.645,25.879,28.320,33.691,0
1583437742.182,24.902,38.574,22.461,30.273,69.336,0
1583437742.186,19.043,37.109,23.438,24.414,122.070,0
1583437742.203,20.020,38.574,37.109,22.949,62.012,0
1583437742.207,21.973,35.156,36.621,26.367,8.789,0
1583437742.211,21.973,33.203,25.879,22.949,14.648,0
1583437742.215,25.879,31.250,30.762,21.484,12.207,0
1583437742.219,20.996,23.438,31.250,18.066,89.355,0
1583437742.223,16.113,24.414,27.344,16.602,81.055,0
1583437742.227,28.320,33.691,41.992,23.926,12.695,0
1583437742.230,23.926,33.691,37.598,20.508,-5.371,0
1583437742.234,16.602,31.738,19.043,14.160,33.691,0
1583437742.238,25.391,38.574,27.344,21.973,9.277,0
1583437742.242,32.227,26.367,42.480,35.156,24.902,0
1583437742.246,41.016,19.043,48.340,44.434,45.410,0
1583437742.243,36.133,39.062,41.504,25.391,42.480,0
1583437742.247,23.926,45.410,29.785,8.301,77.637,0
1583437742.251,33.691,41.992,22.461,20.996,24.902,0
1583437742.255,43.457,41.504,24.902,31.250,8.789,0
1583437742.259,52.734,37.598,31.738,39.062,30.273,0
1583437742.263,61.523,40.527,26.855,45.410,-1.953,0
1583437742.267,60.059,37.598,26.855,49.805,-22.461,0
1583437742.270,59.082,34.668,28.320,55.664,15.625,0
1583437742.274,51.270,31.250,31.738,47.852,29.785,0
1583437742.278,48.340,26.855,28.809,39.062,23.926,0
1583437742.282,50.293,30.273,17.578,37.598,79.102,0
1583437742.286,51.270,31.250,22.949,44.922,61.035,0
1583437742.283,47.363,26.367,22.949,45.898,48.828,0
1583437742.287,48.340,33.691,28.320,43.945,48.828,0
1583437742.291,51.758,34.180,45.898,49.316,38.086,0
1583437742.295,47.363,19.531,46.875,45.410,7.812,0
1583437742.299,50.293,35.156,42.480,46.875,-11.719,0
1583437742.303,50.293,46.387,36.621,45.410,46.875,0
1583437742.307,50.293,40.039,23.438,41.016,66.406,0
1583437742.310,44.922,37.109,31.738,43.945,82.520,0
1583437742.314,39.551,35.156,44.434,41.504,57.129,0
1583437742.318,46.875,28.809,37.598,39.551,36.621,0
1583437742.322,49.316,23.438,20.020,41.016,43.945,0
1583437742.326,45.410,35.156,12.207,41.992,29.297,0
1583437742.363,43.945,45.410,25.879,44.922,1.953,0
1583437742.367,44.922,40.527,35.156,42.480,17.090,0
1583437742.371,49.805,39.551,46.387,42.969,80.566,0
1583437742.375,48.828,35.645,58.594,45.898,35.156,0
1583437742.379,41.016,29.297,41.504,46.875,-48.340,0
1583437742.383,42.969,37.109,28.320,49.316,-21.484,0
1583437742.387,45.410,42.480,33.691,40.527,-5.371,0
1583437742.390,47.852,36.621,32.227,40.039,-55.664,0
1583437742.394,44.434,39.551,37.109,43.945,14.160,0
1583437742.398,39.551,45.410,33.691,44.922,53.711,0
1583437742.402,43.945,37.109,24.902,46.875,70.801,0
1583437742.406,41.504,31.250,35.156,38.086,52.734,0
1583437742.383,31.250,34.668,34.180,38.574,-3.906,0
1583437742.387,28.809,41.992,40.039,40.527,15.625,0
1583437742.391,27.344,41.016,52.734,31.738,72.266,0
1583437742.395,25.391,19.043,43.945,27.344,58.594,0
1583437742.399,29.785,27.344,39.551,33.691,23.438,0
1583437742.403,32.715,49.316,34.180,41.504,36.133,0
1583437742.407,25.391,39.551,26.367,31.250,55.664,0
1583437742.410,23.438,37.598,21.484,20.508,14.160,0
1583437742.414,22.461,40.527,23.926,20.508,-1.465,0
1583437742.418,12.207,32.715,40.527,14.160,48.828,0
1583437742.422,9.277,28.809,41.992,12.695,62.500,0
1583437742.426,17.578,32.715,35.156,18.555,65.430,0
1583437742.424,20.508,38.086,33.203,19.531,52.246,0
1583437742.428,28.809,42.969,21.484,27.344,58.105,0
1583437742.432,27.832,35.156,22.461,27.344,54.688,0
1583437742.436,23.438,32.715,35.645,20.020,23.926,0
1583437742.440,36.133,48.828,38.574,27.344,48.828,0
1583437742.444,35.156,51.758,38.086,34.668,-7.324,0
1583437742.448,22.949,36.621,22.949,33.203,-66.895,0
1583437742.451,24.902,35.156,24.902,27.832,-33.691,0
1583437742.455,26.855,32.715,41.016,24.414,-26.367,0
1583437742.459,26.367,22.949,40.039,25.879,4.883,0
1583437742.463,30.762,21.973,38.574,32.227,67.383,0
1583437742.467,35.645,26.367,24.902,36.133,72.754,0
1583437742.483,29.297,32.227,11.230,27.832,42.480,0
1583437742.487,29.297,29.297,34.668,25.391,5.371,0
1583437742.491,47.852,37.598,52.734,41.992,20.508,0
1583437742.495,47.363,54.688,34.180,43.945,23.438,0
1583437742.499,26.367,37.109,23.926,22.949,-17.578,0
1583437742.503,29.785,21.484,48.340,28.809,-1.953,0
1583437742.507,37.598,33.691,47.363,34.180,35.156,0
1583437742.510,27.832,32.715,34.180,24.902,56.641,0
1583437742.514,27.832,27.344,41.016,29.785,52.246,0
1583437742.518,29.297,25.391,34.180,32.227,-8.301,0
1583437742.522,28.320,24.902,21.484,30.273,-20.020,0
1583437742.526,30.273,27.344,22.949,33.203,-5.371,0
1583437742.524,31.738,23.926,34.668,34.668,-25.879,0
1583437742.528,33.203,23.926,52.734,30.762,2.930,0
1583437742.532,32.715,31.250,56.152,30.762,36.133,0
1583437742.536,30.273,30.273,46.387,35.645,36.133,0
1583437742.540,32.715,22.461,26.367,35.156,56.152,0
1583437742.544,36.621,30.273,25.391,29.785,46.387,0
1583437742.548,43.945,46.875,50.293,36.133,43.945,0
1583437742.551,47.363,44.434,49.805,42.480,16.602,0
1583437742.555,40.039,33.203,35.156,39.062,-47.852,0
1583437742.559,31.250,36.621,32.227,26.367,-15.137,0
1583437742.563,29.785,40.039,37.109,20.508,65.430,0
1583437742.567,32.227,37.109,36.133,28.320,83.496,0
1583437742.563,32.227,36.621,27.344,30.762,16.113,0
1583437742.567,37.598,38.086,30.273,30.762,-18.066,0
1583437742.571,35.156,33.691,44.434,28.809,18.066,0
1583437742.575,31.738,28.320,40.039,32.227,90.820,0
1583437742.579,37.109,32.715,32.715,40.527,125.488,0
1583437742.583,39.062,28.809,34.180,41.016,82.031,0
1583437742.587,35.156,26.855,18.555,35.645,12.207,0
1583437742.590,32.227,42.969,16.113,29.785,-4.883,0
1583437742.594,25.879,43.945,31.738,20.508,16.602,0
1583437742.598,27.832,38.574,49.805,28.320,27.832,0
1583437742.602,34.668,43.945,58.105,38.574,30.762,0
1583437742.606,25.391,42.969,34.668,28.320,9.766,0
1583437742.623,21.484,34.180,26.367,26.855,23.926,0
1583437742.627,29.297,32.715,33.203,29.297,60.547,0
1583437742.631,31.738,34.180,31.250,25.391,58.105,0
1583437742.635,26.855,30.762,34.180,21.973,21.484,0
1583437742.639,24.902,22.949,30.273,24.902,-10.254,0
1583437742.643,21.484,11.719,36.621,26.855,6.836,0
1583437742.647,18.066,22.949,37.598,20.996,57.129,0
1583437742.650,20.508,38.574,34.180,21.484,62.012,0
1583437742.654,20.996,36.133,23.926,23.438,39.062,0
1583437742.658,22.949,40.527,19.043,23.438,49.805,0
1583437742.662,31.250,48.340,44.922,27.344,57.617,0
1583437742.666,26.367,38.574,50.293,17.578,37.109,0
1583437742.664,25.391,35.156,32.227,16.602,50.293,0
1583437742.668,23.926,36.621,24.902,23.926,54.199,0
1583437742.672,20.996,33.203,31.250,20.020,1.953,0
1583437742.676,25.391,32.715,39.551,18.066,3.418,0
1583437742.680,22.461,31.738,36.133,19.531,72.266,0
1583437742.684,20.508,28.320,28.809,23.438,138.184,0
1583437742.688,24.414,33.203,32.227,23.926,71.289,0
1583437742.691,23.926,30.762,29.297,20.020,47.852,0
1583437742.695,26.855,25.391,20.996,21.973,88.867,0
1583437742.699,28.809,39.551,37.109,25.879,40.039,0
1583437742.703,20.508,29.297,29.785,20.996,-22.949,0
1583437742.707,26.855,33.203,23.438,22.461,-24.414,0
1583437742.703,31.250,43.457,54.688,25.391,28.809,0
1583437742.707,19.043,34.180,55.176,19.531,91.797,0
1583437742.711,16.602,37.109,37.598,17.090,7.812,0
1583437742.715,19.531,35.156,32.227,18.066,-40.527,0
1583437742.719,24.414,29.297,29.785,18.555,7.812,0
1583437742.723,26.367,35.645,25.391,19.043,1.953,0
1583437742.727,22.461,39.062,29.297,24.414,-10.254,0
1583437742.730,17.090,33.691,30.273,18.066,7.324,0
1583437742.734,20.996,26.855,36.621,14.160,79.102,0
1583437742.738,31.250,28.320,13.184,21.484,31.250,0
1583437742.742,28.320,27.832,6.348,20.508,2.441,0
1583437742.746,25.879,27.832,37.109,23.926,47.852,0
1583437742.763,29.297,40.039,54.688,24.902,21.973,0
1583437742.767,20.996,40.527,51.270,16.602,2.930,0
1583437742.771,24.902,37.598,40.039,19.531,-15.137,0
1583437742.775,27.344,34.180,35.156,23.438,-29.785,0
1583437742.779,22.949,37.109,36.133,25.391,-12.695,0
1583437742.783,24.414,40.527,40.527,25.879,17.090,0
1583437742.787,21.484,33.691,30.273,23.438,-0.488,0
1583437742.790,20.020,27.344,16.602,26.367,-14.648,0
1583437742.794,20.020,25.879,21.484,29.297,51.270,0
1583437742.798,27.344,21.973,32.715,33.691,61.523,0
1583437742.802,28.320,12.207,18.555,32.227,36.133,0
1583437742.806,28.809,24.902,16.113,36.133,46.387,0
1583437742.804,37.109,30.762,37.109,38.574,35.156,0
1583437742.808,29.297,33.691,39.551,26.855,15.625,0
1583437742.812,25.879,40.527,31.738,20.508,-27.832,0
1583437742.816,27.832,30.273,33.203,25.879,-55.176,0
1583437742.820,23.438,37.598,33.691,29.785,3.906,0
1583437742.824,22.949,37.109,30.273,27.344,77.148,0
1583437742.828,27.344,31.250,34.668,31.738,59.570,0
1583437742.831,32.715,29.785,43.945,35.645,64.941,0
1583437742.835,37.598,33.691,49.805,37.598,90.820,0
1583437742.839,41.016,26.367,34.668,31.250,91.309,0
1583437742.843,40.039,16.113,16.602,26.367,98.633,0
1583437742.847,40.527,29.297,17.090,32.227,57.129,0
1583437742.843,32.715,30.273,28.809,26.367,74.219,0
1583437742.847,33.691,29.785,42.480,25.879,77.148,0
1583437742.851,40.039,39.062,47.363,29.297,8.789,0
1583437742.855,25.391,37.598,41.504,23.438,30.273,0
1583437742.859,18.555,31.250,24.902,27.344,59.570,0
1583437742.863,18.555,26.855,22.461,30.273,45.410,0
1583437742.867,13.672,26.855,27.344,30.762,44.922,0
1583437742.870,14.160,26.855,28.320,27.832,31.738,0
1583437742.874,20.508,28.809,34.668,25.391,28.809,0
1583437742.878,27.832,28.809,33.691,36.621,32.227,0
1583437742.882,32.227,24.902,24.414,38.574,67.871,0
1583437742.886,26.855,28.320,37.598,32.227,111.328,0
1583437742.903,21.973,27.832,54.199,28.809,85.938,0
1583437742.907,30.273,36.133,46.875,38.086,42.969,0
1583437742.911,37.598,36.133,35.645,43.945,2.441,0
1583437742.915,32.715,23.438,29.785,31.738,0.488,0
1583437742.919,25.879,29.785,36.133,24.902,-0.977,0
1583437742.923,22.949,32.715,27.832,23.926,30.762,0
1583437742.927,24.414,35.645,16.602,27.344,97.656,0
1583437742.930,33.203,40.039,20.508,34.668,98.145,0
1583437742.934,35.156,40.039,10.742,36.133,61.523,0
1583437742.938,33.691,31.250,20.996,37.109,41.016,0
1583437742.942,36.133,25.391,52.246,39.551,38.086,0
1583437742.946,29.785,20.508,44.922,31.738,4.883,0
1583437742.943,32.715,28.320,36.621,34.180,-0.977,0
1583437742.947,43.457,40.039,44.434,41.992,27.832,0
1583437742.951,41.504,27.832,36.133,37.109,80.078,0
1583437742.955,38.574,25.391,41.992,38.574,101.074,0
1583437742.959,36.133,35.645,35.156,36.621,102.539,0
1583437742.963,34.668,41.016,21.484,33.203,103.027,0
1583437742.967,36.133,40.527,23.926,32.227,99.121,0
1583437742.970,31.738,39.551,22.949,32.715,55.176,0
1583437742.974,28.809,29.297,20.996,31.738,25.391,0
1583437742.978,31.250,25.391,18.555,24.414,-36.621,0
1583437742.982,31.738,27.832,31.250,23.438,-34.668,0
1583437742.986,31.738,33.203,38.574,25.879,1.953,0
1583437742.984,37.598,36.621,36.133,26.855,-18.066,0
1583437742.988,38.574,29.297,40.039,29.297,7.812,0
1583437742.992,40.039,30.273,44.434,38.086,31.738,0
1583437742.996,41.504,32.715,32.715,38.574,34.180,0
1583437743.000,33.203,34.180,28.320,27.344,60.059,0
1583437743.004,31.738,39.062,34.668,25.391,8.301,0
1583437743.008,29.785,37.109,16.602,28.809,-24.414,0
1583437743.011,30.273,32.715,22.461,25.879,10.742,0
1583437743.015,30.762,29.785,40.039,17.578,5.371,0
1583437743.019,28.320,32.227,37.598,19.531,-12.207,0
1583437743.023,29.297,27.344,40.527,23.926,33.203,0
1583437743.027,30.273,28.320,41.992,28.809,116.211,0
1583437743.043,24.414,34.180,35.156,29.785,77.148,0
1583437743.047,25.879,32.227,34.180,32.227,24.902,0
1583437743.051,37.598,38.086,36.133,37.598,-0.488,0
1583437743.055,30.762,37.598,33.203,31.738,40.039,0
1583437743.059,24.414,32.715,29.785,28.809,63.965,0
1583437743.063,32.715,33.691,27.832,30.762,13.672,0
1583437743.067,37.598,27.832,25.879,32.227,-16.602,0
1583437743.070,37.109,31.250,20.996,35.156,5.371,0
1583437743.074,39.551,37.109,33.691,34.668,25.879,0
1583437743.078,38.086,32.715,49.316,31.250,59.082,0
1583437743.082,36.133,32.715,47.363,30.273,12.207,0
1583437743.086,30.273,29.297,38.086,27.344,27.344,0
1583437743.103,26.367,35.645,29.785,28.809,37.109,0
1583437743.107,27.344,41.992,34.180,32.715,-37.598,0
1583437743.111,33.691,43.945,39.062,34.668,58.594,0
1583437743.115,43.457,36.133,36.621,35.156,65.430,0
1583437743.119,41.992,23.438,27.344,35.645,63.477,0
1583437743.123,36.133,34.668,22.461,32.227,35.156,0
1583437743.127,28.809,41.992,29.297,29.785,4.883,0
1583437743.130,26.367,41.016,40.039,32.227,18.066,0
1583437743.134,30.273,36.621,41.992,33.691,6.348,0
1583437743.138,30.762,36.133,44.434,27.832,19.531,0
1583437743.142,35.156,34.180,50.293,29.785,-13.184,0
1583437743.146,38.574,19.531,39.551,37.598,-6.348,0
1583437743.144,35.156,26.855,26.855,38.574,9.766,0
1583437743.148,40.039,41.504,31.738,46.387,30.762,0
1583437743.152,36.133,27.344,39.062,43.457,9.766,0
1583437743.156,25.879,18.066,22.949,33.203,-13.672,0
1583437743.160,30.273,22.949,11.719,33.691,-5.859,0
1583437743.164,35.645,17.578,24.902,35.645,10.254,0
1583437743.168,33.691,10.254,34.180,34.180,2.930,0
1583437743.171,33.203,16.602,41.992,32.227,-21.484,0
1583437743.175,28.320,27.344,50.293,29.297,-10.254,0
1583437743.179,22.949,26.855,42.480,25.879,27.832,0
1583437743.183,29.297,26.367,43.945,35.156,45.410,0
1583437743.187,30.273,16.113,41.992,32.715,16.113,0
1583437743.183,32.715,5.859,36.133,29.297,43.945,0
1583437743.187,40.039,12.207,34.668,41.016,93.262,0
1583437743.191,31.250,18.066,20.996,37.109,71.777,0
1583437743.195,24.902,14.160,22.949,31.250,59.570,0
1583437743.199,22.949,8.789,42.969,22.949,37.598,0
1583437743.203,22.949,9.277,39.062,21.973,3.418,0
1583437743.207,33.203,7.324,18.066,32.227,16.602,0
1583437743.210,29.785,1.953,27.832,26.367,83.984,0
1583437743.214,35.645,6.836,43.945,26.855,82.520,0
1583437743.218,35.156,15.137,34.180,29.785,62.988,0
1583437743.222,27.344,7.812,30.762,21.484,109.375,0
1583437743.226,31.738,9.766,40.039,20.020,78.125,0
1583437743.223,27.832,19.043,42.969,23.438,39.062,0
1583437743.227,25.391,13.672,38.086,23.438,-19.531,0
1583437743.231,29.297,13.672,27.832,28.320,-36.621,0
1583437743.235,28.320,14.160,10.742,35.156,-9.766,0
1583437743.239,31.250,5.859,5.371,38.086,-27.344,0
1583437743.243,30.762,5.859,6.348,34.668,3.906,0
1583437743.247,33.203,18.555,20.508,40.039,47.852,0
1583437743.250,28.320,16.602,37.598,38.574,7.324,0
1583437743.254,16.602,4.883,35.156,25.879,-21.973,0
1583437743.258,21.484,14.648,29.297,22.949,66.895,0
1583437743.262,26.367,18.066,27.832,27.344,109.863,0
1583437743.266,31.250,15.137,32.715,34.668,31.738,0
1583437743.283,34.180,26.367,22.949,37.109,41.016,0
1583437743.287,33.691,26.367,27.344,36.621,124.023,0
1583437743.291,38.574,19.531,34.180,40.039,74.707,0
1583437743.295,36.133,16.113,22.949,40.039,30.273,0
1583437743.299,32.227,15.137,22.949,41.992,18.555,0
1583437743.303,37.109,15.137,35.156,43.945,-8.789,0
1583437743.307,28.809,14.160,39.062,31.738,46.875,0
1583437743.310,32.715,30.273,32.227,33.691,73.730,0
1583437743.314,44.434,39.551,44.434,45.410,15.137,0
1583437743.318,40.039,26.855,52.246,34.668,9.277,0
1583437743.322,34.180,16.113,40.527,27.344,76.172,0
1583437743.326,26.855,2.930,35.156,29.297,87.402,0
1583437743.323,27.344,14.648,26.367,30.762,44.922,0
1583437743.327,34.668,34.668,27.832,36.133,-1.465,0
1583437743.331,32.715,36.133,38.086,33.203,9.766,0
1583437743.335,33.691,30.273,44.434,31.738,25.879,0
1583437743.339,35.156,26.855,50.293,35.156,2.930,0
1583437743.343,30.273,22.949,46.875,31.250,41.016,0
1583437743.347,38.086,23.926,40.527,33.203,47.363,0
1583437743.350,38.086,25.879,29.297,33.691,29.297,0
1583437743.354,31.250,28.320,29.785,28.809,38.086,0
1583437743.358,36.133,29.785,33.691,32.227,43.945,0
1583437743.362,39.551,20.996,35.645,32.227,39.551,0
1583437743.366,38.086,12.695,29.785,33.691,42.480,0
1583437743.364,33.691,15.625,17.578,38.574,22.461,0
1583437743.368,37.598,25.879,37.598,38.086,33.691,0
1583437743.372,36.133,30.762,58.594,31.738,5.371,0
1583437743.376,27.344,19.531,49.316,27.344,8.301,0
1583437743.380,29.785,13.184,41.016,29.785,65.918,0
1583437743.384,30.762,13.184,37.109,31.738,64.941,0
1583437743.388,29.785,16.113,33.691,32.227,76.172,0
1583437743.391,34.668,23.926,33.203,30.273,76.660,0
1583437743.395,30.273,20.508,27.832,27.344,49.316,0
1583437743.399,21.484,18.066,33.691,23.926,16.113,0
1583437743.403,24.414,17.090,43.457,23.438,22.949,0
1583437743.407,22.461,17.090,23.438,17.578,-22.461,0
1583437743.423,22.461,21.973,11.719,15.625,2.441,0
1583437743.427,24.902,8.789,27.344,20.508,54.199,0
1583437743.431,25.879,8.789,42.969,24.902,24.414,0
1583437743.435,25.879,23.438,57.129,27.344,13.672,0
1583437743.439,21.484,32.715,53.711,20.996,20.020,0
1583437743.443,27.832,45.898,47.852,28.320,37.109,0
1583437743.447,31.738,48.340,41.016,28.809,31.250,0
1583437743.450,22.461,36.621,33.203,9.766,42.480,0
1583437743.454,14.160,29.297,23.926,5.859,9.766,0
1583437743.458,11.719,24.414,20.996,15.625,-17.578,0
1583437743.462,15.137,20.020,30.273,23.438,41.992,0
1583437743.466,19.043,23.438,34.668,20.996,42.969,0
1583437743.464,20.020,32.715,27.344,15.625,-14.160,0
1583437743.468,14.160,32.227,25.879,16.113,-11.719,0
1583437743.472,2.441,28.809,34.180,13.672,16.602,0
1583437743.476,-2.930,22.461,32.715,3.418,43.945,0
1583437743.480,0.488,20.508,29.297,2.441,55.664,0
1583437743.484,2.930,30.762,21.973,4.395,17.578,0
1583437743.488,1.953,25.391,20.020,-0.488,30.273,0
1583437743.491,-1.953,17.578,29.785,-6.348,17.578,0
1583437743.495,-7.324,13.184,18.066,-12.207,4.395,0
1583437743.499,-10.742,4.883,21.484,-15.137,36.621,0
1583437743.503,-12.207,12.695,42.480,-18.066,17.578,0
1583437743.507,-15.625,25.879,27.832,-23.438,14.160,0
1583437743.503,-20.020,20.508,18.066,-28.320,42.969,0
1583437743.507,-22.949,15.625,30.762,-37.109,81.055,0
1583437743.511,-29.297,18.555,25.391,-43.457,99.121,0
1583437743.515,-27.832,25.391,25.879,-35.645,-0.488,0
1583437743.519,-32.715,34.180,24.414,-40.527,4.395,0
1583437743.523,-41.504,29.297,2.930,-53.223,83.496,0
1583437743.527,-33.691,23.926,-8.301,-48.828,71.777,0
1583437743.530,-31.250,26.855,2.930,-38.574,46.875,0
1583437743.534,-36.621,20.020,11.719,-43.457,64.941,0
1583437743.538,-41.992,13.672,6.836,-54.199,41.504,0
1583437743.542,-40.527,23.438,6.836,-43.945,26.855,0
1583437743.546,-34.668,28.320,10.254,-35.645,19.043,0
1583437743.563,-25.879,33.203,18.555,-25.391,16.113,0
1583437743.567,-23.926,32.715,20.508,-29.785,14.648,0
1583437743.571,-31.250,25.391,13.672,-40.527,-0.488,0
1583437743.575,-25.879,22.949,9.277,-28.809,51.270,0
1583437743.579,-20.508,18.555,1.465,-28.809,44.434,0
1583437743.583,-13.672,18.555,-5.859,-26.855,-12.695,0
1583437743.587,-9.766,32.227,-1.953,-28.320,37.598,0
1583437743.590,-9.277,25.391,-4.883,-35.645,28.809,0
1583437743.594,2.930,13.672,5.859,-16.113,28.320,0
1583437743.598,8.789,34.180,12.207,-4.395,75.195,0
1583437743.602,3.906,43.945,2.441,-9.277,50.293,0
1583437743.606,1.465,40.039,13.184,-6.836,20.508,0
1583437743.604,3.418,37.109,17.578,0.000,18.555,0
1583437743.608,8.789,39.062,9.766,1.953,94.727,0
1583437743.612,6.836,39.551,4.883,-3.418,121.094,0
1583437743.616,10.254,38.574,-2.930,2.441,61.523,0
1583437743.620,7.812,37.598,-8.301,3.906,13.184,0
1583437743.624,11.719,39.551,4.395,8.789,15.625,0
1583437743.628,33.203,33.691,19.531,20.020,20.508,0
1583437743.631,33.203,15.625,24.902,19.043,0.000,0
1583437743.635,23.438,21.484,19.531,15.625,49.316,0
1583437743.639,25.879,41.016,13.184,11.230,59.082,0
1583437743.643,33.203,41.992,1.465,15.137,5.371,0
1583437743.647,41.504,35.156,0.488,32.227,-40.039,0
1583437743.643,38.574,31.250,3.906,41.504,-0.977,0
1583437743.647,33.691,23.926,-0.488,42.480,49.316,0
1583437743.651,35.645,12.207,-1.953,49.316,45.898,0
1583437743.655,30.273,13.672,1.953,42.969,32.715,0
1583437743.659,33.691,28.320,34.180,44.922,15.137,0
1583437743.663,35.645,29.297,52.734,52.246,48.340,0
1583437743.667,32.227,12.207,37.109,41.504,55.664,0
1583437743.670,41.016,5.371,23.926,38.086,54.688,0
1583437743.674,44.434,25.879,16.113,37.109,84.473,0
1583437743.678,48.828,36.621,15.625,43.457,62.500,0
1583437743.682,54.199,29.297,18.066,56.152,-21.484,0
1583437743.686,45.898,20.508,14.160,51.758,-26.855,0
1583437743.703,48.828,25.879,9.766,50.781,11.719,0
1583437743.707,60.547,26.855,1.953,63.477,81.055,0
1583437743.711,61.035,17.090,7.324,64.453,99.121,0
1583437743.715,65.430,15.137,39.551,70.801,68.359,0
1583437743.719,62.500,21.484,62.012,72.266,41.992,0
1583437743.723,55.664,23.926,55.176,69.824,17.578,0
1583437743.727,51.758,13.184,49.805,64.453,0.000,0
1583437743.730,60.547,4.395,39.551,62.988,-1.465,0
1583437743.734,78.125,6.836,27.344,84.961,32.715,0
1583437743.738,68.359,8.789,28.320,78.613,41.016,0
1583437743.742,68.359,7.324,34.668,78.613,39.551,0
1583437743.746,74.219,6.348,29.297,86.914,58.594,0
1583437743.743,70.312,15.625,15.137,77.148,47.363,0
1583437743.747,75.684,25.391,20.996,77.148,38.086,0
1583437743.751,77.148,31.250,40.039,77.637,62.500,0
1583437743.755,74.707,27.832,41.992,74.219,82.031,0
1583437743.759,70.312,23.438,29.297,74.707,117.676,0
1583437743.763,73.242,31.738,19.531,76.172,78.125,0
1583437743.767,69.336,33.203,33.691,73.730,69.824,0
1583437743.770,59.570,21.973,45.410,65.918,62.500,0
1583437743.774,61.523,17.578,35.645,62.012,27.344,0
1583437743.778,57.617,11.230,22.949,59.570,20.996,0
1583437743.782,52.246,4.883,29.297,54.688,0.000,0
1583437743.786,57.129,22.461,35.645,59.082,12.207,0
1583437743.783,57.129,33.691,30.273,59.082,25.391,0
1583437743.787,59.082,33.691,29.297,55.176,-14.160,0
1583437743.791,59.082,30.273,28.809,56.641,-23.926,0
1583437743.795,54.199,24.902,30.762,55.176,38.574,0
1583437743.799,57.129,26.367,14.648,56.152,28.320,0
1583437743.803,65.430,38.574,0.977,62.988,4.395,0
1583437743.807,63.965,37.598,15.625,59.570,17.578,0
1583437743.810,60.547,30.273,27.832,55.176,41.016,0
1583437743.814,54.199,22.949,26.367,47.852,11.230,0
1583437743.818,46.387,7.324,30.273,44.922,-8.301,0
1583437743.822,37.598,2.441,37.109,45.898,17.578,0
1583437743.826,36.133,17.090,41.504,45.898,59.082,0
1583437743.843,45.410,28.320,39.062,51.758,76.660,0
1583437743.847,45.410,28.809,29.785,52.734,35.645,0
1583437743.851,40.039,23.926,22.461,46.875,15.137,0
1583437743.855,42.480,25.879,10.742,46.875,-30.762,0
1583437743.859,42.969,36.133,9.766,48.340,5.371,0
1583437743.863,36.621,32.715,24.414,46.387,128.418,0
1583437743.867,35.645,29.297,40.039,37.598,97.168,0
1583437743.870,37.598,37.598,25.879,32.715,47.363,0
1583437743.874,36.133,29.785,17.090,39.551,39.062,0
1583437743.878,33.203,20.508,42.480,37.598,17.578,0
1583437743.882,30.273,22.461,44.434,41.504,56.641,0
1583437743.886,37.109,22.949,35.156,51.270,55.664,0
1583437743.883,40.039,38.086,30.273,46.875,16.113,0
1583437743.887,28.320,49.316,20.020,32.715,-15.137,0
1583437743.891,18.555,49.805,17.090,19.043,17.090,0
1583437743.895,22.461,54.199,20.508,19.531,79.102,0
1583437743.899,23.438,55.176,7.324,15.625,46.875,0
1583437743.903,19.531,44.922,-16.602,11.230,21.484,0
1583437743.907,24.902,47.363,-13.184,19.043,18.555,0
1583437743.910,24.414,52.734,3.906,14.648,11.230,0
1583437743.914,19.043,48.828,14.648,9.766,41.504,0
1583437743.918,19.531,57.617,20.020,7.812,36.621,0
1583437743.922,20.020,55.664,16.602,5.859,39.062,0
1583437743.926,21.484,42.969,22.461,14.648,69.336,0
1583437743.923,20.996,42.969,32.715,20.020,50.293,0
1583437743.927,21.973,50.781,20.508,20.508,16.113,0
1583437743.931,31.738,58.105,1.953,24.414,33.691,0
1583437743.935,33.203,45.898,8.789,25.879,-22.461,0
1583437743.939,31.738,26.367,14.648,28.320,-63.477,0
1583437743.943,37.598,43.945,14.160,36.133,-17.090,0
1583437743.947,31.250,48.828,18.555,35.645,54.199,0
1583437743.950,32.227,36.621,27.832,29.297,25.879,0
1583437743.954,38.574,37.598,27.832,21.484,-19.043,0
1583437743.958,39.062,39.062,20.508,25.879,26.367,0
1583437743.962,38.574,29.297,24.414,33.203,24.414,0
1583437743.966,41.016,23.926,23.926,36.133,-37.109,0
1583437743.983,44.922,30.762,25.391,36.133,-9.277,0
1583437743.987,44.434,32.227,22.949,33.203,89.355,0
1583437743.991,40.527,26.367,1.953,33.203,71.289,0
1583437743.995,42.969,21.973,14.648,41.016,54.199,0
1583437743.999,47.363,29.785,37.109,43.457,46.875,0
1583437744.003,42.480,32.227,32.715,37.598,18.066,0
1583437744.007,44.434,31.738,34.180,39.551,19.043,0
1583437744.010,46.875,33.691,32.227,43.457,0.488,0
1583437744.014,42.480,30.762,22.949,40.527,30.762,0
1583437744.018,34.180,17.090,24.414,33.691,63.477,0
1583437744.022,29.785,13.672,23.438,32.227,55.176,0
1583437744.026,31.250,33.691,14.160,26.855,84.961,0
1583437744.023,33.203,46.875,8.789,24.902,56.152,0
1583437744.027,35.645,39.551,14.648,30.762,21.484,0
1583437744.031,40.527,33.203,24.902,33.691,59.570,0
1583437744.035,40.527,38.574,27.832,37.109,66.895,0
1583437744.039,40.039,38.574,33.691,38.574,47.363,0
1583437744.043,38.086,22.949,44.922,34.668,17.090,0
1583437744.047,32.715,23.438,41.504,30.273,10.742,0
1583437744.050,31.250,39.551,25.879,29.297,34.180,0
1583437744.054,35.645,46.387,23.926,30.273,49.805,0
1583437744.058,38.574,31.250,28.320,25.879,39.062,0
1583437744.062,40.039,18.555,20.508,23.926,7.812,0
1583437744.066,38.574,32.715,29.785,28.809,45.410,0
1583437744.063,35.645,38.574,43.457,28.320,46.875,0
1583437744.067,39.551,39.062,41.016,25.879,-5.859,0
1583437744.071,39.062,32.227,48.340,26.367,14.160,0
1583437744.075,35.645,20.996,49.316,24.902,36.621,0
1583437744.079,39.551,37.598,41.504,29.297,32.715,0
1583437744.083,38.574,39.062,49.805,34.668,22.461,0
1583437744.087,46.387,34.180,46.875,37.598,19.043,0
1583437744.090,44.434,42.969,40.527,25.391,31.250,0
1583437744.094,25.879,41.992,41.504,5.859,35.645,0
1583437744.098,24.902,35.156,40.039,11.230,55.664,0
1583437744.102,26.367,33.691,41.016,15.625,110.352,0
1583437744.106,24.414,33.691,44.434,16.113,53.711,0
1583437744.123,30.273,38.086,39.062,23.926,-8.301,0
1583437744.127,22.461,45.410,21.484,20.020,60.059,0
1583437744.131,22.461,49.805,9.277,18.555,50.293,0
1583437744.135,31.250,59.082,14.648,20.996,-1.953,0
1583437744.139,24.414,58.105,31.250,12.207,3.418,0
1583437744.143,24.414,53.711,46.875,11.719,-43.945,0
1583437744.147,30.762,38.086,46.387,17.578,-2.441,0
1583437744.150,26.855,34.668,42.480,21.484,30.762,0
1583437744.154,23.438,39.062,36.133,24.414,8.789,0
1583437744.158,27.344,33.691,29.297,25.391,-28.809,0
1583437744.162,30.762,44.922,41.016,26.367,-41.504,0
1583437744.166,30.762,61.523,47.852,21.484,16.113,0
1583437744.163,31.738,61.523,35.645,20.020,40.039,0
1583437744.167,26.855,45.410,21.973,21.973,49.316,0
1583437744.171,28.320,38.574,29.785,25.391,58.105,0
1583437744.175,39.062,38.574,35.645,27.344,19.043,0
1583437744.179,34.668,27.344,23.438,21.973,-0.977,0
1583437744.183,27.832,33.203,18.555,28.809,-0.488,0
1583437744.187,27.832,45.898,32.227,33.203,-4.883,0
1583437744.190,33.691,39.062,49.316,26.855,20.508,0
1583437744.194,36.133,34.180,49.316,24.414,34.180,0
1583437744.198,32.715,36.621,42.480,18.555,21.484,0
1583437744.202,33.691,33.691,43.945,20.020,9.766,0
1583437744.206,30.762,26.855,41.992,26.367,34.668,0
1583437744.203,31.250,22.461,42.480,27.832,60.547,0
1583437744.207,34.668,34.668,42.480,33.203,57.129,0
1583437744.211,25.391,44.434,30.273,28.320,41.504,0
1583437744.215,27.832,47.363,28.809,28.320,47.852,0
1583437744.219,32.227,40.039,31.250,27.832,55.176,0
1583437744.223,31.738,31.250,30.762,27.832,39.551,0
1583437744.227,31.250,26.855,48.828,32.227,-0.488,0
1583437744.230,35.645,31.250,42.480,37.598,-17.578,0
1583437744.234,38.574,39.062,24.902,36.133,23.926,0
1583437744.238,27.832,26.855,44.922,30.762,65.918,0
1583437744.242,23.438,30.762,52.734,30.273,57.617,0
1583437744.246,30.273,32.715,42.969,37.109,29.297,0
1583437744.263,29.297,22.461,44.922,31.738,29.785,0
1583437744.267,35.645,38.574,50.781,30.273,42.969,0
1583437744.271,36.621,45.410,43.457,34.180,46.387,0
1583437744.275,34.180,35.156,45.410,33.203,34.668,0
1583437744.279,35.156,21.484,50.293,34.668,72.266,0
1583437744.283,32.227,30.273,51.270,31.738,41.016,0
1583437744.287,28.809,46.875,52.246,21.973,6.348,0
1583437744.290,15.137,42.480,49.805,16.113,73.730,0
1583437744.294,11.230,23.926,41.016,4.883,63.965,0
1583437744.298,10.742,19.043,42.969,0.000,3.906,0
1583437744.302,8.789,24.414,48.828,9.766,33.691,0
1583437744.306,1.465,29.785,45.898,4.883,38.086,0
1583437744.303,-12.695,44.434,47.363,-10.742,24.902,0
1583437744.307,-29.297,36.621,42.969,-33.203,22.949,0
1583437744.311,-41.504,23.926,40.527,-47.363,0.488,0
1583437744.315,-45.410,17.578,47.852,-45.898,37.598,0
1583437744.319,-60.059,16.602,47.852,-61.523,20.996,0
1583437744.323,-69.336,19.531,34.668,-79.590,-9.766,0
1583437744.327,-70.801,15.625,40.039,-88.379,-3.906,0
1583437744.330,-83.496,29.297,41.992,-96.191,32.227,0
1583437744.334,-90.332,41.992,29.297,-100.586,43.457,0
1583437744.338,-90.332,36.621,36.133,-107.422,65.430,0
1583437744.342,-93.750,37.598,44.434,-104.492,75.195,0
1583437744.346,-94.727,39.551,36.133,-101.074,20.508,0
1583437744.343,-93.750,38.086,34.668,-99.121,19.043,0
1583437744.347,-84.961,19.043,38.086,-89.355,0.977,0
1583437744.351,-77.148,27.344,42.969,-84.473,6.836,0
1583437744.355,-76.172,64.453,41.992,-82.031,0.488,0
1583437744.359,-66.895,59.082,25.879,-72.266,13.184,0
1583437744.363,-56.641,47.363,18.555,-64.453,-18.555,0
1583437744.367,-57.129,44.922,22.461,-64.453,-45.410,0
1583437744.370,-41.992,41.016,34.668,-54.199,16.602,0
1583437744.374,-21.973,38.574,51.270,-37.598,34.180,0
1583437744.378,-25.879,24.902,39.062,-31.250,46.875,0
1583437744.382,-30.762,23.926,28.809,-24.414,41.992,0
1583437744.386,-19.043,39.062,43.457,-15.137,46.387,0
1583437744.403,-6.348,50.781,41.992,-5.371,78.125,0
1583437744.407,-0.488,53.223,36.621,5.371,62.500,0
1583437744.411,12.207,41.016,50.781,20.508,42.480,0
1583437744.415,26.367,32.715,54.199,36.133,12.695,0
1583437744.419,32.227,39.551,47.852,41.504,9.277,0
1583437744.423,27.832,35.156,53.223,41.016,-12.207,0
1583437744.427,33.691,23.926,60.059,44.922,-18.555,0
1583437744.430,45.410,24.414,51.270,54.688,31.738,0
1583437744.434,48.828,38.574,39.062,57.129,41.992,0
1583437744.438,57.129,43.945,20.996,64.941,39.551,0
1583437744.442,66.406,38.574,22.461,70.801,11.230,0
1583437744.446,68.359,41.016,39.551,66.895,9.277,0
1583437744.443,68.848,40.527,41.016,67.383,6.348,0
1583437744.447,65.430,19.531,45.410,65.918,-32.227,0
1583437744.451,60.059,-0.488,41.504,64.453,30.762,0
1583437744.455,63.965,3.418,30.273,72.754,78.125,0
1583437744.459,72.754,14.160,26.367,77.148,48.340,0
1583437744.463,69.336,18.066,18.555,76.660,58.105,0
1583437744.467,66.406,24.414,31.738,85.938,80.078,0
1583437744.470,63.477,26.855,50.293,85.938,49.316,0
1583437744.474,65.918,27.344,39.551,84.961,4.883,0
1583437744.478,73.242,28.320,41.016,85.938,57.617,0
1583437744.482,74.707,27.832,31.738,88.379,34.180,0
1583437744.486,83.008,30.273,24.414,92.285,18.066,0
1583437744.483,90.820,29.297,33.203,87.891,29.297,0
1583437744.487,94.238,16.602,27.832,84.961,70.801,0
1583437744.491,89.355,6.348,21.973,81.055,56.152,0
1583437744.495,88.867,24.902,37.109,81.543,-12.207,0
1583437744.499,86.914,37.598,44.922,79.590,59.570,0
1583437744.503,78.125,34.668,30.762,68.359,77.148,0
1583437744.507,78.613,30.762,20.020,68.359,42.480,0
1583437744.510,75.684,26.855,21.484,64.941,48.340,0
1583437744.514,74.707,19.531,21.973,65.430,26.367,0
1583437744.518,78.613,16.602,3.906,72.754,34.668,0
1583437744.522,77.148,24.902,-2.441,70.801,33.691,0
1583437744.526,74.219,23.438,16.602,70.312,14.160,0
1583437744.543,79.590,11.230,41.504,71.289,24.902,0
1583437744.547,73.730,9.277,42.969,59.570,19.043,0
1583437744.551,69.824,34.180,29.785,63.965,23.926,0
1583437744.555,70.312,51.270,21.484,71.777,25.391,0
1583437744.559,61.523,30.273,20.020,65.430,41.016,0
1583437744.563,62.012,25.391,11.719,61.523,35.156,0
1583437744.567,62.988,39.551,14.160,59.570,20.508,0
1583437744.570,62.988,13.184,26.855,64.941,-19.043,0
1583437744.574,64.941,-0.488,27.344,73.242,-7.812,0
1583437744.578,63.477,34.180,17.578,70.312,41.992,0
1583437744.582,60.059,41.504,20.996,60.547,49.805,0
1583437744.586,61.523,38.086,24.902,56.152,24.902,0
1583437744.584,60.059,34.180,16.113,57.129,29.785,0
1583437744.588,66.895,32.715,12.207,63.477,33.691,0
1583437744.592,75.195,37.598,4.883,71.289,16.602,0
1583437744.596,63.965,35.156,12.695,60.547,49.805,0
1583437744.600,51.758,17.578,20.996,49.805,84.961,0
1583437744.604,53.711,-11.230,28.320,50.781,73.730,0
1583437744.608,59.570,4.395,29.297,50.293,10.742,0
1583437744.611,51.758,34.180,19.531,50.293,-14.160,0
1583437744.615,53.711,42.969,26.367,51.270,12.695,0
1583437744.619,65.430,48.340,20.508,51.758,25.391,0
1583437744.623,59.082,46.875,3.418,51.270,52.246,0
1583437744.627,49.316,36.621,17.090,50.293,52.734,0
1583437744.643,49.316,30.762,20.020,51.270,63.477,0
1583437744.647,53.223,24.902,19.531,52.734,77.148,0
1583437744.651,56.641,21.484,24.414,53.711,78.613,0
1583437744.655,56.152,26.367,17.090,50.781,62.012,0
1583437744.659,56.152,22.461,27.344,54.199,12.207,0
1583437744.663,60.547,28.320,37.109,63.965,28.320,0
1583437744.667,59.570,39.551,23.926,56.641,34.180,0
1583437744.670,53.711,39.062,19.043,41.016,18.555,0
1583437744.674,50.781,33.203,27.344,38.086,-1.465,0
1583437744.678,52.246,36.621,25.879,50.293,4.395,0
1583437744.682,52.246,33.203,-1.465,54.688,18.066,0
1583437744.686,48.828,20.020,1.953,50.781,29.297,0
1583437744.683,46.875,14.648,40.527,44.434,19.531,0
1583437744.687,45.410,23.926,45.410,45.898,-5.371,0
1583437744.691,41.016,32.227,30.762,51.270,87.402,0
1583437744.695,39.062,32.715,19.531,43.457,93.750,0
1583437744.699,41.016,30.273,15.137,42.480,38.086,0
1583437744.703,52.246,30.762,8.301,54.688,62.500,0
1583437744.707,57.129,39.551,5.371,52.734,59.082,0
1583437744.710,47.852,43.945,28.809,41.016,-12.695,0
1583437744.714,34.180,38.574,37.109,29.785,-11.719,0
1583437744.718,36.621,36.133,28.320,31.738,15.625,0
1583437744.722,42.969,26.367,21.484,40.527,14.648,0
1583437744.726,44.434,26.367,15.137,39.551,17.090,0
1583437744.723,44.434,39.062,8.301,38.574,14.160,0
1583437744.727,47.363,41.992,3.418,42.969,-5.371,0
1583437744.731,51.758,40.527,4.883,46.875,-6.348,0
1583437744.735,49.805,39.551,17.090,46.387,-34.668,0
1583437744.739,50.781,37.109,41.016,45.898,-7.324,0
1583437744.743,53.711,37.109,41.992,48.340,35.645,0
1583437744.747,48.340,36.133,24.902,43.457,57.129,0
1583437744.750,42.969,32.715,14.160,42.480,73.730,0
1583437744.754,45.898,46.875,21.484,41.992,33.691,0
1583437744.758,43.457,51.758,29.785,27.344,91.797,0
1583437744.762,32.227,34.180,25.879,25.879,120.605,0
1583437744.766,29.297,30.273,27.344,33.203,60.547,0
1583437744.783,36.133,31.738,34.180,35.156,61.035,0
1583437744.787,37.598,27.832,31.738,33.203,68.848,0
1583437744.791,40.527,40.039,28.809,36.133,42.480,0
1583437744.795,43.457,43.945,11.719,36.133,23.926,0
1583437744.799,45.410,34.668,17.578,32.715,46.875,0
1583437744.803,46.387,35.645,47.363,33.691,65.430,0
1583437744.807,39.551,23.438,40.039,34.668,32.715,0
1583437744.810,38.086,11.719,24.902,30.762,26.855,0
1583437744.814,48.828,32.227,34.180,42.969,34.180,0
1583437744.818,42.969,41.016,36.621,40.039,48.828,0
1583437744.822,30.273,35.645,23.926,29.785,69.336,0
1583437744.826,27.832,37.109,23.438,34.668,62.988,0
1583437744.823,27.344,34.180,36.133,34.180,30.273,0
1583437744.827,32.227,31.738,26.855,36.621,9.277,0
1583437744.831,39.062,36.133,9.277,40.527,-14.160,0
1583437744.835,41.992,38.086,21.973,36.133,-9.277,0
1583437744.839,38.086,22.461,33.203,32.227,13.672,0
1583437744.843,39.551,13.672,27.832,35.645,-7.812,0
1583437744.847,37.109,29.785,19.531,34.668,-36.621,0
1583437744.850,30.762,42.480,17.578,32.227,-20.508,0
1583437744.854,28.809,42.480,30.762,34.180,13.184,0
1583437744.858,31.738,33.203,27.344,36.133,11.719,0
1583437744.862,43.945,43.457,33.203,41.992,-24.414,0
1583437744.866,45.898,40.039,43.457,43.457,43.945,0
1583437744.863,44.434,11.230,30.762,41.992,90.820,0
1583437744.867,44.434,14.160,25.879,44.434,41.992,0
1583437744.871,35.156,38.574,26.855,45.410,20.020,0
1583437744.875,32.227,47.852,30.762,39.062,44.434,0
1583437744.879,31.738,28.809,22.461,32.715,61.035,0
1583437744.883,33.691,15.137,20.508,33.691,38.086,0
1583437744.887,37.109,32.715,30.273,32.227,6.836,0
1583437744.890,41.504,41.504,22.949,32.227,-29.297,0
1583437744.894,42.480,26.367,14.160,29.785,37.598,0
1583437744.898,39.551,23.926,14.160,31.738,57.129,0
1583437744.902,42.969,34.668,20.508,35.156,-10.254,0
1583437744.906,34.668,27.344,20.020,30.762,29.785,0
1583437744.924,30.762,31.738,21.484,37.109,29.297,0
1583437744.928,36.133,47.363,34.180,47.363,59.082,0
1583437744.932,30.762,39.551,34.180,41.992,79.590,0
1583437744.936,26.367,33.203,34.180,32.715,53.223,0
1583437744.940,28.809,30.762,31.250,32.227,71.777,0
1583437744.944,33.203,27.344,26.367,36.621,46.387,0
1583437744.948,36.133,17.578,28.320,37.109,54.688,0
1583437744.951,35.156,19.531,27.832,33.203,36.621,0
1583437744.955,34.668,39.062,20.996,32.715,21.484,0
1583437744.959,33.691,38.574,24.902,32.227,52.734,0
1583437744.963,34.668,37.598,15.137,32.227,42.969,0
1583437744.967,32.227,34.180,8.301,29.297,2.930,0
1583437744.963,31.250,27.832,18.066,24.902,6.348,0
1583437744.967,34.668,20.996,32.227,31.738,68.848,0
1583437744.971,23.926,15.137,32.715,34.180,18.066,0
1583437744.975,18.066,24.414,12.207,30.273,-16.113,0
1583437744.979,24.414,36.133,23.438,29.785,53.711,0
1583437744.983,32.227,47.363,40.039,30.273,24.414,1
1583437744.987,29.297,41.992,30.273,31.738,8.789,0
1583437744.990,25.391,32.227,26.855,31.250,47.852,0
1583437744.994,36.133,34.668,34.668,35.645,41.992,0
1583437744.998,37.109,35.645,34.668,38.574,0.488,0
1583437745.002,36.133,22.461,36.133,37.109,-0.488,0
1583437745.006,39.062,14.160,33.203,41.504,49.805,0
1583437745.003,37.598,38.574,13.184,43.457,23.926,0
1583437745.007,30.273,45.898,-8.301,34.668,41.992,0
1583437745.011,41.992,40.527,12.207,42.480,68.359,0
1583437745.015,47.852,36.621,51.270,45.898,67.383,0
1583437745.019,32.227,30.762,40.527,30.762,70.801,0
1583437745.023,29.297,25.879,28.320,30.273,9.277,0
1583437745.027,35.156,22.949,39.062,32.227,-19.043,0
1583437745.030,35.156,35.156,37.598,35.156,6.836,0
1583437745.034,28.320,40.039,27.832,26.855,-4.395,0
1583437745.038,26.855,33.691,30.762,16.113,40.039,0
1583437745.042,31.738,27.344,32.715,26.855,84.961,0
1583437745.046,31.738,18.066,29.297,35.156,68.848,0
1583437745.063,33.203,27.832,17.090,36.621,80.078,0
1583437745.067,29.785,39.551,2.930,31.250,26.855,0
1583437745.071,34.180,29.785,14.648,34.668,-0.488,0
1583437745.075,40.039,20.996,19.043,42.969,71.289,0
1583437745.079,29.785,30.762,29.297,37.109,73.242,0
1583437745.083,30.273,41.992,42.969,36.133,43.457,0
1583437745.087,31.738,48.340,39.062,29.297,37.598,0
1583437745.090,25.879,39.551,43.457,23.926,48.828,0
1583437745.094,26.855,27.832,41.992,29.297,32.227,0
1583437745.098,22.461,36.133,32.715,27.832,41.016,0
1583437745.102,22.461,39.551,32.715,22.949,89.844,0
1583437745.106,29.785,35.156,26.367,23.926,66.406,0
1583437745.103,24.414,29.785,19.043,20.020,84.961,0
1583437745.107,28.809,33.203,19.043,25.391,92.773,0
1583437745.111,39.062,42.480,22.949,33.691,55.664,0
1583437745.115,43.457,41.504,27.832,33.203,33.691,0
1583437745.119,42.480,25.391,26.367,32.227,14.648,0
1583437745.123,36.133,34.668,34.180,29.785,53.223,0
1583437745.127,40.039,61.523,35.645,32.715,43.945,0
1583437745.130,36.133,45.410,22.461,28.320,5.371,0
1583437745.134,29.297,29.785,30.273,29.785,-30.762,0
1583437745.138,31.738,39.551,36.133,33.691,-16.113,0
1583437745.142,31.738,35.156,33.691,24.414,15.625,0
1583437745.146,33.691,29.785,36.133,23.926,15.625,0
1583437745.143,41.016,36.621,35.645,33.203,21.484,0
1583437745.147,43.457,37.109,37.109,36.621,52.734,0
1583437745.151,34.668,34.668,42.480,37.109,47.363,0
1583437745.155,27.832,36.133,42.480,30.273,29.785,0
1583437745.159,23.438,34.668,33.203,21.973,52.734,0
1583437745.163,28.809,28.809,31.250,27.344,47.363,0
1583437745.167,38.574,43.457,38.086,35.645,9.766,0
1583437745.170,38.086,38.086,31.738,27.344,23.438,0
1583437745.174,34.668,10.742,23.926,20.996,17.578,0
1583437745.178,36.133,23.438,25.391,26.367,-25.391,0
1583437745.182,35.645,46.387,25.879,25.391,59.082,0
1583437745.186,42.969,43.457,15.137,32.227,43.457,0
1583437745.203,55.664,52.246,14.648,50.293,20.508,0
1583437745.207,37.109,45.410,31.250,33.203,76.660,0
1583437745.211,16.113,39.062,49.805,20.020,45.410,0
1583437745.215,8.301,27.832,59.570,25.391,35.645,0
1583437745.219,10.742,18.555,56.152,19.043,74.219,0
1583437745.223,19.043,24.902,52.734,24.414,58.105,0
1583437745.227,10.742,27.344,42.480,16.602,9.277,0
1583437745.230,13.184,23.438,39.551,7.812,1.953,0
1583437745.234,33.203,16.602,35.156,23.438,-9.277,0
1583437745.238,29.297,16.602,30.762,26.367,-6.348,0
1583437745.242,22.461,23.926,30.273,21.973,32.227,0
1583437745.246,22.949,20.996,9.766,18.555,5.371,0
1583437745.244,19.531,20.996,14.648,20.508,-16.602,0
1583437745.248,17.090,24.902,33.691,22.461,-1.465,0
1583437745.252,12.695,32.227,45.898,26.367,4.883,0
1583437745.256,7.324,36.621,45.410,29.785,-0.977,0
1583437745.260,11.230,18.555,41.016,27.344,39.062,0
1583437745.264,14.160,15.625,43.457,20.020,43.457,0
1583437745.268,8.301,16.602,36.133,12.207,55.664,0
1583437745.271,23.438,19.531,30.273,23.926,61.035,0
1583437745.275,29.297,40.527,22.461,28.320,73.730,0
1583437745.279,22.949,33.691,28.809,14.648,92.773,0
1583437745.283,29.785,28.809,42.480,18.066,34.668,0
1583437745.287,36.621,33.203,28.320,26.855,17.090,0
1583437745.283,41.992,33.203,17.578,29.785,11.230,0
1583437745.287,34.668,33.203,19.043,26.855,12.207,0
1583437745.291,26.855,31.250,33.203,22.461,25.391,0
1583437745.295,24.414,29.297,38.574,27.832,40.039,0
1583437745.299,20.020,23.926,34.668,28.809,-6.348,0
1583437745.303,17.090,18.555,38.086,21.973,-35.156,0
1583437745.307,18.555,29.297,37.109,23.438,74.219,0
1583437745.310,22.461,40.527,29.297,30.762,61.035,0
1583437745.314,27.344,38.086,23.438,36.133,48.828,0
1583437745.318,22.949,25.391,28.809,30.762,74.707,0
1583437745.322,21.484,20.020,26.855,25.391,92.773,0
1583437745.326,28.320,28.320,28.320,29.297,91.797,0
1583437745.343,26.367,25.391,39.551,30.762,38.086,0
1583437745.347,20.020,18.066,32.227,18.066,63.477,0
1583437745.351,21.973,14.648,24.902,14.648,32.227,0
1583437745.355,21.484,19.043,32.227,20.020,5.859,0
1583437745.359,18.555,33.203,30.762,22.461,17.578,0
1583437745.363,23.438,40.527,23.438,28.320,19.531,0
1583437745.367,27.344,37.109,24.902,23.926,25.391,0
1583437745.370,24.902,32.227,24.902,19.531,23.926,0
1583437745.374,18.555,26.367,27.344,22.949,17.578,0
1583437745.378,21.973,27.832,42.480,27.832,27.832,0
1583437745.382,24.902,26.367,35.156,24.414,58.105,0
1583437745.386,22.949,24.902,4.883,16.602,19.043,0
1583437745.385,25.391,26.855,8.789,20.996,-18.555,0
1583437745.389,27.832,28.320,35.645,24.902,27.344,0
1583437745.393,36.133,26.855,44.922,27.832,46.875,0
1583437745.397,37.109,33.691,36.133,30.762,-25.391,0
1583437745.401,32.715,30.273,25.879,28.320,-24.414,0
1583437745.405,35.645,19.531,28.809,30.273,-15.625,0
1583437745.409,37.598,19.531,25.879,35.156,14.160,0
1583437745.412,38.086,32.227,19.531,28.809,53.711,0
1583437745.416,37.109,26.855,24.414,25.391,6.836,0
1583437745.420,30.762,17.578,23.926,26.367,-19.043,0
1583437745.424,33.691,31.250,19.043,32.227,22.461,0
1583437745.428,43.457,33.203,28.809,39.551,80.078,0
1583437745.423,38.574,25.391,33.691,28.320,55.664,0
1583437745.427,30.273,20.020,26.855,22.461,56.152,0
1583437745.431,32.715,24.902,18.066,26.367,64.453,0
1583437745.435,34.180,16.602,29.297,24.902,27.832,0
1583437745.439,23.926,22.461,31.250,23.438,57.617,0
1583437745.443,21.484,42.480,10.254,19.043,68.848,0
1583437745.447,24.414,38.086,22.949,20.996,27.832,0
1583437745.450,28.809,30.762,38.086,28.809,25.391,0
1583437745.454,31.250,22.949,33.691,26.367,-3.418,0
1583437745.458,30.273,22.949,24.902,24.902,41.504,0
1583437745.462,28.320,25.879,16.602,24.902,94.727,0
1583437745.466,32.715,28.320,31.250,31.250,42.969,0
1583437745.483,39.062,30.762,31.250,33.691,7.812,0
1583437745.487,32.715,19.043,21.973,25.879,52.246,0
1583437745.491,28.320,14.160,23.926,29.785,102.051,0
1583437745.495,29.297,23.926,20.508,29.785,60.547,0
1583437745.499,33.691,29.785,22.949,23.926,51.270,0
1583437745.503,38.086,33.203,28.809,30.762,30.762,0
1583437745.507,34.180,37.598,27.832,30.273,0.000,0
1583437745.510,33.691,24.902,23.926,30.273,38.086,0
1583437745.514,38.574,20.020,36.133,35.156,34.180,0
1583437745.518,36.621,24.414,25.391,31.250,30.762,0
1583437745.522,34.180,14.160,0.488,33.691,44.434,0
1583437745.526,29.785,25.879,24.414,33.691,19.531,0
1583437745.523,27.344,32.227,32.227,28.320,2.930,0
1583437745.527,36.133,20.020,27.832,30.273,8.301,0
1583437745.531,39.062,25.391,41.992,32.227,-10.742,0
1583437745.535,30.762,35.156,23.438,29.297,17.090,0
1583437745.539,30.273,34.668,14.648,26.367,62.012,0
1583437745.543,30.273,31.250,29.297,23.438,10.742,0
1583437745.547,27.832,27.344,27.344,25.879,47.363,0
1583437745.550,23.926,22.949,20.020,24.902,88.867,0
1583437745.554,22.949,23.926,23.926,27.344,14.160,0
1583437745.558,24.414,20.996,32.227,29.785,7.812,0
1583437745.562,24.902,23.438,23.438,25.391,56.152,0
1583437745.566,29.297,22.949,12.207,29.297,49.805,0
1583437745.563,31.250,23.438,23.926,35.156,36.133,0
1583437745.567,32.227,34.668,32.715,35.156,21.973,0
1583437745.571,42.969,42.480,36.133,40.527,18.555,0
1583437745.575,41.992,33.203,16.113,40.039,31.738,0
1583437745.579,34.180,23.926,3.906,32.715,36.621,0
1583437745.583,32.715,20.508,26.855,32.715,102.539,0
1583437745.587,30.762,14.648,35.156,34.180,88.867,0
1583437745.590,29.297,13.672,39.062,31.738,39.062,0
1583437745.594,27.344,17.090,36.621,25.879,39.551,0
1583437745.598,26.367,12.695,29.785,28.320,62.012,0
1583437745.602,25.391,22.461,25.879,29.785,13.672,0
1583437745.606,32.227,41.992,27.832,34.180,-30.273,0
1583437745.623,39.062,41.016,32.227,38.086,68.848,0
1583437745.627,27.832,26.367,27.832,34.668,97.656,0
1583437745.631,31.250,24.902,29.785,36.133,87.891,0
1583437745.635,35.645,35.645,35.156,35.645,94.727,0
1583437745.639,27.832,34.180,16.602,33.203,60.547,0
1583437745.643,25.391,24.902,0.000,33.691,35.645,0
1583437745.647,23.926,16.602,14.160,23.438,80.078,0
1583437745.650,27.832,14.648,33.691,21.484,27.344,0
1583437745.654,30.273,14.648,32.227,29.297,-20.996,0
1583437745.658,33.691,30.273,24.902,29.785,-1.953,0
1583437745.662,35.645,36.621,32.715,30.273,1.953,0
1583437745.666,29.297,27.832,31.738,21.973,-1.953,0
1583437745.663,28.320,32.227,21.484,20.020,0.977,0
1583437745.667,37.109,34.668,29.785,33.203,5.371,0
1583437745.671,39.551,17.090,26.367,34.180,-9.766,0
1583437745.675,36.133,20.020,7.812,31.738,33.691,0
1583437745.679,34.180,40.039,14.160,30.273,56.641,0
1583437745.683,32.227,35.645,31.250,30.273,83.496,0
1583437745.687,34.668,21.484,23.438,33.203,27.832,0
1583437745.690,31.738,21.484,17.090,30.273,-4.395,0
1583437745.694,29.785,25.391,27.832,25.879,-10.254,0
1583437745.698,34.180,33.691,25.879,25.879,4.883,0
1583437745.702,32.715,30.762,22.461,26.367,51.270,0
1583437745.706,32.715,28.809,28.320,32.227,24.902,0
1583437745.703,31.250,46.387,23.438,33.691,68.848,0
1583437745.707,30.762,48.828,14.160,34.668,82.031,0
1583437745.711,31.250,42.969,15.137,36.621,83.496,0
1583437745.715,27.344,32.715,19.043,29.785,62.500,0
1583437745.719,37.598,30.273,32.227,35.156,-3.906,0
1583437745.723,49.805,40.527,39.551,44.434,-30.762,0
1583437745.727,38.086,29.297,25.879,39.551,-45.898,0
1583437745.730,32.715,29.297,16.602,32.715,36.133,0
1583437745.734,40.039,40.527,21.484,28.809,40.039,0
1583437745.738,38.086,36.621,18.066,33.203,-3.906,0
1583437745.742,33.691,37.598,-0.488,33.691,56.641,0
1583437745.746,35.156,45.898,-0.488,31.738,85.449,0
1583437745.763,34.180,42.480,21.484,29.785,54.199,0
1583437745.767,33.203,29.297,24.414,25.879,39.551,0
1583437745.771,31.738,29.297,25.391,31.738,45.410,0
1583437745.775,26.367,41.992,33.691,31.250,-1.953,0
1583437745.779,24.902,41.016,37.598,31.250,14.160,0
1583437745.783,33.203,32.227,41.016,33.691,41.504,0
1583437745.787,37.598,24.414,29.785,27.832,-20.996,0
1583437745.790,40.527,32.715,28.320,35.645,-19.043,0
1583437745.794,33.691,44.434,22.949,37.598,18.555,0
1583437745.798,34.668,44.434,21.484,36.133,3.906,0
1583437745.802,39.062,33.691,12.207,35.156,-5.371,0
1583437745.806,32.715,27.344,5.371,35.645,-7.324,0
1583437745.803,33.203,33.203,26.367,38.574,-19.043,0
1583437745.807,35.645,31.738,38.574,34.180,-21.973,0
1583437745.811,33.203,18.066,32.227,29.297,-20.508,0
1583437745.815,31.250,21.484,11.230,30.273,12.695,0
1583437745.819,33.203,31.738,20.508,32.715,73.242,0
1583437745.823,40.527,28.320,41.992,35.645,69.824,0
1583437745.827,37.598,33.203,30.762,24.414,13.184,0
1583437745.830,37.598,32.227,23.926,21.973,35.645,0
1583437745.834,42.969,20.996,28.320,36.133,71.289,0
1583437745.838,36.133,21.484,20.508,30.273,71.777,0
1583437745.842,27.344,28.809,7.324,15.625,15.137,0
1583437745.846,30.273,37.109,8.301,26.367,2.930,0
1583437745.844,28.320,30.762,8.301,34.180,89.355,0
1583437745.848,28.320,16.113,23.438,31.250,110.352,0
1583437745.852,28.320,30.273,31.250,29.297,33.691,0
1583437745.856,30.273,41.016,13.184,31.250,75.195,0
1583437745.860,30.762,26.367,14.648,33.691,93.750,0
1583437745.864,26.855,22.461,15.625,36.133,70.312,0
1583437745.868,26.855,34.180,25.879,32.227,60.547,0
1583437745.871,22.949,26.855,42.480,21.484,44.434,0
1583437745.875,29.297,21.484,34.180,28.320,21.973,0
1583437745.879,27.832,21.484,20.020,33.203,37.598,0
1583437745.883,20.996,21.973,18.066,24.414,55.176,0
1583437745.887,22.461,32.227,17.090,24.414,49.316,0
1583437745.903,24.902,29.297,17.090,25.391,46.875,0
1583437745.907,26.855,22.461,31.250,28.809,19.531,0
1583437745.911,29.297,24.414,27.832,30.273,19.043,0
1583437745.915,35.645,23.926,20.996,28.320,32.227,0
1583437745.919,33.691,21.484,28.809,34.180,14.160,0
1583437745.923,27.344,19.043,30.273,34.180,36.133,0
1583437745.927,25.391,19.531,35.645,23.438,10.254,0
1583437745.930,25.391,25.879,25.391,23.926,8.301,0
1583437745.934,24.414,23.438,18.066,29.785,83.008,0
1583437745.938,31.738,16.602,35.645,35.156,90.332,0
1583437745.942,39.062,21.484,43.945,44.434,41.016,0
1583437745.946,31.738,27.832,38.086,38.574,51.758,0
1583437745.944,26.367,22.461,40.039,26.367,56.152,0
1583437745.948,16.602,18.555,38.086,21.973,-16.113,0
1583437745.952,14.160,13.184,28.320,20.508,-5.859,0
1583437745.956,25.879,12.695,27.832,21.973,33.691,0
1583437745.960,28.809,17.090,22.949,16.113,68.359,0
1583437745.964,32.227,19.531,20.996,14.648,58.105,0
1583437745.968,36.133,22.949,23.926,26.367,31.250,0
1583437745.971,32.715,15.625,22.949,28.320,19.531,0
1583437745.975,26.855,12.207,28.809,25.391,47.363,0
1583437745.979,24.902,28.320,49.316,32.227,85.449,0
1583437745.983,22.949,28.320,60.547,37.598,28.809,0
1583437745.987,19.043,27.344,36.621,35.156,81.543,0
1583437745.983,25.391,24.902,26.367,33.691,70.312,0
1583437745.987,28.320,17.090,33.691,31.250,20.996,0
1583437745.991,24.414,22.949,37.598,31.738,40.039,0
1583437745.995,27.832,25.879,40.527,30.762,12.207,0
1583437745.999,32.227,28.809,38.574,26.367,15.137,0
1583437746.003,31.738,19.043,33.691,24.414,15.625,0
1583437746.007,28.320,9.277,32.715,27.344,45.410,0
1583437746.010,30.273,19.531,40.039,25.879,-0.977,0
1583437746.014,31.738,29.785,33.203,25.879,-31.738,0
1583437746.018,28.320,20.508,24.902,24.902,57.129,0
1583437746.022,34.668,24.414,41.992,33.691,80.078,0
1583437746.026,35.645,31.738,47.852,38.574,42.969,0
1583437746.043,24.414,22.949,41.016,25.879,45.898,0
1583437746.047,24.414,17.578,36.133,19.043,26.855,0
1583437746.051,26.367,16.113,38.574,21.973,45.410,0
1583437746.055,31.250,10.254,49.316,27.832,82.031,0
1583437746.059,32.227,11.719,41.992,31.738,37.598,0
1583437746.063,26.367,32.715,43.457,25.879,17.090,0
1583437746.067,24.414,41.504,47.363,17.578,60.059,0
1583437746.070,27.832,32.715,39.551,20.996,25.879,0
1583437746.074,28.809,18.066,45.898,23.926,19.043,0
1583437746.078,28.809,15.625,45.410,24.414,64.453,0
1583437746.082,32.715,25.391,25.391,24.414,-11.230,0
1583437746.086,31.250,20.508,23.926,23.926,18.066,0
1583437746.084,28.809,3.418,39.551,24.902,71.289,0
1583437746.088,34.180,16.113,44.434,26.855,65.430,0
1583437746.092,34.668,34.180,39.551,23.926,56.641,0
1583437746.096,30.762,30.273,23.926,18.555,22.461,0
1583437746.100,36.133,28.809,26.855,21.973,2.441,0
1583437746.104,33.203,25.879,48.828,23.438,36.133,0
