timestamps,TP9,AF7,AF8,TP10,Right AUX,Marker0
1583422062.115,80.078,58.594,8.301,60.059,96.191,0
1583422062.119,97.168,54.199,7.812,81.543,-8.789,0
1583422062.123,109.375,58.105,1.465,97.168,47.852,0
1583422062.127,119.141,61.035,2.441,105.469,117.188,0
1583422062.131,123.535,59.570,5.371,113.770,84.961,0
1583422062.135,130.859,57.617,3.906,128.418,24.414,0
1583422062.139,141.113,52.734,0.977,138.672,-4.883,0
1583422062.142,146.484,46.875,0.977,143.066,-21.973,0
1583422062.146,148.926,40.039,3.418,150.879,-34.180,0
1583422062.150,157.715,39.062,3.418,157.715,21.484,0
1583422062.154,162.598,39.062,10.742,164.062,68.848,0
1583422062.158,161.133,35.645,17.578,169.922,66.406,0
1583422062.155,169.922,31.738,22.949,176.270,-3.906,0
1583422062.159,182.617,28.320,13.672,185.059,7.324,0
1583422062.163,189.453,29.785,4.395,181.641,41.504,0
1583422062.167,189.453,26.367,21.973,176.270,79.590,0
1583422062.171,189.941,19.043,32.227,185.547,29.785,0
1583422062.175,193.359,19.043,32.227,187.500,-49.316,0
1583422062.179,195.801,18.066,32.227,183.105,-29.785,0
1583422062.182,199.707,17.090,31.738,191.406,27.832,0
1583422062.186,199.707,15.625,28.320,198.242,51.758,0
1583422062.190,200.684,7.812,23.926,204.590,54.688,0
1583422062.194,206.543,5.859,29.297,209.961,64.941,0
1583422062.198,203.613,17.090,34.668,209.961,56.641,0
1583422062.215,195.312,21.484,27.832,206.055,9.277,0
1583422062.219,192.871,21.973,24.414,198.730,9.766,0
1583422062.223,194.824,21.484,21.973,192.383,67.871,0
1583422062.227,190.918,21.973,16.113,188.965,26.855,0
1583422062.231,183.594,19.043,23.926,183.105,13.184,0
1583422062.235,184.082,17.578,32.227,180.664,20.996,0
1583422062.239,185.059,18.555,31.738,176.758,18.066,0
1583422062.242,180.176,14.648,31.738,174.316,52.246,0
1583422062.246,170.410,13.184,28.320,176.758,43.945,0
1583422062.250,170.898,10.742,22.949,173.828,74.219,0
1583422062.254,167.480,8.301,28.809,171.387,60.059,0
1583422062.258,161.621,13.672,32.715,170.410,8.789,0
1583422062.255,157.715,18.555,29.785,164.062,8.789,0
1583422062.259,152.344,16.602,28.320,158.691,21.484,0
1583422062.263,148.926,15.137,33.691,155.273,74.707,0
1583422062.267,145.996,21.484,35.156,148.438,80.566,0
1583422062.271,149.414,24.902,28.320,147.949,54.688,0
1583422062.275,152.832,21.484,33.203,152.344,44.922,0
1583422062.279,144.043,22.461,27.344,145.996,36.133,0
1583422062.282,134.277,21.973,14.648,137.207,41.992,0
1583422062.286,130.371,20.508,30.762,133.301,56.641,0
1583422062.290,128.906,20.996,44.922,129.883,41.504,0
1583422062.294,125.000,16.113,37.109,125.977,55.176,0
1583422062.298,120.605,10.254,41.992,124.023,75.195,0
1583422062.295,120.117,17.578,46.875,119.629,44.922,0
1583422062.299,119.629,24.414,40.039,115.723,2.441,0
1583422062.303,111.816,27.344,31.738,111.816,24.902,0
1583422062.307,106.445,32.715,29.785,105.469,-5.371,0
1583422062.311,106.934,28.320,31.738,104.004,0.000,0
1583422062.315,105.957,22.461,33.203,104.492,94.238,0
1583422062.319,102.539,25.391,35.156,104.492,72.266,0
1583422062.322,99.609,28.320,30.762,102.051,42.480,0
1583422062.326,99.121,26.367,23.438,102.051,49.316,0
1583422062.330,100.586,29.785,22.461,107.910,-2.930,0
1583422062.334,97.656,27.832,30.273,108.398,30.762,0
1583422062.338,92.773,18.555,41.016,103.516,15.137,0
1583422062.355,87.891,21.484,41.504,101.074,-9.766,0
1583422062.359,83.008,29.297,37.598,94.238,51.270,0
1583422062.363,79.590,33.691,36.621,86.914,24.902,0
1583422062.367,74.707,28.320,31.250,82.031,55.664,0
1583422062.371,73.730,18.555,36.133,76.172,81.055,0
1583422062.375,72.754,25.879,44.434,68.848,70.312,0
1583422062.379,69.824,32.227,39.551,61.523,58.594,0
1583422062.382,68.848,25.391,37.598,57.617,28.809,0
1583422062.386,69.336,27.344,32.715,60.547,22.461,0
1583422062.390,71.289,29.785,26.367,62.988,2.930,0
1583422062.394,73.730,26.855,33.203,64.453,-29.297,0
1583422062.398,71.777,26.855,33.203,63.477,17.578,0
1583422062.395,64.941,31.738,29.297,57.129,62.988,0
1583422062.399,62.012,31.250,34.668,55.176,-10.742,0
1583422062.403,57.617,28.320,37.109,51.758,20.508,0
1583422062.407,48.828,26.855,33.203,48.340,64.941,0
1583422062.411,49.316,27.344,27.344,47.852,68.848,0
1583422062.415,48.340,31.738,24.902,44.434,40.527,0
1583422062.419,39.062,28.809,25.391,37.598,-32.227,0
1583422062.422,39.551,25.391,26.367,35.645,-9.277,0
1583422062.426,47.852,28.320,35.156,39.062,40.039,0
1583422062.430,53.223,25.879,32.227,42.480,96.680,0
1583422062.434,52.734,25.879,24.902,45.898,35.645,0
1583422062.438,51.758,33.203,33.691,45.898,-29.785,0
1583422062.435,49.805,35.156,36.133,43.457,29.297,0
1583422062.439,48.828,33.203,34.668,46.875,6.348,0
1583422062.443,49.805,33.203,32.715,46.875,-8.789,0
1583422062.447,40.527,30.762,29.297,39.062,23.926,0
1583422062.451,39.062,31.738,20.996,40.527,8.789,0
1583422062.455,55.664,41.016,14.648,55.176,-24.414,0
1583422062.459,57.617,39.062,23.926,58.594,-13.672,0
1583422062.462,50.781,34.180,36.621,43.457,6.348,0
1583422062.466,51.270,34.180,37.109,37.109,-46.387,0
1583422062.470,50.781,33.203,40.527,41.504,-41.504,0
1583422062.474,51.758,29.297,49.316,43.945,37.109,0
1583422062.478,56.641,26.367,48.340,44.434,66.406,0
1583422062.494,60.547,27.832,48.828,45.410,28.320,0
1583422062.498,54.688,22.949,55.664,45.898,62.988,0
1583422062.502,44.434,14.160,58.594,43.945,58.594,0
1583422062.506,35.156,8.789,57.617,41.992,45.410,0
1583422062.510,20.996,9.766,57.129,36.621,53.711,0
1583422062.514,10.742,7.812,56.152,32.715,45.410,0
1583422062.518,9.277,3.906,55.176,35.645,89.355,0
1583422062.521,15.137,3.418,52.246,39.551,68.848,0
1583422062.525,15.137,8.789,47.363,38.574,44.434,0
1583422062.529,18.555,18.555,45.410,38.086,59.570,0
1583422062.533,31.738,20.508,45.410,45.898,71.289,0
1583422062.537,36.133,16.602,45.410,52.246,69.824,0
1583422062.535,34.180,14.160,46.387,53.711,10.742,0
1583422062.539,38.086,15.625,47.852,55.176,-22.949,0
1583422062.543,36.621,16.602,46.387,57.617,-2.441,0
1583422062.547,34.180,16.113,43.945,60.059,2.930,0
1583422062.551,37.598,20.020,44.922,51.270,88.867,0
1583422062.555,41.992,19.043,42.969,43.945,69.336,0
1583422062.559,39.551,19.531,44.922,40.527,-8.789,0
1583422062.562,38.574,18.066,46.387,35.156,39.551,0
1583422062.566,46.387,18.066,41.992,31.738,74.219,0
1583422062.570,44.922,25.391,38.086,27.344,40.527,0
1583422062.574,40.039,27.832,38.086,27.832,12.695,0
1583422062.578,40.527,27.344,39.062,30.762,35.645,0
1583422062.595,34.180,25.879,34.180,34.668,8.301,0
1583422062.599,33.691,22.461,27.344,39.551,12.695,0
1583422062.603,40.527,22.949,30.273,40.527,45.410,0
1583422062.607,36.621,26.367,35.156,35.156,30.273,0
1583422062.611,33.203,26.855,39.062,30.273,56.152,0
1583422062.615,38.574,27.832,41.504,35.156,88.379,0
1583422062.619,40.527,29.297,39.551,35.156,75.684,0
1583422062.622,41.992,33.691,39.551,31.738,76.660,0
1583422062.626,43.945,31.250,39.062,34.668,63.965,0
1583422062.630,43.945,23.926,37.109,42.480,12.695,0
1583422062.634,41.016,28.320,34.668,44.922,48.828,0
1583422062.638,40.039,31.738,37.598,44.434,87.402,0
1583422062.635,34.180,27.832,42.969,43.945,27.344,0
1583422062.639,32.715,30.762,42.480,39.062,21.973,0
1583422062.643,42.480,35.156,33.203,41.992,29.297,0
1583422062.647,40.039,34.668,31.738,45.898,-12.695,0
1583422062.651,33.203,35.156,39.551,40.527,-20.996,0
1583422062.655,23.926,34.180,38.574,30.273,33.691,0
1583422062.659,21.484,31.250,38.086,24.902,18.066,0
1583422062.662,24.414,32.715,41.504,24.414,-27.344,0
1583422062.666,31.250,33.203,42.480,30.273,27.344,0
1583422062.670,32.715,32.715,41.016,33.203,8.789,0
1583422062.674,30.273,34.668,43.945,31.738,-12.207,0
1583422062.678,30.762,27.344,44.922,35.645,18.555,0
1583422062.675,28.320,22.949,38.086,31.738,16.602,0
1583422062.679,31.738,28.320,34.180,30.762,59.082,0
1583422062.683,31.250,32.227,30.273,33.203,-27.344,0
1583422062.687,35.156,36.621,35.645,30.273,-84.961,0
1583422062.691,36.621,36.133,41.992,26.367,28.320,0
1583422062.695,31.738,31.738,43.457,33.203,54.199,0
1583422062.699,31.250,33.691,44.434,42.969,90.332,0
1583422062.702,29.785,34.180,37.109,37.598,63.965,0
1583422062.706,32.715,32.715,39.551,32.227,12.207,0
1583422062.710,31.250,32.227,48.828,32.227,48.828,0
1583422062.714,30.762,26.367,45.898,33.691,59.570,0
1583422062.718,31.250,32.715,39.551,29.785,26.855,0
1583422062.734,29.297,39.062,42.969,27.344,28.320,0
1583422062.738,32.715,33.691,43.945,26.367,67.383,0
1583422062.742,33.691,34.668,40.039,23.438,82.520,0
1583422062.746,33.203,36.133,36.621,20.996,64.453,0
1583422062.750,32.227,36.133,35.156,20.508,74.219,0
1583422062.754,30.762,39.551,40.039,23.926,39.551,0
1583422062.758,35.156,38.574,43.457,26.855,-18.555,0
1583422062.761,42.480,37.598,42.480,25.879,1.465,0
1583422062.765,40.527,38.086,41.016,24.414,-7.324,0
1583422062.769,34.668,36.621,45.410,25.879,20.020,0
1583422062.773,32.715,32.227,29.785,27.344,45.898,0
1583422062.777,31.738,33.203,25.879,27.832,32.715,0
1583422062.795,28.809,38.086,40.527,26.855,54.199,0
1583422062.799,25.879,37.109,36.621,24.414,50.781,0
1583422062.803,26.855,37.598,33.203,25.391,32.715,0
1583422062.807,34.180,34.180,33.203,30.273,29.785,0
1583422062.811,34.180,32.227,36.621,30.762,27.344,0
1583422062.815,31.738,36.621,39.062,25.879,16.113,0
1583422062.819,35.645,41.016,37.598,27.344,45.898,0
1583422062.822,36.621,35.156,37.598,26.855,63.965,0
1583422062.826,36.621,31.738,37.598,25.391,32.227,0
1583422062.830,38.086,36.133,34.180,28.809,58.105,0
1583422062.834,41.992,32.715,25.391,28.809,91.309,0
1583422062.838,41.016,28.320,19.531,31.738,56.152,0
1583422062.815,36.621,31.250,30.273,34.668,71.777,0
1583422062.819,36.621,35.645,39.062,30.273,29.297,0
1583422062.823,40.039,33.203,35.156,27.344,-54.688,0
1583422062.827,40.527,29.785,31.738,26.855,-3.906,0
1583422062.831,39.551,34.180,29.785,25.879,22.461,0
1583422062.835,38.086,33.691,30.762,29.297,-0.488,0
1583422062.839,43.945,27.832,35.156,36.133,0.488,0
1583422062.842,60.059,37.598,34.668,44.434,31.250,0
1583422062.846,49.316,44.434,33.691,34.180,28.809,0
1583422062.850,29.297,41.992,30.273,15.625,35.156,0
1583422062.854,30.273,42.969,27.344,7.812,71.289,0
1583422062.858,38.574,41.504,24.902,11.230,57.617,0
1583422062.875,33.203,50.293,19.531,15.625,36.133,0
1583422062.879,22.461,58.594,14.648,4.395,52.246,0
1583422062.883,15.137,54.688,8.301,-9.277,64.941,0
1583422062.887,9.766,54.199,7.812,-10.742,23.926,0
1583422062.891,4.395,59.082,9.766,-17.578,30.762,0
1583422062.895,0.488,58.105,10.254,-20.020,53.223,0
1583422062.899,1.953,56.152,10.254,-11.719,68.848,0
1583422062.902,-4.883,54.199,-1.953,-14.160,79.590,0
1583422062.906,-6.348,51.270,-8.301,-19.043,40.527,0
1583422062.910,2.930,54.688,6.348,-14.160,38.086,0
1583422062.914,7.324,54.688,10.254,-9.766,69.336,0
1583422062.918,8.789,44.922,10.254,-10.742,42.480,0
1583422062.915,11.230,50.781,6.836,-6.836,13.672,0
1583422062.919,13.184,57.129,10.254,0.488,-7.324,0
1583422062.923,19.043,59.570,12.207,0.488,17.090,0
1583422062.927,20.020,58.105,7.812,-1.465,49.805,0
1583422062.931,19.043,51.270,18.066,0.977,34.180,0
1583422062.935,16.602,49.316,21.484,-5.859,35.156,0
1583422062.939,13.184,47.363,19.043,-1.465,47.852,0
1583422062.942,20.996,46.387,22.461,12.695,42.969,0
1583422062.946,27.832,44.922,23.438,14.648,23.926,0
1583422062.950,26.367,41.016,20.020,11.719,17.090,0
1583422062.954,25.879,46.387,14.160,9.766,54.688,0
1583422062.958,29.785,51.270,18.555,14.160,17.578,0
1583422062.955,32.227,44.434,25.879,20.508,-15.137,0
1583422062.959,35.645,46.387,27.344,20.020,-6.836,0
1583422062.963,41.504,47.852,19.531,21.484,24.414,0
1583422062.967,44.434,48.828,13.672,26.855,51.758,0
1583422062.971,39.551,51.270,22.461,26.367,12.695,0
1583422062.975,33.691,43.945,28.809,25.879,52.246,0
1583422062.979,31.738,40.039,28.809,28.320,90.820,0
1583422062.982,25.879,42.480,31.250,23.438,5.859,0
1583422062.986,25.879,40.039,27.832,20.996,59.570,0
1583422062.990,34.180,32.715,23.438,27.344,162.598,0
1583422062.994,33.691,33.691,27.832,29.785,87.402,0
1583422062.998,32.715,39.551,19.531,29.785,43.945,0
1583422063.015,30.762,36.133,17.578,28.320,74.707,0
1583422063.019,33.203,31.738,32.715,30.762,26.855,0
1583422063.023,38.574,35.156,38.086,31.738,-5.371,0
1583422063.027,40.527,36.621,39.551,33.203,56.152,0
1583422063.031,37.109,33.691,39.551,34.180,25.879,0
1583422063.035,37.109,39.551,35.645,34.668,64.941,0
1583422063.039,37.109,41.992,36.133,33.203,132.812,0
1583422063.042,23.926,33.203,35.645,30.273,91.309,0
1583422063.046,16.602,31.738,31.738,30.762,9.766,0
1583422063.050,21.973,38.574,29.297,26.855,14.160,0
1583422063.054,30.273,38.574,30.273,23.438,9.766,0
1583422063.058,22.461,36.621,31.250,26.855,-0.977,0
1583422063.055,34.180,33.691,29.785,34.180,31.738,0
1583422063.059,47.852,36.133,29.785,31.250,67.383,0
1583422063.063,49.316,38.086,32.715,25.391,88.379,0
1583422063.067,55.176,40.039,31.738,27.832,15.137,0
1583422063.071,25.391,42.969,32.227,28.320,-3.906,0
1583422063.075,29.297,41.504,31.250,29.297,-1.465,0
1583422063.079,41.504,37.598,24.902,28.809,-0.977,0
1583422063.082,24.902,31.250,24.902,31.250,37.109,0
1583422063.086,29.297,33.691,31.738,32.227,-1.465,0
1583422063.090,28.320,42.969,28.320,30.762,3.418,0
1583422063.094,19.043,40.039,30.762,31.250,18.555,0
1583422063.098,15.137,33.203,39.551,27.832,16.602,0
1583422063.096,26.367,35.156,35.645,19.043,1.465,0
1583422063.100,24.902,36.621,32.227,17.578,-35.156,0
1583422063.104,15.625,32.715,32.715,19.531,43.945,0
1583422063.108,13.672,35.156,32.227,21.484,79.590,0
1583422063.112,18.066,41.016,26.855,24.414,87.891,0
1583422063.116,26.367,40.039,25.391,27.832,42.969,0
1583422063.120,30.762,34.180,29.297,28.320,13.672,0
1583422063.123,31.738,28.809,24.414,25.391,20.996,0
1583422063.127,32.715,30.762,24.902,27.832,1.465,0
1583422063.131,37.598,33.691,32.715,31.250,43.945,0
1583422063.135,30.762,35.156,35.645,26.367,14.648,0
1583422063.139,30.273,34.668,35.645,24.414,-69.336,0
1583422063.155,34.668,40.527,31.250,30.273,-55.664,0
1583422063.159,34.180,47.852,30.762,28.809,24.902,0
1583422063.163,43.945,41.016,34.668,25.879,63.477,0
1583422063.167,39.062,38.086,36.133,20.996,77.148,0
1583422063.171,35.645,38.086,35.156,19.043,59.570,0
1583422063.175,33.691,34.180,37.109,23.438,13.184,0
1583422063.179,35.156,31.738,38.086,23.438,-4.395,0
1583422063.182,30.762,31.250,38.086,20.508,30.762,0
1583422063.186,29.785,36.621,40.039,23.926,28.320,0
1583422063.190,32.715,40.039,34.668,22.949,8.789,0
1583422063.194,37.109,39.551,31.738,24.902,26.367,0
1583422063.198,38.086,37.598,19.043,25.879,27.832,0
1583422063.195,29.297,34.180,15.625,29.785,27.832,0
1583422063.199,27.344,35.156,34.180,31.250,28.320,0
1583422063.203,28.320,38.574,32.715,28.320,77.637,0
1583422063.207,25.879,37.598,35.156,28.809,65.430,0
1583422063.211,36.133,27.832,41.504,35.645,22.949,0
1583422063.215,42.969,29.785,38.574,46.875,9.277,0
1583422063.219,39.551,40.527,35.156,39.551,32.715,0
1583422063.222,27.832,41.016,30.762,26.855,10.254,0
1583422063.226,27.344,37.598,29.785,35.156,2.930,0
1583422063.230,48.828,38.086,33.691,50.293,41.504,0
1583422063.234,61.035,36.621,37.109,54.199,11.719,0
1583422063.238,57.129,33.203,38.086,58.594,-16.602,0
1583422063.235,54.199,32.227,39.551,57.129,22.949,0
1583422063.239,54.199,36.133,36.621,55.664,19.531,0
1583422063.243,58.105,40.039,37.598,67.383,-8.789,0
1583422063.247,69.336,36.133,44.922,69.824,-42.480,0
1583422063.251,66.895,32.227,41.504,60.547,-39.062,0
1583422063.255,68.359,34.180,39.062,56.641,39.551,0
1583422063.259,70.312,38.086,41.504,59.082,38.574,0
1583422063.262,63.477,37.598,37.109,57.129,29.785,0
1583422063.266,64.941,34.668,29.297,51.758,81.543,0
1583422063.270,60.059,35.645,26.367,52.246,75.195,0
1583422063.274,56.641,37.598,28.809,56.152,65.918,0
1583422063.278,60.547,38.086,35.156,51.270,50.293,0
1583422063.295,53.223,40.527,39.551,41.504,10.742,0
1583422063.299,48.340,37.598,37.598,36.621,55.176,0
1583422063.303,43.457,32.715,39.551,36.133,71.777,0
1583422063.307,38.086,36.621,37.109,35.645,1.953,0
1583422063.311,39.062,32.715,34.180,33.691,40.527,0
1583422063.315,39.062,32.715,37.109,33.691,16.602,0
1583422063.319,38.086,38.574,41.504,29.297,32.227,0
1583422063.322,41.016,28.809,36.621,29.297,88.379,0
1583422063.326,34.668,24.902,31.250,26.855,50.781,0
1583422063.330,37.109,34.668,29.297,29.785,62.012,0
1583422063.334,41.992,37.109,23.926,35.645,43.945,0
1583422063.338,37.598,37.598,23.926,33.203,15.625,0
1583422063.336,36.621,38.086,34.668,32.715,21.973,0
1583422063.340,39.062,37.109,38.574,33.203,8.301,0
1583422063.344,47.852,31.738,41.016,40.527,37.109,0
1583422063.348,55.664,33.691,44.922,45.898,62.500,0
1583422063.352,55.664,35.645,38.574,44.922,47.852,0
1583422063.356,51.758,33.691,38.574,45.410,61.035,0
1583422063.360,49.805,40.039,37.598,48.828,28.320,0
1583422063.363,52.246,37.598,36.133,51.270,-0.488,0
1583422063.367,51.758,33.691,47.363,36.133,37.109,0
1583422063.371,48.828,42.969,50.781,29.785,87.891,0
1583422063.375,48.340,44.922,33.203,38.086,37.598,0
1583422063.379,35.645,37.598,25.879,36.621,-1.465,0
1583422063.375,25.391,37.109,36.621,32.715,36.133,0
1583422063.379,21.973,36.621,44.434,27.344,45.898,0
1583422063.383,16.602,36.621,43.457,22.461,30.762,0
1583422063.387,21.484,37.109,36.621,19.043,21.484,0
1583422063.391,27.344,30.762,32.227,18.066,-10.742,0
1583422063.395,30.762,30.762,42.969,16.113,54.199,0
1583422063.399,35.156,41.504,37.598,21.484,44.922,0
1583422063.402,26.367,43.945,33.203,24.902,-5.371,0
1583422063.406,19.531,38.574,41.992,19.531,29.785,0
1583422063.410,21.484,38.086,42.969,20.996,21.973,0
1583422063.414,28.809,37.109,36.133,32.227,18.066,0
1583422063.418,41.504,35.645,27.832,42.969,12.207,0
1583422063.435,46.387,37.598,37.598,46.875,46.387,0
1583422063.439,38.574,37.598,42.969,40.039,35.645,0
1583422063.443,39.062,35.156,40.039,37.598,0.000,0
1583422063.447,46.875,35.156,34.668,41.992,77.148,0
1583422063.451,50.293,32.715,35.156,34.668,106.445,0
1583422063.455,41.016,36.133,43.945,39.062,35.156,0
1583422063.459,41.992,40.039,41.992,39.551,30.762,0
1583422063.462,52.246,33.691,37.598,32.227,8.789,0
1583422063.466,50.293,30.762,30.273,34.180,-47.852,0
1583422063.470,51.270,31.250,33.691,36.133,4.883,0
1583422063.474,54.199,36.621,39.062,33.691,41.016,0
1583422063.478,56.152,41.504,39.551,30.762,15.137,0
1583422063.476,66.895,39.551,42.969,33.691,19.531,0
1583422063.480,63.477,36.133,36.133,38.086,37.598,0
1583422063.484,41.504,35.645,34.668,35.645,49.805,0
1583422063.488,40.527,33.691,35.645,35.156,81.055,0
1583422063.492,43.945,36.133,31.250,36.621,63.477,0
1583422063.496,42.969,36.621,37.109,34.668,7.324,0
1583422063.500,44.922,32.227,41.992,36.621,72.754,0
1583422063.503,34.180,32.715,33.691,36.621,70.801,0
1583422063.507,27.832,32.227,32.227,34.668,42.480,0
1583422063.511,32.715,36.621,33.691,30.762,46.387,0
1583422063.515,32.227,39.551,35.156,25.879,55.664,0
1583422063.519,28.320,40.039,28.320,25.879,82.031,0
1583422063.515,24.902,41.016,21.484,30.273,73.242,0
1583422063.519,25.879,41.504,38.086,26.367,56.641,0
1583422063.523,26.367,41.016,44.434,24.902,84.961,0
1583422063.527,27.344,36.621,41.992,30.762,72.266,0
1583422063.531,29.297,34.668,40.527,34.668,23.438,0
1583422063.535,33.203,37.109,38.574,33.203,29.297,0
1583422063.539,37.598,37.109,37.109,32.715,42.480,0
1583422063.542,32.715,31.250,40.039,32.715,-4.883,0
1583422063.546,23.926,35.645,37.109,25.879,-37.109,0
1583422063.550,23.438,39.551,33.203,23.926,-1.953,0
1583422063.554,26.855,35.156,25.391,28.809,46.387,0
1583422063.558,29.785,37.598,22.461,29.785,49.805,0
1583422063.575,33.203,41.992,40.527,27.344,30.762,0
1583422063.579,35.156,41.504,46.875,23.926,54.199,0
1583422063.583,35.645,40.039,41.992,19.531,4.395,0
1583422063.587,40.039,37.598,34.668,19.531,-42.969,0
1583422063.591,41.992,38.086,29.785,23.926,-50.293,0
1583422063.595,37.598,37.598,34.668,23.926,9.277,0
1583422063.599,30.273,39.062,36.621,21.484,63.477,0
1583422063.602,22.949,37.598,31.738,15.137,79.102,0
1583422063.606,27.344,35.645,30.762,17.090,73.242,0
1583422063.610,31.738,34.668,34.180,20.996,-12.695,0
1583422063.614,32.227,32.715,34.668,22.949,38.086,0
1583422063.618,34.668,42.480,30.762,22.949,76.172,0
1583422063.615,31.250,43.457,28.809,21.484,-1.465,0
1583422063.619,22.949,38.574,30.273,22.461,10.742,0
1583422063.623,29.297,34.180,37.109,30.762,62.988,0
1583422063.627,38.574,36.621,33.691,34.180,74.219,0
1583422063.631,43.945,36.621,22.461,31.738,53.711,0
1583422063.635,52.734,35.645,30.273,33.203,15.625,0
1583422063.639,52.246,41.016,37.598,35.645,60.547,0
1583422063.642,41.504,40.527,34.668,35.156,79.590,0
1583422063.646,36.621,38.086,37.598,36.133,-1.465,0
1583422063.650,38.574,40.527,40.039,33.203,34.180,0
1583422063.654,41.992,43.457,34.180,28.320,84.961,0
1583422063.658,48.828,37.109,26.855,27.832,12.695,0
1583422063.654,45.898,32.715,26.367,23.438,-19.043,0
1583422063.658,21.973,33.691,33.203,23.926,-32.715,0
1583422063.662,10.254,35.645,35.645,27.344,0.977,0
1583422063.666,18.555,33.691,24.414,24.414,33.203,0
1583422063.670,17.090,26.367,31.250,18.066,26.367,0
1583422063.674,16.113,27.832,43.945,18.555,-6.836,0
1583422063.678,28.809,37.109,39.062,24.902,-37.109,0
1583422063.681,35.156,39.062,36.621,25.391,53.711,0
1583422063.685,41.504,38.086,36.133,21.484,71.289,0
1583422063.689,33.203,34.668,36.621,25.879,-36.133,0
1583422063.693,14.648,33.203,36.621,32.227,-39.062,0
1583422063.697,20.020,35.645,32.715,34.180,11.230,0
1583422063.715,30.273,35.645,29.297,29.785,53.223,0
1583422063.719,31.738,37.598,28.809,24.414,26.855,0
1583422063.723,42.969,43.457,31.250,29.785,0.488,0
1583422063.727,41.016,43.945,18.066,28.809,84.473,0
1583422063.731,26.367,42.480,20.508,23.926,90.820,0
1583422063.735,33.691,39.062,36.621,24.414,82.031,0
1583422063.739,41.992,35.156,38.574,19.043,49.805,0
1583422063.742,32.227,35.645,39.551,11.230,13.672,0
1583422063.746,34.180,36.621,35.645,11.230,33.203,0
1583422063.750,34.668,33.203,32.715,16.113,20.020,0
1583422063.754,18.066,28.320,31.250,31.738,35.645,0
1583422063.758,28.320,35.645,31.738,45.410,-13.672,0
1583422063.755,28.320,42.969,33.691,34.180,9.766,0
1583422063.759,20.508,37.598,31.250,23.438,103.516,0
1583422063.763,33.691,38.086,31.738,29.785,44.922,0
1583422063.767,50.293,41.504,32.227,36.621,25.391,0
1583422063.771,64.941,44.922,27.344,43.457,45.410,0
1583422063.775,66.406,47.852,23.438,37.109,62.988,0
1583422063.779,51.270,48.340,22.461,25.879,78.125,0
1583422063.782,50.781,55.176,16.602,19.531,-2.930,0
1583422063.786,69.336,59.570,15.625,20.508,-3.906,0
1583422063.790,70.312,56.152,15.137,33.203,82.520,0
1583422063.794,50.293,50.781,9.766,33.691,48.340,0
1583422063.798,40.527,52.246,18.555,28.320,-10.742,0
1583422063.795,40.039,53.223,26.855,28.320,41.016,0
1583422063.799,37.109,47.363,29.785,32.715,10.254,0
1583422063.803,35.156,45.410,31.250,39.062,3.418,0
1583422063.807,42.480,48.828,26.367,38.574,31.738,0
1583422063.811,43.457,48.340,26.855,33.691,21.484,0
1583422063.815,47.363,42.480,26.855,35.645,54.199,0
1583422063.819,49.316,43.457,19.043,34.668,77.637,0
1583422063.822,37.598,46.875,14.648,34.668,52.734,0
1583422063.826,34.668,42.480,18.555,35.156,1.953,0
1583422063.830,42.969,39.551,31.250,31.250,0.000,0
1583422063.834,45.898,38.086,38.086,34.668,21.484,0
1583422063.838,44.922,36.621,39.551,41.992,60.059,0
1583422063.855,42.969,41.992,33.691,40.527,110.352,0
1583422063.859,47.363,47.363,27.344,35.645,65.430,0
1583422063.863,46.875,45.410,30.273,35.645,46.875,0
1583422063.867,47.852,45.410,33.691,34.668,25.391,0
1583422063.871,56.152,43.945,35.156,32.715,45.410,0
1583422063.875,49.316,43.945,33.203,33.203,42.480,0
1583422063.879,33.203,48.828,28.320,25.391,-47.363,0
1583422063.882,24.902,45.410,24.414,20.020,6.836,0
1583422063.886,20.508,41.504,26.367,30.273,55.664,0
1583422063.890,20.996,40.527,30.762,25.879,5.371,0
1583422063.894,21.484,35.156,33.203,21.973,-15.625,0
1583422063.898,29.297,34.668,31.250,25.391,16.602,0
1583422063.895,35.156,42.969,26.855,27.344,37.109,0
1583422063.899,26.855,43.945,35.156,21.484,59.082,0
1583422063.903,26.367,41.992,40.039,16.113,79.590,0
1583422063.907,20.508,38.574,36.621,23.926,28.809,0
1583422063.911,6.836,34.180,29.785,23.926,-12.207,0
1583422063.915,3.906,37.598,23.926,19.531,43.457,0
1583422063.919,4.883,42.969,29.785,20.020,60.547,0
1583422063.922,17.090,40.039,31.738,22.949,89.844,0
1583422063.926,25.391,37.598,28.809,23.926,146.484,0
1583422063.930,33.691,35.645,31.738,22.949,101.074,0
1583422063.934,41.504,32.227,36.133,27.344,4.395,0
1583422063.938,25.879,39.062,28.320,22.949,13.672,0
1583422063.935,20.508,41.992,31.738,20.020,83.008,0
1583422063.939,37.598,36.133,43.457,33.203,13.184,0
1583422063.943,40.039,35.645,41.992,31.250,-8.301,0
1583422063.947,44.922,33.691,41.504,27.832,3.418,0
1583422063.951,41.504,34.180,40.039,28.320,-55.176,0
1583422063.955,49.316,37.598,34.668,28.320,21.973,0
1583422063.959,42.480,42.969,32.715,26.367,78.613,0
1583422063.962,19.043,43.945,33.691,25.391,68.848,0
1583422063.966,20.996,38.574,25.391,24.902,97.656,0
1583422063.970,30.273,33.691,19.043,27.832,50.781,0
1583422063.974,28.320,28.320,24.902,33.203,7.812,0
1583422063.978,26.855,36.133,29.785,22.949,-8.301,0
1583422063.995,22.949,40.039,31.738,20.020,7.324,0
1583422063.999,16.602,31.738,36.133,20.020,30.762,0
1583422064.003,23.438,32.715,31.250,15.137,18.066,0
1583422064.007,13.184,33.691,23.438,13.184,-17.090,0
1583422064.011,4.395,27.344,32.227,16.113,-45.898,0
1583422064.015,28.320,29.785,39.062,19.531,21.484,0
1583422064.019,40.039,32.227,39.062,30.762,93.262,0
1583422064.022,15.137,33.691,37.109,30.762,39.551,0
1583422064.026,34.180,36.133,35.156,36.133,-16.602,0
1583422064.030,63.477,40.527,30.273,50.293,33.691,0
1583422064.034,22.949,42.969,30.762,26.855,42.480,0
1583422064.038,3.906,38.086,32.715,7.324,52.246,0
1583422064.035,24.414,39.551,25.391,8.301,104.004,0
1583422064.039,22.461,40.039,21.484,-3.418,77.148,0
1583422064.043,8.301,33.691,20.020,-11.719,69.824,0
1583422064.047,8.301,41.016,13.184,-21.973,90.820,0
1583422064.051,14.648,47.852,14.160,-10.742,35.645,0
1583422064.055,9.766,43.945,18.066,-0.488,42.969,0
1583422064.059,8.789,40.527,15.137,-8.789,34.180,0
1583422064.062,12.695,45.410,9.766,-2.441,1.953,0
1583422064.066,21.484,44.922,13.672,4.395,-0.488,0
1583422064.070,17.090,41.016,22.461,-0.977,39.062,0
1583422064.074,14.648,40.039,17.578,-0.488,68.848,0
1583422064.078,20.996,39.551,17.578,25.391,39.551,0
1583422064.095,17.578,36.621,23.926,25.391,5.859,0
1583422064.099,40.039,41.016,24.414,20.020,11.719,0
1583422064.103,45.898,40.527,33.691,25.391,46.387,0
1583422064.107,33.691,29.785,37.109,20.020,82.520,0
1583422064.111,36.133,36.621,30.762,-1.953,71.777,0
1583422064.115,37.598,43.945,32.715,8.301,9.766,0
1583422064.119,38.086,47.363,22.461,27.832,38.086,0
1583422064.122,38.574,49.316,14.648,28.320,30.762,0
1583422064.126,32.227,46.875,27.832,23.926,-1.465,0
1583422064.130,43.945,41.504,30.762,25.879,-26.367,0
1583422064.134,52.246,39.062,29.297,36.133,-5.859,0
1583422064.138,52.246,43.945,36.133,40.527,37.598,0
1583422064.135,52.246,41.016,34.180,47.363,25.879,0
1583422064.139,41.504,32.227,32.715,32.715,35.645,0
1583422064.143,39.062,37.598,37.598,23.926,23.438,0
1583422064.147,33.691,42.480,35.645,23.926,53.711,0
1583422064.151,33.691,33.691,30.273,25.879,93.750,0
1583422064.155,38.086,37.109,26.367,33.691,61.035,0
1583422064.159,36.133,43.945,34.668,28.809,32.227,0
1583422064.162,30.762,43.945,32.227,31.250,34.180,0
1583422064.166,40.039,43.945,32.227,36.133,47.852,0
1583422064.170,44.434,37.598,41.016,30.273,15.137,0
1583422064.174,29.297,34.668,44.922,30.273,9.766,0
1583422064.178,34.180,36.621,45.410,36.133,82.031,0
1583422064.175,32.715,38.574,39.062,35.645,38.574,0
1583422064.179,29.785,32.715,35.156,19.043,22.949,0
1583422064.183,38.086,32.715,39.062,31.250,35.156,0
1583422064.187,40.039,41.992,38.086,46.875,-53.223,0
1583422064.191,38.086,44.922,35.156,32.227,24.902,0
1583422064.195,37.598,42.480,30.762,28.320,72.754,0
1583422064.199,38.574,40.039,24.414,21.973,59.570,0
1583422064.202,32.227,37.598,27.344,28.320,32.227,0
1583422064.206,28.320,39.551,34.668,18.555,-12.207,0
1583422064.210,26.855,39.062,34.668,4.883,10.254,0
1583422064.214,23.438,38.574,36.133,18.066,27.344,0
1583422064.218,20.996,41.016,35.156,27.832,-9.277,0
1583422064.235,25.391,37.598,27.344,27.344,-16.113,0
1583422064.239,28.320,36.133,27.832,30.762,-18.555,0
1583422064.243,27.832,39.062,30.273,27.832,-0.977,0
1583422064.247,25.879,43.457,24.414,20.020,44.922,0
1583422064.251,23.926,44.922,27.344,17.090,39.551,0
1583422064.255,16.602,43.945,30.762,11.230,14.160,0
1583422064.259,19.043,44.434,28.320,16.113,7.812,0
1583422064.262,20.020,43.457,36.621,13.672,5.371,0
1583422064.266,11.719,35.156,38.574,-3.906,63.965,0
1583422064.270,10.742,33.203,37.598,0.977,88.867,0
1583422064.274,22.461,34.668,40.527,17.090,39.551,0
1583422064.278,21.484,28.320,36.621,20.508,-37.109,0
1583422064.275,17.090,30.273,33.203,18.555,-20.996,0
1583422064.279,24.414,35.645,36.133,20.020,38.086,0
1583422064.283,25.879,35.645,33.691,22.461,19.043,0
1583422064.287,24.414,40.527,24.902,21.484,6.348,0
1583422064.291,31.250,43.945,26.855,26.367,32.715,0
1583422064.295,39.062,42.969,30.762,32.715,73.730,0
1583422064.299,42.969,42.480,40.039,32.227,10.254,0
1583422064.302,34.668,36.133,45.898,20.020,1.953,0
1583422064.306,29.297,33.203,38.086,21.484,55.176,0
1583422064.310,22.461,41.016,33.203,21.973,83.008,0
1583422064.314,17.090,42.480,36.621,15.625,123.535,0
1583422064.318,30.762,41.504,35.645,18.066,35.156,0
1583422064.315,32.715,43.945,23.438,7.324,6.836,0
1583422064.319,22.461,37.598,23.438,4.395,6.836,0
1583422064.323,21.973,36.133,31.738,12.695,5.371,0
1583422064.327,23.926,41.016,32.715,10.742,54.688,0
1583422064.331,20.020,41.504,34.668,7.812,60.547,0
1583422064.335,20.508,40.527,33.203,-1.465,31.250,0
1583422064.339,26.855,41.016,28.809,4.883,19.531,0
1583422064.342,31.738,39.551,35.156,18.555,34.668,0
1583422064.346,42.969,35.645,34.180,14.648,46.387,0
1583422064.350,41.016,38.086,31.738,22.949,65.430,0
1583422064.354,20.996,37.109,33.203,23.438,66.895,0
1583422064.358,26.855,36.133,30.762,24.902,86.914,0
1583422064.375,44.922,31.738,28.320,31.738,38.086,0
1583422064.379,37.109,26.367,24.902,18.066,41.016,0
1583422064.383,35.156,32.715,24.414,17.578,64.941,0
1583422064.387,28.809,40.039,32.227,19.043,2.441,0
1583422064.391,11.719,37.598,34.668,-2.441,-4.883,0
1583422064.395,10.254,41.016,28.320,-15.625,-12.207,0
1583422064.399,19.043,39.062,33.691,0.977,3.906,0
1583422064.402,8.301,29.785,41.992,15.625,-22.949,0
1583422064.406,0.977,27.344,40.039,21.973,6.836,0
1583422064.410,20.020,34.180,37.109,7.812,33.203,0
1583422064.414,37.598,35.645,41.992,9.277,-45.898,0
1583422064.418,42.480,35.645,37.598,28.320,20.508,0
1583422064.415,39.551,35.645,35.645,42.480,42.480,0
1583422064.419,32.715,38.574,34.180,41.504,20.508,0
1583422064.423,30.273,36.133,34.668,29.785,50.781,0
1583422064.427,37.598,34.668,38.086,15.137,59.082,0
1583422064.431,45.410,40.039,32.227,39.551,29.785,0
1583422064.435,48.828,41.016,30.762,68.848,34.180,0
1583422064.439,13.184,32.715,49.805,35.645,62.988,0
1583422064.442,-7.812,27.832,49.316,9.766,56.641,0
1583422064.446,2.930,30.762,41.992,15.137,26.855,0
1583422064.450,0.488,26.367,45.410,8.301,2.441,0
1583422064.454,-9.277,26.855,35.645,-7.812,11.719,0
1583422064.458,-29.297,24.902,37.109,-16.113,69.336,0
1583422064.455,-41.504,15.137,37.598,-26.367,62.500,0
1583422064.459,-44.434,19.043,32.227,-42.969,19.043,0
1583422064.463,-58.594,19.531,40.039,-44.434,90.820,0
1583422064.467,-45.898,12.207,50.293,-30.762,114.746,0
1583422064.471,-30.273,16.113,51.758,-33.203,74.219,0
1583422064.475,-33.203,20.508,40.527,-41.016,50.293,0
1583422064.479,-35.645,20.508,37.598,-33.691,35.645,0
1583422064.482,-41.992,15.625,47.852,-23.438,52.246,0
1583422064.486,-29.785,15.625,47.363,-33.203,37.598,0
1583422064.490,-14.160,24.414,39.062,-27.832,13.672,0
1583422064.494,-6.836,23.926,36.133,-11.719,42.480,0
1583422064.498,0.000,24.414,40.527,-0.977,38.574,0
1583422064.514,-0.977,27.832,42.480,6.836,59.082,0
1583422064.518,1.465,25.879,41.016,5.371,65.430,0
1583422064.522,7.324,23.438,41.016,2.441,19.531,0
1583422064.526,11.719,20.508,40.527,-3.418,54.688,0
1583422064.530,15.625,19.043,38.574,-5.371,59.082,0
1583422064.534,7.324,26.367,39.062,-0.488,64.941,0
1583422064.538,7.324,35.156,38.574,4.395,101.562,0
1583422064.541,22.461,32.715,35.156,5.859,24.414,0
1583422064.545,21.484,29.297,33.203,11.230,-10.254,0
1583422064.549,14.648,31.738,37.598,20.508,75.195,0
1583422064.553,18.555,31.250,39.551,15.137,77.637,0
1583422064.557,22.461,34.668,36.621,3.906,-5.371,0
1583422064.554,22.461,33.203,39.551,11.719,-25.879,0
1583422064.558,19.043,30.762,41.016,20.020,20.020,0
1583422064.562,16.113,29.785,38.086,25.391,40.039,0
1583422064.566,21.973,30.273,42.480,30.762,38.574,0
1583422064.570,22.949,32.227,40.039,16.113,8.301,0
1583422064.574,18.066,29.785,30.762,8.789,19.531,0
1583422064.578,16.113,20.996,35.645,23.926,-3.906,0
1583422064.581,17.578,20.020,42.969,35.156,18.066,0
1583422064.585,28.809,29.785,41.016,36.621,65.918,0
1583422064.589,40.039,33.203,41.504,35.156,84.473,0
1583422064.593,50.781,29.297,40.039,23.926,87.891,0
1583422064.597,46.387,29.297,28.809,23.438,71.289,0
1583422064.594,39.062,31.250,33.691,30.762,48.340,0
1583422064.598,31.738,30.762,44.922,28.320,-1.953,0
1583422064.602,29.297,30.762,41.016,32.715,15.625,0
1583422064.606,40.527,32.715,41.504,38.086,5.859,0
1583422064.610,39.551,34.180,41.016,37.598,-25.879,0
1583422064.614,29.297,31.738,38.086,36.133,0.000,0
1583422064.618,38.574,30.762,38.574,35.645,53.711,0
1583422064.621,39.551,29.785,37.109,36.621,50.293,0
1583422064.625,30.762,30.762,35.156,21.973,47.852,0
1583422064.629,31.250,37.109,34.668,19.531,26.367,0
1583422064.633,25.391,32.227,32.715,29.297,-25.879,0
1583422064.637,25.879,28.809,29.785,21.484,51.270,0
1583422064.655,27.832,35.156,32.715,18.066,56.152,0
1583422064.659,25.391,37.598,36.621,18.066,17.578,0
1583422064.663,37.109,36.621,34.668,20.508,38.086,0
1583422064.667,41.016,34.180,33.691,24.902,31.738,0
1583422064.671,42.480,34.668,35.645,30.762,30.762,0
1583422064.675,42.480,38.086,37.109,31.738,52.734,0
1583422064.679,40.039,38.574,35.645,28.320,69.824,0
1583422064.682,31.738,39.062,33.691,27.832,92.773,0
1583422064.686,28.320,38.574,33.691,24.902,72.754,0
1583422064.690,29.297,37.109,32.715,20.508,48.340,0
1583422064.694,27.344,35.645,32.227,24.902,77.148,0
1583422064.698,34.180,35.645,35.645,32.715,99.121,0
1583422064.695,32.715,35.645,35.645,28.320,37.598,0
1583422064.699,30.762,34.668,32.715,27.832,22.949,0
1583422064.703,38.086,33.691,33.203,37.109,-0.977,0
1583422064.707,29.785,33.691,34.668,28.320,-9.766,0
1583422064.711,20.508,36.133,34.180,17.578,30.273,0
1583422064.715,25.879,38.086,32.715,24.414,11.230,0
1583422064.719,33.691,36.133,31.738,24.414,31.250,0
1583422064.722,38.086,33.203,33.691,30.762,46.875,0
1583422064.726,27.832,31.738,34.668,37.109,11.230,0
1583422064.730,21.484,32.227,34.180,31.250,-11.230,0
1583422064.734,33.203,36.133,32.227,19.531,56.152,0
1583422064.738,40.039,35.645,31.738,17.090,42.969,0
1583422064.735,35.645,31.738,33.691,23.926,-33.203,0
1583422064.739,31.250,33.691,31.738,27.832,17.578,0
1583422064.743,34.180,34.668,30.273,40.039,87.891,0
1583422064.747,46.387,34.668,27.832,42.480,61.035,0
1583422064.751,31.738,33.691,32.227,31.250,10.742,0
1583422064.755,20.508,28.809,36.621,24.414,-12.207,0
1583422064.759,26.367,25.879,33.203,29.785,-19.531,0
1583422064.762,23.926,27.344,34.180,34.180,12.695,0
1583422064.766,14.160,29.297,38.086,31.738,22.461,0
1583422064.770,15.137,30.762,38.086,34.668,44.434,0
1583422064.774,19.043,35.156,34.668,27.832,71.777,0
1583422064.778,22.949,33.203,33.203,19.043,50.293,0
1583422064.794,36.133,34.668,35.156,24.902,46.387,0
1583422064.798,36.621,38.574,37.109,21.973,70.801,0
1583422064.802,30.762,35.645,38.086,23.926,39.551,0
1583422064.806,23.926,33.691,39.551,23.926,37.598,0
1583422064.810,19.531,33.691,40.527,14.160,86.914,0
1583422064.814,24.414,29.785,38.574,28.320,69.824,0
1583422064.818,28.320,31.738,36.133,37.109,49.805,0
1583422064.821,39.551,38.086,35.156,17.090,27.832,0
1583422064.825,40.039,35.156,36.133,16.602,33.691,0
1583422064.829,37.109,37.598,36.133,24.414,-5.859,0
1583422064.833,50.781,41.016,31.738,31.250,-17.090,0
1583422064.837,59.570,41.992,26.367,35.156,36.133,0
1583422064.834,39.551,39.551,25.879,26.367,28.809,0
1583422064.838,21.973,35.156,34.668,24.414,30.273,0
1583422064.842,21.973,34.668,41.016,31.250,-6.348,0
1583422064.846,18.066,29.785,43.945,35.156,-66.406,0
1583422064.850,9.766,30.762,43.457,25.391,-20.508,0
1583422064.854,19.531,36.133,38.086,32.227,1.465,0
1583422064.858,26.855,33.203,40.039,35.156,31.250,0
1583422064.861,24.414,34.668,36.621,26.855,32.227,0
1583422064.865,44.434,38.086,23.438,21.973,-5.859,0
1583422064.869,56.152,40.527,9.766,31.250,60.547,0
1583422064.873,52.734,41.992,14.160,32.227,49.805,0
1583422064.877,55.176,38.086,36.621,16.602,35.645,0
1583422064.874,55.176,31.738,41.504,19.531,89.355,0
1583422064.878,50.293,38.086,37.598,27.832,19.531,0
1583422064.882,51.270,47.363,31.250,24.902,8.301,0
1583422064.886,55.176,45.898,30.762,28.809,72.754,0
1583422064.890,47.363,43.945,32.715,30.273,16.113,0
1583422064.894,40.039,43.945,29.785,26.367,41.504,0
1583422064.898,54.199,42.480,28.809,29.297,98.145,0
1583422064.901,50.781,39.062,31.738,33.203,39.062,0
1583422064.905,35.156,36.621,31.738,38.086,60.547,0
1583422064.909,35.156,34.668,24.414,37.109,96.191,0
1583422064.913,44.922,38.086,20.020,30.273,56.641,0
1583422064.917,60.059,43.945,28.320,26.367,14.648,0
1583422064.934,52.734,42.480,34.180,31.250,13.184,0
1583422064.938,33.691,39.551,34.668,35.645,56.152,0
1583422064.942,18.066,36.621,31.250,38.574,1.953,0
1583422064.946,11.230,33.203,31.250,36.621,26.367,0
1583422064.950,20.020,34.668,46.387,29.785,104.492,0
1583422064.954,23.926,34.668,49.316,29.785,37.109,0
1583422064.958,20.020,36.621,42.969,28.809,-4.395,0
1583422064.961,27.832,32.715,30.273,28.809,48.340,0
1583422064.965,37.109,31.738,27.832,34.180,57.617,0
1583422064.969,42.969,38.086,24.902,39.551,56.641,0
1583422064.973,42.969,37.109,21.973,36.133,21.973,0
1583422064.977,35.156,33.691,40.527,32.227,18.555,0
1583422064.975,37.598,28.320,57.129,35.156,38.086,0
1583422064.979,36.621,29.785,57.617,33.691,27.832,0
1583422064.983,39.551,38.574,46.387,29.785,13.184,0
1583422064.987,47.363,35.156,42.969,28.320,-27.832,0
1583422064.991,47.363,38.086,25.879,34.668,-5.859,0
1583422064.995,41.992,46.875,14.160,41.016,-0.488,0
1583422064.999,36.133,45.898,25.879,32.227,4.395,0
1583422065.002,37.109,42.480,39.062,28.809,-8.789,0
1583422065.006,30.762,35.645,56.152,28.809,-11.230,0
1583422065.010,28.320,31.738,54.199,23.438,6.836,0
1583422065.014,33.203,33.203,41.992,25.391,-41.504,0
1583422065.018,30.762,35.156,27.832,27.344,20.020,0
1583422065.035,25.391,35.645,33.203,22.949,81.055,0
1583422065.039,22.461,33.203,47.852,24.902,32.227,0
1583422065.043,17.578,33.691,49.805,27.832,-3.418,0
1583422065.047,20.508,37.109,43.945,26.855,16.602,0
1583422065.051,31.250,36.621,41.992,27.832,71.289,0
1583422065.055,35.645,29.297,45.898,31.250,54.199,0
1583422065.059,34.668,31.250,47.363,30.762,-9.277,0
1583422065.062,38.086,39.551,36.133,35.156,54.688,0
1583422065.066,30.762,38.574,28.320,33.691,84.961,0
1583422065.070,23.438,38.574,35.156,27.832,-9.277,0
1583422065.074,29.785,36.133,47.852,29.297,11.719,0
1583422065.078,32.227,31.250,57.129,28.320,9.277,0
1583422065.075,41.992,33.203,43.457,29.785,45.410,0
1583422065.079,52.734,35.645,35.645,35.645,98.145,0
1583422065.083,43.457,31.250,47.852,37.598,57.617,0
1583422065.087,42.480,25.879,41.992,34.668,52.734,0
1583422065.091,45.410,24.902,30.762,29.297,61.523,0
1583422065.095,34.180,26.367,40.527,22.949,18.555,0
1583422065.099,28.320,29.297,53.711,17.090,20.508,0
1583422065.102,21.973,28.320,52.734,13.184,80.566,0
1583422065.106,19.043,21.973,45.410,11.719,72.266,0
1583422065.110,24.414,27.344,39.062,16.113,76.660,0
1583422065.114,30.762,35.645,41.016,19.531,14.648,0
1583422065.118,33.691,38.574,30.762,22.949,-27.832,0
1583422065.136,36.621,35.645,6.836,29.297,31.250,0
1583422065.140,38.574,32.715,17.578,31.738,64.941,0
1583422065.144,39.551,37.109,30.273,26.367,75.195,0
1583422065.148,39.062,37.598,34.668,24.902,105.957,0
1583422065.152,35.156,34.668,50.293,24.414,77.637,0
1583422065.156,32.715,40.039,56.641,20.508,25.879,0
1583422065.160,14.648,35.156,58.594,19.043,33.691,0
1583422065.163,16.113,30.273,55.176,20.508,72.266,0
1583422065.167,30.273,37.109,46.387,23.438,95.215,0
1583422065.171,30.762,42.969,33.203,25.879,28.809,0
1583422065.175,31.738,43.945,31.738,21.484,37.109,0
1583422065.179,25.879,33.203,47.363,16.113,57.129,0
1583422065.155,23.926,30.762,44.434,18.066,31.738,0
1583422065.159,25.391,36.133,33.691,20.996,44.922,0
1583422065.163,21.484,39.551,39.551,19.043,0.488,0
1583422065.167,22.461,42.480,43.945,20.508,38.086,0
1583422065.171,25.879,43.457,31.738,24.414,73.730,0
1583422065.175,26.367,39.062,28.809,24.902,29.785,0
1583422065.179,30.762,29.785,48.340,24.902,62.012,0
1583422065.182,32.715,28.320,49.316,25.879,52.734,0
1583422065.186,34.180,35.645,43.945,28.809,-21.484,0
1583422065.190,34.668,38.086,38.574,36.621,-45.898,0
1583422065.194,40.039,41.504,16.602,39.062,-28.809,0
1583422065.198,47.852,42.969,16.602,36.621,-22.461,0
1583422065.235,43.457,36.621,35.645,34.668,22.461,0
1583422065.239,37.109,41.504,46.387,25.879,32.227,0
1583422065.243,39.551,43.945,58.105,25.391,20.996,0
1583422065.247,41.504,41.992,62.500,29.297,49.316,0
1583422065.251,46.875,39.551,51.758,29.297,13.184,0
1583422065.255,46.875,38.574,44.434,28.320,-1.953,0
1583422065.259,38.086,38.574,43.457,27.832,45.410,0
1583422065.262,39.551,35.645,39.551,34.668,43.457,0
1583422065.266,35.645,36.133,30.762,32.715,48.828,0
1583422065.270,41.016,41.504,26.367,34.180,14.648,0
1583422065.274,46.875,43.945,34.180,41.016,-9.277,0
1583422065.278,28.809,40.039,46.875,26.855,-19.043,0
1583422065.255,18.555,37.109,51.758,15.625,-20.508,0
1583422065.259,22.949,36.133,45.898,20.508,18.066,0
1583422065.263,20.996,33.203,42.480,20.020,26.855,0
1583422065.267,14.648,32.715,44.434,12.207,33.691,0
1583422065.271,17.578,35.156,46.387,14.160,92.285,0
1583422065.275,23.438,36.133,50.293,22.461,96.680,0
1583422065.279,23.926,32.715,48.828,25.879,38.086,0
1583422065.282,27.344,33.203,39.062,25.879,21.973,0
1583422065.286,31.250,32.227,34.668,27.832,7.812,0
1583422065.290,30.273,31.250,41.992,28.809,-16.113,0
1583422065.294,27.344,27.832,48.340,28.320,35.645,0
1583422065.298,26.855,28.320,44.434,31.738,70.801,0
1583422065.295,34.180,32.715,39.551,31.738,82.031,0
1583422065.299,31.250,36.133,44.922,26.367,58.105,0
1583422065.303,28.320,41.016,46.875,27.344,53.223,0
1583422065.307,27.832,43.457,37.109,27.832,69.824,0
1583422065.311,18.066,43.945,34.668,28.809,72.266,0
1583422065.315,21.484,41.016,40.527,26.855,31.250,0
1583422065.319,29.785,39.062,45.410,26.367,-20.996,0
1583422065.322,35.156,38.086,47.852,24.902,43.457,0
1583422065.326,40.527,37.109,44.922,20.020,25.879,0
1583422065.330,43.457,37.598,41.992,26.855,-14.648,0
1583422065.334,37.598,37.109,44.922,33.203,26.855,0
1583422065.338,31.738,32.715,44.434,33.691,42.480,0
1583422065.355,35.156,36.621,41.992,38.086,26.855,0
1583422065.359,30.762,42.969,40.039,36.133,20.508,0
1583422065.363,23.438,43.457,39.062,27.832,65.430,0
1583422065.367,19.531,39.551,39.062,22.461,41.992,0
1583422065.371,17.578,36.621,37.109,20.508,-20.020,0
1583422065.375,18.066,40.527,36.621,14.160,-36.133,0
1583422065.379,15.137,41.016,39.062,6.348,2.930,0
1583422065.382,10.742,37.109,37.109,5.371,46.875,0
1583422065.386,5.859,37.598,29.297,-0.977,31.738,0
1583422065.390,-0.977,38.574,32.227,-4.395,-13.184,0
1583422065.394,-7.324,36.133,35.156,-3.906,-0.977,0
1583422065.398,-8.301,36.621,35.156,-6.348,19.043,0
1583422065.394,-14.648,35.645,41.016,-12.207,2.441,0
1583422065.398,-14.160,37.109,46.875,-10.742,1.465,0
1583422065.402,-15.625,35.156,43.945,-14.160,39.551,0
1583422065.406,-20.996,35.645,45.898,-17.578,82.031,0
1583422065.410,-19.531,36.133,46.875,-13.184,50.781,0
1583422065.414,-23.926,32.227,36.133,-24.902,42.969,0
1583422065.418,-24.902,41.992,37.598,-33.203,64.453,0
1583422065.421,-27.344,48.828,43.945,-37.109,68.359,0
1583422065.425,-40.527,45.410,44.922,-48.828,98.633,0
1583422065.429,-58.594,49.805,41.992,-64.453,94.727,0
1583422065.433,-77.148,58.594,41.992,-81.055,50.293,0
1583422065.437,-96.680,59.570,48.828,-96.191,21.973,0
1583422065.434,-121.094,54.688,49.316,-115.234,40.039,0
1583422065.438,-136.719,56.152,49.805,-136.230,59.082,0
1583422065.442,-151.855,57.617,52.246,-155.273,35.156,0
1583422065.446,-172.852,54.688,51.758,-171.387,58.105,0
1583422065.450,-187.988,55.664,51.270,-187.500,119.141,0
1583422065.454,-197.754,56.641,48.340,-200.195,81.543,0
1583422065.458,-207.520,55.664,45.410,-212.891,27.344,0
1583422065.461,-221.680,59.570,41.992,-232.910,20.996,0
1583422065.465,-227.539,62.988,43.457,-235.352,48.340,0
1583422065.469,-225.586,57.129,42.480,-223.633,64.941,0
1583422065.473,-227.051,52.734,37.109,-222.656,41.016,0
1583422065.477,-217.285,57.129,34.668,-220.703,39.062,0
1583422065.494,-205.566,61.523,30.273,-214.355,18.066,0
1583422065.498,-198.242,63.965,32.227,-205.078,30.762,0
1583422065.502,-186.523,61.523,34.180,-198.730,33.691,0
1583422065.506,-172.852,56.641,27.832,-189.941,18.066,0
1583422065.510,-166.504,58.105,21.973,-177.246,59.570,0
1583422065.514,-155.762,60.059,26.367,-165.039,56.641,0
1583422065.518,-141.113,58.105,32.227,-148.926,46.387,0
1583422065.521,-121.094,54.199,34.180,-131.836,48.340,0
1583422065.525,-94.238,52.246,34.180,-116.211,0.000,0
1583422065.529,-73.730,53.711,34.668,-99.121,-12.207,0
1583422065.533,-56.641,56.152,31.250,-71.777,20.020,0
1583422065.537,-39.551,52.734,29.785,-47.852,37.109,0
1583422065.539,-24.414,47.363,27.832,-30.762,8.789,0
1583422065.543,0.977,47.852,28.320,-6.836,-17.578,0
1583422065.547,28.320,44.434,31.250,14.160,61.523,0
1583422065.551,44.922,44.922,25.879,34.668,113.770,0
1583422065.555,57.129,42.969,25.391,55.176,73.730,0
1583422065.559,73.730,32.227,25.391,72.754,23.438,0
1583422065.563,94.238,35.156,19.043,93.262,20.020,0
1583422065.566,109.863,39.062,14.648,111.328,37.598,0
1583422065.570,127.441,37.598,2.930,125.000,66.406,0
1583422065.574,144.043,37.598,4.395,135.254,32.715,0
1583422065.578,149.414,34.180,15.625,141.113,-22.949,0
1583422065.582,158.203,28.809,14.648,156.250,2.441,0
1583422065.577,166.992,25.879,8.789,165.527,26.367,0
1583422065.581,169.922,29.785,13.672,163.086,69.824,0
1583422065.585,169.922,28.320,24.414,163.574,78.125,0
1583422065.589,177.246,25.879,22.461,169.922,44.434,0
1583422065.593,186.035,31.250,21.484,177.734,61.035,0
1583422065.597,186.523,28.320,22.461,181.152,23.438,0
1583422065.601,195.801,26.367,16.113,182.617,5.859,0
1583422065.604,199.219,29.297,16.602,182.129,16.113,0
1583422065.608,194.336,30.273,17.578,184.082,32.715,0
1583422065.612,184.082,31.738,14.648,188.477,44.434,0
1583422065.616,176.758,29.297,16.602,186.035,3.906,0
1583422065.620,176.758,27.832,9.277,186.523,-39.062,0
1583422065.634,174.316,26.367,9.277,183.105,-21.484,0
1583422065.638,163.086,22.461,22.461,170.410,42.480,0
1583422065.642,154.785,19.043,31.250,160.645,38.086,0
1583422065.646,155.762,18.555,33.203,154.297,52.734,0
1583422065.650,151.855,15.625,34.668,151.855,65.918,0
1583422065.654,148.438,18.555,33.203,148.926,11.719,0
1583422065.658,155.273,21.973,24.902,145.508,-56.641,0
1583422065.661,149.414,23.926,20.508,140.137,4.395,0
1583422065.665,136.719,28.320,21.484,135.254,82.031,0
1583422065.669,132.324,30.273,21.484,132.812,23.438,0
1583422065.673,133.301,29.785,18.066,129.395,-9.277,0
1583422065.677,134.766,25.391,3.418,131.348,24.902,0
1583422065.674,125.977,20.996,10.254,125.488,82.520,0
1583422065.678,118.652,20.996,45.410,111.816,48.828,0
1583422065.682,116.211,21.484,49.805,104.492,-1.465,0
1583422065.686,112.305,22.461,40.039,104.004,15.625,0
1583422065.690,111.328,24.414,34.180,104.980,-9.766,0
1583422065.694,106.934,27.344,24.902,105.957,29.785,0
1583422065.698,102.051,28.809,20.020,106.934,67.871,0
1583422065.701,99.121,24.414,23.438,100.098,20.996,0
1583422065.705,98.633,16.602,27.344,95.215,43.945,0
1583422065.709,93.750,20.996,30.762,89.355,91.309,0
1583422065.713,81.055,28.320,37.109,82.520,64.453,0
1583422065.717,77.148,28.809,33.691,77.637,59.570,0
1583422065.734,77.148,27.344,32.715,72.266,101.074,0
1583422065.738,72.266,23.438,40.527,69.336,82.520,0
1583422065.742,67.383,23.438,40.527,65.430,39.551,0
1583422065.746,66.895,23.926,35.645,64.453,82.520,0
1583422065.750,63.477,26.367,36.133,64.941,66.895,0
1583422065.754,62.988,31.250,29.785,62.988,5.371,0
1583422065.758,66.895,32.227,22.949,67.383,7.812,0
1583422065.761,62.500,26.367,32.715,62.988,11.230,0
1583422065.765,57.129,28.809,31.250,55.176,32.715,0
1583422065.769,62.012,32.227,25.879,62.012,26.855,0
1583422065.773,61.035,25.391,41.992,62.500,26.367,0
1583422065.777,54.688,22.461,52.734,57.617,79.102,0
1583422065.774,50.781,23.438,50.293,57.617,59.082,0
1583422065.778,46.387,17.090,49.316,56.152,29.297,0
1583422065.782,44.434,13.184,38.574,53.711,7.324,0
1583422065.786,45.410,23.438,36.133,50.781,24.902,0
1583422065.790,47.363,26.367,44.434,45.898,46.387,0
1583422065.794,51.758,28.809,44.922,46.387,-18.066,0
1583422065.798,52.734,29.785,38.574,44.922,2.441,0
1583422065.801,49.316,24.902,38.574,41.992,8.301,0
1583422065.805,49.805,25.879,27.344,46.387,-12.207,0
1583422065.809,44.434,26.855,29.297,45.898,57.129,0
1583422065.813,41.016,26.367,51.758,40.527,54.199,0
1583422065.817,44.922,26.855,52.734,40.039,18.066,0
1583422065.814,48.828,27.832,42.969,43.945,-13.672,0
1583422065.818,51.758,28.809,30.762,46.387,23.438,0
1583422065.822,51.758,32.227,16.602,49.316,65.918,0
1583422065.826,49.805,31.250,25.879,44.922,41.504,0
1583422065.830,45.410,22.949,49.316,36.621,43.457,0
1583422065.834,49.805,22.949,53.711,37.109,15.137,0
1583422065.838,48.340,27.344,44.922,40.039,28.320,0
1583422065.841,30.762,29.785,42.969,39.062,69.824,0
1583422065.845,30.273,30.273,46.875,39.551,54.199,0
1583422065.849,43.945,32.227,35.645,44.434,0.488,0
1583422065.853,40.527,32.715,26.855,41.016,-45.410,0
1583422065.857,36.133,31.738,35.645,36.621,-13.672,0
1583422065.875,38.574,31.738,38.086,38.574,74.707,0
1583422065.879,41.016,32.715,38.574,37.109,18.066,0
1583422065.883,37.598,32.227,33.691,31.738,-16.113,0
1583422065.887,31.738,31.250,31.738,27.832,41.016,0
1583422065.891,32.227,32.715,39.551,25.879,28.320,0
1583422065.895,34.180,36.621,39.551,27.344,29.785,0
1583422065.899,35.645,39.551,28.320,29.785,24.414,0
1583422065.902,31.738,35.645,23.926,28.320,33.691,0
1583422065.906,31.738,29.297,31.738,28.320,33.691,0
1583422065.910,36.133,37.109,41.992,34.180,19.531,0
1583422065.914,34.668,41.504,43.457,33.691,26.855,0
1583422065.918,34.180,40.039,28.809,28.320,30.273,0
1583422065.915,29.785,39.551,33.203,23.926,-4.883,0
1583422065.919,25.879,40.039,41.992,21.973,41.992,0
1583422065.923,29.785,38.574,40.527,23.926,53.711,0
1583422065.927,30.273,35.645,34.668,24.902,30.273,0
1583422065.931,25.879,32.715,33.203,21.973,31.738,0
1583422065.935,24.414,30.273,35.645,19.531,10.742,0
1583422065.939,21.973,26.367,29.785,23.926,-3.906,0
1583422065.942,17.578,25.391,35.156,26.855,32.715,0
1583422065.946,21.484,30.273,38.574,29.297,20.020,0
1583422065.950,25.391,30.762,30.762,32.227,16.602,0
1583422065.954,30.273,30.762,31.250,30.273,0.977,0
1583422065.958,41.992,35.156,31.738,28.320,-9.277,0
1583422065.955,40.527,31.738,34.180,29.297,53.223,0
1583422065.959,32.227,29.297,39.062,30.273,71.777,0
1583422065.963,38.086,32.227,36.133,33.203,29.785,0
1583422065.967,42.969,35.645,32.715,35.645,-19.043,0
1583422065.971,36.621,36.621,33.203,30.762,-11.230,0
1583422065.975,31.250,34.668,37.598,32.227,53.223,0
1583422065.979,35.156,35.645,33.691,36.133,52.734,0
1583422065.982,35.645,32.227,34.668,37.109,59.570,0
1583422065.986,32.227,33.203,29.297,32.715,75.684,0
1583422065.990,28.320,35.156,13.184,26.367,28.809,0
1583422065.994,21.484,30.762,26.855,24.414,31.738,0
1583422065.998,22.461,30.762,43.945,25.879,38.086,0
1583422066.014,27.344,31.250,42.480,25.391,32.715,0
1583422066.018,26.367,32.715,36.133,21.484,-3.906,0
1583422066.022,28.320,35.645,35.645,22.461,30.273,0
1583422066.026,29.297,29.297,32.227,24.414,83.008,0
1583422066.030,28.320,25.391,30.762,24.414,25.391,0
1583422066.034,30.762,29.785,37.598,26.367,-40.527,0
1583422066.038,36.133,29.785,40.527,26.367,-0.977,0
1583422066.041,34.668,31.250,39.551,24.414,110.840,0
1583422066.045,26.367,33.691,27.344,26.367,86.426,0
1583422066.049,25.879,39.551,19.531,27.832,22.949,0
1583422066.053,26.367,41.992,35.645,26.367,47.852,0
1583422066.057,32.715,40.039,47.363,30.273,49.316,0
1583422066.054,31.250,36.621,41.504,29.785,41.992,0
1583422066.058,31.738,39.551,20.508,27.832,29.297,0
1583422066.062,37.598,40.527,26.855,28.809,0.000,0
1583422066.066,34.180,39.551,42.969,29.297,-14.160,0
1583422066.070,28.809,35.645,42.480,30.273,12.695,0
1583422066.074,27.344,28.320,41.016,25.879,40.527,0
1583422066.078,23.926,31.250,39.551,25.391,65.918,0
1583422066.081,22.461,31.250,39.551,25.879,38.086,0
1583422066.085,24.414,31.250,40.039,29.297,-23.438,0
1583422066.089,29.785,38.086,36.621,33.203,-19.531,0
1583422066.093,35.645,40.039,23.926,30.273,32.715,0
1583422066.097,34.668,39.551,22.461,30.762,60.059,0
1583422066.094,35.156,36.133,26.367,27.832,62.988,0
1583422066.098,36.133,33.203,29.297,24.414,30.273,0
1583422066.102,32.227,32.715,39.551,24.414,53.223,0
1583422066.106,32.227,34.180,37.598,24.902,97.168,0
1583422066.110,36.133,33.203,31.738,25.879,82.520,0
1583422066.114,34.180,27.832,35.156,26.855,64.453,0
1583422066.118,31.738,31.250,41.016,27.344,26.367,0
1583422066.121,34.668,32.715,36.621,26.855,-19.043,0
1583422066.125,38.086,31.250,31.738,25.391,25.391,0
1583422066.129,38.086,32.715,33.203,22.461,33.203,0
1583422066.133,38.086,32.227,28.809,22.949,-3.418,0
1583422066.137,36.133,34.668,21.484,26.855,19.531,0
1583422066.154,23.438,34.668,24.902,21.973,65.430,0
1583422066.158,18.066,32.227,32.227,17.090,84.473,0
1583422066.162,19.531,34.668,31.738,16.602,34.668,0
1583422066.166,17.090,34.180,21.484,17.090,-4.395,0
1583422066.170,14.160,32.715,26.855,17.090,9.766,0
1583422066.174,20.508,29.297,37.598,19.043,62.012,0
1583422066.178,25.879,27.344,39.062,20.020,85.938,0
1583422066.181,21.973,30.762,40.039,20.020,66.895,0
1583422066.185,23.926,34.668,37.109,22.461,34.668,0
1583422066.189,26.367,39.062,27.832,24.414,12.695,0
1583422066.193,25.391,38.086,21.484,20.508,55.176,0
1583422066.197,24.414,35.156,31.250,19.531,80.566,0
1583422066.195,26.367,35.645,33.691,24.414,21.973,0
1583422066.199,25.391,35.645,22.949,21.484,-2.930,0
1583422066.203,20.996,34.668,23.438,18.555,18.555,0
1583422066.207,20.508,35.156,34.180,19.043,54.199,0
1583422066.211,26.367,37.598,41.504,23.438,48.340,0
1583422066.215,29.297,32.715,41.992,26.855,58.594,0
1583422066.219,33.203,27.344,37.109,25.879,72.266,0
1583422066.222,37.109,32.227,35.156,27.832,19.531,0
1583422066.226,30.762,35.645,35.156,26.367,5.859,0
1583422066.230,33.691,39.551,33.691,28.809,-23.438,0
1583422066.234,34.180,42.480,30.273,27.344,16.113,0
1583422066.238,33.691,41.504,27.832,21.484,27.832,0
1583422066.235,34.180,39.551,27.832,19.531,6.348,0
1583422066.239,26.855,36.133,24.902,21.484,69.336,0
1583422066.243,22.461,36.621,29.297,20.996,70.801,0
1583422066.247,18.066,39.062,38.574,18.066,52.246,0
1583422066.251,20.996,36.621,36.133,15.137,62.012,0
1583422066.255,26.855,34.180,35.645,14.160,30.273,0
1583422066.259,22.949,32.715,39.551,12.207,62.500,0
1583422066.262,21.973,29.785,37.598,15.625,80.566,0
1583422066.266,27.344,28.320,35.156,21.973,77.637,0
1583422066.270,36.133,27.344,19.043,23.438,84.473,0
1583422066.274,39.062,33.691,21.484,26.367,100.098,0
1583422066.278,29.297,41.504,37.598,17.090,63.965,0
1583422066.295,28.809,40.527,36.621,14.160,-17.090,0
1583422066.299,32.227,40.039,33.691,18.555,14.648,0
1583422066.303,35.156,41.504,30.762,20.020,19.531,0
1583422066.307,41.992,42.480,23.926,20.996,-29.785,0
1583422066.311,34.668,38.574,20.996,14.648,-2.441,0
1583422066.315,22.461,37.598,27.832,16.113,5.371,0
1583422066.319,15.625,40.039,32.715,20.020,16.602,0
1583422066.322,7.812,37.109,31.738,17.090,19.531,0
1583422066.326,11.230,33.203,30.762,21.484,-16.113,0
1583422066.330,18.066,33.203,32.227,22.949,24.414,0
1583422066.334,21.484,35.156,37.109,24.902,69.824,0
1583422066.338,34.180,31.738,32.715,28.809,43.945,0
1583422066.334,34.180,32.227,29.297,22.949,25.391,0
1583422066.338,30.762,34.668,35.156,20.996,26.367,0
1583422066.342,42.480,31.738,21.484,33.691,12.695,0
1583422066.346,44.434,36.133,4.395,37.109,14.160,0
1583422066.350,31.250,41.016,24.902,30.273,20.508,0
1583422066.354,25.879,41.504,43.945,24.414,11.230,0
1583422066.358,24.414,41.016,40.039,20.996,-7.324,0
1583422066.361,25.391,35.645,33.203,19.531,39.062,0
1583422066.365,29.785,33.691,27.344,17.090,41.504,0
1583422066.369,30.762,38.086,29.297,14.160,2.441,0
1583422066.373,32.715,36.133,33.691,16.602,1.953,0
1583422066.377,31.738,37.109,26.367,22.461,24.414,0
1583422066.374,32.227,41.016,26.367,26.855,49.805,0
1583422066.378,36.133,43.945,27.344,29.297,50.293,0
1583422066.382,39.062,44.922,14.160,33.203,71.777,0
1583422066.386,39.551,42.480,21.973,34.180,23.438,0
1583422066.390,31.250,39.062,36.621,30.273,6.836,0
1583422066.394,28.320,37.598,40.039,28.320,69.336,0
1583422066.398,32.715,33.203,41.016,25.879,35.645,0
1583422066.401,32.227,32.227,37.598,25.391,24.414,0
1583422066.405,27.832,32.715,32.715,20.996,7.324,0
1583422066.409,22.949,33.203,29.297,17.578,1.953,0
1583422066.413,29.785,31.738,22.949,21.973,83.496,0
1583422066.417,35.645,34.180,20.020,25.879,57.617,0
1583422066.434,28.809,38.086,26.855,24.414,17.578,0
1583422066.438,26.855,37.598,37.598,23.926,20.020,0
1583422066.442,31.250,38.574,39.062,26.367,23.926,0
1583422066.446,31.738,38.086,33.691,26.367,-0.488,0
1583422066.450,31.250,38.086,30.273,20.508,5.371,0
1583422066.454,31.738,38.574,35.645,20.508,35.156,0
1583422066.458,28.809,36.133,40.527,22.949,42.480,0
1583422066.461,29.297,35.645,40.039,22.461,22.461,0
1583422066.465,33.691,39.062,30.273,28.809,5.371,0
1583422066.469,33.203,40.039,16.602,30.273,18.066,0
1583422066.473,26.367,30.762,26.367,24.902,49.316,0
1583422066.477,29.785,25.391,39.551,28.320,53.223,0
1583422066.474,35.156,35.156,36.133,32.227,21.484,0
1583422066.478,33.203,38.086,30.273,32.715,42.969,0
1583422066.482,34.180,33.203,39.062,31.738,64.941,0
1583422066.486,37.109,36.621,40.039,32.715,59.570,0
1583422066.490,40.527,40.039,25.391,43.457,44.922,0
1583422066.494,41.992,42.480,31.250,46.875,37.109,0
1583422066.498,39.551,42.480,36.133,44.434,36.621,0
1583422066.501,45.410,41.016,24.902,43.945,46.875,0
1583422066.505,45.898,37.598,32.227,38.574,69.336,0
1583422066.509,41.016,33.203,39.062,33.691,51.270,0
1583422066.513,36.621,33.691,31.738,29.785,64.941,0
1583422066.517,34.180,36.133,36.621,31.250,55.176,0
1583422066.515,32.227,39.062,40.527,33.203,43.457,0
1583422066.519,33.203,40.527,34.668,32.227,53.223,0
1583422066.523,39.062,41.504,26.855,34.180,72.266,0
1583422066.527,41.016,38.086,23.438,33.691,36.133,0
1583422066.531,32.715,36.133,27.832,29.785,18.066,0
1583422066.535,31.738,37.598,35.156,27.344,49.805,0
1583422066.539,30.762,32.715,35.156,30.762,19.043,0
1583422066.542,25.879,30.273,31.250,34.668,34.668,0
1583422066.546,27.344,27.344,37.598,29.785,17.090,0
1583422066.550,28.320,20.996,46.875,28.809,-10.742,0
1583422066.554,25.879,24.414,43.945,35.156,38.086,0
1583422066.558,22.461,29.297,35.645,34.180,29.297,0
1583422066.574,31.738,32.715,36.621,34.180,48.340,0
1583422066.578,35.156,33.203,39.551,32.715,53.711,0
1583422066.582,34.668,32.227,36.621,28.320,-3.418,0
1583422066.586,41.992,37.109,28.320,30.762,12.207,0
1583422066.590,43.457,38.086,21.484,29.785,15.137,0
1583422066.594,34.180,38.086,31.250,28.809,-32.227,0
1583422066.598,28.320,36.133,33.691,25.879,20.508,0
1583422066.601,31.250,32.715,39.062,20.508,74.219,0
1583422066.605,39.062,38.086,41.992,24.902,45.410,0
1583422066.609,42.480,42.969,32.715,27.344,-27.344,0
1583422066.613,41.016,41.016,33.203,25.879,36.621,0
1583422066.617,41.016,39.062,37.109,29.785,65.918,0
1583422066.614,33.691,40.039,34.668,26.855,31.250,0
1583422066.618,28.809,43.457,27.832,25.391,59.082,0
1583422066.622,26.855,44.434,25.879,29.297,25.391,0
1583422066.626,20.020,41.992,33.203,25.391,-13.184,0
1583422066.630,17.578,38.574,38.086,24.414,25.879,0
1583422066.634,18.555,36.133,40.527,24.414,62.988,0
1583422066.638,21.484,37.598,35.645,19.531,89.844,0
1583422066.641,30.273,37.109,26.367,23.438,87.891,0
1583422066.645,27.344,38.574,29.297,28.320,31.250,0
1583422066.649,24.902,38.574,40.039,25.879,6.348,0
1583422066.653,29.785,33.691,45.898,25.879,20.996,0
1583422066.657,28.809,31.738,42.480,23.926,43.945,0
1583422066.654,32.227,33.203,40.527,26.855,21.484,0
1583422066.658,30.762,31.250,40.527,33.691,-21.973,0
1583422066.662,23.438,25.879,37.598,29.785,-7.812,0
1583422066.666,24.902,26.855,33.691,25.879,76.172,0
1583422066.670,26.855,31.738,34.180,27.344,107.422,0
1583422066.674,27.832,34.668,30.762,32.715,19.531,0
1583422066.678,30.762,33.203,27.344,32.715,66.895,0
1583422066.681,31.738,33.691,32.715,27.832,50.293,0
1583422066.685,32.715,38.574,37.598,29.297,-27.832,0
1583422066.689,34.180,38.574,36.133,28.809,49.316,0
1583422066.693,31.250,36.621,33.691,28.809,82.031,0
1583422066.697,35.156,35.645,35.156,27.832,-19.043,0
1583422066.715,38.086,33.691,41.016,28.809,-20.508,0
1583422066.719,33.691,31.250,38.086,25.879,45.410,0
1583422066.723,30.273,30.273,35.645,23.926,20.508,0
1583422066.727,30.762,33.691,36.133,29.785,14.648,0
1583422066.731,26.855,36.621,34.668,31.738,14.648,0
1583422066.735,25.391,39.551,34.180,30.273,51.270,0
1583422066.739,30.273,36.133,32.715,28.320,19.043,0
1583422066.742,32.227,34.180,31.250,29.297,-20.508,0
1583422066.746,34.180,41.016,30.762,29.785,1.953,0
1583422066.750,32.715,43.457,33.203,29.785,0.000,0
1583422066.754,30.273,41.016,33.203,31.738,10.742,0
1583422066.758,32.227,40.527,32.227,29.297,44.434,0
1583422066.755,30.273,40.039,32.227,22.461,29.785,0
1583422066.759,29.297,37.598,31.738,20.020,-4.883,0
1583422066.763,31.250,40.039,32.715,20.020,9.277,0
1583422066.767,25.879,39.551,34.668,17.090,56.152,0
1583422066.771,21.973,38.574,31.738,13.672,80.078,0
1583422066.775,17.578,41.504,30.762,10.742,45.410,0
1583422066.779,8.789,41.016,33.691,7.324,11.230,0
1583422066.782,7.324,38.086,37.109,8.301,55.664,0
1583422066.786,15.625,41.016,35.645,8.789,88.379,0
1583422066.790,14.160,44.434,41.016,5.371,61.523,0
1583422066.794,5.859,43.457,48.828,0.000,86.426,0
1583422066.798,1.953,45.410,39.062,-8.301,82.520,0
1583422066.794,0.977,51.270,39.551,-11.230,10.742,0
1583422066.798,-10.254,48.340,47.363,-18.555,-5.371,0
1583422066.802,-28.320,45.410,45.898,-34.668,10.742,0
1583422066.806,-36.133,57.617,40.527,-48.340,51.758,0
1583422066.810,-50.781,61.035,42.480,-63.477,33.203,0
1583422066.814,-70.312,53.223,50.781,-74.707,52.734,0
1583422066.818,-82.520,62.988,59.570,-80.566,83.984,0
1583422066.821,-99.609,65.918,63.477,-98.145,7.324,0
1583422066.825,-130.859,52.246,46.875,-131.348,1.953,0
1583422066.829,-155.273,52.246,41.504,-153.809,39.062,0
1583422066.833,-170.410,55.664,44.434,-171.387,33.691,0
1583422066.837,-182.129,53.711,43.945,-188.965,50.293,0
1583422066.854,-188.477,54.688,49.805,-196.777,63.477,0
1583422066.858,-188.965,57.617,47.363,-196.289,-41.016,0
1583422066.862,-183.105,57.129,37.109,-194.824,-1.465,0
1583422066.866,-176.758,53.223,41.016,-189.941,39.551,0
1583422066.870,-165.039,50.293,47.363,-181.641,-20.020,0
1583422066.874,-144.531,52.734,51.270,-167.969,28.809,0
1583422066.878,-125.488,55.176,54.199,-148.926,97.168,0
1583422066.881,-116.699,50.293,50.293,-135.254,126.465,0
1583422066.885,-101.074,50.293,47.363,-118.164,78.613,0
1583422066.889,-81.543,53.711,41.504,-97.656,-3.418,0
1583422066.893,-62.988,54.688,26.367,-75.684,8.789,0
1583422066.897,-42.480,52.734,31.738,-55.664,44.434,0
1583422066.914,-26.367,46.875,35.156,-34.180,69.336,0
1583422066.918,-9.277,45.410,29.297,-6.836,41.992,0
1583422066.922,11.719,42.480,38.086,11.230,53.711,0
1583422066.926,42.480,41.504,42.480,36.621,117.188,0
1583422066.930,68.848,44.434,28.809,62.500,102.051,0
1583422066.934,78.125,44.922,21.973,71.777,82.520,0
1583422066.938,89.844,38.086,22.949,79.102,89.844,0
1583422066.941,103.027,32.227,15.137,90.820,59.082,0
1583422066.945,108.887,32.715,29.785,102.539,-16.113,0
1583422066.949,110.840,35.645,37.598,107.910,-10.254,0
1583422066.953,114.746,38.086,26.855,109.375,61.035,0
1583422066.957,124.512,34.668,26.367,116.211,60.547,0
1583422066.955,124.512,31.250,29.785,123.047,30.762,0
1583422066.959,120.117,30.273,25.879,120.605,18.555,0
1583422066.963,126.465,26.367,19.043,121.582,-11.719,0
1583422066.967,131.836,21.973,19.043,126.953,-6.348,0
1583422066.971,130.371,24.414,16.113,128.906,49.805,0
1583422066.975,129.395,27.832,8.301,131.348,36.133,0
1583422066.979,129.883,23.926,8.301,130.371,-15.625,0
1583422066.982,125.977,22.461,26.367,126.953,7.812,0
1583422066.986,124.512,23.926,31.250,125.000,2.441,0
1583422066.990,126.465,21.973,24.902,128.906,55.664,0
1583422066.994,128.906,20.996,23.926,129.395,70.312,0
1583422066.998,124.512,23.438,21.484,123.047,70.801,0
1583422066.995,125.488,29.785,22.949,123.535,50.781,0
1583422066.999,123.535,29.785,27.832,121.094,8.789,0
1583422067.003,111.816,27.832,26.855,111.328,-1.953,0
1583422067.007,112.305,27.344,20.020,106.445,10.254,0
1583422067.011,111.816,24.902,16.602,106.445,41.992,0
1583422067.015,107.910,25.879,20.508,103.027,51.758,0
1583422067.019,102.539,26.855,23.926,93.262,72.754,0
1583422067.022,94.238,26.367,22.949,89.844,120.117,0
1583422067.026,93.262,25.879,29.785,93.262,54.199,0
1583422067.030,91.309,20.020,26.855,92.285,-9.766,0
1583422067.034,88.379,17.578,22.461,90.820,36.621,0
1583422067.038,84.961,25.879,30.762,88.867,43.457,0
1583422067.035,77.637,30.762,32.715,87.402,55.664,0
1583422067.039,79.102,31.738,22.461,87.402,47.363,0
1583422067.043,80.078,31.738,17.090,84.961,31.250,0
1583422067.047,79.590,28.809,33.691,79.590,27.832,0
1583422067.051,79.590,24.414,30.273,74.707,41.016,0
1583422067.055,77.148,21.484,31.738,70.312,24.414,0
1583422067.059,76.172,20.996,46.875,65.430,5.859,0
1583422067.062,74.219,23.438,43.945,61.523,73.730,0
1583422067.066,80.078,27.832,37.109,65.430,97.168,0
1583422067.070,81.543,31.738,30.273,66.895,40.527,0
1583422067.074,80.078,32.227,28.320,66.895,61.035,0
1583422067.078,78.125,27.344,36.621,70.801,88.867,0
1583422067.075,68.359,21.973,42.969,66.895,62.988,0
1583422067.079,69.824,27.832,38.086,66.406,39.062,0
1583422067.083,68.848,32.715,30.762,67.383,16.602,0
1583422067.087,59.570,29.785,29.297,62.988,11.719,0
1583422067.091,55.176,30.762,32.715,63.965,50.781,0
1583422067.095,56.152,38.574,17.578,68.359,87.891,0
1583422067.099,59.570,39.551,5.859,67.383,65.918,0
1583422067.102,57.617,35.156,36.621,56.152,35.156,0
1583422067.106,53.711,33.691,52.734,44.922,11.719,0
1583422067.110,44.922,30.762,50.781,40.039,-5.371,0
1583422067.114,46.387,29.785,45.898,37.109,34.180,0
1583422067.118,49.316,30.273,39.062,35.156,85.449,0
1583422067.134,50.781,28.809,35.645,38.574,55.176,0
1583422067.138,51.270,25.879,26.367,40.039,46.875,0
1583422067.142,48.828,31.738,19.043,39.551,36.621,0
1583422067.146,44.922,36.133,21.484,40.527,23.926,0
1583422067.150,42.969,32.715,23.438,38.574,-9.277,0
1583422067.154,43.945,31.738,34.180,36.621,-19.531,0
1583422067.158,41.504,33.203,38.574,38.574,-5.859,0
1583422067.161,39.551,30.762,37.109,40.039,-2.930,0
1583422067.165,41.504,28.320,35.156,37.109,14.648,0
1583422067.169,41.992,29.785,32.715,36.133,-30.762,0
1583422067.173,43.945,34.180,30.273,38.574,-20.508,0
1583422067.177,44.922,36.621,27.344,37.109,16.113,0
1583422067.174,45.898,31.738,27.344,37.109,16.113,0
1583422067.178,45.898,25.391,34.668,39.062,18.066,0
1583422067.182,45.898,33.203,36.133,41.016,13.184,0
1583422067.186,45.898,41.992,22.461,43.457,6.348,0
1583422067.190,45.898,38.574,19.531,43.457,-17.090,0
1583422067.194,46.875,36.133,34.668,40.527,-9.766,0
1583422067.198,41.992,35.156,42.480,36.621,67.871,0
1583422067.201,36.133,32.715,38.574,32.715,95.703,0
1583422067.205,35.156,33.691,33.691,28.809,7.324,0
1583422067.209,29.297,35.156,36.133,22.461,-12.695,0
1583422067.213,22.461,33.691,37.109,27.344,42.969,0
1583422067.217,27.832,29.785,34.180,33.691,111.328,0
1583422067.235,29.785,30.273,33.203,35.156,47.363,0
1583422067.239,31.738,32.227,35.156,34.180,50.781,0
1583422067.243,35.645,28.809,32.227,31.250,85.938,0
1583422067.247,34.180,28.320,26.367,26.367,41.504,0
1583422067.251,29.785,34.180,24.414,21.484,61.523,0
1583422067.255,24.902,36.133,25.391,24.414,2.930,0
1583422067.259,23.926,36.133,31.738,28.320,-2.441,0
1583422067.262,29.297,35.156,35.156,28.320,55.664,0
1583422067.266,31.250,34.668,34.180,27.344,74.707,0
1583422067.270,33.203,38.086,38.086,26.855,58.594,0
1583422067.274,35.645,39.062,37.109,28.320,-0.977,0
1583422067.278,38.574,37.598,30.762,27.832,-47.852,0
1583422067.275,40.039,35.156,32.715,24.902,12.695,0
1583422067.279,35.645,30.762,34.668,23.926,58.105,0
1583422067.283,38.574,29.297,36.621,29.785,-20.020,0
1583422067.287,41.504,35.156,37.109,36.133,-40.527,0
1583422067.291,41.504,36.621,26.855,37.598,0.977,0
1583422067.295,44.434,37.109,28.320,36.133,20.996,0
1583422067.299,40.039,39.062,38.086,32.715,69.336,0
1583422067.302,31.738,37.598,39.551,27.832,53.223,0
1583422067.306,31.738,32.227,35.156,31.250,41.504,0
1583422067.310,43.945,34.668,28.809,44.434,24.902,0
1583422067.314,43.457,47.852,33.691,37.598,-20.020,0
1583422067.318,26.855,49.805,32.715,14.160,16.113,0
1583422067.314,21.484,44.922,29.785,11.719,76.660,0
1583422067.318,25.879,41.992,30.762,20.020,80.566,0
1583422067.322,26.855,44.922,23.438,21.973,15.625,0
1583422067.326,23.438,47.363,18.555,21.973,4.395,0
1583422067.330,19.531,38.574,19.043,20.020,18.555,0
1583422067.334,20.020,42.969,19.531,16.113,21.484,0
1583422067.338,25.391,48.828,13.672,19.043,23.926,0
1583422067.341,32.227,47.363,6.836,22.461,-2.441,0
1583422067.345,39.062,50.293,12.695,18.555,22.949,0
1583422067.349,42.969,47.363,17.578,16.113,72.266,0
1583422067.353,41.992,43.945,18.066,14.160,23.926,0
1583422067.357,43.457,45.410,18.066,17.578,23.926,0
1583422067.374,45.410,45.898,15.137,21.484,57.617,0
1583422067.378,48.340,44.922,14.160,18.066,51.270,0
1583422067.382,51.270,45.410,4.395,16.602,61.523,0
1583422067.386,52.734,47.852,4.883,19.043,18.555,0
1583422067.390,51.270,47.852,16.602,21.484,-5.859,0
1583422067.394,49.316,39.551,13.184,16.602,38.086,0
1583422067.398,50.781,41.016,20.508,14.648,74.219,0
1583422067.401,49.316,52.246,26.367,17.090,69.824,0
1583422067.405,47.852,50.293,21.484,18.555,61.035,0
1583422067.409,48.340,44.922,21.973,21.973,51.270,0
1583422067.413,41.016,41.992,25.391,22.461,26.855,0
1583422067.417,36.133,41.504,24.414,26.367,38.086,0
1583422067.415,36.133,41.016,28.809,30.273,20.508,0
1583422067.419,36.133,37.109,32.715,32.227,23.438,0
1583422067.423,33.203,37.109,27.832,32.227,8.789,0
1583422067.427,32.715,38.574,30.762,32.715,7.324,0
1583422067.431,27.832,37.109,30.762,32.715,67.871,0
1583422067.435,24.902,35.156,32.227,32.227,21.973,0
1583422067.439,27.344,33.691,31.738,29.785,-11.719,0
1583422067.442,27.344,35.156,23.926,23.926,43.457,0
1583422067.446,33.691,41.992,22.949,22.949,7.324,0
1583422067.450,38.574,46.875,25.391,26.855,-19.531,0
1583422067.454,33.203,44.434,31.250,20.020,16.602,0
1583422067.458,31.250,42.480,31.250,15.137,36.621,0
1583422067.455,31.250,41.992,30.762,20.020,68.848,0
1583422067.459,34.668,43.945,31.250,26.367,44.922,0
1583422067.463,40.039,38.086,24.902,26.855,11.230,0
1583422067.467,41.016,35.645,32.715,28.320,-5.859,0
1583422067.471,37.109,41.504,40.039,32.715,-22.461,0
1583422067.475,37.598,41.016,35.645,35.645,9.277,0
1583422067.479,40.527,36.133,34.180,39.551,25.879,0
1583422067.482,36.133,29.785,35.156,36.621,-1.465,0
1583422067.486,38.574,34.180,32.715,32.715,9.766,0
1583422067.490,39.062,40.039,34.180,27.832,24.902,0
1583422067.494,34.180,40.527,26.855,22.949,21.973,0
1583422067.498,34.180,41.016,20.996,21.484,57.617,0
1583422067.514,28.809,38.574,30.762,16.113,43.945,0
1583422067.518,22.949,38.574,30.273,12.207,68.359,0
1583422067.522,26.855,40.527,28.320,14.160,71.777,0
1583422067.526,26.367,39.551,26.367,18.066,73.730,0
1583422067.530,21.484,36.621,31.738,21.484,43.457,0
1583422067.534,24.414,26.367,38.574,26.367,3.906,0
1583422067.538,27.344,28.809,36.621,32.715,5.371,0
1583422067.541,21.973,37.109,35.645,35.156,-19.531,0
1583422067.545,20.020,37.598,38.086,35.156,7.812,0
1583422067.549,26.367,36.621,38.574,36.621,51.758,0
1583422067.553,25.391,37.598,42.480,38.574,76.660,0
1583422067.557,28.320,39.551,44.922,37.598,126.465,0
1583422067.554,29.297,38.086,35.156,31.250,78.125,0
1583422067.558,30.273,37.598,32.715,26.855,81.543,0
1583422067.562,40.039,36.133,36.621,24.902,44.922,0
1583422067.566,39.551,38.086,40.039,20.996,4.883,0
1583422067.570,36.133,40.527,35.156,18.555,58.594,0
1583422067.574,39.062,30.762,25.391,18.066,41.504,0
1583422067.578,40.527,32.227,31.738,20.020,45.898,0
1583422067.581,34.668,37.598,35.156,16.113,50.293,0
1583422067.585,33.203,37.109,37.109,19.043,27.344,0
1583422067.589,39.551,39.551,35.156,28.320,59.570,0
1583422067.593,37.598,39.062,29.297,24.414,6.348,0
1583422067.597,32.227,41.992,31.738,19.043,10.742,0
1583422067.595,33.203,42.480,37.598,20.508,48.340,0
1583422067.599,33.691,41.504,33.203,20.508,8.789,0
1583422067.603,31.250,44.434,27.832,24.414,79.102,0
1583422067.607,24.902,42.480,26.367,27.344,85.938,0
1583422067.611,25.879,38.574,27.832,22.949,2.441,0
1583422067.615,28.809,39.551,26.367,20.508,7.324,0
1583422067.619,27.832,37.109,20.020,23.438,20.996,0
1583422067.622,30.273,38.086,18.066,26.855,14.648,0
1583422067.626,30.762,41.992,28.809,28.809,13.672,0
1583422067.630,26.855,40.039,38.086,28.809,9.766,0
1583422067.634,32.715,34.180,37.598,28.320,21.484,0
1583422067.638,35.645,30.273,36.621,30.762,35.156,0
1583422067.654,25.391,34.668,35.156,35.645,4.395,0
1583422067.658,19.043,38.086,38.086,36.133,0.000,0
1583422067.662,21.973,36.133,35.645,36.133,10.742,0
1583422067.666,21.484,35.156,39.551,36.133,30.273,0
1583422067.670,26.367,32.227,43.945,37.109,47.363,0
1583422067.674,31.738,30.762,40.039,39.062,37.598,0
1583422067.678,34.668,35.156,41.016,34.180,40.527,0
1583422067.681,34.180,36.621,40.039,29.785,34.180,0
1583422067.685,27.832,34.180,36.133,29.297,85.938,0
1583422067.689,32.227,36.621,33.203,31.738,125.000,0
1583422067.693,41.504,41.016,32.227,35.156,42.480,0
1583422067.697,42.480,39.062,33.691,32.227,28.320,0
1583422067.695,40.039,35.156,34.180,26.367,76.660,0
1583422067.699,40.527,34.668,33.203,25.879,42.480,0
1583422067.703,39.551,36.133,34.668,23.926,-2.930,0
1583422067.707,36.133,33.691,38.574,24.414,43.945,0
1583422067.711,44.922,36.133,35.156,36.133,66.406,0
1583422067.715,46.387,41.016,21.484,39.062,63.477,0
1583422067.719,35.645,39.551,19.043,27.832,70.801,0
1583422067.722,31.250,43.945,27.344,17.090,24.902,0
1583422067.726,34.668,48.340,26.367,17.578,30.273,0
1583422067.730,43.457,50.293,23.926,23.438,83.984,0
1583422067.734,43.945,50.781,20.020,24.902,100.586,0
1583422067.738,43.945,53.223,14.160,27.832,48.340,0
1583422067.734,49.316,55.664,10.254,27.832,65.430,0
1583422067.738,51.758,57.129,10.254,25.391,57.617,0
1583422067.742,53.223,61.035,9.277,26.367,5.859,0
1583422067.746,60.059,63.965,3.418,23.926,74.219,0
1583422067.750,62.988,65.918,-2.441,22.949,66.406,0
1583422067.754,62.500,68.359,-2.441,27.344,0.977,0
1583422067.758,61.523,70.312,-3.418,22.461,30.273,0
1583422067.761,61.035,67.383,-6.348,20.996,51.270,0
1583422067.765,62.988,69.824,-7.812,20.996,42.480,0
1583422067.769,55.176,72.754,-9.277,16.113,25.391,0
1583422067.773,51.270,67.871,-10.254,14.648,37.598,0
1583422067.777,53.223,67.871,-11.230,11.230,49.805,0
1583422067.795,47.363,76.172,-11.719,11.230,42.480,0
1583422067.799,41.992,74.707,-10.742,11.719,11.230,0
1583422067.803,44.434,73.730,-12.207,12.695,-4.883,0
1583422067.807,49.316,82.031,-11.719,12.695,-29.785,0
1583422067.811,53.711,82.031,-7.812,17.090,31.250,0
1583422067.815,58.105,79.590,-7.812,25.391,82.031,0
1583422067.819,59.570,78.613,-6.348,22.461,21.973,0
1583422067.822,52.246,70.801,-2.930,15.625,18.555,0
1583422067.826,48.340,61.035,0.977,14.648,24.414,0
1583422067.830,45.410,62.012,6.836,16.113,46.387,0
1583422067.834,40.039,64.941,7.812,19.531,80.566,0
1583422067.838,41.992,65.430,7.812,20.996,25.879,0
1583422067.835,40.039,66.406,9.277,21.973,-36.133,0
1583422067.839,35.645,60.547,7.812,24.902,0.000,0
1583422067.843,41.504,58.105,10.254,31.250,46.875,0
1583422067.847,43.945,55.664,13.184,32.227,73.242,0
1583422067.851,43.457,55.176,14.160,27.832,70.801,0
1583422067.855,42.480,53.223,19.043,26.367,22.461,0
1583422067.859,45.410,47.363,21.973,27.344,63.477,0
1583422067.862,50.293,50.781,20.020,31.250,85.938,0
1583422067.866,45.410,51.758,18.066,32.715,-2.930,0
1583422067.870,43.945,52.734,21.484,31.250,-14.160,0
1583422067.874,46.387,52.734,19.531,30.762,59.082,0
1583422067.878,48.828,47.852,15.625,33.691,19.531,0
1583422067.875,49.316,46.387,19.043,29.785,-37.598,0
1583422067.879,48.340,44.922,21.484,22.461,-52.246,0
1583422067.883,43.457,42.480,22.949,24.902,4.395,0
1583422067.887,30.273,38.086,21.973,24.902,70.801,0
1583422067.891,26.855,31.250,22.949,24.414,76.660,0
1583422067.895,33.203,35.645,24.902,26.367,54.199,0
1583422067.899,34.668,44.434,25.391,26.855,32.715,0
1583422067.902,37.598,44.922,25.879,30.273,45.410,0
1583422067.906,37.109,45.410,26.367,30.273,55.664,0
1583422067.910,27.344,42.969,27.832,30.273,57.129,0
1583422067.914,30.273,41.016,28.809,34.180,79.102,0
1583422067.918,32.227,39.551,28.809,30.273,29.785,0
1583422067.934,32.715,37.109,29.785,26.367,-14.160,0
1583422067.938,26.367,36.621,28.809,26.855,-10.742,0
1583422067.942,18.555,34.180,29.297,24.414,14.648,0
1583422067.946,16.602,33.691,27.344,22.949,36.621,0
1583422067.950,22.949,36.621,27.344,26.367,10.254,0
1583422067.954,26.855,36.621,31.738,24.902,14.160,0
1583422067.958,30.762,35.156,30.762,23.438,34.668,0
1583422067.961,49.316,36.133,29.785,33.203,70.801,0
1583422067.965,52.734,39.551,33.203,39.551,80.566,0
1583422067.969,40.527,45.898,30.273,31.738,21.484,0
1583422067.973,37.109,49.805,23.926,21.973,34.668,0
1583422067.977,42.969,49.316,24.414,20.020,34.180,0
1583422067.974,42.480,51.758,23.438,18.555,74.219,0
1583422067.978,41.504,55.176,18.555,16.602,48.828,0
1583422067.982,41.016,55.664,15.137,10.742,50.781,0
1583422067.986,35.156,59.082,15.137,6.348,68.359,0
1583422067.990,24.414,57.617,14.160,8.789,-15.625,0
1583422067.994,17.090,50.781,12.695,7.324,61.035,0
1583422067.998,22.949,55.176,15.137,6.348,51.758,0
1583422068.001,29.785,59.570,15.137,11.719,-23.926,0
1583422068.005,32.227,59.570,12.695,13.672,30.762,0
1583422068.009,34.668,60.547,16.113,16.113,56.152,0
1583422068.013,37.598,59.082,16.113,19.531,11.230,0
1583422068.017,42.480,55.176,13.672,18.066,-20.508,0
1583422068.014,37.109,54.199,15.625,16.602,-17.090,0
1583422068.018,24.414,50.781,16.602,16.113,-2.930,0
1583422068.022,15.625,49.316,17.090,12.695,-4.883,0
1583422068.026,7.324,47.852,18.555,6.836,31.738,0
1583422068.030,6.836,41.992,20.508,3.906,59.570,0
1583422068.034,12.207,41.016,22.949,9.766,13.184,0
1583422068.038,10.742,43.457,22.461,13.672,-11.719,0
1583422068.041,14.648,48.828,22.949,11.719,64.941,0
1583422068.045,24.414,53.711,25.879,9.766,133.789,0
1583422068.049,26.367,50.781,25.879,13.672,110.352,0
1583422068.053,28.809,47.363,23.438,19.043,59.570,0
1583422068.057,28.320,45.410,22.949,16.602,-8.789,0
1583422068.074,29.785,45.410,25.879,15.137,-38.086,0
1583422068.078,36.621,46.875,26.855,16.113,48.828,0
1583422068.082,41.504,42.480,22.949,18.555,59.570,0
1583422068.086,41.992,34.668,19.531,19.531,-46.875,0
1583422068.090,46.875,41.016,24.414,21.973,4.395,0
1583422068.094,47.852,48.828,30.273,28.320,86.426,0
1583422068.098,39.062,44.922,31.738,28.809,23.438,0
1583422068.101,38.574,41.016,30.273,30.273,40.039,0
1583422068.105,43.457,42.969,29.297,33.203,20.996,0
1583422068.109,44.434,43.457,28.320,29.785,9.766,0
1583422068.113,41.992,42.969,28.809,24.414,49.805,0
1583422068.117,44.922,41.992,27.832,22.949,79.102,0
1583422068.114,42.480,40.039,26.367,20.996,72.266,0
1583422068.118,44.434,40.527,29.297,20.996,54.199,0
1583422068.122,44.922,40.039,28.320,22.461,74.707,0
1583422068.126,38.086,32.227,30.273,25.879,19.043,0
1583422068.130,32.715,32.227,33.203,27.344,53.711,0
1583422068.134,24.902,39.062,31.250,22.949,59.570,0
1583422068.138,24.414,42.480,32.227,21.973,-23.438,0
1583422068.141,26.855,42.480,30.762,18.555,4.395,0
1583422068.145,34.180,41.016,24.414,20.996,53.223,0
1583422068.149,46.875,42.969,29.297,32.715,75.195,0
1583422068.153,34.180,36.133,35.645,25.879,54.688,0
1583422068.157,13.184,29.297,37.109,15.137,51.758,0
1583422068.155,5.371,27.832,41.504,13.672,62.500,0
1583422068.159,2.441,25.391,43.457,16.602,44.434,0
1583422068.163,1.465,20.020,49.805,16.602,46.875,0
1583422068.167,-6.348,13.672,53.711,14.648,36.133,0
1583422068.171,-14.648,12.695,56.641,12.207,16.602,0
1583422068.175,-17.090,9.766,61.035,10.254,6.836,0
1583422068.179,-14.648,6.836,58.594,9.766,22.461,0
1583422068.182,-18.555,2.930,63.965,4.395,43.457,0
1583422068.186,-25.879,-6.348,67.383,-3.418,1.953,0
1583422068.190,-30.762,-6.836,61.035,-4.395,-21.973,0
1583422068.194,-37.109,-5.859,62.012,-10.254,-5.859,0
1583422068.198,-36.133,-6.836,64.941,-13.184,26.855,0
1583422068.215,-33.691,-7.324,68.359,-5.859,55.664,0
1583422068.219,-37.598,-14.160,71.289,-8.301,9.277,0
1583422068.223,-31.738,-14.160,68.848,-7.812,20.020,0
1583422068.227,-26.855,-13.672,73.242,-5.859,55.664,0
1583422068.231,-32.715,-16.113,75.684,-6.348,69.336,0
1583422068.235,-34.668,-16.602,76.660,1.953,65.918,0
1583422068.239,-36.621,-20.508,80.566,5.859,58.105,0
1583422068.242,-42.480,-20.020,78.613,5.859,70.801,0
1583422068.246,-33.691,-17.578,78.613,13.184,46.875,0
1583422068.250,-27.344,-22.461,80.566,19.043,22.949,0
1583422068.254,-20.996,-20.996,79.102,19.531,24.414,0
1583422068.258,-12.207,-18.066,78.125,22.461,32.715,0
1583422068.255,-11.230,-17.578,76.172,23.438,80.078,0
1583422068.259,-6.836,-11.230,74.219,23.438,79.590,0
1583422068.263,-7.812,-7.324,71.777,25.879,39.551,0
1583422068.267,-9.277,-6.348,68.359,26.367,-13.184,0
1583422068.271,-6.348,-3.418,68.359,23.438,-47.852,0
1583422068.275,0.977,1.953,66.406,24.902,-20.020,0
1583422068.279,13.672,6.836,60.547,28.809,-5.859,0
1583422068.282,20.996,8.301,57.617,30.273,11.719,0
1583422068.286,18.066,7.812,56.152,26.367,24.902,0
1583422068.290,19.043,12.695,59.570,24.902,43.457,0
1583422068.294,17.578,14.648,52.246,27.832,44.922,0
1583422068.298,12.695,10.254,41.504,29.297,41.992,0
1583422068.296,19.043,15.625,49.805,30.273,34.180,0
1583422068.300,25.391,21.973,58.594,32.715,45.898,0
1583422068.304,27.344,22.461,56.152,33.203,41.504,0
1583422068.308,28.809,25.879,51.270,35.156,32.715,0
1583422068.312,31.250,28.320,47.852,40.527,38.574,0
1583422068.316,32.227,30.273,49.316,41.504,41.504,0
1583422068.320,29.785,30.273,45.898,40.527,54.688,0
1583422068.323,28.320,27.344,46.875,37.598,37.109,0
1583422068.327,30.762,23.926,52.246,36.133,57.617,0
1583422068.331,33.203,26.367,51.758,34.668,34.668,0
1583422068.335,33.691,29.297,50.781,37.598,42.480,0
1583422068.339,31.250,27.832,44.434,39.551,52.246,0
1583422068.354,21.973,30.273,44.922,33.203,10.742,0
1583422068.358,14.648,29.785,49.805,31.738,-33.691,0
1583422068.362,18.555,32.715,37.109,36.621,-74.707,0
1583422068.366,22.949,35.645,29.785,36.621,12.695,0
1583422068.370,27.344,35.645,44.922,34.180,83.496,0
1583422068.374,29.785,35.645,49.316,33.203,71.777,0
1583422068.378,28.809,34.180,44.434,34.180,50.293,0
1583422068.381,29.785,27.832,46.387,33.203,51.758,0
1583422068.385,27.832,21.973,43.945,29.785,-20.508,0
1583422068.389,26.855,25.391,43.457,32.715,-56.641,0
1583422068.393,35.645,32.227,42.969,38.574,5.371,0
1583422068.397,44.434,36.621,38.574,41.504,24.902,0
1583422068.396,44.434,36.133,35.645,42.969,13.184,0
1583422068.400,44.434,35.645,36.621,39.551,57.617,0
1583422068.404,45.410,35.156,35.645,35.645,57.617,0
1583422068.408,44.922,35.156,36.133,38.086,49.316,0
1583422068.412,47.852,35.645,37.598,40.039,25.879,0
1583422068.416,43.457,33.203,36.133,34.180,38.574,0
1583422068.420,38.574,32.715,32.227,31.250,29.297,0
1583422068.423,34.668,36.133,36.133,32.227,41.016,0
1583422068.427,38.574,29.297,34.668,35.156,76.660,0
1583422068.431,44.922,27.344,23.438,37.109,54.199,0
1583422068.435,39.551,37.598,32.227,36.621,32.227,0
1583422068.439,35.645,38.086,36.133,37.598,12.207,0
1583422068.434,37.598,33.203,33.203,36.621,20.020,0
1583422068.438,35.156,34.180,41.016,35.156,-7.324,0
1583422068.442,31.250,36.621,44.434,33.691,8.301,0
1583422068.446,28.320,33.691,42.969,30.273,2.930,0
1583422068.450,27.832,34.180,41.016,28.809,43.945,0
1583422068.454,34.668,37.598,39.062,29.785,60.547,0
1583422068.458,38.086,37.598,36.133,34.180,31.738,0
1583422068.461,37.109,34.180,31.738,35.645,31.738,0
1583422068.465,36.133,32.715,30.762,34.668,-12.207,0
1583422068.469,30.273,31.250,34.180,31.738,41.992,0
1583422068.473,27.832,33.203,40.039,33.203,82.520,0
1583422068.477,28.320,37.598,38.086,37.598,27.344,0
1583422068.494,24.414,32.715,32.715,35.156,56.152,0
1583422068.498,18.066,32.227,35.645,31.738,77.148,0
1583422068.502,16.113,37.598,35.156,26.367,91.309,0
1583422068.506,18.555,36.133,30.273,20.508,79.102,0
1583422068.510,22.461,39.062,32.715,20.020,62.012,0
1583422068.514,28.809,40.527,29.785,24.414,23.438,0
1583422068.518,36.133,39.062,20.508,28.320,19.043,0
1583422068.521,37.109,42.969,22.949,26.367,-1.465,0
1583422068.525,39.551,42.480,28.809,21.973,29.297,0
1583422068.529,44.434,41.504,32.227,25.879,68.359,0
1583422068.533,49.316,45.410,35.645,31.250,42.480,0
1583422068.537,50.293,46.387,32.227,29.297,108.887,0
1583422068.534,43.945,41.992,30.273,26.367,62.012,0
1583422068.538,37.598,38.574,34.180,26.855,-10.742,0
1583422068.542,31.250,31.738,36.133,23.926,-0.977,0
1583422068.546,30.273,28.809,33.203,20.508,31.250,0
1583422068.550,28.320,37.109,30.762,20.508,28.809,0
1583422068.554,27.832,42.480,30.762,18.066,-7.324,0
1583422068.558,24.414,41.504,25.391,16.602,5.859,0
1583422068.561,12.207,39.062,27.344,17.090,27.832,0
1583422068.565,16.113,38.574,23.926,16.113,56.152,0
1583422068.569,16.602,35.156,27.344,16.602,74.707,0
1583422068.573,8.301,34.180,38.574,20.508,48.340,0
1583422068.577,15.625,39.551,37.109,24.902,3.906,0
1583422068.574,17.578,35.156,33.691,21.973,20.508,0
1583422068.578,17.090,34.180,38.086,21.484,55.664,0
1583422068.582,25.879,40.039,39.062,23.926,43.457,0
1583422068.586,29.297,40.039,34.668,22.461,29.785,0
1583422068.590,24.902,39.551,37.598,23.438,32.715,0
1583422068.594,24.902,39.062,32.715,22.949,34.668,0
1583422068.598,25.391,36.133,24.414,21.973,13.184,0
1583422068.601,18.555,36.621,30.273,25.391,-4.883,0
1583422068.605,21.973,37.598,31.738,25.391,75.684,0
1583422068.609,25.879,32.715,35.156,25.391,110.840,0
1583422068.613,22.949,27.832,45.898,31.250,68.359,0
1583422068.617,26.855,29.785,41.016,34.180,12.207,0
1583422068.635,34.180,38.574,35.156,33.203,13.184,0
1583422068.639,42.480,41.016,35.645,31.250,57.617,0
1583422068.643,43.945,37.598,36.621,28.809,41.504,0
1583422068.647,32.715,36.133,37.598,31.250,-1.953,0
1583422068.651,28.320,37.109,36.133,29.297,-20.996,0
1583422068.655,28.320,37.109,36.621,23.438,36.133,0
1583422068.659,28.320,37.109,34.180,19.043,32.227,0
1583422068.662,23.926,38.574,25.879,16.113,39.062,0
1583422068.666,18.555,33.691,23.926,18.555,66.406,0
1583422068.670,26.855,30.762,27.832,20.508,42.969,0
1583422068.674,30.273,38.574,36.133,18.555,23.926,0
1583422068.678,25.879,42.969,36.621,16.602,40.039,0
1583422068.675,22.461,38.574,29.785,19.531,13.184,0
1583422068.679,20.996,31.738,30.762,22.949,-36.133,0
1583422068.683,22.461,31.738,41.992,24.414,-19.531,0
1583422068.687,25.391,33.203,45.410,24.902,13.184,0
1583422068.691,20.020,30.762,37.598,24.902,-4.883,0
1583422068.695,14.160,29.297,39.062,25.391,5.371,0
1583422068.699,18.066,32.227,37.598,23.926,20.508,0
1583422068.702,22.461,29.297,44.922,20.020,20.020,0
1583422068.706,25.391,23.438,45.410,21.484,11.719,0
1583422068.710,24.902,26.855,37.598,22.949,82.520,0
1583422068.714,23.926,34.668,36.621,19.531,100.098,0
1583422068.718,25.391,36.621,34.180,21.973,47.852,0
1583422068.734,30.273,30.762,35.156,25.879,11.230,0
1583422068.738,38.574,32.715,39.551,31.738,2.930,0
1583422068.742,39.551,39.551,39.551,28.809,23.438,0
1583422068.746,34.668,40.039,38.574,27.344,44.922,0
1583422068.750,33.203,39.551,37.598,29.785,46.387,0
1583422068.754,36.621,39.551,30.762,27.344,17.578,0
1583422068.758,43.457,37.109,29.297,27.344,58.105,0
1583422068.761,49.316,35.156,31.738,27.832,42.969,0
1583422068.765,51.758,35.156,30.762,25.391,-7.324,0
1583422068.769,50.781,42.969,29.297,23.926,22.461,0
1583422068.773,48.828,41.992,26.367,25.391,45.898,0
1583422068.777,50.781,38.086,26.367,27.832,33.203,0
1583422068.774,50.293,41.992,22.461,27.832,34.668,0
1583422068.778,49.316,36.621,22.461,30.762,4.883,0
1583422068.782,47.363,35.156,33.691,35.645,9.766,0
1583422068.786,41.016,42.480,41.016,33.203,45.898,0
1583422068.790,42.480,38.086,32.227,29.785,25.391,0
1583422068.794,50.781,34.668,24.414,36.621,7.812,0
1583422068.798,48.340,38.574,25.391,38.574,16.602,0
1583422068.801,38.086,39.062,20.996,33.203,3.906,0
1583422068.805,40.527,28.809,20.996,31.250,-20.996,0
1583422068.809,46.875,30.762,29.297,32.715,-3.906,0
1583422068.813,45.898,42.480,34.668,31.738,43.945,0
1583422068.817,49.316,42.480,40.527,24.902,63.477,0
1583422068.814,48.828,41.504,40.527,20.996,4.395,0
1583422068.818,42.480,34.180,40.527,20.996,34.180,0
1583422068.822,43.945,29.785,30.273,22.461,60.547,0
1583422068.826,42.969,30.273,35.156,23.438,40.039,0
1583422068.830,33.691,37.598,46.875,22.949,79.590,0
1583422068.834,31.250,41.016,37.598,26.855,56.152,0
1583422068.838,33.203,38.086,36.621,30.273,48.340,0
1583422068.841,33.691,40.527,37.109,33.691,57.129,0
1583422068.845,38.574,38.574,32.715,38.574,75.684,0
1583422068.849,40.039,32.715,35.156,38.574,42.969,0
1583422068.853,38.574,33.691,37.109,33.691,3.906,0
1583422068.857,36.621,34.668,39.062,28.809,-13.184,0
1583422068.874,35.645,35.645,38.086,24.414,41.504,0
1583422068.878,35.156,40.039,29.785,18.066,91.309,0
1583422068.882,29.297,40.039,28.809,15.625,15.625,0
1583422068.886,33.691,41.504,32.715,20.020,35.645,0
1583422068.890,38.086,41.016,30.762,23.926,89.844,0
1583422068.894,35.645,32.227,30.273,20.508,60.059,0
1583422068.898,33.691,29.297,36.133,20.020,49.805,0
1583422068.901,34.180,30.762,41.016,23.438,64.941,0
1583422068.905,31.250,32.227,35.156,25.391,19.043,0
1583422068.909,23.438,32.715,34.180,24.414,4.883,0
1583422068.913,25.391,26.367,38.574,22.461,-11.719,0
1583422068.917,31.738,23.438,37.598,28.320,33.203,0
1583422068.915,33.203,33.203,27.832,30.273,66.895,0
1583422068.919,32.227,41.504,28.809,25.879,61.035,0
1583422068.923,32.227,45.898,32.227,25.879,53.711,0
1583422068.927,31.250,44.922,23.926,24.414,10.254,0
1583422068.931,33.203,39.551,23.438,26.367,70.801,0
1583422068.935,38.574,37.598,29.297,24.902,70.801,0
1583422068.939,37.109,37.598,32.715,20.508,8.301,0
1583422068.942,36.621,38.574,33.691,20.020,-15.137,0
1583422068.946,38.574,34.668,30.273,20.996,30.762,0
1583422068.950,41.992,32.715,30.762,20.996,57.129,0
1583422068.954,44.922,42.969,33.203,21.973,20.020,0
1583422068.958,40.039,45.898,35.645,26.855,27.832,0
1583422068.954,34.668,40.039,35.156,28.809,19.043,0
1583422068.958,28.809,40.039,33.203,22.949,60.547,0
1583422068.962,24.414,41.504,32.715,19.531,45.898,0
1583422068.966,26.367,39.551,34.180,19.043,23.438,0
1583422068.970,25.391,36.133,31.250,19.531,21.973,0
1583422068.974,18.555,36.133,23.438,20.020,26.855,0
1583422068.978,17.578,35.156,25.391,16.602,75.684,0
1583422068.981,12.695,30.762,33.203,11.230,33.691,0
1583422068.985,11.719,37.109,34.668,12.695,14.160,0
1583422068.989,15.137,44.434,32.227,13.184,33.691,0
1583422068.993,5.371,41.992,32.227,9.766,26.855,0
1583422068.997,2.930,40.039,39.062,13.184,41.992,0
1583422069.015,13.184,38.086,33.691,19.043,43.945,0
1583422069.019,20.020,36.133,33.691,20.020,38.574,0
1583422069.023,25.879,30.762,40.527,22.461,-20.996,0
1583422069.027,31.738,27.832,39.062,25.391,-37.109,0
1583422069.031,39.062,31.738,38.574,28.809,8.301,0
1583422069.035,45.898,36.621,35.645,31.738,-28.320,0
1583422069.039,49.316,41.016,33.691,28.320,-2.930,0
1583422069.042,46.387,37.109,39.062,26.855,39.062,0
1583422069.046,41.504,30.273,36.621,29.785,-10.254,0
1583422069.050,44.434,37.109,27.832,32.227,32.227,0
1583422069.054,43.945,44.922,31.250,30.273,16.602,0
1583422069.058,40.527,41.992,35.645,26.367,-18.555,0
1583422069.055,42.480,37.109,35.156,24.414,29.297,0
1583422069.059,39.062,36.133,31.738,21.484,60.547,0
1583422069.063,33.203,38.086,36.133,20.020,25.391,0
1583422069.067,28.320,37.598,38.574,18.555,11.230,0
1583422069.071,27.832,40.039,37.598,18.066,79.102,0
1583422069.075,32.715,42.480,36.133,26.367,92.285,0
1583422069.079,31.738,40.039,38.086,31.738,36.621,0
1583422069.082,19.531,36.133,39.551,28.320,41.016,0
1583422069.086,12.207,32.715,28.809,25.391,68.359,0
1583422069.090,17.578,26.367,34.668,24.902,84.473,0
1583422069.094,24.414,25.391,50.293,29.785,91.797,0
1583422069.098,26.367,24.414,48.340,34.180,48.340,0
1583422069.095,31.250,24.414,46.875,34.180,14.648,0
1583422069.099,33.691,30.273,45.898,34.668,-49.805,0
1583422069.103,33.691,32.715,41.504,31.738,-32.227,0
1583422069.107,36.621,35.156,38.574,26.855,92.773,0
1583422069.111,41.016,34.668,39.551,30.762,60.059,0
1583422069.115,31.738,33.203,39.062,28.809,45.898,0
1583422069.119,20.996,34.668,37.109,21.484,72.266,0
1583422069.122,26.367,33.203,38.574,21.484,-8.789,0
1583422069.126,29.785,25.879,42.969,19.531,-30.762,0
1583422069.130,25.391,25.879,41.504,17.578,-4.883,0
1583422069.134,24.902,31.738,35.645,19.043,46.387,0
1583422069.138,32.227,26.855,31.250,21.484,49.316,0
1583422069.155,36.133,25.879,31.738,24.414,50.293,0
1583422069.159,27.344,31.250,44.434,22.949,12.207,0
1583422069.163,26.855,28.320,46.387,21.484,39.062,0
1583422069.167,32.227,30.273,38.086,24.902,88.379,0
1583422069.171,27.832,37.598,35.645,25.879,66.895,0
1583422069.175,23.438,37.598,35.645,23.438,75.195,0
1583422069.179,25.879,35.645,31.738,24.902,88.867,0
1583422069.182,26.855,32.715,30.762,23.926,75.684,0
1583422069.186,28.320,24.902,31.738,26.855,70.801,0
1583422069.190,35.156,31.250,34.180,35.156,9.766,0
1583422069.194,35.156,41.992,38.574,31.250,-28.320,0
1583422069.198,35.645,43.945,37.109,25.391,37.109,0
1583422069.194,38.086,39.062,37.109,28.809,60.547,0
1583422069.198,37.598,36.133,43.945,28.809,33.203,0
1583422069.202,37.109,40.527,41.016,28.320,10.742,0
1583422069.206,35.645,40.527,38.086,29.297,27.344,0
1583422069.210,37.109,39.551,37.598,31.250,57.129,0
1583422069.214,41.016,41.016,22.461,34.668,72.266,0
1583422069.218,41.504,38.574,20.996,34.180,91.309,0
1583422069.221,41.016,35.645,39.062,29.785,46.875,0
1583422069.225,36.133,33.203,44.434,27.832,27.344,0
1583422069.229,28.809,33.691,34.668,26.367,43.457,0
1583422069.233,23.438,35.645,32.715,18.066,70.312,0
1583422069.237,18.555,33.691,41.992,10.742,88.379,0
1583422069.235,16.113,33.203,41.992,11.230,29.297,0
1583422069.239,16.113,37.109,41.016,10.742,-10.742,0
1583422069.243,17.090,38.086,37.109,13.672,22.949,0
1583422069.247,21.973,35.156,33.691,16.602,28.320,0
1583422069.251,26.367,36.133,22.949,16.113,13.672,0
1583422069.255,28.320,36.621,19.531,18.066,-12.207,0
1583422069.259,25.879,29.297,30.273,19.043,-30.762,0
1583422069.262,23.438,30.273,41.016,20.020,46.875,0
1583422069.266,25.879,38.574,41.504,19.531,59.570,0
1583422069.270,24.902,39.551,32.227,21.484,83.984,0
1583422069.274,26.367,36.621,36.133,21.973,50.293,0
1583422069.278,33.203,39.551,39.551,20.020,-10.742,0
1583422069.294,28.809,38.574,31.738,21.973,26.855,0
1583422069.298,21.973,35.645,27.344,23.926,10.254,0
1583422069.302,31.250,41.504,31.250,26.855,29.785,0
1583422069.306,39.551,40.527,33.691,27.344,92.285,0
1583422069.310,34.668,35.156,38.574,25.391,56.152,0
1583422069.314,29.297,38.574,39.062,25.391,63.477,0
1583422069.318,30.273,40.039,37.598,25.391,49.316,0
1583422069.321,27.832,32.715,30.273,22.949,77.148,0
1583422069.325,31.250,36.133,35.645,23.438,67.383,0
1583422069.329,35.156,39.062,42.480,27.832,-4.395,0
1583422069.333,33.203,33.203,35.645,29.785,3.418,0
1583422069.337,34.180,36.621,26.367,30.762,41.504,0
1583422069.334,34.180,38.086,35.156,30.762,29.785,0
1583422069.338,33.203,35.645,37.598,27.344,22.461,0
1583422069.342,36.133,31.738,32.227,24.902,50.293,0
1583422069.346,36.133,33.203,37.598,23.438,-29.785,0
1583422069.350,34.180,36.133,41.016,22.461,-97.168,0
1583422069.354,32.227,34.180,38.574,22.461,-19.531,0
1583422069.358,31.250,38.086,18.555,23.926,-5.859,0
1583422069.361,27.344,32.715,20.020,25.391,-2.930,0
1583422069.365,25.391,30.762,37.598,25.879,-28.809,0
1583422069.369,30.762,35.156,38.086,26.367,-12.207,0
1583422069.373,33.691,33.203,40.527,26.367,81.055,0
1583422069.377,36.133,34.180,43.457,25.391,30.273,0
1583422069.374,36.133,36.133,38.574,27.832,-2.441,0
1583422069.378,29.297,30.762,32.715,27.344,71.289,0
1583422069.382,31.738,28.809,31.250,29.785,72.754,0
1583422069.386,38.086,34.668,21.484,28.809,64.941,0
1583422069.390,38.086,34.668,20.020,24.414,91.797,0
1583422069.394,34.180,39.062,20.996,23.926,60.547,0
1583422069.398,24.414,34.180,31.738,18.066,19.043,0
1583422069.401,20.996,27.832,45.410,15.137,75.195,0
1583422069.405,28.320,33.691,43.457,18.555,64.941,0
1583422069.409,30.762,32.227,41.016,19.531,-36.621,0
1583422069.413,24.414,27.832,41.016,19.043,-4.395,0
1583422069.417,24.902,30.273,34.180,17.578,64.453,0
1583422069.434,28.320,36.621,26.367,18.066,53.711,0
1583422069.438,22.949,39.062,20.020,17.090,36.133,0
1583422069.442,20.996,34.668,32.227,11.719,37.598,0
1583422069.446,26.367,37.109,36.621,16.602,12.207,0
1583422069.450,31.250,41.504,23.926,25.391,0.000,0
1583422069.454,30.273,30.762,30.762,26.855,36.133,0
1583422069.458,28.320,25.391,36.621,25.391,1.465,0
1583422069.461,31.738,40.039,35.156,24.414,2.930,0
1583422069.465,34.668,48.340,37.109,26.855,67.871,0
1583422069.469,34.180,44.922,39.062,24.414,20.996,0
1583422069.473,29.297,41.016,38.086,20.020,27.344,0
1583422069.477,31.738,44.434,42.480,21.973,51.758,0
1583422069.475,32.227,41.504,38.086,20.996,3.906,0
1583422069.479,34.180,40.039,36.621,24.414,-20.996,0
1583422069.483,36.621,41.992,30.273,30.273,9.766,0
1583422069.487,29.297,36.621,23.926,27.344,38.086,3
1583422069.491,19.531,29.297,45.410,23.438,30.762,0
1583422069.495,16.602,24.902,48.340,20.020,25.391,0
1583422069.499,21.973,32.227,30.762,23.438,27.832,0
1583422069.502,21.973,41.504,27.832,22.461,64.941,0
1583422069.506,19.531,39.062,42.480,16.113,110.840,0
1583422069.510,25.879,34.668,53.223,19.531,59.082,0
1583422069.514,26.367,33.691,49.316,22.949,14.160,0
1583422069.518,22.461,35.156,39.551,20.020,-5.859,0
1583422069.514,23.926,38.086,29.785,20.508,-1.953,0
1583422069.518,23.926,33.203,32.227,21.484,3.906,0
1583422069.522,31.250,30.273,37.598,21.973,35.156,0
1583422069.526,34.668,36.133,32.227,21.973,59.570,0
1583422069.530,30.273,41.504,26.367,18.066,44.922,0
1583422069.534,33.691,39.062,31.250,21.973,15.137,0
1583422069.538,32.227,34.668,35.156,20.508,-12.207,0
1583422069.541,26.855,37.109,44.922,18.555,1.465,0
1583422069.545,30.273,39.551,52.246,22.461,22.461,0
1583422069.549,33.691,37.109,46.875,24.902,-1.953,0
1583422069.553,33.203,32.715,45.410,33.691,-5.859,0
1583422069.557,35.156,31.738,31.250,40.527,5.859,0
1583422069.574,32.715,33.203,28.809,38.086,-31.738,0
1583422069.578,32.227,31.738,42.480,35.645,42.969,0
1583422069.582,36.133,38.086,33.691,37.109,60.547,0
1583422069.586,33.203,44.434,36.621,35.156,64.453,0
1583422069.590,32.227,41.016,40.527,27.832,68.848,0
1583422069.594,34.668,37.109,42.480,21.484,22.949,0
1583422069.598,31.738,34.668,43.945,17.090,-6.836,0
1583422069.601,32.715,34.180,36.133,16.602,-0.488,0
1583422069.605,33.691,37.598,34.668,22.461,46.387,0
1583422069.609,31.738,41.504,41.504,21.973,67.871,0
1583422069.613,32.227,39.062,44.922,21.973,55.664,0
1583422069.617,32.227,33.691,30.762,22.949,71.777,0
1583422069.614,34.668,26.367,25.879,23.926,76.660,0
1583422069.618,32.715,29.297,29.297,26.367,4.395,0
1583422069.622,26.367,38.086,31.250,27.832,28.809,0
1583422069.626,32.715,45.410,36.621,33.203,38.086,0
1583422069.630,36.133,44.922,35.156,30.762,-38.574,0
1583422069.634,29.297,39.551,44.922,26.367,19.531,0
1583422069.638,27.344,40.039,51.270,31.738,41.504,0
1583422069.641,27.832,37.598,49.316,30.762,71.289,0
1583422069.645,29.785,31.738,44.434,26.855,97.656,0
1583422069.649,35.645,35.645,41.504,27.344,52.246,0
1583422069.653,30.762,35.645,39.551,24.414,29.785,0
1583422069.657,29.297,34.180,29.297,20.996,43.945,0
1583422069.654,33.691,37.109,29.297,21.484,32.715,0
1583422069.658,32.227,34.668,42.969,21.973,62.988,0
1583422069.662,31.738,32.715,45.410,20.020,113.770,0
1583422069.666,35.156,34.668,41.016,22.949,75.684,0
1583422069.670,40.039,38.574,37.598,29.785,52.734,0
1583422069.674,43.457,37.109,33.691,31.250,52.246,0
1583422069.678,38.086,33.691,33.203,30.762,32.715,0
1583422069.681,35.156,35.645,39.551,29.785,21.484,0
1583422069.685,33.691,35.645,42.969,29.297,23.926,0
1583422069.689,27.832,29.297,40.039,25.391,66.895,0
1583422069.693,27.832,23.438,41.504,20.020,68.848,0
1583422069.697,28.320,27.832,30.762,20.508,20.996,0
1583422069.714,30.762,40.527,24.414,23.926,47.852,0
1583422069.718,31.250,38.574,31.738,21.484,11.230,0
1583422069.722,31.738,35.156,32.227,19.531,-20.020,0
1583422069.726,40.039,41.992,43.945,22.461,59.082,0
1583422069.730,43.945,43.945,45.410,25.391,46.875,0
1583422069.734,42.480,41.016,39.062,27.832,43.457,0
1583422069.738,43.457,40.527,37.598,27.832,-5.859,0
1583422069.741,42.480,41.992,34.180,28.320,29.297,0
1583422069.745,35.156,35.645,40.527,28.320,19.043,0
1583422069.749,40.039,35.156,30.273,32.715,-17.090,0
1583422069.753,50.781,43.945,14.648,41.504,41.504,0
1583422069.757,49.316,43.457,34.668,42.969,21.484,0
1583422069.754,40.039,38.086,47.852,33.203,48.828,0
1583422069.758,31.738,35.156,47.852,25.879,87.891,0
1583422069.762,33.203,34.668,46.875,26.367,44.434,0
1583422069.766,37.109,33.691,43.457,23.438,23.926,0
1583422069.770,36.621,36.133,39.551,25.391,33.691,0
1583422069.774,31.250,32.715,37.109,25.391,12.695,0
1583422069.778,24.414,23.926,41.992,22.949,47.852,0
1583422069.781,28.320,26.855,43.457,23.926,66.895,0
1583422069.785,32.715,31.738,39.062,27.344,18.555,0
1583422069.789,36.133,34.180,37.109,27.832,43.945,0
1583422069.793,38.086,36.621,24.902,29.297,75.684,0
1583422069.797,44.434,41.504,14.648,33.691,32.227,0
1583422069.794,45.898,41.992,34.180,33.203,-3.418,0
1583422069.798,38.086,39.062,42.969,31.738,33.203,0
1583422069.802,31.738,33.691,42.480,32.227,41.504,0
1583422069.806,30.762,24.414,48.828,36.133,33.203,0
1583422069.810,33.203,31.250,43.945,38.574,18.555,0
1583422069.814,32.715,39.551,33.203,38.086,46.387,0
1583422069.818,34.180,27.344,33.203,36.133,87.891,0
1583422069.821,37.598,27.344,41.016,34.180,62.988,0
1583422069.825,36.133,38.086,54.199,30.762,28.320,0
1583422069.829,30.273,39.551,48.340,25.879,54.199,0
1583422069.833,27.832,38.086,40.527,24.902,45.410,0
1583422069.837,26.855,37.598,36.133,24.414,52.246,0
1583422069.854,24.414,40.039,31.738,24.414,63.477,0
1583422069.858,21.973,40.527,35.645,26.367,38.574,0
1583422069.862,25.879,39.062,29.297,32.227,46.875,0
1583422069.866,31.738,35.645,20.020,34.668,9.277,0
1583422069.870,27.832,33.691,20.996,33.203,14.160,0
1583422069.874,25.391,36.133,23.926,31.738,15.625,0
1583422069.878,25.879,27.832,41.016,24.902,8.301,0
1583422069.881,21.973,27.832,56.641,20.508,59.570,0
1583422069.885,22.949,34.668,50.293,22.949,35.156,0
1583422069.889,26.367,34.668,42.480,22.949,8.789,0
1583422069.893,29.297,36.133,37.598,24.902,-0.488,0
1583422069.897,28.809,34.668,34.180,25.391,4.395,0
1583422069.895,25.879,32.227,34.180,20.508,14.160,0
1583422069.899,26.855,36.133,34.668,23.438,-25.391,0
1583422069.903,28.320,31.738,30.762,25.879,-4.883,0
1583422069.907,32.227,31.738,27.344,24.414,-45.410,0
1583422069.911,26.855,40.527,23.438,22.461,-2.930,0
1583422069.915,20.020,36.621,18.555,23.438,86.914,0
1583422069.919,21.484,31.738,16.602,22.461,17.578,0
1583422069.922,18.066,28.809,31.250,16.602,-14.160,0
1583422069.926,19.531,31.250,41.016,15.137,45.898,0
1583422069.930,20.020,35.645,40.527,16.602,66.406,0
1583422069.934,18.555,32.715,45.410,12.207,-3.906,0
1583422069.938,24.414,29.785,43.945,14.160,-6.836,0
1583422069.935,23.438,24.414,41.504,19.531,47.852,0
1583422069.939,19.043,28.809,33.203,22.461,74.707,0
1583422069.943,20.020,36.133,28.809,23.926,67.871,0
1583422069.947,20.996,34.180,30.762,20.020,14.160,0
1583422069.951,22.949,31.738,31.250,20.508,20.020,0
1583422069.955,24.414,32.715,40.039,23.438,47.852,0
1583422069.959,23.438,35.156,42.480,25.879,44.434,0
1583422069.962,24.414,34.180,38.574,26.367,32.227,0
1583422069.966,32.227,33.203,17.578,29.785,27.832,0
1583422069.970,33.691,34.180,19.043,28.809,75.195,0
1583422069.974,32.715,33.691,43.457,28.320,82.520,0
1583422069.978,40.039,32.227,33.203,35.156,0.977,0
1583422069.995,40.527,37.598,24.414,33.203,-25.391,0
1583422069.999,34.180,43.457,36.621,27.832,29.297,0
1583422070.003,34.180,43.945,35.645,25.879,76.172,0
1583422070.007,36.133,43.457,35.645,24.414,47.852,0
1583422070.011,34.668,41.504,35.645,20.020,31.250,0
1583422070.015,32.227,37.598,31.250,16.602,33.691,0
1583422070.019,33.203,37.109,36.133,14.648,26.855,0
1583422070.022,31.738,39.062,35.645,16.113,-9.766,0
1583422070.026,23.926,32.227,32.227,15.137,-4.883,0
1583422070.030,19.531,25.391,27.344,14.648,34.668,0
1583422070.034,21.973,28.320,30.273,17.578,36.621,0
1583422070.038,22.949,29.785,33.691,19.531,11.230,0
1583422070.035,24.414,32.715,30.273,18.066,24.902,0
1583422070.039,27.344,35.645,30.273,25.391,42.480,0
1583422070.043,30.762,34.180,28.320,27.344,32.227,0
1583422070.047,37.109,34.668,34.180,23.926,27.344,0
1583422070.051,39.551,37.109,36.133,28.320,22.949,0
1583422070.055,36.621,35.156,31.250,28.809,63.477,0
1583422070.059,34.668,35.156,37.109,29.785,48.828,0
1583422070.062,39.062,36.621,36.621,32.227,-28.809,0
1583422070.066,39.551,37.598,32.715,25.879,-20.020,0
1583422070.070,34.180,34.180,35.156,21.484,-16.602,0
1583422070.074,25.391,27.832,36.621,22.461,-46.387,0
1583422070.078,23.438,36.621,32.715,21.484,-23.438,0
1583422070.074,20.508,39.551,29.297,16.602,10.742,0
1583422070.078,17.090,38.574,26.855,17.578,66.406,0
1583422070.082,18.555,39.062,24.414,20.020,47.852,0
1583422070.086,18.555,34.180,30.762,19.043,68.848,0
1583422070.090,20.508,34.180,38.574,22.949,106.934,0
1583422070.094,20.996,33.691,37.109,22.461,79.102,0
1583422070.098,20.996,31.738,37.598,18.555,52.246,0
1583422070.101,23.926,34.180,35.645,18.066,48.340,0
1583422070.105,25.391,33.203,32.715,21.484,18.555,0
1583422070.109,15.137,35.156,38.086,18.555,60.547,0
1583422070.113,4.883,36.133,39.062,8.301,42.480,0
1583422070.117,5.859,31.738,40.527,4.883,-8.789,0
1583422070.135,1.465,34.668,40.039,2.930,25.391,0
1583422070.139,-8.789,41.504,37.109,-9.766,66.406,0
1583422070.143,-11.230,42.480,36.621,-16.113,43.457,0
1583422070.147,-13.672,42.480,36.621,-17.090,26.367,0
1583422070.151,-6.836,48.828,43.457,-17.578,10.254,0
1583422070.155,-7.324,56.641,43.945,-20.020,8.789,0
1583422070.159,-33.203,57.129,37.598,-40.039,27.832,0
1583422070.162,-50.781,60.547,40.039,-60.547,33.203,0
1583422070.166,-61.035,67.871,37.598,-74.707,108.887,0
1583422070.170,-82.520,71.289,27.344,-97.168,81.543,0
1583422070.174,-102.051,73.730,32.715,-117.188,57.617,0
1583422070.178,-119.141,71.777,42.480,-135.254,49.316,0
1583422070.175,-138.184,70.801,41.992,-157.227,40.039,0
1583422070.179,-156.738,74.219,25.879,-174.805,45.898,0
1583422070.183,-166.016,63.965,21.973,-186.035,7.324,0
1583422070.187,-166.504,55.664,35.645,-194.336,32.227,0
1583422070.191,-165.039,62.988,36.621,-188.965,57.129,0
1583422070.195,-166.016,69.336,16.602,-183.594,98.633,0
1583422070.199,-166.016,77.148,4.883,-185.059,51.270,0
1583422070.202,-169.922,91.797,20.508,-181.152,29.297,0
1583422070.206,-162.109,100.586,19.043,-161.621,65.430,0
1583422070.210,-136.230,94.238,21.484,-138.184,53.711,0
1583422070.214,-109.863,81.055,27.344,-114.746,24.414,0
1583422070.218,-87.891,80.078,26.367,-88.379,41.504,0
1583422070.214,-65.430,83.008,22.949,-65.918,21.973,0
1583422070.218,-45.410,79.590,-8.301,-44.922,35.645,0
1583422070.222,-32.227,69.336,-4.395,-32.715,30.762,0
1583422070.226,-19.043,60.547,28.320,-20.020,-3.418,0
1583422070.230,-0.977,55.176,27.832,4.395,-10.254,0
1583422070.234,20.508,47.363,25.879,22.461,0.977,0
1583422070.238,38.574,41.992,33.203,33.203,0.977,0
1583422070.241,52.734,45.410,31.738,42.969,0.977,0
1583422070.245,61.035,41.504,14.160,52.246,22.461,0
1583422070.249,68.848,33.691,20.020,62.500,-22.461,0
1583422070.253,72.266,29.297,38.086,73.242,-41.016,0
1583422070.257,79.590,26.855,28.809,78.125,28.320,0
1583422070.275,89.844,30.762,27.344,83.008,41.992,0
1583422070.279,91.309,28.320,38.574,86.426,17.090,0
1583422070.283,94.238,25.391,42.969,92.773,31.738,0
1583422070.287,96.680,26.367,35.645,101.562,60.547,0
1583422070.291,96.191,17.578,22.949,105.957,50.781,0
1583422070.295,95.703,8.789,18.066,108.398,43.945,0
1583422070.299,89.844,10.254,35.645,104.980,64.941,0
1583422070.302,86.914,11.719,61.035,98.633,-0.977,0
1583422070.306,90.332,10.742,63.477,98.633,-14.160,0
1583422070.310,91.797,12.207,56.641,102.539,56.641,0
1583422070.314,93.262,15.137,51.270,106.445,90.820,0
1583422070.318,95.703,16.113,47.852,104.980,67.383,0
1583422070.315,92.285,14.648,40.039,101.562,-8.301,0
1583422070.319,95.215,18.555,34.668,99.609,-14.648,0
1583422070.323,102.539,21.973,36.133,98.633,-23.438,0
1583422070.327,102.051,16.602,37.598,98.633,9.766,0
1583422070.331,100.586,11.719,34.180,94.727,30.762,0
1583422070.335,98.633,13.672,40.039,89.844,-24.414,0
1583422070.339,93.750,14.648,50.781,91.309,12.207,0
1583422070.342,96.680,20.508,42.969,95.215,27.832,0
1583422070.346,99.121,22.461,43.457,96.680,13.672,0
1583422070.350,100.586,21.484,38.574,93.750,0.488,0
1583422070.354,103.516,21.484,29.785,97.168,35.156,0
1583422070.358,98.145,15.625,42.480,95.703,70.801,0
1583422070.374,90.332,13.672,54.688,87.891,73.730,0
1583422070.378,92.285,16.602,49.805,88.379,22.949,0
1583422070.382,89.844,17.578,43.945,90.332,25.879,0
1583422070.386,83.984,21.484,46.387,86.914,25.879,0
1583422070.390,81.055,23.926,45.410,84.473,38.574,0
1583422070.394,80.078,27.832,40.527,82.031,42.969,0
1583422070.398,82.520,25.879,31.250,78.125,0.977,0
1583422070.401,77.148,21.484,30.762,74.219,55.176,0
1583422070.405,69.824,20.020,41.992,71.777,74.219,0
1583422070.409,73.242,16.113,35.156,72.754,56.152,0
1583422070.413,72.266,16.113,31.738,72.266,33.691,0
1583422070.417,64.941,19.531,45.410,71.289,38.086,0
1583422070.415,65.430,23.438,49.316,71.289,40.039,0
1583422070.419,66.406,26.855,44.434,67.383,39.551,0
1583422070.423,69.336,26.367,40.527,64.453,41.992,0
1583422070.427,75.195,25.879,38.574,65.430,41.992,0
1583422070.431,76.660,26.855,36.133,68.359,32.715,0
1583422070.435,76.172,25.391,40.039,66.406,32.227,0
1583422070.439,74.219,21.484,38.086,64.453,-5.859,0
1583422070.442,70.801,21.973,32.227,66.406,-61.523,0
1583422070.446,70.801,28.320,34.668,66.406,-2.441,0
1583422070.450,70.801,33.691,40.527,66.406,24.902,0
1583422070.454,69.336,35.645,40.039,64.453,33.691,0
1583422070.458,70.312,33.691,35.645,60.059,15.137,0
1583422070.454,72.754,37.109,44.922,59.570,-2.930,0
1583422070.458,68.848,34.668,41.992,51.270,31.738,0
1583422070.462,66.406,30.273,35.156,45.898,39.062,0
1583422070.466,66.406,31.738,34.180,43.945,13.672,0
1583422070.470,63.965,28.320,32.227,39.551,22.461,0
1583422070.474,64.453,26.855,33.203,42.969,6.836,0
1583422070.478,69.336,30.762,28.809,46.875,0.488,0
1583422070.481,61.035,30.762,29.297,48.340,34.180,0
1583422070.485,47.363,26.855,38.574,45.410,21.484,0
1583422070.489,47.852,26.855,27.344,44.434,16.113,0
1583422070.493,47.852,27.832,15.625,47.852,56.641,0
1583422070.497,48.340,26.367,35.645,52.246,49.316,0
1583422070.515,46.387,23.926,45.898,51.758,15.625,0
1583422070.519,43.945,21.484,35.156,44.922,63.477,0
1583422070.523,49.316,20.508,34.180,45.410,79.590,0
1583422070.527,50.781,20.020,39.062,42.480,83.496,0
1583422070.531,49.316,30.762,41.504,38.086,40.039,0
1583422070.535,50.781,37.109,40.039,41.504,8.789,0
1583422070.539,49.805,37.109,33.203,41.016,33.691,0
1583422070.542,53.223,40.527,12.695,41.016,99.121,0
1583422070.546,52.246,40.039,15.137,39.062,119.141,0
1583422070.550,48.340,41.992,43.945,36.133,57.129,0
1583422070.554,57.617,38.574,45.410,40.527,30.762,0
1583422070.558,60.059,35.645,39.062,42.480,12.695,0
1583422070.554,50.293,39.062,36.621,32.715,31.250,2
1583422070.558,41.016,39.551,35.156,25.879,64.941,0
1583422070.562,37.598,40.527,37.598,27.344,44.922,0
1583422070.566,34.668,36.621,39.551,26.855,13.184,0
1583422070.570,31.738,36.621,41.016,23.926,24.902,0
1583422070.574,28.320,38.574,26.855,25.879,57.617,0
1583422070.578,29.785,35.645,20.996,31.250,35.645,0
1583422070.581,32.715,34.668,38.086,33.203,4.395,0
1583422070.585,32.227,35.156,38.086,33.203,77.148,0
1583422070.589,32.227,29.785,30.762,35.156,35.645,0
1583422070.593,28.320,24.902,40.039,34.668,6.836,0
1583422070.597,21.484,24.902,39.062,31.250,24.414,0
1583422070.594,20.020,22.949,35.156,31.738,-19.043,0
1583422070.598,24.902,28.809,42.480,31.250,-0.977,0
1583422070.602,28.809,35.156,42.480,28.320,26.367,0
1583422070.606,29.785,35.645,26.855,25.879,78.125,0
1583422070.610,33.691,40.039,19.531,30.273,80.078,0
1583422070.614,37.109,35.156,31.250,36.133,43.457,0
1583422070.618,33.691,31.738,38.086,31.250,56.152,0
1583422070.621,29.297,31.738,44.434,28.809,75.684,0
1583422070.625,34.180,33.203,41.992,24.902,65.918,0
1583422070.629,37.109,38.574,32.715,18.555,63.965,0
1583422070.633,36.621,39.062,30.273,20.996,24.414,0
1583422070.637,37.109,38.086,28.809,23.438,9.766,0
1583422070.654,37.598,37.109,23.926,24.902,41.504,0
1583422070.658,38.086,40.527,27.832,28.809,46.387,0
1583422070.662,33.691,41.992,29.297,23.926,20.996,0
1583422070.666,27.832,34.180,36.621,18.555,48.340,0
1583422070.670,31.738,34.668,32.715,22.949,40.039,0
1583422070.674,37.109,41.992,28.809,28.320,-6.836,0
1583422070.678,35.645,39.062,37.598,22.949,17.578,0
1583422070.681,30.273,35.156,39.551,17.090,29.785,0
1583422070.685,26.855,35.645,41.992,21.973,22.949,0
1583422070.689,23.926,38.086,45.898,25.391,46.387,0
1583422070.693,27.344,36.133,44.922,28.320,66.895,0
1583422070.697,30.762,34.180,41.504,33.691,81.543,0
1583422070.694,25.879,39.062,32.715,31.738,59.082,0
1583422070.698,20.996,44.434,27.344,27.832,37.109,0
1583422070.702,20.020,40.039,26.367,24.414,41.504,0
1583422070.706,25.879,40.039,31.250,25.879,66.406,0
1583422070.710,26.367,39.062,44.922,25.879,49.316,0
1583422070.714,24.414,32.227,42.969,20.508,27.832,0
1583422070.718,22.949,28.320,37.598,17.578,24.902,0
1583422070.721,25.391,33.203,36.133,18.555,3.418,0
1583422070.725,25.391,34.668,36.621,20.020,-7.812,0
1583422070.729,26.855,33.691,40.527,20.508,19.531,0
1583422070.733,33.203,39.062,35.645,20.508,15.625,0
1583422070.737,33.203,36.621,25.879,23.926,-15.137,0
1583422070.734,30.762,32.227,25.879,23.438,0.000,0
1583422070.738,29.785,34.668,28.809,22.949,12.695,0
1583422070.742,31.738,34.180,37.598,25.391,54.688,0
1583422070.746,29.297,32.715,44.434,20.508,121.582,0
1583422070.750,30.762,34.180,36.621,19.531,47.363,0
1583422070.754,28.809,35.645,35.645,24.414,44.922,0
1583422070.758,21.973,30.273,39.062,16.602,83.984,0
1583422070.761,22.461,30.273,34.180,12.207,-4.883,0
1583422070.765,27.344,39.062,32.227,19.043,-48.828,0
1583422070.769,25.391,35.645,34.668,18.066,0.977,0
1583422070.773,23.438,29.785,33.691,17.578,58.105,0
1583422070.777,22.949,31.738,34.668,20.508,53.223,0
1583422070.794,21.484,34.180,36.133,25.879,69.824,0
1583422070.798,25.879,32.715,36.621,30.273,94.238,0
1583422070.802,29.785,35.156,26.367,32.715,76.172,0
1583422070.806,29.785,36.621,18.066,34.668,71.289,0
1583422070.810,23.926,28.320,30.762,30.762,34.668,0
1583422070.814,22.461,32.715,45.410,28.320,25.391,0
1583422070.818,24.414,37.109,43.457,27.344,8.301,0
1583422070.821,21.484,30.762,27.832,24.902,-1.953,0
1583422070.825,20.508,27.832,24.902,22.461,-8.789,0
1583422070.829,23.926,30.762,38.574,19.531,32.227,0
1583422070.833,27.344,33.203,42.480,19.531,72.266,0
1583422070.837,30.273,35.156,40.527,21.484,39.551,0
1583422070.834,34.668,37.598,34.180,21.973,36.621,0
1583422070.838,31.738,34.180,32.715,20.020,31.250,0
1583422070.842,30.273,35.645,35.645,20.508,43.945,0
1583422070.846,34.668,40.527,31.738,25.879,-1.465,0
1583422070.850,29.785,36.133,29.297,23.438,3.418,0
1583422070.854,26.367,34.180,28.320,22.949,45.410,0
1583422070.858,27.832,36.133,31.250,26.855,39.062,0
1583422070.861,21.484,35.645,23.926,26.855,4.883,0
1583422070.865,20.020,34.180,14.648,23.438,13.184,0
1583422070.869,29.297,28.320,28.320,25.391,33.203,0
1583422070.873,32.227,26.367,35.645,26.855,27.344,0
1583422070.877,29.297,32.715,42.480,27.344,51.270,0
1583422070.875,36.621,36.621,41.504,30.762,25.879,0
1583422070.879,33.691,35.156,36.621,29.785,57.129,0
1583422070.883,22.949,29.785,36.133,31.250,49.316,0
1583422070.887,20.996,27.344,35.645,33.691,10.254,0
1583422070.891,20.996,30.273,31.738,34.180,62.012,0
1583422070.895,19.043,32.227,30.273,33.203,101.074,0
1583422070.899,15.625,30.762,32.227,31.738,94.238,0
1583422070.902,16.113,25.391,27.832,30.273,72.266,0
1583422070.906,18.555,27.832,33.691,28.809,39.062,0
1583422070.910,17.578,33.203,36.133,23.926,36.133,0
