timestamps,TP9,AF7,AF8,TP10,Right AUX,Marker0
1583510174.141,71.289,33.691,29.785,68.359,19.531,0
1583510174.145,64.941,32.715,28.320,-5.859,69.824,0
1583510174.149,60.059,32.715,26.855,-33.691,32.715,0
1583510174.153,62.988,35.645,24.902,41.504,7.812,0
1583510174.157,60.059,35.156,25.879,64.941,43.945,0
1583510174.161,59.082,34.668,26.367,14.160,25.391,0
1583510174.165,62.988,35.156,26.855,-22.461,34.180,0
1583510174.168,55.176,33.691,24.902,18.066,8.789,0
1583510174.172,41.992,31.738,27.344,55.176,-17.090,0
1583510174.176,34.668,29.785,31.250,9.766,33.691,0
1583510174.180,49.316,30.762,28.320,-28.320,75.684,0
1583510174.184,55.664,31.738,26.367,-14.160,17.090,0
1583510174.202,52.246,29.297,27.344,41.992,5.371,0
1583510174.206,47.852,27.832,28.809,41.504,62.012,0
1583510174.210,41.504,29.297,28.809,-24.902,20.508,0
1583510174.214,40.527,28.809,31.250,-3.906,79.102,0
1583510174.218,41.504,30.273,32.715,46.875,94.727,0
1583510174.222,42.480,30.273,30.762,47.363,69.824,0
1583510174.226,32.227,26.367,32.715,1.953,63.965,0
1583510174.229,14.648,26.855,33.203,-13.672,78.125,0
1583510174.233,9.766,24.902,33.203,46.875,22.461,0
1583510174.237,16.602,24.902,33.203,63.477,-39.062,0
1583510174.241,24.902,28.320,33.691,28.809,18.555,0
1583510174.245,23.438,26.367,36.621,-2.441,1.465,0
1583510174.241,25.879,25.391,33.203,35.156,-36.133,0
1583510174.245,27.832,28.320,30.762,83.984,26.367,0
1583510174.249,21.484,29.785,30.762,31.738,28.809,0
1583510174.253,16.602,30.273,28.809,-23.438,-35.156,0
1583510174.257,14.648,30.273,28.809,18.066,-33.691,0
1583510174.261,12.695,29.785,27.344,70.312,-20.508,0
1583510174.265,17.090,30.273,27.344,53.223,30.762,0
1583510174.268,20.020,29.785,32.227,-18.066,15.137,0
1583510174.272,11.230,31.738,34.668,-11.719,-3.906,0
1583510174.276,2.930,31.738,32.715,60.059,34.180,0
1583510174.280,-0.488,30.273,31.738,47.852,11.719,0
1583510174.284,3.906,30.762,32.227,-14.648,66.895,0
1583510174.281,5.371,28.320,31.250,-37.598,40.039,0
1583510174.285,8.789,26.855,28.809,32.227,7.812,0
1583510174.289,11.230,27.832,27.832,73.730,2.441,0
1583510174.293,11.230,29.297,29.297,17.578,-17.578,0
1583510174.297,12.695,30.273,27.832,-20.508,22.949,0
1583510174.301,7.812,30.762,26.855,10.742,21.484,0
1583510174.305,5.859,31.250,29.297,59.570,28.809,0
1583510174.308,7.812,29.785,29.785,36.133,38.574,0
1583510174.312,3.906,27.832,29.785,-22.461,54.688,0
1583510174.316,-4.883,30.273,29.297,0.977,41.992,0
1583510174.320,-9.766,31.250,29.297,56.641,-1.953,0
1583510174.324,-10.254,30.273,29.785,52.734,13.184,0
1583510174.341,-11.230,32.227,29.297,-1.953,35.156,0
1583510174.345,-14.160,33.203,26.855,-6.836,64.941,0
1583510174.349,-12.695,33.203,27.832,59.082,74.219,0
1583510174.353,-13.672,36.133,32.227,62.988,35.645,0
1583510174.357,-10.742,32.227,32.715,28.809,42.969,0
1583510174.361,5.371,34.180,29.785,36.133,75.195,0
1583510174.365,-29.297,43.945,33.691,45.898,66.895,0
1583510174.368,-61.035,41.016,34.180,36.621,63.965,0
1583510174.372,-32.715,41.016,24.902,3.418,44.434,0
1583510174.376,-31.250,46.875,23.438,-48.828,10.254,0
1583510174.380,-32.227,46.387,22.949,-13.184,34.180,0
1583510174.384,-28.320,46.875,22.461,32.227,23.926,0
1583510174.383,-37.598,46.387,21.484,-7.324,-48.828,0
1583510174.387,-40.039,46.387,20.020,-61.035,-3.418,0
1583510174.391,-39.062,45.898,22.461,-30.762,-15.137,0
1583510174.395,-32.227,43.945,21.973,51.270,0.000,0
1583510174.399,-28.809,41.016,21.973,48.340,35.645,0
1583510174.403,-22.461,39.062,24.414,-16.602,-41.992,0
1583510174.407,-19.043,40.039,25.391,-20.020,14.160,0
1583510174.410,-16.113,41.504,25.879,41.016,42.480,0
1583510174.414,0.488,42.480,27.344,60.059,26.367,0
1583510174.418,10.254,41.504,28.320,-9.766,-14.160,0
1583510174.422,14.160,40.039,27.832,-54.688,15.625,0
1583510174.426,25.879,38.574,26.855,-8.301,42.480,0
1583510174.421,27.344,38.574,27.344,41.992,-10.742,0
1583510174.425,29.297,38.086,29.785,18.555,5.859,0
1583510174.429,33.203,36.133,30.762,-17.090,38.574,0
1583510174.433,35.156,39.062,29.297,30.762,68.359,0
1583510174.437,44.434,41.016,31.250,88.867,79.102,0
1583510174.441,51.758,42.969,30.273,84.961,106.934,0
1583510174.445,59.082,42.969,28.320,25.879,110.840,0
1583510174.448,56.641,41.504,28.320,23.438,47.852,0
1583510174.452,53.223,44.434,28.809,69.824,32.227,0
1583510174.456,59.082,42.480,26.855,56.641,12.207,0
1583510174.460,64.941,38.574,25.879,13.184,22.949,0
1583510174.464,64.453,37.109,29.297,-0.488,62.500,0
1583510174.481,64.453,34.180,28.320,51.758,53.223,0
1583510174.485,67.871,36.133,27.344,67.871,53.223,0
1583510174.489,72.266,36.621,29.297,10.254,53.223,0
1583510174.493,72.266,33.691,30.273,-6.836,69.336,0
1583510174.497,67.383,35.645,28.809,38.086,61.035,0
1583510174.501,66.406,36.621,29.297,76.660,38.574,0
1583510174.505,59.082,34.180,31.738,23.926,42.969,0
1583510174.508,49.805,32.715,32.715,-44.922,11.719,0
1583510174.512,51.270,33.203,32.227,7.812,-6.348,0
1583510174.516,50.293,33.203,32.227,75.195,26.367,0
1583510174.520,51.758,33.203,32.715,65.430,57.129,0
1583510174.524,47.852,34.668,34.180,-6.348,67.871,0
1583510174.521,45.410,34.180,35.156,-14.648,-8.789,0
1583510174.525,45.898,33.203,34.668,68.359,-23.926,0
1583510174.529,41.992,36.621,33.691,73.242,0.488,0
1583510174.533,45.410,39.551,31.738,16.602,26.367,0
1583510174.537,41.992,39.062,34.668,-7.812,48.340,0
1583510174.541,37.598,39.551,40.039,41.992,12.207,0
1583510174.545,39.062,39.551,40.039,84.473,34.180,0
1583510174.548,37.109,40.039,39.551,29.785,75.684,0
1583510174.552,32.227,39.551,39.062,-16.113,21.484,0
1583510174.556,26.367,36.621,39.062,9.277,-13.184,0
1583510174.560,21.973,38.574,39.551,47.363,18.555,0
1583510174.564,39.062,39.062,35.156,50.293,41.992,0
1583510174.562,57.129,33.691,36.621,9.277,49.316,0
1583510174.566,17.090,35.156,42.969,-1.465,15.137,0
1583510174.570,8.789,36.133,40.527,38.086,11.719,0
1583510174.574,17.578,34.668,45.898,36.621,55.664,0
1583510174.578,18.066,34.180,47.363,0.000,59.082,0
1583510174.582,25.391,28.809,45.898,9.277,33.203,0
1583510174.586,13.184,28.320,49.316,74.219,50.781,0
1583510174.589,29.297,26.855,47.852,93.750,67.871,0
1583510174.593,42.480,27.344,47.363,31.738,38.086,0
1583510174.597,36.133,27.344,47.363,16.602,8.301,0
1583510174.601,31.738,26.367,47.363,68.848,13.184,0
1583510174.605,33.203,29.297,45.898,99.121,10.742,0
1583510174.621,29.785,31.738,44.922,35.156,-6.348,0
1583510174.625,26.367,33.691,42.969,-19.043,21.973,0
1583510174.629,24.414,34.668,41.992,31.738,10.254,0
1583510174.633,24.902,33.203,44.434,81.055,27.344,0
1583510174.637,28.320,31.250,44.922,54.199,44.922,0
1583510174.641,28.809,30.762,43.457,-8.301,22.949,0
1583510174.645,19.043,30.762,43.945,1.465,36.621,0
1583510174.648,21.484,30.762,41.992,69.336,-30.273,0
1583510174.652,25.391,31.738,39.551,75.195,-30.273,0
1583510174.656,26.367,31.738,41.504,21.973,24.414,0
1583510174.660,28.809,32.227,41.504,9.766,42.480,0
1583510174.664,21.973,32.227,40.039,65.918,52.246,0
1583510174.661,23.926,30.762,39.062,99.121,38.574,0
1583510174.665,26.855,29.297,39.062,46.387,47.852,0
1583510174.669,22.949,27.832,38.574,9.766,60.547,0
1583510174.673,30.762,28.809,35.645,42.480,42.969,0
1583510174.677,36.133,27.344,33.691,66.895,43.945,0
1583510174.681,34.668,26.367,33.691,32.227,64.453,0
1583510174.685,34.668,26.855,32.227,-23.926,16.113,0
1583510174.688,35.156,29.297,30.273,12.207,-22.949,0
1583510174.692,34.180,29.785,28.809,70.801,29.785,0
1583510174.696,23.438,27.832,30.273,45.898,0.488,0
1583510174.700,21.484,28.320,32.227,11.230,0.977,0
1583510174.704,29.297,28.320,31.738,41.016,44.434,0
1583510174.702,25.391,29.785,32.715,103.027,37.109,0
1583510174.706,20.020,31.250,31.738,80.078,33.203,0
1583510174.710,19.043,30.762,28.320,15.625,50.781,0
1583510174.714,16.113,31.738,25.879,8.789,25.879,0
1583510174.718,16.113,33.691,23.926,62.012,-18.066,0
1583510174.722,17.090,32.715,27.344,85.938,-13.672,0
1583510174.726,13.672,32.227,31.250,13.672,-6.348,0
1583510174.729,11.719,32.715,30.273,-20.020,43.457,0
1583510174.733,9.277,31.250,31.250,41.016,39.551,0
1583510174.737,8.789,31.738,33.203,89.844,-14.648,0
1583510174.741,7.812,33.203,32.715,64.941,13.184,0
1583510174.745,3.418,34.668,33.691,2.441,70.801,0
1583510174.784,-4.395,33.203,33.691,27.344,13.672,0
1583510174.788,-7.324,32.715,29.785,90.820,6.348,0
1583510174.792,-6.348,34.668,29.785,60.059,20.996,0
1583510174.796,-9.766,35.645,32.715,-11.719,-54.199,0
1583510174.800,-11.230,34.180,35.645,-7.324,0.977,0
1583510174.804,-12.207,33.203,39.062,62.988,87.891,0
1583510174.808,-6.348,35.645,39.062,70.312,43.945,0
1583510174.811,3.418,37.598,38.574,6.348,-3.418,0
1583510174.815,11.230,34.668,36.621,2.441,-8.789,0
1583510174.819,25.879,31.738,34.668,64.941,-0.488,0
1583510174.823,5.859,36.133,40.039,69.336,-17.090,0
1583510174.827,-0.977,39.551,38.086,13.184,1.953,0
1583510174.806,12.207,44.434,27.344,-10.254,-10.742,0
1583510174.810,4.883,45.898,26.855,40.039,28.809,0
1583510174.814,16.113,45.410,30.273,74.707,22.949,0
1583510174.818,27.344,48.340,26.855,48.828,34.180,0
1583510174.822,24.414,48.340,27.832,-1.953,47.363,0
1583510174.826,23.438,47.363,29.785,10.742,17.578,0
1583510174.830,31.250,50.293,29.297,83.496,88.867,0
1583510174.833,35.156,48.828,31.250,72.266,147.461,0
1583510174.837,29.785,44.434,31.250,7.812,69.824,0
1583510174.841,29.785,44.434,33.691,15.137,62.500,0
1583510174.845,38.574,43.945,33.691,74.707,31.250,0
1583510174.849,47.852,41.504,32.715,93.262,19.043,0
1583510174.849,46.875,41.016,33.203,23.438,45.410,0
1583510174.853,41.016,41.016,31.250,-7.812,-5.859,0
1583510174.857,37.109,38.574,31.738,52.246,-15.137,0
1583510174.861,42.480,36.621,31.250,81.543,-32.227,0
1583510174.865,47.852,36.133,27.832,41.504,9.766,0
1583510174.869,44.434,36.621,27.832,-13.184,33.691,0
1583510174.873,48.340,36.621,29.297,23.438,-1.465,0
1583510174.876,53.223,37.598,29.297,76.660,40.039,0
1583510174.880,53.223,36.133,28.809,41.992,54.688,0
1583510174.884,52.246,33.691,27.832,-9.277,41.992,0
1583510174.888,50.781,33.203,26.855,7.812,77.148,0
1583510174.892,52.734,33.203,28.320,69.824,62.988,0
1583510174.906,53.223,33.203,33.203,70.801,-2.930,0
1583510174.910,52.246,35.156,33.203,8.789,-30.273,0
1583510174.914,53.711,35.645,30.273,1.465,-1.465,0
1583510174.918,51.270,32.227,29.785,55.664,-18.555,0
1583510174.922,49.316,31.250,30.273,76.172,-34.668,0
1583510174.926,46.387,30.762,30.273,26.855,7.812,0
1583510174.930,43.457,29.297,29.785,-9.766,22.949,0
1583510174.933,47.852,29.297,30.762,45.898,24.902,0
1583510174.937,46.875,29.785,29.785,84.473,66.895,0
1583510174.941,48.340,27.344,28.809,38.086,1.465,0
1583510174.945,46.387,26.367,31.250,-9.766,-14.648,0
1583510174.949,42.480,31.250,29.785,21.973,60.547,0
1583510174.942,44.434,31.738,29.297,70.312,65.918,0
1583510174.946,45.410,32.227,30.273,37.109,18.555,0
1583510174.950,46.875,33.691,27.832,-18.066,11.719,0
1583510174.954,36.133,32.715,31.250,-4.395,49.805,0
1583510174.958,27.344,34.180,30.762,46.875,37.598,0
1583510174.962,34.180,35.156,27.832,41.992,36.133,0
1583510174.966,36.133,33.691,30.762,-24.902,47.363,0
1583510174.969,36.621,36.621,30.273,-24.902,76.660,0
1583510174.973,38.086,38.086,30.762,36.133,80.078,0
1583510174.977,34.180,36.133,30.762,47.363,63.477,0
1583510174.981,33.691,34.180,32.715,-10.742,58.105,0
1583510174.985,31.738,33.691,33.203,-46.875,49.805,0
1583510174.981,28.320,33.691,31.250,14.648,34.668,0
1583510174.985,27.344,32.227,30.762,59.082,-18.066,0
1583510174.989,20.508,32.227,29.297,23.926,-2.930,0
1583510174.993,15.625,31.250,27.344,-34.668,17.578,0
1583510174.997,11.719,29.785,27.832,-13.672,21.484,0
1583510175.001,6.836,29.297,31.250,50.293,-0.977,0
1583510175.005,12.695,30.762,32.227,38.086,-29.297,0
1583510175.008,11.230,32.227,31.250,-13.184,37.598,0
1583510175.012,7.812,32.227,31.738,-15.625,75.195,0
1583510175.016,6.836,33.203,32.227,37.109,0.488,0
1583510175.020,4.395,34.668,30.273,61.035,18.555,0
1583510175.024,2.930,34.668,29.785,-4.883,22.461,0
1583510175.041,-3.418,31.250,31.250,-30.273,-16.113,0
1583510175.045,-4.395,29.297,31.250,23.926,17.578,0
1583510175.049,-5.371,30.273,31.250,42.480,40.527,0
1583510175.053,-3.906,29.785,32.227,9.766,25.879,0
1583510175.057,-3.418,30.762,32.715,-28.320,6.836,0
1583510175.061,-8.789,30.762,31.738,16.602,26.855,0
1583510175.065,-5.371,30.273,32.227,48.828,54.199,0
1583510175.068,1.465,33.203,31.738,8.789,28.320,0
1583510175.072,-6.348,32.715,31.250,-21.484,6.348,0
1583510175.076,-10.742,33.203,30.762,1.465,-3.906,0
1583510175.080,-4.395,33.691,31.250,65.918,41.504,0
1583510175.084,-0.488,31.250,33.691,34.180,34.180,0
1583510175.081,2.930,30.762,33.691,-38.574,-16.602,0
1583510175.085,3.418,31.738,32.227,-11.719,22.461,0
1583510175.089,4.395,33.203,32.715,47.363,17.578,0
1583510175.093,11.230,36.133,34.668,61.035,38.574,0
1583510175.097,16.602,38.086,34.668,-6.836,50.781,0
1583510175.101,9.766,34.668,32.715,-38.574,8.789,0
1583510175.105,5.371,33.203,31.738,37.598,11.230,0
1583510175.108,14.648,35.645,31.250,70.312,43.457,0
1583510175.112,14.648,36.621,28.809,21.484,-23.438,0
1583510175.116,5.371,35.645,32.227,-29.297,41.016,0
1583510175.120,13.184,36.621,35.645,11.719,108.887,0
1583510175.124,24.414,36.133,35.156,87.891,85.938,0
1583510175.126,24.414,35.156,36.621,63.477,104.004,0
1583510175.130,23.926,34.668,37.598,4.883,28.809,0
1583510175.134,23.438,34.180,36.621,2.441,35.645,0
1583510175.138,25.391,33.203,35.156,49.805,14.160,0
1583510175.142,27.344,33.203,34.180,62.012,-42.969,0
1583510175.146,20.996,35.156,33.691,-2.441,-34.668,0
1583510175.150,20.996,32.715,35.156,0.000,12.207,0
1583510175.153,23.438,34.180,37.598,50.293,74.707,0
1583510175.157,22.949,37.598,37.598,47.852,41.992,0
1583510175.161,22.949,37.109,38.086,9.766,13.184,0
1583510175.165,16.113,38.086,38.574,-23.438,15.625,0
1583510175.169,17.090,39.551,37.598,29.297,60.059,0
1583510175.181,14.160,38.574,40.039,58.105,110.352,0
1583510175.185,10.254,37.109,39.062,3.906,67.383,0
1583510175.189,10.254,35.645,36.133,-28.809,-13.672,0
1583510175.193,9.277,35.156,37.598,10.742,-32.715,0
1583510175.197,15.137,33.691,36.621,71.777,-34.668,0
1583510175.201,20.508,33.691,36.621,47.363,12.695,0
1583510175.205,23.438,35.156,37.598,-22.949,55.176,0
1583510175.208,25.879,33.203,35.156,0.000,49.805,0
1583510175.212,26.855,30.762,34.668,63.965,25.879,0
1583510175.216,30.273,29.785,36.621,72.754,18.066,0
1583510175.220,31.250,32.715,39.062,15.137,37.109,0
1583510175.224,29.785,31.738,39.551,2.441,44.922,0
1583510175.221,32.227,33.691,34.668,86.426,23.438,0
1583510175.225,32.715,34.668,35.645,114.746,28.320,0
1583510175.229,37.109,31.738,38.574,52.734,24.414,0
1583510175.233,39.062,33.691,37.109,-11.719,27.832,0
1583510175.237,39.551,33.691,35.156,24.414,52.246,0
1583510175.241,47.363,31.250,36.133,64.453,-25.391,0
1583510175.245,56.152,30.273,37.109,19.531,-11.719,0
1583510175.248,54.688,29.297,36.621,-33.203,21.973,0
1583510175.252,51.758,30.762,39.062,-12.695,23.438,0
1583510175.256,49.805,31.738,41.992,47.363,65.430,0
1583510175.260,57.617,33.691,39.062,40.527,51.758,0
1583510175.264,57.129,35.645,37.109,-14.648,41.016,0
1583510175.263,54.688,35.645,37.109,1.953,75.195,0
1583510175.267,60.059,35.156,37.109,57.617,35.645,0
1583510175.271,66.895,36.133,37.109,73.730,-1.953,0
1583510175.275,74.707,37.598,36.133,36.621,-1.953,0
1583510175.279,71.777,38.574,36.133,19.043,15.137,0
1583510175.283,70.312,39.551,38.086,74.707,20.996,0
1583510175.287,78.125,39.062,39.062,87.891,10.254,0
1583510175.290,79.102,39.062,38.574,35.645,12.207,0
1583510175.294,86.426,40.527,38.086,4.883,-20.996,0
1583510175.298,95.215,41.016,34.668,57.129,-33.203,0
1583510175.302,99.121,39.062,36.133,106.445,10.254,0
1583510175.306,102.539,38.086,38.086,59.082,25.879,0
1583510175.321,86.914,40.039,36.133,5.859,54.199,0
1583510175.325,69.824,41.016,38.086,41.016,138.184,0
1583510175.329,57.617,37.598,39.551,79.102,20.020,0
1583510175.333,49.805,36.133,36.133,61.523,-24.902,0
1583510175.337,47.363,36.133,36.621,1.953,64.453,0
1583510175.341,41.016,37.109,38.086,-1.465,32.715,0
1583510175.345,43.457,36.621,37.598,62.500,20.996,0
1583510175.348,42.480,35.645,38.574,67.871,48.828,0
1583510175.352,32.715,34.180,36.621,5.371,23.926,0
1583510175.356,27.344,35.156,36.133,-28.809,47.363,0
1583510175.360,16.602,36.133,39.551,28.320,60.059,0
1583510175.364,9.277,32.715,38.086,69.824,34.668,0
1583510175.361,11.230,32.715,38.086,30.762,64.453,0
1583510175.365,3.906,33.691,38.086,-14.160,38.086,0
1583510175.369,-9.766,30.273,37.598,20.508,36.621,0
1583510175.373,-16.113,30.273,38.574,77.148,79.102,0
1583510175.377,-15.625,34.668,35.156,42.480,19.043,0
1583510175.381,-19.043,33.691,33.691,-20.020,-17.090,0
1583510175.385,-27.344,32.227,33.691,1.465,36.133,0
1583510175.388,-28.809,31.738,33.203,50.781,52.734,0
1583510175.392,-33.203,31.738,33.691,41.504,26.367,0
1583510175.396,-36.621,33.203,34.180,-14.160,27.344,0
1583510175.400,-34.180,33.691,34.668,-10.742,34.180,0
1583510175.404,-36.133,32.715,35.645,58.594,29.785,0
1583510175.401,-35.156,34.180,34.668,70.312,54.688,0
1583510175.405,-37.598,34.180,33.203,14.160,6.836,0
1583510175.409,-41.016,32.227,33.691,-9.277,9.766,0
1583510175.413,-38.574,32.715,34.668,42.480,50.293,0
1583510175.417,-36.621,35.156,31.738,76.172,27.832,0
1583510175.421,-33.691,33.203,30.273,31.250,26.855,0
1583510175.425,-36.133,31.250,29.785,-7.324,43.945,0
1583510175.428,-40.527,30.762,27.344,23.438,30.273,0
1583510175.432,-31.738,31.250,30.762,66.895,25.391,0
1583510175.436,-21.484,34.180,33.203,52.246,31.738,0
1583510175.440,-20.996,34.180,31.250,-7.812,-7.324,0
1583510175.444,-23.926,30.762,31.250,8.301,14.648,0
1583510175.464,-21.973,33.691,30.762,70.801,20.020,0
1583510175.468,-14.160,37.598,31.250,62.012,-36.133,0
1583510175.472,-11.230,33.203,33.691,0.000,-46.875,0
1583510175.476,-17.578,31.738,33.203,-13.184,-6.348,0
1583510175.480,-24.414,33.691,33.203,49.805,-5.371,0
1583510175.484,-23.926,33.691,33.691,72.754,-9.766,0
1583510175.488,-10.742,33.203,34.180,22.461,58.105,0
1583510175.491,-3.906,32.715,33.691,-16.602,104.492,0
1583510175.495,-6.348,31.250,32.227,14.648,63.477,0
1583510175.499,1.465,31.738,32.715,63.477,20.996,0
1583510175.503,10.254,32.715,32.227,30.762,69.824,0
1583510175.507,17.090,32.227,30.273,-32.715,40.039,0
1583510175.501,25.879,32.227,30.273,-12.695,52.246,0
1583510175.505,31.738,32.715,28.320,23.438,63.477,0
1583510175.509,36.621,32.227,28.809,12.695,35.156,0
1583510175.513,36.621,31.738,28.809,-37.598,102.051,0
1583510175.517,36.133,33.203,29.297,-28.320,117.676,0
1583510175.521,36.621,31.250,32.715,35.645,18.555,0
1583510175.525,32.227,27.832,31.738,43.457,-2.441,0
1583510175.528,32.227,30.762,29.297,8.301,37.598,0
1583510175.532,31.738,34.668,32.715,-12.695,7.324,0
1583510175.536,32.715,35.645,32.715,38.574,-23.438,0
1583510175.540,35.156,35.156,30.762,63.477,13.672,0
1583510175.544,35.156,35.645,30.762,5.859,40.039,0
1583510175.561,39.551,36.133,33.203,-15.625,69.336,0
1583510175.565,40.039,34.180,30.762,29.297,52.246,0
1583510175.569,42.969,34.668,27.344,75.684,1.953,0
1583510175.573,48.828,36.133,28.320,36.621,9.277,0
1583510175.577,49.316,34.180,31.250,-18.555,20.996,0
1583510175.581,41.992,30.273,32.715,32.227,12.695,0
1583510175.585,30.762,30.273,34.180,87.402,1.953,0
1583510175.588,26.367,29.785,36.621,71.777,6.348,0
1583510175.592,25.391,29.297,36.621,1.953,57.617,0
1583510175.596,18.066,28.320,35.156,-15.137,9.766,0
1583510175.600,15.137,26.855,34.668,64.453,-45.410,0
1583510175.604,13.672,24.414,35.645,76.172,13.672,0
1583510175.606,14.648,25.879,36.621,11.719,-10.742,0
1583510175.610,17.578,27.832,36.133,-19.531,-8.789,0
1583510175.614,16.602,27.832,36.621,30.762,42.969,0
1583510175.618,15.625,29.297,36.621,69.824,17.090,0
1583510175.622,21.973,32.227,34.668,17.090,-22.949,0
1583510175.626,23.926,32.227,35.645,-26.367,-30.762,0
1583510175.630,17.090,30.762,35.645,5.859,43.457,0
1583510175.633,21.484,33.691,34.180,51.270,62.012,0
1583510175.637,28.320,35.645,33.203,38.574,-8.301,0
1583510175.641,27.832,33.691,33.203,-9.766,38.086,0
1583510175.645,24.902,36.133,32.715,8.789,58.594,0
1583510175.649,31.738,38.086,30.762,48.340,40.527,0
1583510175.643,38.086,34.668,30.762,44.434,31.250,0
1583510175.647,34.668,33.691,32.227,3.906,41.016,0
1583510175.651,32.715,33.691,33.203,-7.324,58.105,0
1583510175.655,31.250,33.203,31.738,57.129,29.785,0
1583510175.659,30.273,32.227,33.203,64.941,-1.465,0
1583510175.663,31.250,33.691,33.203,6.836,51.270,0
1583510175.667,29.785,30.762,29.785,-7.324,54.199,0
1583510175.670,34.668,29.297,31.250,47.852,13.184,0
1583510175.674,40.039,32.715,32.715,89.844,38.086,0
1583510175.678,38.086,33.203,32.227,34.668,49.805,0
1583510175.682,46.387,35.156,30.762,-19.043,25.879,0
1583510175.686,48.828,37.598,31.738,39.551,59.570,0
1583510175.701,49.805,34.180,33.691,88.867,88.867,0
1583510175.705,55.664,31.738,33.691,62.500,60.547,0
1583510175.709,61.035,33.203,33.691,-4.395,69.824,0
1583510175.713,65.430,29.785,33.691,-1.953,59.570,0
1583510175.717,64.941,27.832,34.668,67.871,47.852,0
1583510175.721,65.430,30.273,35.156,58.105,35.156,0
1583510175.725,70.312,30.762,34.180,-1.953,16.113,0
1583510175.728,73.242,33.203,34.668,-18.555,11.230,0
1583510175.732,71.289,33.691,36.621,32.715,-20.508,0
1583510175.736,75.195,33.203,36.621,73.730,58.594,0
1583510175.740,78.613,33.203,35.645,19.043,81.543,0
1583510175.744,67.871,33.691,36.621,-22.461,58.105,0
1583510175.744,64.941,33.203,38.574,16.113,74.219,0
1583510175.748,71.777,34.180,36.133,49.316,15.625,0
1583510175.752,79.590,34.180,37.109,28.809,-13.672,0
1583510175.756,76.660,34.180,39.062,-16.602,4.883,0
1583510175.760,62.012,36.133,36.133,9.277,40.527,0
1583510175.764,60.059,35.156,37.109,44.922,44.922,0
1583510175.768,60.547,35.645,35.156,27.832,-6.836,0
1583510175.771,55.664,36.133,32.227,-11.719,-36.133,0
1583510175.775,46.875,33.203,35.645,-1.953,-14.160,0
1583510175.779,38.086,34.180,38.086,58.594,-31.250,0
1583510175.783,35.645,36.133,36.621,48.828,-4.395,0
1583510175.787,37.598,34.668,34.668,0.000,49.805,0
1583510175.786,36.621,34.180,33.203,2.441,16.602,0
1583510175.790,32.227,35.645,33.203,57.617,5.859,0
1583510175.794,28.320,36.621,35.645,88.867,67.871,0
1583510175.798,22.461,36.133,34.668,26.855,84.473,0
1583510175.802,18.066,36.621,31.738,-9.766,73.730,0
1583510175.806,19.043,36.133,33.691,45.898,42.480,0
1583510175.810,18.066,34.668,35.156,83.496,26.367,0
1583510175.813,15.137,33.203,32.715,42.480,-14.160,0
1583510175.817,12.207,31.738,32.227,-22.949,-4.883,0
1583510175.821,10.254,32.715,32.227,2.930,3.906,0
1583510175.825,10.254,33.691,33.691,67.871,-13.184,0
1583510175.829,6.836,32.715,33.691,50.781,36.133,0
1583510175.841,-0.488,33.691,31.250,-12.695,58.594,0
1583510175.845,-6.836,31.250,32.227,-20.996,101.074,0
1583510175.849,-4.395,29.785,34.668,28.320,-0.488,0
1583510175.853,0.488,32.715,34.180,45.410,-50.293,0
1583510175.857,0.488,31.738,30.273,-3.418,22.461,0
1583510175.861,1.465,31.250,29.785,-27.344,5.859,0
1583510175.865,0.000,32.715,32.227,17.090,23.926,0
1583510175.868,-4.395,32.227,31.738,47.363,62.500,0
1583510175.872,0.977,33.203,32.227,6.348,0.977,0
1583510175.876,3.906,32.715,30.273,-36.133,-51.270,0
1583510175.880,2.930,34.180,25.879,14.648,20.996,0
1583510175.884,4.395,35.156,25.879,56.641,31.250,0
1583510175.881,7.812,34.668,29.297,28.320,5.371,0
1583510175.885,1.953,33.203,31.250,-11.719,34.180,0
1583510175.889,-0.977,33.691,30.762,15.625,41.504,0
1583510175.893,8.301,34.180,30.762,72.266,33.203,0
1583510175.897,6.836,33.203,31.738,55.664,26.855,0
1583510175.901,4.395,33.203,33.203,0.488,32.227,0
1583510175.905,12.207,33.691,34.180,0.977,66.406,0
1583510175.908,11.719,34.180,34.668,57.129,75.195,0
1583510175.912,12.207,34.180,33.203,69.336,31.250,0
1583510175.916,9.277,36.621,32.715,9.766,27.832,0
1583510175.920,3.906,36.133,33.203,-16.602,7.324,0
1583510175.924,9.766,34.668,31.738,50.293,26.367,0
1583510175.921,9.277,34.668,33.691,92.773,67.871,0
1583510175.925,8.789,35.156,35.645,44.922,90.332,0
1583510175.929,6.836,34.668,34.668,-12.695,119.629,0
1583510175.933,6.348,32.715,34.668,20.996,83.496,0
1583510175.937,8.789,30.762,34.668,65.918,8.789,0
1583510175.941,16.113,31.738,31.738,33.691,-20.996,0
1583510175.945,25.391,34.180,29.785,-23.926,-7.812,0
1583510175.948,36.133,37.109,30.273,-12.207,8.789,0
1583510175.952,57.617,36.621,30.273,60.059,8.789,0
1583510175.956,49.805,34.668,34.668,53.711,-0.488,0
1583510175.960,17.090,34.180,37.598,-24.902,-6.348,0
1583510175.964,12.695,32.227,36.133,-24.414,40.527,0
1583510175.981,14.160,32.227,37.109,30.273,15.137,0
1583510175.985,10.254,31.738,38.086,49.805,7.812,0
1583510175.989,9.766,28.320,37.109,5.859,4.395,0
1583510175.993,1.465,26.855,33.691,-20.996,26.855,0
1583510175.997,0.977,30.762,32.715,35.156,63.477,0
1583510176.001,6.836,32.715,32.227,75.195,52.734,0
1583510176.005,8.789,33.691,32.227,40.527,77.637,0
1583510176.008,14.160,34.180,33.691,-10.742,76.172,0
1583510176.012,25.391,35.645,33.691,25.391,2.441,0
1583510176.016,26.367,36.133,35.645,83.008,-12.207,0
1583510176.020,22.461,34.180,34.668,47.363,19.043,0
1583510176.024,29.785,34.180,34.668,-9.766,4.395,0
1583510176.021,30.762,34.668,35.645,0.977,18.555,0
1583510176.025,25.879,34.668,36.621,62.988,33.203,0
1583510176.029,26.367,35.156,36.133,58.594,3.906,0
1583510176.033,25.879,36.621,33.203,-7.324,-22.949,0
1583510176.037,13.672,35.645,33.203,-2.930,22.949,0
1583510176.041,5.859,31.738,34.668,50.781,-13.184,0
1583510176.045,13.184,31.250,37.109,82.520,-1.465,0
1583510176.048,19.531,34.668,36.133,30.273,4.883,0
1583510176.052,26.367,32.227,31.738,-20.508,17.090,0
1583510176.056,28.320,28.809,31.738,29.297,74.707,0
1583510176.060,31.738,31.738,31.738,52.246,29.297,0
1583510176.064,44.922,33.691,33.203,11.719,27.832,0
1583510176.061,50.293,34.180,34.180,-49.316,49.316,0
1583510176.065,50.781,35.645,33.691,-29.785,61.523,0
1583510176.069,45.898,34.180,34.668,47.852,34.180,0
1583510176.073,45.898,35.156,34.180,42.480,18.555,0
1583510176.077,44.434,36.133,30.762,-3.418,97.656,0
1583510176.081,39.551,37.109,30.762,2.930,82.031,0
1583510176.085,44.922,38.086,31.738,64.453,46.875,0
1583510176.088,43.945,36.133,31.738,88.379,10.742,0
1583510176.092,44.922,34.180,35.156,32.715,34.668,0
1583510176.096,44.922,32.227,36.133,12.207,48.828,0
1583510176.100,37.109,32.715,32.715,53.223,-27.344,0
1583510176.104,36.621,33.691,32.227,71.777,-32.715,0
1583510176.122,41.016,32.715,32.227,43.945,2.441,0
1583510176.126,51.758,34.180,33.691,3.418,-8.301,0
1583510176.130,65.430,33.691,34.668,54.199,29.785,0
1583510176.134,68.848,32.227,30.762,86.426,72.754,0
1583510176.138,71.777,34.180,27.344,37.598,14.160,0
1583510176.142,68.848,34.180,27.344,4.395,13.672,0
1583510176.146,69.824,33.203,29.785,17.090,60.547,0
1583510176.149,78.125,32.227,30.273,75.195,63.477,0
1583510176.153,79.102,31.738,32.227,54.688,56.152,0
1583510176.157,73.730,31.250,32.715,-17.090,9.277,0
1583510176.161,66.406,32.715,29.785,14.160,49.805,0
1583510176.165,60.059,33.203,26.855,68.359,62.012,0
1583510176.162,60.547,30.273,26.367,73.730,22.461,0
1583510176.166,58.594,29.297,27.832,11.230,72.754,0
1583510176.170,55.664,32.227,27.832,-25.391,72.266,0
1583510176.174,62.012,32.227,27.832,44.922,33.203,0
1583510176.178,62.500,32.227,30.762,74.219,-5.859,0
1583510176.182,62.012,34.668,32.227,34.668,-18.555,0
1583510176.186,62.988,32.715,31.250,-7.812,44.434,0
1583510176.189,60.547,30.762,31.250,16.113,36.621,0
1583510176.193,62.988,29.785,30.273,83.496,33.203,0
1583510176.197,58.105,30.762,31.250,57.617,52.734,0
1583510176.201,56.152,32.227,32.715,-3.418,43.945,0
1583510176.205,59.082,32.227,30.762,4.395,45.898,0
1583510176.201,59.082,29.297,32.715,54.199,28.809,0
1583510176.205,61.035,30.273,32.715,67.871,23.926,0
1583510176.209,60.547,32.227,30.762,3.418,23.438,0
1583510176.213,49.316,32.227,30.762,-6.348,55.664,0
1583510176.217,41.504,33.203,31.250,51.758,71.777,0
1583510176.221,34.668,32.715,32.715,62.500,62.500,0
1583510176.225,34.668,33.691,32.227,21.973,62.988,0
1583510176.228,37.109,35.645,31.250,-13.184,47.852,0
1583510176.232,40.527,36.621,32.227,34.180,21.484,0
1583510176.236,48.340,34.668,34.668,65.918,-2.930,0
1583510176.240,47.363,34.668,35.156,25.391,-13.184,0
1583510176.244,40.527,36.621,33.691,-1.953,10.742,0
1583510176.261,31.738,36.621,34.180,32.715,46.875,0
1583510176.265,26.855,34.668,35.156,82.520,72.754,0
1583510176.269,25.391,32.227,34.180,48.340,21.484,0
1583510176.273,24.414,30.273,34.180,-17.090,12.695,0
1583510176.277,22.949,28.809,35.156,6.836,29.297,0
1583510176.281,22.461,32.227,36.621,69.336,-0.488,0
1583510176.285,25.391,33.691,37.109,59.082,22.949,0
1583510176.288,26.855,32.715,34.668,-18.066,10.742,0
1583510176.292,21.484,32.227,32.227,-16.113,23.926,0
1583510176.296,17.578,31.250,32.715,55.664,27.832,0
1583510176.300,20.508,30.273,33.203,71.289,-42.480,0
1583510176.304,28.320,32.715,30.762,25.879,-53.711,0
1583510176.301,31.250,36.621,29.785,-17.090,-32.715,0
1583510176.305,31.250,36.133,28.809,39.551,16.602,0
1583510176.309,38.086,36.621,27.344,94.727,46.387,0
1583510176.313,46.387,34.668,29.297,46.875,21.973,0
1583510176.317,50.293,34.180,30.273,-14.648,20.508,0
1583510176.321,46.387,35.645,28.320,-4.883,27.344,0
1583510176.325,35.645,35.156,29.785,51.758,-7.324,0
1583510176.328,34.668,31.250,30.273,52.246,23.926,0
1583510176.332,43.457,30.273,30.273,-0.488,54.199,0
1583510176.336,37.109,31.738,33.203,4.883,13.184,0
1583510176.340,33.203,33.203,31.738,53.711,-16.113,0
1583510176.344,39.551,33.203,30.273,69.824,-26.367,0
1583510176.341,37.598,31.738,32.227,28.809,27.344,0
1583510176.345,30.273,31.250,32.715,4.883,29.785,0
1583510176.349,24.902,31.250,33.691,56.641,25.879,0
1583510176.353,22.949,31.250,34.668,74.219,54.688,0
1583510176.357,28.320,31.250,32.715,25.879,19.043,0
1583510176.361,32.227,30.762,31.738,-2.930,19.043,0
1583510176.365,31.250,33.691,31.250,36.133,-7.812,0
1583510176.368,30.762,32.715,31.250,77.637,13.672,0
1583510176.372,26.855,31.250,31.250,33.203,66.406,0
1583510176.376,24.414,30.273,29.785,-15.625,59.082,0
1583510176.380,26.367,30.273,29.785,10.254,-26.855,0
1583510176.384,27.832,34.180,31.250,65.918,-81.055,0
1583510176.402,24.414,34.668,31.738,63.477,-8.789,0
1583510176.406,22.461,33.203,31.250,-5.371,30.762,0
1583510176.410,21.484,34.668,31.250,-4.395,20.020,0
1583510176.414,20.996,34.668,33.691,67.383,31.738,0
1583510176.418,20.020,34.668,35.156,74.219,72.266,0
1583510176.422,15.625,37.598,36.621,13.184,74.707,0
1583510176.426,14.160,38.086,41.016,-20.996,73.242,0
1583510176.429,25.879,41.504,45.410,37.598,39.062,0
1583510176.433,36.133,47.363,49.805,83.496,6.836,0
1583510176.437,33.691,50.293,54.688,46.387,26.367,0
1583510176.441,32.227,53.711,56.152,10.254,65.918,0
1583510176.445,37.109,58.105,61.035,45.410,64.941,0
1583510176.441,48.828,63.965,70.312,101.074,11.719,0
1583510176.445,62.012,67.871,74.707,80.078,-19.043,0
1583510176.449,70.801,72.266,76.660,24.902,3.906,0
1583510176.453,65.918,72.754,74.707,44.922,56.641,0
1583510176.457,63.965,69.336,72.754,96.191,44.434,0
1583510176.461,68.359,66.895,68.359,88.867,-5.371,0
1583510176.465,61.035,62.012,61.035,27.344,40.527,0
1583510176.468,57.129,56.152,55.664,10.254,39.062,0
1583510176.472,52.246,49.316,51.758,67.871,31.738,0
1583510176.476,46.387,45.898,49.805,73.730,39.062,0
1583510176.480,53.711,45.410,46.387,12.695,-20.508,0
1583510176.484,52.246,42.480,43.945,-6.348,19.531,0
1583510176.482,55.176,39.551,43.945,45.410,48.340,0
1583510176.486,66.406,37.598,41.504,77.148,23.926,0
1583510176.490,61.035,36.133,41.016,29.297,45.410,0
1583510176.494,49.805,35.156,41.992,-16.113,0.488,0
1583510176.498,46.387,34.180,37.109,24.414,-35.156,0
1583510176.502,50.293,34.668,33.203,77.148,35.156,0
1583510176.506,58.594,34.180,34.180,56.152,23.438,0
1583510176.509,58.105,32.715,34.668,-14.160,31.250,0
1583510176.513,57.617,30.273,32.715,-10.742,32.227,0
1583510176.517,63.965,29.785,27.832,61.523,34.668,0
1583510176.521,56.152,28.320,28.320,62.988,55.664,0
1583510176.525,49.316,28.320,30.762,-0.488,79.590,0
1583510176.541,46.387,29.785,30.762,-26.367,51.758,0
1583510176.545,48.340,28.320,29.785,36.133,44.434,0
1583510176.549,48.340,26.855,26.367,58.105,57.129,0
1583510176.553,48.828,26.367,25.879,2.930,3.418,0
1583510176.557,50.293,28.809,26.855,-40.527,-9.277,0
1583510176.561,36.133,28.320,24.414,-9.277,3.418,0
1583510176.565,30.273,25.879,22.949,44.922,10.742,0
1583510176.568,40.039,27.832,21.973,14.160,27.344,0
1583510176.572,41.504,30.762,20.996,-41.016,3.906,0
1583510176.576,42.480,28.809,22.461,-17.578,-17.578,0
1583510176.580,41.992,28.320,23.926,32.715,17.578,0
1583510176.584,41.016,29.785,24.414,31.250,69.336,0
1583510176.582,46.387,30.273,25.879,-24.902,45.898,0
1583510176.586,41.016,30.273,28.809,-13.184,3.906,0
1583510176.590,30.273,27.344,26.855,41.992,33.203,0
1583510176.594,28.320,27.832,24.414,35.156,34.180,0
1583510176.598,24.902,27.344,23.926,-6.836,8.789,0
1583510176.602,23.438,27.344,21.973,-23.926,-22.949,0
1583510176.606,22.949,26.367,22.949,36.133,-22.949,0
1583510176.609,18.555,24.902,26.855,57.617,54.688,0
1583510176.613,15.625,25.391,25.879,-0.488,81.055,0
1583510176.617,8.789,23.926,26.855,-32.227,5.371,0
1583510176.621,1.465,22.949,28.320,6.348,-35.645,0
1583510176.625,2.441,23.438,28.320,59.082,-4.883,0
1583510176.622,2.930,23.926,29.297,15.137,7.812,0
1583510176.626,-8.301,22.949,26.855,-47.852,32.227,0
1583510176.630,-11.719,21.973,24.902,-13.184,17.090,0
1583510176.634,-5.371,20.996,24.902,39.062,-26.855,0
1583510176.638,2.441,21.973,26.855,40.039,59.570,0
1583510176.642,3.906,23.438,25.879,-35.156,57.129,0
1583510176.646,1.953,23.438,21.973,-45.898,13.672,0
1583510176.649,-0.488,23.438,24.414,37.598,70.312,0
1583510176.653,-0.977,23.438,26.367,45.410,88.379,0
1583510176.657,8.789,28.320,25.879,-1.953,51.270,0
1583510176.661,9.766,29.785,26.855,-33.691,82.520,0
1583510176.665,4.883,27.832,28.809,10.254,97.168,0
1583510176.681,7.324,26.855,28.320,55.176,1.953,0
1583510176.685,14.648,25.879,27.344,14.648,6.836,0
1583510176.689,12.695,28.809,27.832,-16.602,82.031,0
1583510176.693,4.883,29.297,27.832,16.602,121.582,0
1583510176.697,5.859,29.785,28.320,60.547,64.453,0
1583510176.701,0.000,29.785,31.250,50.293,85.938,0
1583510176.705,-7.812,28.320,30.762,-14.160,121.094,0
1583510176.708,-1.953,29.297,28.320,5.859,52.246,0
1583510176.712,-5.371,28.320,28.320,54.199,47.852,0
1583510176.716,-7.812,26.367,32.227,36.621,26.855,0
1583510176.720,-5.859,26.855,33.203,-6.348,-12.207,0
1583510176.724,-9.766,26.367,33.691,-12.695,7.812,0
1583510176.723,-3.906,26.367,36.621,54.688,-6.348,0
1583510176.727,7.324,29.785,32.715,68.848,41.016,0
1583510176.731,8.301,29.785,31.250,7.324,66.895,0
1583510176.735,3.906,29.297,32.227,-5.859,29.785,0
1583510176.739,6.836,29.785,30.273,44.922,64.941,0
1583510176.743,14.160,30.762,27.832,77.148,26.855,0
1583510176.747,17.578,28.809,29.785,24.902,-16.113,0
1583510176.750,20.996,27.832,31.250,-30.273,3.418,0
1583510176.754,18.066,30.273,30.762,11.230,-35.645,0
1583510176.758,20.020,31.738,31.738,58.594,-46.875,0
1583510176.762,36.133,31.250,32.227,52.734,94.727,0
1583510176.766,39.062,32.715,31.250,-13.184,147.461,0
1583510176.775,36.133,33.691,30.762,-20.508,21.973,0
1583510176.779,35.156,32.227,30.273,57.129,-37.109,0
1583510176.783,33.691,33.203,32.715,58.105,14.648,0
1583510176.787,28.809,32.715,34.668,-1.953,38.574,0
1583510176.791,21.973,32.227,33.691,-20.508,65.430,0
1583510176.795,18.555,34.180,32.715,28.809,60.547,0
1583510176.799,12.207,34.180,30.273,59.082,38.574,0
1583510176.802,7.324,32.715,29.785,2.930,60.059,0
1583510176.806,11.719,32.715,28.809,-28.809,101.074,0
1583510176.810,12.695,33.691,29.785,10.254,47.852,0
1583510176.814,11.719,31.250,32.227,59.570,-14.160,0
1583510176.818,12.207,30.762,30.762,41.504,-87.402,0
1583510176.822,12.207,32.227,28.320,-8.789,-62.988,0
1583510176.826,12.695,32.227,28.809,28.809,14.648,0
1583510176.830,10.742,28.809,31.250,68.359,36.133,0
1583510176.834,12.695,27.832,32.715,42.480,20.996,0
1583510176.838,15.137,30.762,32.715,-13.672,-12.695,0
1583510176.842,10.254,29.297,33.203,-22.949,-19.531,0
1583510176.846,7.812,28.809,31.250,31.738,-21.484,0
1583510176.849,4.883,30.762,30.762,27.832,-5.859,0
1583510176.853,-0.488,33.691,34.180,-14.160,52.734,0
1583510176.857,-6.348,34.668,32.227,-10.742,29.785,0
1583510176.861,-13.672,31.738,30.762,48.828,57.129,0
1583510176.865,-16.602,28.809,33.203,69.336,51.270,0
1583510176.861,-7.812,30.273,31.250,11.230,22.949,0
1583510176.865,2.441,31.250,28.809,-25.879,23.438,0
1583510176.869,7.812,30.273,31.250,5.859,-17.578,0
1583510176.873,18.066,31.738,30.762,33.691,17.578,0
1583510176.877,33.691,32.715,29.297,-2.930,96.191,0
1583510176.881,38.574,32.715,30.762,-81.543,40.039,0
1583510176.885,39.062,34.180,32.227,-52.734,-8.301,0
1583510176.888,44.434,34.180,33.691,39.062,61.035,0
1583510176.892,45.898,34.668,34.180,34.180,43.945,0
1583510176.896,44.922,34.180,29.297,-17.578,54.688,0
1583510176.900,47.852,33.203,28.809,-11.719,90.332,0
1583510176.904,43.457,32.715,29.297,50.781,-10.254,0
1583510176.921,44.434,33.203,27.832,71.289,-30.762,0
1583510176.925,46.875,33.691,30.762,13.184,64.941,0
1583510176.929,42.480,32.715,30.762,-17.090,47.852,0
1583510176.933,42.480,32.227,28.320,28.809,10.742,0
1583510176.937,48.340,31.250,30.273,67.383,20.508,0
1583510176.941,50.781,30.273,34.180,31.250,-3.418,0
1583510176.945,50.781,28.809,35.156,-11.230,32.715,0
1583510176.948,54.688,28.809,33.203,30.762,45.410,0
1583510176.952,63.965,28.809,32.227,72.754,-0.977,0
1583510176.956,67.383,25.879,35.645,53.223,31.738,0
1583510176.960,64.941,27.344,36.621,-0.977,20.508,0
1583510176.964,61.035,27.344,36.133,7.812,-5.859,0
1583510176.961,56.152,29.297,36.621,62.012,1.953,0
1583510176.965,51.270,31.250,37.109,46.387,23.438,0
1583510176.969,51.270,33.203,39.062,-12.207,53.711,0
1583510176.973,54.688,36.621,36.621,-20.508,68.359,0
1583510176.977,58.105,35.645,34.668,27.344,41.992,0
1583510176.981,59.570,35.156,36.621,39.551,2.441,0
1583510176.985,62.500,36.621,36.621,-16.113,54.688,0
1583510176.988,55.176,36.621,34.668,-37.109,97.168,0
1583510176.992,41.016,35.156,35.645,18.555,61.523,0
1583510176.996,39.062,35.156,35.156,51.758,30.762,0
1583510177.000,32.715,34.668,34.180,10.254,34.668,0
1583510177.004,20.996,35.156,31.738,-41.992,63.965,0
1583510177.001,20.020,36.621,29.785,-2.930,33.203,0
1583510177.005,14.160,36.133,31.250,59.570,25.391,0
1583510177.009,10.254,32.715,33.203,45.410,26.855,0
1583510177.013,13.672,31.250,32.715,-5.859,11.230,0
1583510177.017,15.137,32.715,31.738,7.812,37.598,0
1583510177.021,15.625,33.691,33.691,76.660,0.000,0
1583510177.025,17.090,34.668,35.156,79.102,-44.922,0
1583510177.028,18.066,34.668,34.180,27.832,-30.273,0
1583510177.032,17.090,37.109,36.133,27.344,-2.441,0
1583510177.036,17.090,38.086,39.062,86.426,24.902,0
1583510177.040,17.578,33.203,38.086,112.793,4.395,0
1583510177.044,21.484,33.691,37.109,72.754,14.648,0
1583510177.061,21.973,36.133,35.645,46.387,63.965,0
1583510177.065,13.184,37.109,35.645,77.148,31.738,0
1583510177.069,11.230,38.574,37.598,99.121,-24.902,0
1583510177.073,15.137,37.598,35.645,79.102,-5.859,0
1583510177.077,11.719,37.598,33.691,34.668,51.270,0
1583510177.081,8.789,39.062,35.156,60.547,87.891,0
1583510177.085,10.254,39.062,37.598,103.027,62.500,0
1583510177.088,8.789,37.109,41.016,67.871,12.695,0
1583510177.092,13.184,39.551,41.016,20.996,28.320,0
1583510177.096,15.625,41.504,40.039,31.738,5.859,0
1583510177.100,10.742,38.086,41.504,97.656,24.902,0
1583510177.104,11.230,36.621,42.969,87.402,5.371,0
1583510177.101,13.184,36.133,39.551,11.719,-16.602,0
1583510177.105,13.672,35.645,39.551,13.184,31.738,0
1583510177.109,11.719,34.668,43.945,67.871,-4.395,0
1583510177.113,16.602,35.156,43.457,95.703,-10.254,0
1583510177.117,17.090,38.574,42.969,44.922,37.598,0
1583510177.121,10.254,39.551,42.969,1.953,62.988,0
1583510177.125,9.277,38.086,43.457,61.035,9.277,0
1583510177.128,7.324,39.062,43.457,107.422,-1.953,0
1583510177.132,15.625,41.992,42.480,82.031,47.852,0
1583510177.136,17.578,43.945,43.945,12.695,74.219,0
1583510177.140,12.207,43.945,42.969,13.672,42.969,0
1583510177.144,20.996,43.945,41.016,80.078,10.742,0
1583510177.141,32.227,46.387,41.504,64.941,71.777,0
1583510177.145,35.645,46.387,41.016,1.465,68.848,0
1583510177.149,30.273,43.457,41.992,-11.230,43.457,0
1583510177.153,22.461,42.969,42.969,44.434,67.871,0
1583510177.157,25.879,41.992,42.480,81.055,31.738,0
1583510177.161,26.367,40.527,44.434,26.855,-37.598,0
1583510177.165,20.020,43.945,44.922,13.672,-43.457,0
1583510177.168,21.484,43.945,42.480,67.871,72.754,0
1583510177.172,20.508,43.945,41.016,79.102,47.852,0
1583510177.176,34.180,44.434,39.551,52.734,-13.184,0
1583510177.180,50.293,43.945,33.691,25.391,14.648,0
1583510177.184,41.016,44.922,37.598,67.871,44.434,0
1583510177.201,20.996,43.457,42.969,77.148,36.621,0
1583510177.205,17.090,41.992,42.969,23.926,27.344,0
1583510177.209,30.762,39.062,41.992,2.441,35.156,0
1583510177.213,29.297,37.598,42.969,21.973,-8.301,0
1583510177.217,26.367,36.621,41.992,81.543,42.480,0
1583510177.221,24.414,35.156,39.062,60.059,42.969,0
1583510177.225,16.602,32.715,41.504,-17.090,9.766,0
1583510177.228,15.137,33.203,42.969,-8.789,74.707,0
1583510177.232,17.578,36.133,42.480,46.387,51.270,0
1583510177.236,17.578,35.645,42.480,55.664,-23.926,0
1583510177.240,13.672,35.645,39.062,-14.648,-1.465,0
1583510177.244,10.254,36.621,37.598,-46.875,70.801,0
1583510177.242,16.113,32.715,39.551,23.438,40.527,0
1583510177.246,19.531,32.715,40.527,53.711,-47.363,0
1583510177.250,17.090,33.203,39.062,20.020,2.441,0
1583510177.254,17.090,27.832,36.133,-33.691,67.383,0
1583510177.258,15.137,27.344,32.227,-2.930,18.555,0
1583510177.262,16.113,32.227,33.691,71.289,9.766,0
1583510177.266,25.391,33.691,34.180,42.969,12.207,0
1583510177.269,33.691,33.691,31.738,-12.207,14.160,0
1583510177.273,35.645,33.691,34.180,-5.371,31.250,0
1583510177.277,35.156,31.738,37.598,50.293,31.738,0
1583510177.281,38.574,31.250,36.133,60.547,41.992,0
1583510177.285,42.969,29.297,35.156,-6.836,-15.137,0
1583510177.281,40.527,28.809,36.133,-4.395,58.105,0
1583510177.285,41.992,29.785,36.133,50.293,69.824,0
1583510177.289,41.016,31.738,36.621,66.895,-10.254,0
1583510177.293,40.527,32.715,37.109,38.574,53.711,0
1583510177.297,40.527,34.180,35.156,0.000,38.086,0
1583510177.301,38.574,32.227,32.715,49.316,22.461,0
1583510177.305,47.852,29.297,33.691,77.637,68.359,0
1583510177.308,56.152,30.273,33.691,41.992,68.359,0
1583510177.312,47.852,31.738,34.180,-0.977,48.340,0
1583510177.316,48.828,33.203,35.156,20.996,24.414,0
1583510177.320,55.664,33.203,35.645,77.148,-17.090,0
1583510177.324,51.270,33.691,34.180,40.527,-15.625,0
1583510177.341,47.363,33.691,33.203,-10.742,36.621,0
1583510177.345,43.945,30.273,34.668,7.812,50.781,0
1583510177.349,41.992,29.297,35.156,55.176,32.227,0
1583510177.353,44.434,31.250,38.086,60.547,59.570,0
1583510177.357,41.992,32.227,36.133,-7.324,52.734,0
1583510177.361,41.016,34.180,35.645,-19.531,-0.488,0
1583510177.365,41.504,33.691,35.645,46.875,7.324,0
1583510177.368,44.922,33.203,34.668,64.941,12.695,0
1583510177.372,50.781,33.203,35.156,23.926,14.648,0
1583510177.376,50.781,32.227,37.109,-21.973,-6.348,0
1583510177.380,50.781,31.250,38.574,24.414,-46.387,0
1583510177.384,41.992,29.297,36.621,73.242,-8.789,0
1583510177.384,43.457,28.320,35.645,38.574,29.785,0
1583510177.388,48.340,29.785,34.180,-10.254,24.902,0
1583510177.392,42.480,31.738,35.645,0.977,9.766,0
1583510177.396,41.992,32.227,37.109,65.430,13.184,0
1583510177.400,40.039,33.203,34.668,57.617,12.207,0
1583510177.404,37.598,33.203,35.645,-7.324,21.484,0
1583510177.408,32.715,33.203,33.691,-4.883,77.148,0
1583510177.411,24.902,32.715,29.297,41.992,37.109,0
1583510177.415,25.391,33.691,29.297,53.223,-25.391,0
1583510177.419,25.879,33.691,29.785,8.301,11.230,0
1583510177.423,25.879,32.227,29.297,-19.043,47.363,0
1583510177.427,31.250,34.180,29.297,34.180,35.645,0
1583510177.421,33.691,36.621,31.738,63.965,18.555,0
1583510177.425,30.762,35.645,32.715,20.508,-19.531,0
1583510177.429,26.367,34.668,31.250,-10.742,15.137,0
1583510177.433,22.461,32.715,32.715,29.297,61.523,0
1583510177.437,20.020,33.691,34.180,69.824,17.090,0
1583510177.441,24.414,35.645,33.203,33.691,34.180,0
1583510177.445,24.902,32.715,34.668,-18.555,23.926,0
1583510177.448,24.902,32.715,33.691,6.348,2.441,0
1583510177.452,24.414,34.180,30.762,53.223,-1.465,0
1583510177.456,26.855,33.691,28.320,38.574,-25.879,0
1583510177.460,23.926,34.668,29.785,-20.020,-10.254,0
1583510177.464,16.113,37.598,32.715,-13.184,27.344,0
1583510177.482,17.578,39.551,33.203,46.875,45.410,0
1583510177.486,18.555,38.086,32.227,44.922,-22.949,0
1583510177.490,16.113,35.645,29.785,-6.348,-35.156,0
1583510177.494,12.207,35.645,27.832,-32.715,31.250,0
1583510177.498,12.207,35.156,26.367,17.578,19.531,0
1583510177.502,12.695,33.691,28.809,51.758,-4.395,0
1583510177.506,17.578,33.203,29.297,16.113,65.430,0
1583510177.509,18.555,31.738,28.320,-25.879,114.746,0
1583510177.513,7.812,32.715,30.762,2.930,143.555,0
1583510177.517,6.836,32.715,30.273,57.129,110.840,0
1583510177.521,11.719,31.738,28.320,33.203,-10.742,0
1583510177.525,7.324,32.715,28.809,-27.344,-18.066,0
1583510177.521,5.859,35.156,31.250,-14.160,10.742,0
1583510177.525,12.207,36.133,33.203,54.688,65.918,0
1583510177.529,18.066,37.109,32.227,57.617,62.012,0
1583510177.533,15.137,37.109,34.180,0.977,7.324,0
1583510177.537,5.371,32.227,33.203,-10.254,19.043,0
1583510177.541,7.812,32.715,31.738,46.387,-10.254,0
1583510177.545,11.230,32.227,35.156,64.941,-34.180,0
1583510177.548,11.230,30.273,35.645,17.090,-22.949,0
1583510177.552,8.789,31.250,33.203,-7.324,11.719,0
1583510177.556,4.883,31.250,33.691,37.109,36.621,0
1583510177.560,8.789,34.180,35.156,68.848,20.020,0
1583510177.564,18.555,33.203,34.668,29.297,22.461,0
1583510177.561,15.625,31.738,32.715,-13.672,35.156,0
1583510177.565,13.184,31.738,31.738,20.020,59.082,0
1583510177.569,18.066,31.250,32.715,69.824,9.277,0
1583510177.573,21.484,31.738,33.691,47.852,2.441,0
1583510177.577,22.461,33.691,34.180,-7.324,38.574,0
1583510177.581,27.832,35.156,32.715,20.996,60.547,0
1583510177.585,39.062,33.203,32.227,82.031,54.688,0
1583510177.588,40.527,32.715,34.180,83.008,16.602,0
1583510177.592,33.203,31.738,35.156,19.531,43.457,0
1583510177.596,30.762,33.203,34.180,-2.930,98.633,0
1583510177.600,35.645,36.133,32.715,73.242,93.262,0
1583510177.604,37.598,35.156,33.203,91.309,28.809,0
1583510177.621,41.016,34.668,33.691,37.598,-4.395,0
1583510177.625,42.969,35.645,33.691,-2.441,18.066,0
1583510177.629,42.969,36.133,33.691,30.273,24.414,0
1583510177.633,41.504,34.180,34.180,83.496,18.555,0
1583510177.637,42.480,35.156,34.668,45.410,24.902,0
1583510177.641,37.598,37.109,33.203,-5.859,36.621,0
1583510177.645,24.902,35.156,32.715,11.719,139.648,0
1583510177.648,22.949,34.180,35.645,46.875,91.797,0
1583510177.652,24.414,35.156,32.715,45.410,-37.109,0
1583510177.656,19.043,37.598,27.832,-9.277,-37.109,0
1583510177.660,16.602,36.621,27.832,2.930,75.684,0
1583510177.664,13.184,35.156,28.809,55.176,98.633,0
1583510177.661,9.766,34.180,29.297,57.129,16.602,0
1583510177.665,6.836,34.668,31.738,26.367,9.277,0
1583510177.669,-2.441,34.180,34.180,5.859,20.996,0
1583510177.673,-1.465,31.250,33.203,65.918,91.797,0
1583510177.677,1.953,31.738,34.668,87.891,80.078,0
1583510177.681,-1.465,35.156,30.273,21.484,1.953,0
1583510177.685,0.000,35.156,26.855,-16.602,7.812,0
1583510177.688,6.348,36.133,31.738,21.484,8.789,0
1583510177.692,9.766,37.598,30.273,75.195,38.086,0
1583510177.696,8.789,38.574,29.785,29.785,42.480,0
1583510177.700,2.441,37.598,33.691,-34.668,33.691,0
1583510177.704,1.465,37.598,33.691,26.367,41.992,0
1583510177.702,3.906,37.109,32.715,92.285,-2.930,0
1583510177.706,4.395,35.645,32.227,84.961,-15.137,0
1583510177.710,5.859,36.621,31.250,11.719,24.414,0
1583510177.714,7.324,34.668,30.273,-5.859,32.715,0
1583510177.718,15.625,34.180,29.785,66.406,4.883,0
1583510177.722,26.367,35.156,30.273,61.523,-44.434,0
1583510177.726,36.133,36.133,30.762,2.441,-16.602,0
1583510177.729,36.621,35.645,30.762,-33.203,71.289,0
1583510177.733,33.691,37.109,31.738,10.254,68.848,0
1583510177.737,42.480,37.109,32.715,64.453,-35.156,0
1583510177.741,49.316,36.133,34.180,30.762,-31.738,0
1583510177.745,50.293,33.691,37.109,6.348,20.508,0
1583510177.761,48.340,33.203,37.109,45.898,20.996,0
1583510177.765,51.270,36.621,38.086,88.867,19.043,0
1583510177.769,59.570,35.645,39.551,86.426,-6.836,0
1583510177.773,59.570,32.227,40.039,34.180,44.434,0
1583510177.777,62.500,30.762,39.062,41.016,66.406,0
1583510177.781,64.453,31.738,37.598,87.402,17.090,0
1583510177.785,63.965,33.203,36.621,72.266,35.645,0
1583510177.788,73.730,32.227,35.645,29.297,76.172,0
1583510177.792,75.684,35.645,38.574,22.949,52.246,0
1583510177.796,81.055,38.086,41.016,80.078,-6.836,0
1583510177.800,88.379,35.645,40.527,90.820,34.180,0
1583510177.804,80.078,35.156,41.016,24.902,73.730,0
1583510177.806,72.754,33.691,38.574,2.441,33.691,0
1583510177.810,74.707,33.691,35.645,47.363,36.621,0
1583510177.814,71.289,37.109,36.133,80.078,4.883,0
1583510177.818,66.406,35.645,38.086,26.367,-3.906,0
1583510177.822,61.523,32.227,39.062,-33.691,19.531,0
1583510177.826,54.688,34.180,37.598,10.742,30.762,0
1583510177.830,51.270,33.691,37.598,61.523,21.484,0
1583510177.833,51.270,30.762,38.574,42.480,9.277,0
1583510177.837,48.340,32.227,37.109,-23.438,31.738,0
1583510177.841,38.574,31.738,35.645,-14.648,28.809,0
1583510177.845,36.133,32.715,36.621,53.711,0.000,0
1583510177.849,41.504,35.156,37.109,61.523,-35.645,0
1583510177.843,38.086,34.180,38.086,14.648,16.113,0
1583510177.847,29.297,34.668,35.645,-15.625,57.129,0
1583510177.851,23.438,37.109,36.133,44.922,59.082,0
1583510177.855,24.414,36.621,40.527,76.660,32.227,0
1583510177.859,22.949,35.645,36.621,19.043,35.156,0
1583510177.863,16.113,32.715,34.180,-17.578,99.121,0
1583510177.867,16.113,31.738,36.133,18.555,125.488,0
1583510177.870,13.672,32.715,32.715,59.570,52.734,0
1583510177.874,13.672,33.203,30.273,25.879,-2.930,0
1583510177.878,12.695,34.180,34.668,-22.949,-20.508,0
1583510177.882,6.836,33.691,35.156,11.719,-22.461,0
1583510177.886,6.836,33.691,32.715,52.734,-5.859,0
1583510177.901,4.883,32.715,31.738,38.086,8.789,0
1583510177.905,2.930,31.250,32.715,-11.230,-10.742,0
1583510177.909,-0.977,32.715,35.645,-3.906,-18.066,0
1583510177.913,-3.418,31.738,36.621,63.965,22.461,0
1583510177.917,2.441,32.227,36.133,60.059,40.039,0
1583510177.921,3.418,32.715,35.156,9.277,43.457,0
1583510177.925,-0.977,32.715,35.156,-8.301,45.410,0
1583510177.928,5.371,31.738,33.691,46.387,27.832,0
1583510177.932,9.766,28.809,34.668,83.008,12.207,0
1583510177.936,14.648,30.273,36.133,25.879,26.367,0
1583510177.940,11.230,28.320,36.133,-21.484,43.945,0
1583510177.944,6.836,28.809,38.574,22.461,64.453,0
1583510177.943,18.066,30.762,38.574,68.848,36.133,0
1583510177.947,24.902,30.762,35.156,41.504,44.434,0
1583510177.951,20.020,30.273,33.203,-25.391,67.383,0
1583510177.955,14.648,31.250,34.668,-8.789,15.137,0
1583510177.959,13.184,32.715,33.691,61.035,60.547,0
1583510177.963,5.859,32.227,35.645,46.875,132.324,0
1583510177.967,2.930,33.691,36.133,-20.508,73.730,0
1583510177.970,5.371,32.715,32.227,-23.438,67.871,0
1583510177.974,3.418,33.691,29.297,45.898,77.637,0
1583510177.978,-3.906,31.250,31.250,63.477,47.363,0
1583510177.982,-0.977,30.762,33.691,8.789,31.738,0
1583510177.986,2.441,32.715,32.715,-14.160,21.973,0
1583510177.984,12.207,31.738,31.738,27.832,37.109,0
1583510177.988,21.484,30.762,31.250,58.594,33.203,0
1583510177.992,21.973,30.273,33.691,12.695,56.152,0
1583510177.996,25.879,30.762,35.645,-43.945,27.344,0
1583510178.000,32.715,31.250,37.109,0.977,11.230,0
1583510178.004,35.645,31.250,37.598,47.363,31.738,0
1583510178.008,38.574,31.250,34.180,30.273,18.066,0
1583510178.011,32.715,32.227,36.133,-9.277,29.785,0
1583510178.015,26.855,31.250,37.598,9.766,3.906,0
1583510178.019,27.832,28.809,35.645,86.914,-9.766,0
1583510178.023,28.320,28.320,37.109,90.820,-13.184,0
1583510178.027,29.297,28.320,36.133,41.504,38.086,0
1583510178.041,23.438,27.832,36.133,31.738,44.922,0
1583510178.045,15.625,26.855,38.086,78.613,-17.090,0
1583510178.049,13.184,27.832,36.621,87.891,11.719,0
1583510178.053,17.090,27.832,37.109,24.902,78.125,0
1583510178.057,19.043,25.879,36.621,-10.742,15.625,0
1583510178.061,14.648,27.344,37.598,35.156,-21.973,0
1583510178.065,15.625,27.832,40.039,71.289,48.340,0
1583510178.068,26.367,27.832,37.109,39.062,85.449,0
1583510178.072,26.367,30.273,34.180,-11.719,39.062,0
1583510178.076,25.391,30.273,36.133,20.996,-32.227,0
1583510178.080,28.809,31.250,34.668,79.102,-20.020,0
1583510178.084,32.715,32.715,34.180,56.641,9.766,0
1583510178.081,37.598,31.738,35.645,-3.906,9.766,0
1583510178.085,35.645,30.273,34.180,-1.953,27.344,0
1583510178.089,35.156,30.762,32.715,59.082,27.832,0
1583510178.093,35.156,31.250,32.227,62.012,66.406,0
1583510178.097,33.691,31.250,32.227,-0.977,73.242,0
1583510178.101,35.645,32.227,33.203,-23.926,41.016,0
1583510178.105,40.039,32.227,34.180,21.484,29.785,0
1583510178.108,41.504,32.227,33.691,51.270,-25.391,0
1583510178.112,35.156,33.203,35.156,2.930,-15.625,0
1583510178.116,28.320,32.715,35.645,-37.109,-17.578,0
1583510178.120,34.180,32.227,30.762,5.371,-1.465,0
1583510178.124,37.598,31.738,30.273,43.945,44.922,0
1583510178.121,46.387,30.762,34.668,24.414,54.688,0
1583510178.125,53.711,29.785,38.086,-21.484,41.504,0
1583510178.129,51.758,30.273,38.086,-1.953,27.344,0
1583510178.133,61.035,29.785,36.133,42.969,17.090,0
1583510178.137,70.312,31.250,35.156,22.461,22.461,0
1583510178.141,63.477,32.227,32.715,-24.902,41.016,0
1583510178.145,60.547,31.738,29.785,-24.414,5.859,0
1583510178.148,60.059,28.320,32.715,39.062,-19.531,0
1583510178.152,57.129,28.320,34.180,42.480,26.855,0
1583510178.156,60.547,29.785,30.762,-23.438,24.414,0
1583510178.160,60.547,28.809,29.785,-27.832,-8.301,0
1583510178.164,60.547,29.785,31.250,27.832,-44.434,0
1583510178.181,57.617,30.762,32.227,62.012,0.977,0
1583510178.185,50.293,31.250,33.691,2.441,36.133,0
1583510178.189,48.828,32.227,33.691,-51.270,20.996,0
1583510178.193,51.758,33.691,34.668,17.578,84.961,0
1583510178.197,54.199,33.203,34.180,65.918,85.449,0
1583510178.201,50.781,31.250,33.203,32.715,52.246,0
1583510178.205,49.316,31.738,36.133,-37.598,53.223,0
1583510178.208,53.711,31.738,33.691,-20.996,59.082,0
1583510178.212,58.594,32.715,32.227,62.500,27.832,0
1583510178.216,61.035,34.668,33.691,60.547,-7.812,0
1583510178.220,55.176,36.133,32.715,9.766,52.246,0
1583510178.224,51.270,34.668,33.203,-8.789,80.566,0
1583510178.221,49.805,32.715,34.180,47.852,57.617,0
1583510178.225,54.688,36.133,34.668,95.703,82.520,0
1583510178.229,56.641,38.086,32.715,47.363,109.375,0
1583510178.233,50.781,38.574,34.180,24.902,84.961,0
1583510178.237,50.781,38.574,38.086,63.965,64.453,0
1583510178.241,64.453,35.645,34.668,101.074,14.648,0
1583510178.245,77.637,34.668,31.250,102.539,-3.906,0
1583510178.248,45.410,37.598,36.621,33.203,26.367,0
1583510178.252,15.625,39.551,40.039,37.109,2.441,0
1583510178.256,29.785,41.016,39.551,85.938,26.367,0
1583510178.260,50.293,42.969,37.598,67.871,42.969,0
1583510178.264,57.129,40.527,37.109,36.621,37.598,0
1583510178.261,55.664,35.645,35.156,52.246,56.641,0
1583510178.265,44.434,34.668,35.156,108.398,53.711,0
1583510178.269,32.715,37.109,38.086,82.031,22.949,0
1583510178.273,27.832,37.109,38.574,11.719,7.812,0
1583510178.277,22.949,37.598,37.109,24.414,33.691,0
1583510178.281,23.438,37.109,35.156,74.707,2.930,0
1583510178.285,26.367,38.574,33.691,93.750,27.832,0
1583510178.288,19.043,38.574,34.180,24.414,66.406,0
1583510178.292,17.090,35.645,34.180,-22.949,46.875,0
1583510178.296,15.137,34.668,34.180,49.805,26.855,0
1583510178.300,9.277,34.668,36.133,89.844,34.180,0
1583510178.304,9.766,35.645,38.574,48.340,28.320,0
1583510178.321,7.812,34.180,37.109,-14.160,-0.977,0
1583510178.325,9.277,34.180,35.156,11.719,-3.418,0
1583510178.329,16.113,39.062,34.668,91.309,72.266,0
1583510178.333,18.066,39.551,36.621,67.383,92.285,0
1583510178.337,12.695,35.156,38.086,1.465,23.438,0
1583510178.341,5.371,34.668,36.133,1.465,30.762,0
1583510178.345,8.789,35.645,35.156,50.293,17.578,0
1583510178.348,16.113,35.645,31.250,63.477,3.418,0
1583510178.352,19.531,38.086,32.227,3.418,-25.879,0
1583510178.356,24.902,39.062,35.645,-7.324,-45.898,0
1583510178.360,19.043,39.062,33.203,37.598,12.695,0
1583510178.364,16.602,38.574,35.156,55.176,41.504,0
1583510178.361,22.949,36.621,37.598,22.461,22.461,0
1583510178.365,19.531,36.133,35.156,-14.160,50.293,0
1583510178.369,15.137,37.109,34.180,27.344,72.754,0
1583510178.373,15.137,33.203,35.645,48.340,7.812,0
1583510178.377,17.578,29.297,37.598,20.508,51.270,0
1583510178.381,18.555,31.250,39.062,-13.184,61.523,0
1583510178.385,19.043,34.668,39.062,11.230,-2.930,0
1583510178.388,13.184,33.691,39.062,66.895,4.395,0
1583510178.392,5.371,32.227,39.062,37.109,-6.836,0
1583510178.396,21.484,33.203,34.180,-8.789,-8.789,0
1583510178.400,38.574,31.250,31.738,26.855,25.879,0
1583510178.404,8.789,27.832,40.039,73.242,37.598,0
1583510178.401,-19.531,28.809,44.922,53.223,0.488,0
1583510178.405,-15.137,27.832,40.039,-15.137,24.414,0
1583510178.409,-1.953,20.996,38.574,-22.949,59.570,0
1583510178.413,-0.977,17.578,41.992,46.387,16.602,0
1583510178.417,-9.766,15.625,45.410,65.918,-5.859,0
1583510178.421,-7.324,12.207,47.363,17.090,17.578,0
1583510178.425,0.000,11.230,45.898,-24.414,33.691,0
1583510178.428,-3.906,15.625,42.969,22.461,6.836,0
1583510178.432,0.000,18.555,40.527,85.938,47.852,0
1583510178.436,2.930,18.555,40.527,52.734,27.832,0
1583510178.440,1.465,21.484,41.016,-0.488,45.898,0
1583510178.444,1.953,20.996,41.016,14.648,77.148,0
1583510178.461,4.883,25.391,41.992,64.941,-5.371,0
1583510178.465,12.207,28.809,41.016,61.523,-12.207,0
1583510178.469,16.602,26.367,38.574,0.977,13.184,0
1583510178.473,21.973,27.344,39.551,3.418,57.617,0
1583510178.477,22.949,30.762,40.527,58.105,62.012,0
1583510178.481,22.461,30.762,38.574,69.336,9.277,0
1583510178.485,24.414,28.320,38.086,20.508,17.578,0
1583510178.488,24.414,27.832,36.621,-3.418,95.215,0
1583510178.492,27.344,30.762,33.203,46.387,58.105,0
1583510178.496,32.715,30.762,32.715,72.266,-5.371,0
1583510178.500,30.762,29.785,35.645,36.133,53.223,0
1583510178.504,36.133,30.273,37.598,5.859,49.805,0
1583510178.501,47.852,27.344,38.086,52.246,-11.230,0
1583510178.505,54.199,25.879,37.598,104.492,-0.488,0
1583510178.509,53.223,27.832,36.621,74.219,25.391,0
1583510178.513,52.246,29.785,39.062,25.879,24.902,0
1583510178.517,57.129,31.250,38.086,48.828,39.551,0
1583510178.521,61.523,32.715,39.062,99.609,41.992,0
1583510178.525,64.941,33.203,39.062,90.820,11.719,0
1583510178.528,66.406,34.180,37.109,31.738,51.270,0
1583510178.532,60.059,33.691,38.574,32.227,78.613,0
1583510178.536,55.664,33.691,40.039,96.191,113.770,0
1583510178.540,57.617,33.691,39.062,109.375,79.102,0
1583510178.544,50.293,32.227,38.574,56.152,-2.930,0
1583510178.561,49.805,34.180,38.574,22.461,-5.859,0
1583510178.565,50.781,32.715,38.086,82.031,-5.371,0
1583510178.569,44.922,33.203,38.086,128.418,60.547,0
1583510178.573,48.828,34.668,37.598,78.125,76.660,0
1583510178.577,48.340,32.715,37.109,17.090,12.207,0
1583510178.581,45.410,33.203,35.156,30.762,20.996,0
1583510178.585,41.992,33.203,35.645,70.801,-1.465,0
1583510178.588,41.016,32.715,35.156,39.062,-27.344,0
1583510178.592,48.340,32.227,33.203,-18.555,20.020,0
1583510178.596,50.781,34.180,34.668,2.441,-7.812,0
1583510178.600,46.875,34.668,34.180,74.707,42.480,0
1583510178.604,41.992,34.180,34.668,88.379,70.801,0
1583510178.601,41.016,34.180,37.598,41.504,23.926,0
1583510178.605,37.598,36.133,35.156,34.668,71.289,0
1583510178.609,37.109,35.645,33.691,79.590,82.031,0
1583510178.613,43.945,35.645,34.668,81.055,47.852,0
1583510178.617,49.805,36.133,36.621,20.996,35.645,0
1583510178.621,49.805,33.203,37.598,-29.785,-37.598,0
1583510178.625,52.246,33.691,34.180,7.324,-45.898,0
1583510178.628,72.754,37.109,31.250,57.129,-1.465,0
1583510178.632,74.707,36.133,35.645,14.160,-43.945,0
1583510178.636,50.293,34.668,39.551,-31.738,-23.926,0
1583510178.640,37.598,33.691,41.504,-0.488,31.738,0
1583510178.644,48.340,29.297,40.039,65.918,2.930,0
1583510178.641,53.223,23.926,40.527,68.848,-20.020,0
1583510178.645,39.062,23.926,45.410,15.625,31.250,0
1583510178.649,31.738,23.926,41.992,29.785,33.691,0
1583510178.653,31.738,23.438,37.598,88.867,2.930,0
1583510178.657,32.715,22.949,35.645,93.750,48.828,0
1583510178.661,36.133,20.996,37.109,27.832,85.938,0
1583510178.665,39.062,21.484,39.062,-9.277,70.801,0
1583510178.668,46.387,22.461,40.527,53.223,56.152,0
1583510178.672,55.664,25.391,40.039,78.125,32.227,0
1583510178.676,54.199,27.344,37.109,23.926,9.277,0
1583510178.680,51.270,27.832,35.156,-16.113,42.480,0
1583510178.684,53.223,30.273,34.668,17.090,44.434,0
1583510178.701,46.875,32.227,31.250,69.336,14.648,0
1583510178.705,40.527,31.250,29.297,39.551,56.152,0
1583510178.709,35.156,33.203,28.809,-16.113,88.867,0
1583510178.713,29.785,31.738,28.320,-12.207,56.152,0
1583510178.717,25.391,30.273,29.297,30.762,41.992,0
1583510178.721,16.602,30.762,32.227,33.691,17.578,0
1583510178.725,9.277,30.273,36.621,-29.785,-30.762,0
1583510178.728,13.672,32.227,36.133,-25.391,-15.625,0
1583510178.732,24.414,34.180,34.180,32.227,1.953,0
1583510178.736,24.902,34.180,35.645,42.480,10.254,0
1583510178.740,19.043,33.691,35.645,6.348,8.789,0
1583510178.744,13.184,35.645,35.645,-19.531,29.785,0
1583510178.741,12.695,33.691,39.062,40.039,39.551,0
1583510178.745,38.086,32.227,36.133,76.660,-8.789,0
1583510178.749,28.320,37.109,29.785,12.207,-18.555,0
1583510178.753,-15.137,42.969,30.762,-43.457,28.320,0
1583510178.757,-24.902,48.340,30.273,-16.113,32.227,0
1583510178.761,-15.625,52.734,23.438,35.645,21.484,0
1583510178.765,-16.602,56.152,22.461,-2.930,70.801,0
1583510178.768,-17.090,62.012,20.996,-65.918,88.867,0
1583510178.772,-15.137,67.871,13.184,-37.598,3.906,0
1583510178.776,-25.391,67.871,13.184,11.719,-22.949,0
1583510178.780,-22.461,66.406,10.742,17.578,44.922,0
1583510178.784,-16.602,66.895,9.277,-57.617,45.898,0
1583510178.781,-18.555,65.918,11.719,-77.148,24.414,0
1583510178.785,-16.602,62.500,11.719,7.324,21.484,0
1583510178.789,-19.531,60.059,15.137,24.902,51.270,0
1583510178.793,-25.391,60.059,14.160,-29.785,45.898,0
1583510178.797,-20.020,59.570,15.137,-64.941,12.207,0
1583510178.801,-20.020,58.594,19.531,-16.113,20.996,0
1583510178.805,-20.020,58.594,21.973,42.969,50.293,0
1583510178.808,-19.531,55.176,28.320,-4.395,-4.883,0
1583510178.812,-17.578,53.223,31.250,-52.734,-4.883,0
1583510178.816,-12.695,51.270,31.250,-25.391,77.637,0
1583510178.820,-5.859,49.316,33.691,20.508,29.785,0
1583510178.824,-2.930,48.828,37.109,22.949,25.391,0
1583510178.841,-4.395,45.898,37.598,-34.668,42.969,0
1583510178.845,-2.930,43.945,36.133,-21.484,22.461,0
1583510178.849,3.906,43.457,37.598,32.227,45.410,0
1583510178.853,6.836,43.457,35.645,19.531,55.176,0
1583510178.857,9.277,41.992,35.156,-16.602,41.504,0
1583510178.861,3.418,41.016,36.133,-22.461,0.000,0
1583510178.865,-2.441,41.504,34.180,41.992,11.230,0
1583510178.868,6.348,43.457,32.227,60.059,56.152,0
1583510178.872,14.160,42.969,31.738,4.395,33.203,0
1583510178.876,17.090,40.527,29.297,-10.254,-20.020,0
1583510178.880,26.855,41.504,28.320,41.504,23.438,0
1583510178.884,30.273,41.016,29.785,83.496,108.887,0
1583510178.881,36.133,41.504,30.762,14.160,26.855,0
1583510178.885,41.016,40.039,29.785,-45.898,-36.133,0
1583510178.889,42.969,38.574,30.762,-1.465,23.438,0
1583510178.893,48.340,40.527,31.738,40.527,16.602,0
1583510178.897,49.316,40.039,32.715,23.926,33.203,0
1583510178.901,48.828,39.551,34.668,-51.270,54.688,0
1583510178.905,45.410,39.551,34.668,-43.945,57.129,0
1583510178.908,41.016,38.574,36.133,40.527,86.914,0
1583510178.912,38.086,38.574,37.109,48.828,72.754,0
1583510178.916,36.133,37.598,38.086,-4.883,21.973,0
1583510178.920,35.156,37.109,37.109,-40.527,-3.418,0
1583510178.924,39.551,39.062,38.086,26.367,-26.855,0
1583510178.921,39.062,40.039,37.598,74.707,23.926,0
1583510178.925,41.992,37.598,39.062,23.438,41.992,0
1583510178.929,49.316,36.133,40.039,-10.254,3.418,0
1583510178.933,40.527,39.062,36.621,3.418,-10.742,0
1583510178.937,30.762,45.410,34.180,41.016,37.109,0
1583510178.941,33.203,43.945,33.691,28.320,87.891,0
1583510178.945,42.480,43.945,31.738,-26.855,5.859,0
1583510178.948,41.016,47.363,34.180,-1.953,-33.203,0
1583510178.952,37.598,45.410,35.156,53.223,42.969,0
1583510178.956,43.945,42.969,33.691,53.711,72.266,0
1583510178.960,41.016,42.480,33.203,5.859,58.105,0
1583510178.964,35.156,43.457,31.250,2.441,57.617,0
1583510178.981,36.621,45.898,32.715,66.406,55.664,0
1583510178.985,35.645,48.340,33.203,66.406,65.430,0
1583510178.989,36.133,46.387,33.203,4.883,0.977,0
1583510178.993,36.621,47.363,31.738,-0.488,-18.555,0
1583510178.997,36.621,46.875,29.297,54.688,-18.555,0
1583510179.001,37.598,42.480,29.785,83.008,-36.133,0
1583510179.005,31.250,41.016,32.227,34.180,6.836,0
1583510179.008,29.297,40.527,33.203,-8.301,30.273,0
1583510179.012,37.109,40.039,29.785,32.715,-16.113,0
1583510179.016,35.156,36.133,32.227,75.684,-55.176,0
1583510179.020,33.203,35.645,32.227,55.176,61.035,0
1583510179.024,35.156,37.598,31.738,-8.301,106.445,0
1583510179.021,37.109,36.133,33.691,6.348,37.598,0
1583510179.025,41.016,36.621,34.180,68.848,0.000,0
1583510179.029,42.969,38.086,33.203,66.406,21.484,0
1583510179.033,38.574,37.598,34.668,2.441,-19.531,0
1583510179.037,41.992,36.621,38.086,-8.301,-24.902,0
1583510179.041,46.875,38.086,38.574,60.547,44.434,0
1583510179.045,51.758,38.086,36.133,80.078,71.777,0
1583510179.048,56.152,35.645,38.574,22.461,81.543,0
1583510179.052,52.734,35.645,40.527,-8.789,41.504,0
1583510179.056,50.781,34.180,40.039,43.945,49.805,0
1583510179.060,55.664,33.691,38.574,75.684,57.617,0
1583510179.064,62.988,36.621,35.156,32.715,8.301,0
1583510179.061,64.453,37.598,35.156,-11.719,-24.414,0
1583510179.065,63.477,37.598,35.645,27.344,32.715,0
1583510179.069,64.941,37.598,36.621,75.195,63.965,0
1583510179.073,62.500,35.645,35.156,47.852,24.902,0
1583510179.077,63.477,34.668,35.156,-3.418,39.062,0
1583510179.081,65.918,35.156,36.621,11.230,69.336,0
1583510179.085,62.500,37.598,34.180,60.547,43.945,0
1583510179.088,58.105,37.598,35.645,48.828,14.648,0
1583510179.092,56.641,38.086,38.086,-6.836,56.152,0
1583510179.096,54.688,40.039,37.109,-11.230,65.430,0
1583510179.100,55.664,37.598,38.574,48.340,21.973,0
1583510179.104,53.223,35.645,40.527,60.059,-19.043,0
1583510179.121,51.758,37.109,38.574,2.441,-25.879,0
1583510179.125,50.293,38.574,38.574,-24.902,-27.344,0
1583510179.129,36.621,37.109,38.574,34.668,23.926,0
1583510179.133,33.691,36.133,34.668,78.613,38.086,0
1583510179.137,33.203,34.180,32.715,28.809,32.715,0
1583510179.141,34.668,34.668,29.297,-26.367,98.145,0
1583510179.145,48.340,35.156,29.297,20.020,64.453,0
1583510179.148,41.016,35.645,34.668,62.012,31.738,0
1583510179.152,36.133,33.691,37.598,46.387,68.848,0
1583510179.156,17.578,29.297,43.945,-22.461,48.340,0
1583510179.160,8.789,28.809,41.504,-30.762,39.551,0
1583510179.164,28.809,21.973,43.457,62.012,43.457,0
1583510179.161,22.461,16.602,48.828,67.383,43.457,0
1583510179.165,16.602,17.090,44.434,10.742,62.988,0
1583510179.169,12.207,17.578,45.898,-7.812,46.875,0
1583510179.173,7.324,17.578,46.387,40.039,29.297,0
1583510179.177,4.395,17.578,41.016,79.590,50.781,0
1583510179.181,0.488,19.043,40.039,28.809,31.250,0
1583510179.185,0.488,20.996,42.969,-7.812,9.766,0
1583510179.188,0.488,21.484,40.527,27.344,47.363,0
1583510179.192,-3.906,21.484,37.109,63.965,86.914,0
1583510179.196,-7.812,19.531,38.574,40.527,62.988,0
1583510179.200,-10.742,20.020,40.039,-23.438,33.203,0
1583510179.204,-12.207,22.461,36.621,6.836,9.277,0
1583510179.201,-17.090,22.949,38.086,61.035,-4.395,0
1583510179.205,-18.066,25.391,39.062,43.457,24.902,0
1583510179.209,-15.625,27.344,38.086,-1.465,-7.812,0
1583510179.213,-15.137,28.809,39.062,7.324,-0.488,0
1583510179.217,-17.090,29.785,38.086,76.660,56.641,0
1583510179.221,-18.555,29.785,36.621,78.125,63.477,0
1583510179.225,-9.766,30.762,36.621,13.672,41.504,0
1583510179.228,-10.254,31.738,34.668,9.277,33.691,0
1583510179.232,-15.625,32.715,35.645,64.453,-8.301,0
1583510179.236,-12.695,30.762,36.133,104.492,-0.977,0
1583510179.240,-14.648,29.297,34.668,50.781,57.617,0
1583510179.244,-17.578,31.250,33.203,-1.465,38.574,0
1583510179.261,-17.578,29.785,31.738,60.547,-18.066,0
1583510179.265,-10.742,25.879,33.203,109.375,-19.531,0
1583510179.269,-0.977,29.785,33.691,83.984,2.930,0
1583510179.273,-3.906,33.203,33.203,14.160,-33.203,0
1583510179.277,-5.371,34.668,33.691,34.180,-6.836,0
1583510179.281,0.000,35.645,33.691,122.559,62.988,0
1583510179.285,5.859,36.133,31.738,102.051,14.648,0
1583510179.288,8.301,34.180,31.738,40.039,16.602,0
1583510179.292,2.930,33.203,33.203,29.297,83.496,0
1583510179.296,-1.953,35.156,32.227,75.684,48.340,0
1583510179.300,0.000,33.691,33.691,102.051,3.906,0
1583510179.304,2.441,31.738,35.156,40.527,7.812,0
1583510179.301,9.766,32.715,33.203,12.207,-24.902,0
1583510179.305,8.301,32.715,33.691,50.293,-50.293,0
1583510179.309,8.301,33.203,35.156,81.543,-10.254,0
1583510179.313,19.531,33.203,34.668,64.941,13.184,0
1583510179.317,19.043,31.250,35.156,11.230,12.695,0
1583510179.321,19.043,33.203,34.180,45.898,56.641,0
1583510179.325,22.949,32.715,34.180,88.867,55.664,0
1583510179.328,21.484,32.715,34.180,53.223,14.160,0
1583510179.332,25.879,35.156,35.156,14.160,7.812,0
1583510179.336,25.391,35.645,34.180,36.621,50.781,0
1583510179.340,22.461,33.203,36.133,92.285,77.637,0
1583510179.344,30.273,34.668,36.133,74.219,32.227,0
1583510179.341,31.738,35.645,37.109,11.719,32.227,0
1583510179.345,25.391,31.250,36.133,9.277,9.766,0
1583510179.349,24.414,33.691,32.715,59.082,-35.645,0
1583510179.353,29.785,35.645,31.738,83.984,-7.812,0
1583510179.357,27.832,33.203,31.738,22.949,28.320,0
1583510179.361,25.879,33.691,32.227,-19.043,29.785,0
1583510179.365,27.832,32.227,31.738,40.039,-3.418,0
1583510179.368,20.996,26.855,33.691,75.195,17.090,0
1583510179.372,17.578,27.832,35.645,34.668,30.762,0
1583510179.376,20.996,30.762,34.180,-24.414,-3.418,0
1583510179.380,21.484,27.344,35.645,-1.465,27.344,0
1583510179.384,26.855,30.273,33.691,66.406,-0.977,0
1583510179.401,29.297,32.715,33.691,54.199,-40.039,0
1583510179.405,33.691,30.762,36.621,0.488,18.066,0
1583510179.409,33.691,30.762,38.086,-4.883,38.086,0
1583510179.413,35.645,32.715,38.086,59.082,-2.441,0
1583510179.417,44.922,33.691,35.645,80.566,-18.066,0
1583510179.421,44.922,30.762,38.086,19.043,2.930,0
1583510179.425,42.480,30.273,39.062,-1.953,36.133,0
1583510179.428,45.898,30.273,36.133,43.945,61.035,0
1583510179.432,47.852,31.738,35.645,74.219,56.641,0
1583510179.436,46.875,31.250,37.109,30.762,34.668,0
1583510179.440,39.062,29.297,36.133,-15.625,23.926,0
1583510179.444,33.203,30.273,34.180,29.297,44.922,0
1583510179.441,28.320,31.250,35.645,55.176,20.020,0
1583510179.445,20.996,30.273,37.598,24.414,41.992,0
1583510179.449,16.602,29.785,38.574,-8.301,65.918,0
1583510179.453,9.766,30.762,39.551,16.113,41.016,0
1583510179.457,7.812,31.250,41.016,73.730,61.523,0
1583510179.461,11.230,30.762,41.504,52.246,93.750,0
1583510179.465,11.719,34.180,39.551,-2.930,82.031,0
1583510179.468,20.020,34.668,39.551,9.277,66.406,0
1583510179.472,22.461,32.227,38.574,73.242,54.199,0
1583510179.476,16.113,31.250,39.062,72.266,43.457,0
1583510179.480,18.066,32.227,38.574,-8.789,51.270,0
1583510179.484,23.926,33.691,33.691,-22.949,79.590,0
1583510179.481,24.902,38.086,35.156,41.992,45.410,0
1583510179.485,26.367,38.086,39.062,70.312,-11.230,0
1583510179.489,23.438,35.645,39.551,25.391,7.812,0
1583510179.493,16.602,36.621,39.062,-21.973,30.273,0
1583510179.497,8.301,34.668,39.551,33.691,35.156,0
1583510179.501,0.000,33.203,39.062,90.820,28.320,0
1583510179.505,8.789,33.691,37.598,59.570,26.367,0
1583510179.508,15.625,34.668,37.598,-3.418,43.457,0
1583510179.512,19.531,36.621,37.109,-5.859,29.785,0
1583510179.516,36.621,36.133,35.156,59.570,20.508,0
1583510179.520,49.316,36.133,34.180,58.594,3.906,0
1583510179.524,34.180,33.203,39.551,-24.902,-19.043,0
1583510179.541,13.672,29.785,43.945,-44.922,0.488,0
1583510179.545,21.484,28.809,42.480,18.555,45.898,0
1583510179.549,38.574,24.902,43.457,56.152,29.297,0
1583510179.553,31.250,24.902,41.016,5.371,-33.691,0
1583510179.557,26.367,27.344,38.086,-17.090,29.785,0
1583510179.561,33.203,24.414,41.016,49.316,141.602,0
1583510179.565,32.227,26.855,41.016,66.406,52.246,0
1583510179.568,34.180,26.855,40.039,32.227,-10.742,0
1583510179.572,33.203,23.438,41.504,5.859,61.035,0
1583510179.576,41.992,25.391,40.039,35.645,57.617,0
1583510179.580,52.734,27.344,37.598,83.008,57.129,0
1583510179.584,51.270,27.832,35.645,48.340,67.871,0
1583510179.581,54.199,28.809,35.156,-11.230,28.809,0
1583510179.585,51.758,28.809,35.645,3.906,-36.133,0
1583510179.589,49.316,28.320,38.574,65.918,12.207,0
1583510179.593,56.152,30.273,39.062,61.523,25.879,0
1583510179.597,53.711,33.691,36.133,-3.906,42.480,0
1583510179.601,41.992,34.668,36.133,-17.578,8.789,0
1583510179.605,42.969,31.250,35.156,44.434,-20.020,0
1583510179.608,46.875,30.762,33.691,64.453,53.711,0
1583510179.612,42.969,30.273,34.180,11.230,71.777,0
1583510179.616,40.527,30.762,38.086,-24.902,66.895,0
1583510179.620,40.527,35.156,38.574,26.367,42.480,0
1583510179.624,40.039,34.668,35.645,69.336,25.879,0
1583510179.621,37.598,31.250,35.156,21.484,-2.930,0
1583510179.625,37.109,33.203,37.598,-17.578,26.855,0
1583510179.629,30.273,33.203,37.598,18.066,57.129,0
1583510179.633,27.832,34.180,34.668,71.777,12.207,0
1583510179.637,30.273,36.621,34.180,61.523,3.906,0
1583510179.641,27.344,32.715,36.621,6.348,8.789,0
1583510179.645,25.391,33.691,37.109,14.648,55.664,0
1583510179.648,14.648,37.109,37.109,62.988,57.129,0
1583510179.652,9.766,34.668,38.086,69.824,-5.859,0
1583510179.656,18.066,34.180,37.598,18.066,-28.320,0
1583510179.660,16.113,35.645,37.109,4.883,-24.414,0
1583510179.664,12.207,36.133,39.062,52.734,-35.645,0
1583510179.681,15.137,34.180,40.527,62.012,-29.297,0
1583510179.685,18.555,34.668,37.109,24.414,0.000,0
1583510179.689,12.207,35.645,35.645,-9.766,5.371,0
1583510179.693,-1.465,34.180,38.086,37.109,-5.371,0
1583510179.697,-5.859,34.668,37.598,82.031,-0.488,0
1583510179.701,-7.812,35.645,35.156,41.992,1.953,0
1583510179.705,-11.230,35.156,35.156,0.488,45.410,0
1583510179.708,-5.371,35.156,33.203,35.645,39.551,0
1583510179.712,-0.488,34.668,33.691,103.516,14.648,0
1583510179.716,-2.441,32.227,37.598,85.938,37.598,0
1583510179.720,-4.883,33.203,37.109,21.973,53.223,0
1583510179.724,-3.906,33.691,37.598,44.434,48.340,0
1583510179.721,0.977,36.133,39.551,109.375,69.336,0
1583510179.725,0.000,37.598,36.621,115.234,81.543,0
1583510179.729,-3.418,34.668,37.109,34.180,15.137,0
1583510179.733,-3.418,33.691,36.621,-8.301,5.371,0
1583510179.737,-1.465,32.715,34.180,54.199,17.578,0
1583510179.741,-3.906,31.250,34.180,75.195,9.277,0
1583510179.745,-2.441,33.691,32.227,26.855,2.441,0
1583510179.748,2.930,36.621,33.203,-26.367,43.457,0
1583510179.752,-0.977,35.156,34.180,-0.488,62.988,0
1583510179.756,-7.812,36.621,33.203,49.805,40.527,0
1583510179.760,-1.953,36.133,37.598,10.742,51.758,0
1583510179.764,-1.953,35.156,39.062,-43.945,-39.062,0
1583510179.761,-7.812,36.133,36.133,-35.645,-72.266,0
1583510179.765,-7.324,35.156,36.133,20.996,8.301,0
1583510179.769,-3.906,34.180,37.109,25.391,-11.230,0
1583510179.773,0.977,34.668,36.133,-40.039,-19.531,0
1583510179.777,0.977,33.203,35.645,-38.086,-0.488,0
1583510179.781,6.348,31.738,39.062,8.789,-12.207,0
1583510179.785,15.137,29.785,41.016,0.977,-27.832,0
1583510179.788,26.855,27.832,41.016,-32.715,-20.996,0
1583510179.792,35.156,35.645,39.551,-54.199,10.254,0
1583510179.796,8.789,45.898,39.551,-25.391,29.297,0
1583510179.800,10.742,42.969,35.156,-3.906,38.086,0
1583510179.804,29.297,43.457,27.832,-40.039,32.715,0
1583510179.821,18.066,44.434,31.250,-71.289,15.137,0
1583510179.825,22.461,40.527,29.297,-24.902,43.945,0
1583510179.829,10.742,45.898,23.926,27.832,62.988,0
1583510179.833,-0.977,47.852,25.391,-11.719,59.082,0
1583510179.837,14.160,43.457,27.832,-58.105,61.523,0
1583510179.841,16.602,43.945,30.273,-27.344,-10.254,0
1583510179.845,21.973,45.898,29.297,35.645,-25.391,0
1583510179.848,27.832,42.969,28.320,42.480,-13.672,0
1583510179.852,26.855,42.480,28.320,-30.273,-52.734,0
1583510179.856,26.367,44.434,26.855,-47.363,-21.973,0
1583510179.860,27.344,44.434,26.855,26.367,33.203,0
1583510179.864,32.715,44.434,25.879,41.992,43.945,0
1583510179.861,37.598,45.410,23.926,-4.883,76.172,0
1583510179.865,29.785,45.898,25.879,-49.805,70.312,0
1583510179.869,26.367,43.457,25.879,-14.160,68.359,0
1583510179.873,25.391,41.504,25.879,40.527,27.344,0
1583510179.877,20.508,42.969,25.879,2.441,18.555,0
1583510179.881,20.996,41.992,26.855,-43.457,27.832,0
1583510179.885,23.926,44.922,27.832,-18.555,30.273,0
1583510179.888,28.809,47.852,29.297,34.180,77.148,0
1583510179.892,28.320,46.387,31.250,27.344,75.195,0
1583510179.896,18.066,44.434,31.250,-39.062,39.062,0
1583510179.900,16.602,42.480,32.227,-16.113,92.773,0
1583510179.904,20.508,42.480,34.668,41.504,68.359,0
1583510179.901,22.461,42.969,35.645,41.504,5.371,0
1583510179.905,26.855,43.457,33.691,13.184,38.086,0
1583510179.909,25.391,42.969,33.691,0.977,15.137,0
1583510179.913,30.273,41.016,34.180,67.871,23.438,0
1583510179.917,39.062,40.039,31.250,84.961,102.051,0
1583510179.921,36.133,36.133,30.273,35.645,43.945,0
1583510179.925,33.691,35.156,30.273,16.113,-22.461,0
1583510179.928,40.527,39.551,30.273,55.664,40.527,0
1583510179.932,46.875,38.086,32.715,98.633,46.875,0
1583510179.936,49.805,39.062,32.227,51.270,32.227,0
1583510179.940,52.246,40.527,31.738,4.883,29.785,0
1583510179.944,50.293,36.621,33.691,41.016,-43.457,0
1583510179.961,49.316,35.645,33.203,91.797,-22.949,0
1583510179.965,53.711,37.109,31.738,78.125,7.324,0
1583510179.969,56.152,38.086,30.762,10.742,72.754,0
1583510179.973,51.758,38.086,31.250,11.230,111.816,0
1583510179.977,47.852,37.109,33.691,68.359,46.387,0
1583510179.981,53.223,38.086,36.133,70.801,22.461,0
1583510179.985,61.523,37.109,34.668,13.672,25.391,0
1583510179.988,62.988,35.156,34.668,-20.020,38.574,0
1583510179.992,62.988,34.668,36.621,36.133,34.668,0
1583510179.996,60.059,34.180,37.109,75.195,-41.504,0
1583510180.000,59.082,36.621,34.180,25.879,0.000,0
1583510180.004,59.082,35.645,33.691,-14.648,67.871,0
1583510180.001,56.152,34.180,33.203,22.461,45.898,0
1583510180.005,57.129,34.668,32.227,75.684,73.730,0
1583510180.009,61.035,34.180,31.738,51.758,82.031,0
1583510180.013,57.129,35.156,31.250,-6.836,52.246,0
1583510180.017,60.547,36.133,34.668,18.555,55.664,0
1583510180.021,66.895,38.086,34.668,68.359,15.625,0
1583510180.025,64.453,37.598,33.691,62.012,10.742,0
1583510180.028,65.430,34.668,33.691,20.020,56.641,0
1583510180.032,56.641,34.180,33.691,10.254,41.504,0
1583510180.036,53.223,35.156,32.715,58.105,-30.762,0
1583510180.040,57.129,35.156,32.227,66.895,-42.480,0
1583510180.044,48.340,33.691,33.691,17.578,7.812,0
1583510180.061,44.922,32.227,31.738,-1.953,25.391,0
1583510180.065,40.527,32.227,31.738,44.922,34.668,0
1583510180.069,35.645,30.273,35.156,79.102,94.238,0
1583510180.073,38.086,28.320,35.156,24.902,72.754,0
1583510180.077,28.809,29.297,34.668,-21.973,2.930,0
1583510180.081,20.996,32.715,35.156,22.949,3.418,0
1583510180.085,18.555,33.203,36.621,75.195,10.742,0
1583510180.088,15.137,33.691,36.133,49.316,28.320,0
1583510180.092,12.207,33.691,35.645,-18.066,27.344,0
1583510180.096,12.207,31.250,36.133,3.906,-29.785,0
1583510180.100,15.625,30.762,32.227,71.289,-20.996,0
1583510180.104,10.742,30.273,32.715,65.430,1.465,0
1583510180.101,15.137,28.809,33.203,17.090,15.625,0
1583510180.105,20.020,30.273,25.391,7.324,20.996,0
1583510180.109,6.348,31.250,26.367,61.035,34.180,0
1583510180.113,-9.277,33.691,29.297,77.148,89.844,0
1583510180.117,-14.160,36.133,25.879,12.695,48.340,0
1583510180.121,-2.930,33.691,26.855,-11.230,-6.348,0
1583510180.125,15.625,36.133,26.367,49.805,29.297,0
1583510180.128,16.602,39.062,25.879,89.355,34.180,0
1583510180.132,13.184,36.133,26.367,55.664,1.465,0
1583510180.136,15.137,37.598,23.438,17.578,56.641,0
1583510180.140,2.930,36.621,25.879,36.621,61.035,0
1583510180.144,5.371,34.668,26.367,76.172,-24.414,0
1583510180.141,14.160,34.668,23.926,76.172,10.254,0
1583510180.145,5.859,31.738,27.832,24.414,63.965,0
1583510180.149,-1.953,32.227,26.367,25.879,46.875,0
1583510180.153,1.953,36.133,24.902,83.984,4.395,0
1583510180.157,6.348,34.180,28.809,79.590,-24.902,0
1583510180.161,4.395,32.715,29.297,34.180,-10.742,0
1583510180.165,0.488,34.180,28.809,28.320,62.012,0
1583510180.168,2.441,33.203,31.250,75.684,39.551,0
1583510180.172,4.395,33.203,32.715,87.402,21.484,0
1583510180.176,9.277,33.203,32.227,18.555,36.621,0
1583510180.180,13.184,32.227,32.715,-7.812,41.016,0
1583510180.184,9.277,34.668,31.738,40.039,39.062,0
1583510180.201,7.324,34.180,28.809,69.824,-14.160,0
1583510180.205,9.277,35.156,27.832,30.273,-3.906,0
1583510180.209,7.324,37.109,28.320,-24.414,50.781,0
1583510180.213,6.836,35.645,26.855,15.137,20.508,0
1583510180.217,9.766,36.133,26.367,80.566,23.438,0
1583510180.221,13.184,34.180,29.297,73.730,57.617,0
1583510180.225,17.578,34.180,29.297,6.348,22.949,0
1583510180.228,19.531,35.156,27.832,-5.859,-16.113,0
1583510180.232,22.461,33.203,28.809,72.754,-8.789,0
1583510180.236,29.297,32.715,30.273,86.914,12.695,0
1583510180.240,36.133,31.250,32.227,33.203,41.992,0
1583510180.244,34.668,29.297,34.180,1.953,55.664,0
1583510180.241,39.551,30.762,32.715,36.621,52.246,0
1583510180.245,38.086,31.250,34.180,74.707,25.391,0
1583510180.249,31.250,30.273,35.156,32.715,46.875,0
1583510180.253,29.785,30.762,36.133,-7.324,32.227,0
1583510180.257,20.996,33.691,37.109,21.973,11.230,0
1583510180.261,14.160,33.691,38.086,63.965,41.016,0
1583510180.265,12.695,33.691,39.551,62.500,50.781,0
1583510180.268,9.277,35.156,37.598,17.090,32.227,0
1583510180.272,6.836,33.691,36.133,43.457,18.555,0
1583510180.276,11.719,33.691,36.621,97.656,63.477,0
1583510180.280,11.719,38.086,37.598,73.730,51.758,0
1583510180.284,15.625,39.062,35.156,24.414,-10.254,0
1583510180.281,19.043,38.086,34.668,24.902,-7.812,0
1583510180.285,21.973,40.039,37.598,88.867,42.969,0
1583510180.289,30.273,41.504,36.621,88.379,65.430,0
1583510180.293,34.180,40.527,37.598,19.531,82.031,0
1583510180.297,31.250,40.039,38.574,9.766,46.875,0
1583510180.301,19.531,40.039,37.598,58.105,26.855,0
1583510180.305,25.391,39.551,37.598,84.473,78.613,0
1583510180.308,32.227,39.062,36.621,18.555,83.496,0
1583510180.312,21.973,39.551,36.133,-36.133,45.898,0
1583510180.316,16.602,41.504,36.133,23.438,44.434,0
1583510180.320,14.160,40.527,36.621,66.406,3.906,0
1583510180.324,14.648,39.551,35.645,41.016,2.441,0
1583510180.341,15.625,41.016,35.156,-22.461,37.109,0
1583510180.345,16.602,39.551,37.598,-15.137,-8.301,0
1583510180.349,28.320,38.086,37.109,54.688,-18.555,0
1583510180.353,42.480,37.109,35.645,38.574,-6.348,0
1583510180.357,52.734,36.621,37.598,-28.320,-2.441,0
1583510180.361,51.270,37.109,38.574,-46.875,28.320,0
1583510180.365,54.688,40.039,37.598,-1.953,7.812,0
1583510180.368,64.453,41.016,39.551,32.227,-16.113,0
1583510180.372,63.965,39.062,41.016,-16.113,42.480,0
1583510180.376,60.547,39.062,40.039,-30.762,71.777,0
1583510180.380,61.523,38.086,36.621,20.508,13.672,0
1583510180.384,63.477,36.133,35.156,56.152,-65.430,0
1583510180.382,63.965,35.645,37.109,48.828,-12.207,0
1583510180.386,61.035,36.621,34.668,0.977,26.855,0
1583510180.390,64.453,36.133,33.691,34.668,30.762,0
1583510180.394,73.242,32.715,35.645,71.777,54.688,0
1583510180.398,78.125,31.250,36.133,36.621,64.453,0
1583510180.402,79.102,31.250,35.645,-5.371,51.758,0
1583510180.406,83.008,31.250,35.645,-1.953,-7.324,0
1583510180.409,83.008,30.273,35.645,58.105,30.273,0
1583510180.413,87.402,31.738,33.691,49.805,92.773,0
1583510180.417,88.379,32.715,32.227,-17.090,35.156,0
1583510180.421,83.008,33.691,31.738,-15.137,5.859,0
1583510180.425,84.473,32.227,34.668,39.062,-0.977,0
1583510180.421,83.008,30.273,35.156,63.477,-31.250,0
1583510180.425,84.961,33.203,30.762,5.859,-0.977,0
1583510180.429,87.891,31.738,31.738,-41.504,-12.207,0
1583510180.433,88.379,32.227,33.691,21.973,27.832,0
1583510180.437,84.961,36.133,30.273,62.988,93.750,0
1583510180.441,76.660,37.109,27.832,21.973,61.523,0
1583510180.445,77.148,37.598,31.250,-46.875,11.719,0
1583510180.448,81.543,37.598,32.715,-16.602,17.578,0
1583510180.452,83.496,36.621,30.762,60.059,16.602,0
1583510180.456,83.496,36.621,32.227,41.504,-7.324,0
1583510180.460,77.637,36.621,33.691,-18.066,-15.137,0
1583510180.464,63.965,35.645,29.785,-19.043,-18.066,0
1583510180.481,58.105,36.133,26.855,47.363,-23.438,0
1583510180.485,53.711,37.109,29.785,64.453,47.852,0
1583510180.489,44.922,37.598,29.297,1.953,44.922,0
1583510180.493,38.574,36.621,29.297,-14.648,29.297,0
1583510180.497,36.133,34.668,31.738,31.250,57.129,0
1583510180.501,30.762,33.691,32.227,59.570,23.438,0
1583510180.505,24.902,34.668,31.250,23.438,38.086,0
1583510180.508,20.996,34.668,28.809,-22.949,48.828,0
1583510180.512,15.137,33.203,30.273,23.438,71.289,0
1583510180.516,10.742,33.203,30.762,51.270,71.289,0
1583510180.520,7.812,32.715,29.785,14.160,-1.465,0
1583510180.524,2.930,34.180,30.273,-25.391,6.348,0
1583510180.521,3.418,35.645,29.297,-5.371,45.898,0
1583510180.525,17.578,34.180,29.297,67.871,40.039,0
1583510180.529,20.996,31.250,31.250,57.129,16.113,0
1583510180.533,-13.184,29.785,36.621,-23.438,-27.832,0
1583510180.537,-28.809,27.832,38.086,-26.367,-3.418,0
1583510180.541,-11.230,22.949,39.551,43.457,13.184,0
1583510180.545,-8.301,22.949,40.527,57.617,37.598,0
1583510180.548,-11.230,20.020,41.504,-0.488,67.383,0
1583510180.552,-25.391,14.160,43.457,-25.879,60.059,0
1583510180.556,-31.250,14.648,39.551,25.879,56.641,0
1583510180.560,-15.137,12.695,39.062,56.641,-15.625,0
1583510180.564,-4.395,16.113,39.551,16.113,-46.387,0
1583510180.561,-5.859,18.066,40.527,-34.668,-1.465,0
1583510180.565,-3.906,18.555,40.039,4.395,-4.395,0
1583510180.569,0.000,21.973,39.062,66.406,39.062,0
1583510180.573,2.441,24.902,36.621,38.574,62.500,0
1583510180.577,1.953,24.414,36.133,-15.625,37.598,0
1583510180.581,-6.836,24.414,37.598,0.488,47.363,0
1583510180.585,-7.324,25.391,37.598,61.523,30.273,0
1583510180.588,-2.930,25.391,37.598,62.500,10.254,0
1583510180.592,-0.488,25.879,39.062,-2.930,53.223,0
1583510180.596,10.254,26.367,39.062,-22.949,40.527,0
1583510180.600,18.066,29.297,36.133,26.367,46.875,0
1583510180.604,21.973,31.250,34.180,40.527,11.719,0
1583510180.621,23.926,30.762,33.691,-11.230,43.945,0
1583510180.625,25.391,30.273,35.645,-40.527,54.199,0
1583510180.629,28.809,29.785,34.180,12.695,28.809,0
1583510180.633,27.344,29.297,33.203,57.129,74.707,0
1583510180.637,29.297,30.762,33.691,37.109,84.473,0
1583510180.641,27.832,31.738,32.227,-6.836,41.992,0
1583510180.645,20.020,28.320,32.227,10.742,-33.203,0
1583510180.648,22.461,29.297,31.738,62.988,-40.527,0
1583510180.652,25.879,29.785,30.273,44.434,3.418,0
1583510180.656,22.461,27.344,28.809,-6.348,4.883,0
1583510180.660,20.508,28.320,29.785,8.789,-15.625,0
1583510180.664,16.113,27.344,32.715,66.406,12.695,0
1583510180.661,23.438,28.809,34.180,66.406,45.410,0
1583510180.665,28.809,29.785,32.227,1.953,25.391,0
1583510180.669,26.855,32.715,33.203,-4.395,28.320,0
1583510180.673,31.250,33.691,33.691,62.988,53.223,0
1583510180.677,29.785,32.715,31.250,74.707,24.902,0
1583510180.681,29.297,35.645,27.344,13.672,0.977,0
1583510180.685,28.809,36.133,27.832,-30.273,-32.227,0
1583510180.688,30.273,36.133,33.691,17.090,-14.648,0
1583510180.692,32.227,38.574,30.273,63.477,22.461,0
1583510180.696,26.367,34.668,30.762,26.367,29.785,0
1583510180.700,24.902,28.809,30.273,-31.250,51.270,0
1583510180.704,41.016,29.785,26.855,2.930,56.641,0
1583510180.701,34.180,28.320,36.621,65.918,27.344,0
1583510180.705,12.207,30.273,40.527,22.461,-2.441,0
1583510180.709,19.043,28.320,39.551,-37.598,22.461,0
1583510180.713,25.879,25.391,39.551,-27.832,0.488,0
1583510180.717,23.438,25.879,41.016,27.344,-20.996,0
1583510180.721,23.926,24.414,44.922,49.805,28.320,0
1583510180.725,25.879,20.020,43.945,-6.836,24.902,0
1583510180.728,22.461,16.113,41.504,-20.996,19.043,0
1583510180.732,24.902,16.602,45.410,31.250,30.273,0
1583510180.736,30.762,17.090,45.410,46.387,46.875,0
1583510180.740,28.320,17.578,41.016,13.184,2.441,0
1583510180.744,31.250,19.531,41.504,-11.719,31.738,0
1583510180.761,32.227,20.020,41.016,32.227,78.125,0
1583510180.765,34.668,18.555,40.039,64.453,54.199,0
1583510180.769,40.527,22.461,37.109,27.344,-4.395,0
1583510180.773,42.480,25.879,36.133,-9.766,10.254,0
1583510180.777,46.387,24.902,35.645,12.207,57.617,0
1583510180.781,45.410,24.414,35.645,70.312,18.066,0
1583510180.785,41.016,25.391,37.109,44.922,9.277,0
1583510180.788,43.457,27.344,37.598,-16.602,59.570,0
1583510180.792,43.457,25.879,39.551,5.371,47.363,0
1583510180.796,41.992,24.414,39.062,57.129,-19.043,0
1583510180.800,43.457,24.414,36.621,76.660,66.895,0
1583510180.804,40.527,26.855,37.109,4.395,92.773,0
1583510180.801,39.062,26.855,40.039,-34.180,20.020,0
1583510180.805,44.434,27.832,40.039,49.805,68.359,0
1583510180.809,50.293,31.250,38.086,74.219,4.395,0
1583510180.813,53.223,31.250,37.109,31.250,-50.293,0
1583510180.817,45.898,31.738,39.062,-15.137,39.551,0
1583510180.821,39.551,31.738,39.551,14.648,68.359,0
1583510180.825,44.434,30.273,36.133,81.055,28.320,0
1583510180.828,50.781,32.227,34.668,55.176,41.992,0
1583510180.832,52.246,33.203,33.691,6.348,81.055,0
1583510180.836,41.016,32.715,32.227,7.812,97.656,0
1583510180.840,36.133,34.180,32.227,53.223,93.750,0
1583510180.844,41.504,33.203,34.180,68.359,39.062,0
1583510180.841,38.574,31.738,36.133,5.859,-29.785,0
1583510180.845,36.133,33.691,35.156,1.953,-23.926,0
1583510180.849,36.621,36.133,34.668,57.129,51.270,0
1583510180.853,41.016,37.598,37.109,64.941,48.828,0
1583510180.857,46.387,36.621,36.133,28.809,4.883,0
1583510180.861,43.945,35.645,37.109,-1.465,-18.066,0
1583510180.865,37.598,34.668,39.551,56.641,-0.977,0
1583510180.868,31.738,36.133,38.574,81.055,45.410,0
1583510180.872,26.855,34.180,38.574,19.531,20.996,0
1583510180.876,24.414,31.738,38.574,-7.812,-13.184,0
1583510180.880,21.484,33.203,37.109,30.762,12.207,0
1583510180.884,23.438,30.762,35.156,79.590,8.789,0
1583510180.901,21.973,30.273,34.668,45.410,19.531,0
1583510180.905,16.602,32.715,33.691,-13.672,29.785,0
1583510180.909,15.137,31.738,32.715,18.066,36.621,0
1583510180.913,15.137,32.227,34.668,73.730,34.180,0
1583510180.917,22.949,34.668,37.109,78.613,28.320,0
1583510180.921,25.391,36.621,34.180,20.020,7.812,0
1583510180.925,24.902,34.668,30.273,0.000,17.090,0
1583510180.928,27.344,33.691,28.809,67.383,32.227,0
1583510180.932,22.461,34.668,33.203,86.914,50.781,0
1583510180.936,21.973,34.180,35.156,32.227,-39.062,0
1583510180.940,18.066,31.738,33.691,-11.719,-75.684,0
1583510180.944,8.789,29.297,36.133,31.250,34.180,0
1583510180.941,5.859,31.738,34.180,82.031,24.414,0
1583510180.945,2.930,33.203,30.762,37.598,25.879,0
1583510180.949,1.953,32.227,29.297,-7.812,34.180,0
1583510180.953,1.953,28.320,30.273,16.113,61.523,0
1583510180.957,1.953,26.855,33.691,61.523,54.199,0
1583510180.961,16.602,23.438,34.180,78.125,65.430,0
1583510180.965,18.555,28.320,27.832,23.926,71.289,0
1583510180.968,-11.230,37.109,27.344,-12.695,-44.922,0
1583510180.972,-15.137,39.062,30.273,29.785,-43.945,0
1583510180.976,-1.953,40.527,26.855,54.199,29.785,0
1583510180.980,6.836,42.969,23.438,16.602,60.059,0
1583510180.984,8.789,47.363,19.043,-0.977,32.227,0
1583510180.981,-11.719,51.270,19.043,40.039,45.410,0
1583510180.985,-17.578,49.316,21.484,42.969,64.941,0
1583510180.989,-9.277,51.270,19.531,1.465,41.992,0
1583510180.993,-9.277,55.664,16.602,-25.879,68.359,0
1583510180.997,0.000,54.688,17.090,14.648,37.109,0
1583510181.001,3.906,52.246,20.508,62.012,-4.883,0
1583510181.005,5.371,48.340,22.949,14.648,10.254,0
1583510181.008,5.371,48.828,25.879,-40.039,24.902,0
1583510181.012,5.371,48.828,26.855,-4.883,26.855,0
1583510181.016,13.184,47.363,27.344,57.129,37.109,0
1583510181.020,19.531,50.293,26.855,51.270,51.270,0
1583510181.024,18.066,50.781,23.438,-20.508,16.602,0
1583510181.041,13.184,48.828,23.438,-15.137,0.977,0
1583510181.045,18.066,46.387,22.461,59.082,12.207,0
1583510181.049,19.531,46.387,23.438,69.824,54.199,0
1583510181.053,16.602,45.898,26.367,15.137,35.156,0
1583510181.057,18.066,46.875,25.391,-14.648,24.902,0
1583510181.061,16.113,45.410,28.809,48.340,59.082,0
1583510181.065,13.184,42.480,29.785,81.543,5.371,0
1583510181.068,20.508,41.992,27.344,36.133,-1.953,0
1583510181.072,24.414,41.504,27.344,4.395,75.195,0
1583510181.076,22.949,41.504,29.297,26.855,64.453,0
1583510181.080,20.020,41.992,26.855,68.848,-7.324,0
1583510181.084,13.184,41.504,25.879,46.387,-9.766,0
1583510181.081,3.906,41.504,26.855,-13.672,33.203,0
1583510181.085,-0.977,41.992,23.926,4.395,50.781,0
1583510181.089,-3.906,40.039,26.367,69.336,98.633,0
1583510181.093,-5.371,40.039,27.344,60.547,7.324,0
1583510181.097,-0.977,40.527,25.391,9.277,-2.441,0
1583510181.101,4.883,40.039,27.832,5.371,60.059,0
1583510181.105,8.301,38.574,29.297,62.500,-8.789,0
1583510181.108,11.719,38.574,26.855,79.590,-11.719,0
1583510181.112,15.625,38.086,30.762,32.227,-24.414,0
1583510181.116,17.090,37.598,32.715,-0.977,-53.711,0
1583510181.120,23.438,39.062,29.297,42.480,-2.441,0
1583510181.124,31.250,39.062,30.273,84.473,56.152,0
1583510181.121,35.645,37.598,33.203,33.691,54.199,0
1583510181.125,35.156,36.133,33.691,-13.672,14.648,0
1583510181.129,27.832,34.668,33.691,28.809,16.113,0
1583510181.133,24.902,33.203,31.738,89.844,58.594,0
1583510181.137,23.926,35.156,29.297,70.312,40.527,0
1583510181.141,16.602,35.645,30.273,6.348,10.254,0
1583510181.145,16.602,37.598,32.715,31.250,-16.602,0
1583510181.148,22.949,38.574,34.180,98.145,7.812,0
1583510181.152,31.250,37.598,31.738,83.984,48.828,0
1583510181.156,37.109,37.598,32.715,19.043,22.461,0
1583510181.160,39.062,36.133,36.133,-1.953,18.555,0
1583510181.164,46.387,35.156,34.180,49.316,8.301,0
1583510181.181,51.270,34.668,31.250,64.453,6.348,0
1583510181.185,55.176,33.691,30.762,17.090,54.199,0
1583510181.189,54.688,33.203,32.715,-7.324,80.078,0
1583510181.193,52.246,33.203,34.180,45.410,75.195,0
1583510181.197,61.035,32.227,35.156,104.004,69.824,0
1583510181.201,65.430,34.180,34.668,79.102,29.785,0
1583510181.205,56.152,35.156,35.645,32.227,26.855,0
1583510181.208,53.223,32.715,36.133,67.871,38.574,0
1583510181.212,53.711,31.738,33.203,119.141,57.617,0
1583510181.216,54.688,29.785,32.227,93.262,58.105,0
1583510181.220,57.617,31.250,34.668,26.855,43.457,0
1583510181.224,58.105,34.668,33.691,20.996,0.488,0
1583510181.221,63.965,34.668,31.738,74.219,-20.508,0
1583510181.225,69.336,34.668,33.203,68.359,56.641,0
1583510181.229,68.359,35.156,35.156,14.648,72.754,0
1583510181.233,71.289,31.250,34.180,-2.930,-0.977,0
1583510181.237,81.543,31.250,34.180,64.453,-4.395,0
1583510181.241,57.129,36.133,34.180,64.941,61.035,0
1583510181.245,37.598,38.574,32.715,-23.926,58.105,0
1583510181.248,47.363,40.527,28.320,-38.086,10.254,0
1583510181.252,42.969,39.551,31.250,10.254,-33.203,0
1583510181.256,38.086,39.062,35.156,41.016,-25.879,0
1583510181.260,45.410,42.480,30.273,3.906,44.922,0
1583510181.264,49.316,44.434,27.344,-47.852,61.523,0
1583510181.261,43.457,41.992,27.344,-8.301,11.230,0
1583510181.265,38.574,39.551,28.320,54.688,34.668,0
1583510181.269,38.086,37.598,27.344,44.922,69.336,0
1583510181.273,34.180,36.621,25.879,-21.484,36.133,0
1583510181.277,25.391,38.574,27.344,-21.973,26.855,0
1583510181.281,19.043,38.574,27.832,58.594,44.922,0
1583510181.285,18.066,37.598,29.297,64.941,23.438,0
1583510181.288,11.719,37.109,29.297,5.859,27.832,0
1583510181.292,7.812,36.621,27.344,-28.320,56.641,0
1583510181.296,12.695,37.109,29.297,22.949,12.695,0
1583510181.300,10.254,39.062,31.738,75.195,13.672,0
1583510181.304,5.859,39.551,32.227,27.344,11.230,0
1583510181.321,-0.977,37.598,32.227,-14.160,-1.953,0
1583510181.325,0.488,39.551,32.715,20.996,48.340,0
1583510181.329,5.371,41.016,34.180,56.641,-1.465,0
1583510181.333,5.859,40.527,33.691,46.387,-19.531,0
1583510181.337,2.930,39.551,32.227,-1.953,18.066,0
1583510181.341,-4.883,39.062,33.203,15.625,71.777,0
1583510181.345,-2.441,38.574,35.156,56.641,85.449,0
1583510181.348,3.418,37.598,34.668,48.828,42.969,0
1583510181.352,4.395,38.574,33.203,11.230,39.551,0
1583510181.356,3.418,39.062,33.203,3.418,74.219,0
1583510181.360,0.977,39.062,34.180,60.547,41.016,0
1583510181.364,3.906,40.039,35.156,56.152,21.973,0
1583510181.363,6.836,39.062,35.645,-7.812,-1.465,0
1583510181.367,6.836,38.574,35.156,-12.207,2.441,0
1583510181.371,12.695,39.062,35.156,41.992,64.941,0
1583510181.375,15.137,36.621,36.621,71.777,56.641,0
1583510181.379,16.602,38.086,33.691,13.184,34.668,0
1583510181.383,15.137,36.621,32.715,-36.133,46.387,0
1583510181.387,10.742,34.180,33.691,20.996,43.457,0
1583510181.390,15.625,36.621,34.180,71.777,41.992,0
1583510181.394,15.625,37.109,35.645,45.410,-13.184,0
1583510181.398,13.672,37.598,34.668,-29.297,-21.973,0
1583510181.402,12.695,39.062,34.180,-25.391,-18.555,0
1583510181.406,13.672,37.598,34.668,59.570,-16.113,0
1583510181.401,16.602,35.156,33.203,58.105,8.301,0
1583510181.405,9.277,36.133,35.156,7.812,20.020,0
1583510181.409,6.348,38.574,34.668,-4.395,31.738,0
1583510181.413,9.766,37.109,31.250,45.410,19.043,0
1583510181.417,11.230,35.645,32.227,77.637,17.090,0
1583510181.421,19.043,36.133,31.738,17.090,2.930,0
1583510181.425,30.273,37.109,31.738,-16.602,-1.953,0
1583510181.428,32.227,36.621,34.668,17.090,48.340,0
1583510181.432,31.250,34.180,35.156,30.273,84.961,0
1583510181.436,42.480,33.203,35.156,3.418,54.688,0
1583510181.440,41.016,32.227,37.109,-46.875,10.742,0
1583510181.444,34.180,32.227,37.598,-13.672,25.391,0
1583510181.461,38.086,33.203,34.668,44.922,93.750,0
1583510181.465,40.039,34.180,31.738,30.762,93.750,0
1583510181.469,36.133,35.156,35.156,-1.465,58.105,0
1583510181.473,40.039,35.156,36.133,14.648,9.277,0
1583510181.477,47.852,35.156,33.691,76.660,-25.879,0
1583510181.481,41.504,35.645,36.621,59.570,14.160,0
1583510181.485,38.574,34.180,35.156,-3.418,46.387,0
1583510181.488,42.969,34.668,32.227,0.488,53.223,0
1583510181.492,43.945,36.133,34.668,48.828,-4.883,0
1583510181.496,50.781,37.109,35.645,68.359,-3.906,0
1583510181.500,45.410,35.156,35.645,3.418,38.086,0
1583510181.504,41.016,34.180,35.156,-32.227,-21.973,0
1583510181.501,44.434,32.715,31.738,31.250,-57.129,0
1583510181.505,41.016,34.180,30.273,76.660,6.348,0
1583510181.509,36.621,35.156,31.738,44.922,52.734,0
1583510181.513,30.762,35.156,33.691,-22.949,48.828,0
1583510181.517,27.344,36.133,32.715,4.883,49.805,0
1583510181.521,25.879,38.574,32.227,68.359,56.152,0
1583510181.525,27.832,38.574,32.715,41.504,2.441,0
1583510181.528,27.344,35.645,31.738,-16.113,-26.367,0
1583510181.532,25.879,36.621,29.785,-25.391,4.883,0
1583510181.536,26.367,37.598,29.297,37.598,12.207,0
1583510181.540,27.344,37.109,30.762,66.406,17.578,0
1583510181.544,24.414,35.156,33.203,9.277,23.926,0
1583510181.561,28.809,34.668,34.180,-9.766,35.645,0
1583510181.565,34.668,34.668,35.645,41.016,63.965,0
1583510181.569,33.691,34.668,37.109,64.941,10.254,0
1583510181.573,34.668,34.668,33.203,32.715,-3.906,0
1583510181.577,35.645,34.180,34.180,-6.836,-10.254,0
1583510181.581,33.691,32.715,38.574,26.367,-20.020,0
1583510181.585,32.715,34.180,36.133,66.895,4.883,0
1583510181.588,31.738,36.133,38.086,44.434,43.945,0
1583510181.592,28.809,35.156,40.527,-6.348,45.410,0
1583510181.596,26.855,36.621,38.086,7.324,14.160,0
1583510181.600,30.273,36.133,36.621,63.965,25.879,0
1583510181.604,33.203,34.180,33.691,44.922,65.430,0
1583510181.601,38.574,36.621,33.203,-18.555,27.344,0
1583510181.605,40.527,37.109,34.668,-11.719,56.641,0
1583510181.609,43.457,36.621,33.691,51.758,87.402,0
1583510181.613,52.246,38.086,33.203,68.359,52.246,0
1583510181.617,41.504,41.504,37.109,-1.953,74.707,0
1583510181.621,23.438,41.504,37.598,-39.062,87.402,0
1583510181.625,23.438,40.527,32.227,16.602,28.320,0
1583510181.628,34.180,41.992,27.344,54.199,-20.996,0
1583510181.632,32.227,41.992,30.273,16.113,-10.742,0
1583510181.636,23.438,39.062,29.785,-36.621,42.480,0
1583510181.640,17.578,41.016,29.785,-0.977,42.969,0
1583510181.644,27.344,41.504,32.227,55.176,5.859,0
1583510181.641,41.504,38.086,33.203,39.551,51.758,0
1583510181.645,38.086,38.086,30.762,-17.090,79.590,0
1583510181.649,36.621,39.062,27.832,-14.160,53.223,0
1583510181.653,37.109,39.062,30.273,53.223,61.035,0
1583510181.657,36.133,38.574,31.250,52.246,32.227,0
1583510181.661,38.086,39.551,29.297,-11.230,-23.926,0
1583510181.665,40.039,40.527,29.785,-14.160,-2.441,0
1583510181.668,38.086,38.086,30.762,40.527,39.062,0
1583510181.672,29.297,37.109,29.785,58.594,62.012,0
1583510181.676,31.738,40.039,29.785,5.859,47.363,0
1583510181.680,38.574,38.574,29.785,-19.043,6.348,0
1583510181.684,39.062,38.086,30.762,37.109,13.672,0
1583510181.701,41.016,38.574,31.738,68.848,32.227,0
1583510181.705,42.480,39.551,29.785,32.715,11.230,0
1583510181.709,41.016,37.109,30.762,-16.113,3.418,0
1583510181.713,38.086,34.668,31.738,10.742,-4.883,0
1583510181.717,34.668,36.621,30.273,62.500,-2.930,0
1583510181.721,33.203,35.645,29.297,29.297,14.648,0
1583510181.725,28.809,34.180,30.273,-35.156,-11.230,0
1583510181.728,22.461,36.621,30.762,-19.531,44.922,0
1583510181.732,21.973,40.527,30.762,33.203,77.637,0
1583510181.736,24.902,41.016,31.738,37.598,36.621,0
1583510181.740,22.461,38.574,30.273,-21.484,17.578,0
1583510181.744,10.742,36.621,30.762,-37.598,27.832,0
1583510181.741,12.695,36.621,29.785,27.344,62.012,0
1583510181.745,15.625,36.621,30.762,52.734,28.809,0
1583510181.749,8.301,35.156,35.645,-8.789,-17.090,0
1583510181.753,8.789,35.645,35.156,-57.129,-23.438,0
1583510181.757,9.766,38.574,32.227,8.789,62.988,0
1583510181.761,6.836,38.086,33.203,50.781,71.289,0
1583510181.765,14.648,38.086,34.180,18.066,6.836,0
1583510181.768,25.391,41.016,33.691,-29.785,-15.137,0
1583510181.772,30.273,39.551,32.715,-11.230,-65.430,0
1583510181.776,26.855,36.133,30.762,66.406,-38.086,0
1583510181.780,20.020,37.109,35.645,60.547,-9.277,0
1583510181.784,17.090,38.574,35.156,7.324,66.406,0
1583510181.781,31.738,35.645,28.809,24.414,132.812,0
1583510181.785,36.133,30.273,32.715,78.613,82.520,0
1583510181.789,6.348,26.855,42.480,75.195,1.953,0
1583510181.793,-12.207,24.902,44.434,6.836,24.902,0
1583510181.797,-5.371,24.414,39.551,-8.789,14.160,0
1583510181.801,7.324,20.996,40.039,57.617,12.695,0
1583510181.805,6.348,16.113,44.922,72.266,37.598,0
1583510181.808,-0.488,14.648,46.387,26.855,32.227,0
1583510181.812,-4.883,14.160,45.410,-17.090,44.922,0
1583510181.816,-6.348,13.672,45.898,17.090,10.254,0
1583510181.820,-10.254,15.137,49.805,59.570,20.996,0
1583510181.824,-10.742,14.648,47.852,30.273,39.551,0
1583510181.841,-7.812,14.648,43.457,-3.906,26.855,0
1583510181.845,-6.348,15.625,43.457,12.695,18.555,0
1583510181.849,-0.977,17.090,42.480,69.824,42.969,0
1583510181.853,3.906,19.043,39.551,49.805,63.965,0
1583510181.857,5.859,20.508,39.062,-19.043,82.031,0
1583510181.861,4.395,22.461,38.086,-6.348,76.172,0
1583510181.865,2.441,23.438,37.598,45.410,6.836,0
1583510181.868,6.836,24.902,40.039,61.523,-6.836,0
1583510181.872,12.695,24.902,41.992,1.953,32.715,0
1583510181.876,15.137,23.438,40.039,-33.203,-17.578,0
1583510181.880,19.531,22.461,39.062,38.574,-41.504,0
1583510181.884,20.508,24.414,41.016,70.312,20.508,0
1583510181.881,27.344,27.832,38.574,31.738,67.871,0
1583510181.885,33.203,30.273,35.645,-27.344,36.133,0
1583510181.889,21.484,28.809,38.574,3.906,19.043,0
1583510181.893,22.461,29.785,38.574,76.172,12.695,0
1583510181.897,32.227,31.738,36.621,55.176,46.387,0
1583510181.901,36.621,32.715,36.133,1.465,65.430,0
1583510181.905,42.480,35.645,38.574,3.418,28.320,0
1583510181.908,48.340,34.668,38.086,56.152,28.320,0
1583510181.912,51.270,32.715,34.668,69.336,-5.859,0
1583510181.916,48.340,31.738,34.180,16.113,43.457,0
1583510181.920,42.969,33.691,34.668,-1.465,16.602,0
1583510181.924,38.086,35.156,33.203,39.062,-40.039,0
1583510181.921,35.156,36.621,35.156,62.988,43.945,0
1583510181.925,33.691,37.109,34.180,33.691,85.449,0
1583510181.929,25.879,36.133,31.250,-5.859,17.090,0
1583510181.933,18.555,34.180,33.203,44.922,36.133,0
1583510181.937,20.996,33.691,33.691,76.172,80.566,0
1583510181.941,24.902,33.203,32.715,29.297,23.926,0
1583510181.945,25.391,32.227,32.227,1.953,28.320,0
1583510181.948,24.414,33.691,34.180,40.039,41.504,0
1583510181.952,21.484,34.180,35.645,93.262,32.715,0
1583510181.956,26.855,33.691,35.645,62.012,122.070,0
1583510181.960,32.715,34.668,34.180,-7.324,142.578,0
1583510181.964,32.715,34.668,33.691,0.000,48.828,0
1583510181.981,38.086,33.691,36.621,45.898,48.828,0
1583510181.985,56.641,33.203,33.691,51.758,-4.395,0
1583510181.989,49.316,36.133,30.762,-22.949,-72.754,0
1583510181.993,17.578,38.086,32.715,-56.152,3.418,0
1583510181.997,19.531,38.086,27.344,35.156,51.270,0
1583510182.001,25.879,40.039,23.438,76.660,71.289,0
1583510182.005,20.020,39.551,28.809,31.250,42.969,0
1583510182.008,17.090,40.039,30.273,-13.672,-1.465,0
1583510182.012,21.973,40.039,28.320,19.043,-12.207,0
1583510182.016,28.809,40.527,30.273,65.918,12.695,0
1583510182.020,30.762,40.039,32.715,22.461,3.418,0
1583510182.024,31.250,40.039,33.691,-37.598,21.484,0
1583510182.021,34.180,38.086,34.668,-36.621,36.133,0
1583510182.025,41.992,36.621,35.645,22.949,-19.531,0
1583510182.029,46.875,38.574,35.156,39.551,14.648,0
1583510182.033,49.805,39.062,34.668,-8.301,29.785,0
1583510182.037,45.898,35.645,33.203,11.230,36.621,0
1583510182.041,40.527,34.668,31.250,72.266,56.641,0
1583510182.045,41.992,35.156,34.180,93.262,65.918,0
1583510182.048,41.992,39.062,33.691,46.875,60.547,0
1583510182.052,40.039,39.551,31.250,21.484,34.668,0
1583510182.056,36.621,36.621,32.227,65.430,-7.324,0
1583510182.060,36.133,39.062,35.156,60.547,-15.137,0
1583510182.064,45.898,37.109,35.645,17.090,47.852,0
1583510182.061,49.805,35.645,31.250,-14.160,10.254,0
1583510182.065,43.945,36.621,30.273,27.832,19.043,0
1583510182.069,42.480,34.180,31.738,80.566,41.504,0
1583510182.073,51.758,35.645,31.250,42.480,14.648,0
1583510182.077,52.246,38.086,31.738,-2.930,47.363,0
1583510182.081,45.410,36.621,30.273,25.391,54.688,0
1583510182.085,50.293,34.668,28.809,76.660,1.953,0
1583510182.088,53.223,32.715,31.738,69.824,12.207,0
1583510182.092,52.246,33.203,34.180,-5.859,36.621,0
1583510182.096,49.316,36.133,33.691,-9.277,63.965,0
1583510182.100,41.504,37.109,35.645,59.082,16.113,0
1583510182.104,41.504,35.645,35.156,70.312,10.742,0
1583510182.121,35.645,36.133,32.715,20.020,84.961,0
1583510182.125,26.855,35.645,34.180,-20.996,26.367,0
1583510182.129,27.344,35.156,32.715,37.598,30.762,0
1583510182.133,28.809,34.180,33.203,79.102,45.898,0
1583510182.137,20.996,31.738,36.621,20.996,6.348,0
1583510182.141,12.207,32.715,36.133,-25.879,58.594,0
1583510182.145,10.254,33.203,36.621,5.371,61.035,0
1583510182.148,9.277,33.691,38.086,51.270,-16.602,0
1583510182.152,10.742,32.227,35.156,38.086,-6.348,0
1583510182.156,10.742,31.250,33.203,-14.648,25.879,0
1583510182.160,7.812,30.762,34.180,-4.395,-16.602,0
1583510182.164,4.883,30.273,37.109,47.363,-38.086,0
1583510182.161,11.230,33.691,36.621,48.828,-45.410,0
1583510182.165,12.207,35.645,34.180,-5.371,-70.312,0
1583510182.169,-0.977,33.203,35.156,-10.742,-38.574,0
1583510182.173,0.000,33.691,33.691,49.805,-23.926,0
1583510182.177,6.836,35.645,33.691,66.406,33.691,0
1583510182.181,8.301,33.691,34.668,25.879,67.383,0
1583510182.185,9.277,33.203,36.621,1.465,1.953,0
1583510182.188,8.301,35.156,39.062,51.270,-27.344,0
1583510182.192,12.695,34.180,37.598,92.773,13.184,0
1583510182.196,19.531,33.203,40.039,42.969,35.645,0
1583510182.200,13.184,33.691,41.016,-11.719,71.289,0
1583510182.204,8.301,31.250,37.598,19.531,7.324,0
1583510182.201,18.555,31.250,36.133,74.707,3.418,0
1583510182.205,22.949,33.203,35.645,56.641,71.289,0
1583510182.209,17.090,32.715,33.203,-18.066,75.684,0
1583510182.213,22.461,34.668,33.203,-15.625,37.109,0
1583510182.217,24.414,36.621,34.668,50.781,13.672,0
1583510182.221,16.113,32.227,36.133,45.898,60.547,0
1583510182.225,16.602,30.273,35.645,-20.020,61.523,0
1583510182.228,20.996,31.250,34.668,-37.598,55.664,0
1583510182.232,18.555,29.785,35.645,9.277,96.680,0
1583510182.236,19.531,27.832,34.180,20.020,37.598,0
1583510182.240,18.555,28.809,32.715,-27.832,0.977,0
1583510182.244,15.625,29.785,34.180,-58.105,14.648,0
1583510182.261,15.137,29.785,33.203,-11.230,20.996,0
1583510182.265,15.625,32.227,33.203,43.457,55.664,0
1583510182.269,16.602,31.738,37.109,28.809,60.059,0
1583510182.273,18.066,32.715,37.598,-14.160,22.461,0
1583510182.277,21.484,33.203,37.109,10.742,38.086,0
1583510182.281,15.625,31.738,35.156,56.152,73.730,0
1583510182.285,20.020,32.715,35.645,35.156,31.738,0
1583510182.288,30.273,32.715,36.621,-29.297,-14.648,0
1583510182.292,32.715,32.715,34.180,-17.090,-11.230,0
1583510182.296,34.180,34.668,34.180,45.410,23.926,0
1583510182.300,31.738,32.715,37.598,50.781,6.348,0
1583510182.304,27.832,32.227,36.133,13.672,-56.641,0
1583510182.301,25.879,34.668,34.180,13.672,-16.113,0
1583510182.305,24.414,36.133,35.645,85.449,11.230,0
1583510182.309,21.973,34.180,35.645,116.699,52.734,0
1583510182.313,20.508,35.645,34.668,67.871,107.910,0
1583510182.317,16.602,34.668,33.691,42.480,57.617,0
1583510182.321,11.719,31.250,32.715,77.637,12.695,0
1583510182.325,17.090,31.738,32.715,116.211,-12.207,0
1583510182.328,22.949,33.203,31.250,74.707,25.879,0
1583510182.332,25.391,34.668,31.738,4.395,22.949,0
1583510182.336,25.391,36.133,33.691,37.598,3.418,0
1583510182.340,28.809,37.109,32.715,98.633,28.809,0
1583510182.344,27.832,36.133,33.691,86.426,-9.277,0
1583510182.341,36.621,33.203,36.133,25.391,-15.625,0
1583510182.345,50.781,35.156,33.203,32.227,48.340,0
1583510182.349,20.020,41.504,34.668,73.730,36.621,0
1583510182.353,9.277,43.945,35.645,57.129,9.277,0
1583510182.357,38.086,45.410,30.762,26.367,20.996,0
1583510182.361,41.992,45.410,30.273,-5.371,-4.395,0
1583510182.365,33.691,40.527,31.738,29.297,23.926,0
1583510182.368,20.020,41.016,29.297,71.777,72.754,0
1583510182.372,11.719,40.039,29.785,11.230,-2.441,0
1583510182.376,16.602,37.109,28.809,-28.809,-26.855,0
1583510182.380,23.438,39.062,27.832,6.348,33.691,0
1583510182.384,25.391,39.062,28.320,48.828,31.738,0
1583510182.401,26.855,38.086,29.785,39.551,14.160,0
1583510182.405,29.297,37.598,32.227,-18.066,2.441,0
1583510182.409,27.344,35.156,32.227,0.488,3.906,0
1583510182.413,29.297,36.133,31.738,42.480,20.508,0
1583510182.417,35.156,37.598,30.762,33.203,25.391,0
1583510182.421,36.621,35.156,30.273,-4.395,25.879,0
1583510182.425,31.738,35.645,34.180,-19.531,25.879,0
1583510182.428,35.156,37.598,34.180,45.898,19.043,0
1583510182.432,42.969,37.598,31.738,61.523,27.344,0
1583510182.436,42.480,33.691,35.645,5.371,19.043,0
1583510182.440,41.992,31.738,35.156,1.953,18.555,0
1583510182.444,45.410,35.156,33.203,55.664,76.660,0
1583510182.441,50.781,37.109,36.133,93.262,66.895,0
1583510182.445,53.223,36.621,34.180,40.039,32.227,0
1583510182.449,51.758,34.668,31.738,-10.254,69.336,0
1583510182.453,51.270,35.645,31.250,35.645,78.125,0
1583510182.457,46.875,37.598,30.762,83.008,72.266,0
1583510182.461,48.340,37.598,33.203,62.500,6.836,0
1583510182.465,47.363,37.109,33.691,-9.766,2.441,0
1583510182.468,44.434,39.062,31.738,-3.418,47.852,0
1583510182.472,50.293,40.527,35.156,74.707,6.348,0
1583510182.476,49.805,38.086,36.133,65.918,6.836,0
1583510182.480,47.852,36.621,36.133,0.000,0.977,0
1583510182.484,48.340,36.621,36.133,-12.207,66.895,0
1583510182.481,47.852,35.645,38.086,44.922,112.793,0
1583510182.485,47.363,34.180,37.109,68.848,38.086,0
1583510182.489,46.875,35.156,33.203,9.277,27.344,0
1583510182.493,47.363,35.156,37.598,-17.578,31.250,0
1583510182.497,48.828,33.691,39.551,26.367,66.895,0
1583510182.501,49.316,33.691,37.109,59.570,120.605,0
1583510182.505,48.828,35.156,34.668,34.180,28.809,0
1583510182.508,45.410,35.645,35.156,-18.066,-15.625,0
1583510182.512,41.016,36.621,37.598,8.789,8.301,0
1583510182.516,43.457,39.062,35.645,57.617,37.109,0
1583510182.520,47.363,36.133,35.645,35.156,40.039,0
1583510182.524,46.387,34.668,36.133,-2.441,27.832,0
1583510182.541,43.457,38.574,33.691,10.742,42.480,0
1583510182.545,40.527,37.598,31.738,67.383,31.250,0
1583510182.549,42.480,36.621,33.203,58.594,37.109,0
1583510182.553,34.668,38.086,33.691,5.859,21.973,0
1583510182.557,22.461,36.621,33.203,0.000,15.625,0
1583510182.561,16.113,36.621,33.203,48.828,32.715,0
1583510182.565,12.695,34.668,34.180,71.289,8.301,0
1583510182.568,14.648,32.715,34.668,14.160,20.020,0
1583510182.572,11.230,32.227,34.180,-11.719,73.730,0
1583510182.576,3.418,31.250,33.691,35.645,50.293,0
1583510182.580,-3.906,32.715,30.273,69.336,51.270,0
1583510182.584,-8.789,32.227,32.227,33.691,49.805,0
1583510182.581,-8.301,33.203,32.715,-31.250,32.227,0
1583510182.585,-11.719,33.203,29.785,-4.395,9.277,0
1583510182.589,-13.672,32.227,29.785,62.988,32.715,0
1583510182.593,-11.230,32.227,30.762,47.852,37.598,0
1583510182.597,-15.137,34.668,29.297,-11.719,7.324,0
1583510182.601,-17.578,35.156,28.320,-20.508,35.156,0
1583510182.605,-13.184,34.180,30.273,42.969,0.977,0
1583510182.608,-13.184,33.691,28.320,62.012,-12.207,0
1583510182.612,-18.555,34.668,25.391,3.418,-13.184,0
1583510182.616,-29.785,35.156,25.879,-18.555,11.719,0
1583510182.620,-25.391,34.180,27.344,24.414,10.254,0
1583510182.624,-12.207,32.715,28.809,66.406,19.043,0
1583510182.621,-14.648,32.227,30.762,31.250,58.105,0
1583510182.625,-13.672,33.691,29.785,-14.648,48.828,0
1583510182.629,-13.184,35.156,28.809,16.113,21.973,0
1583510182.633,-15.137,35.156,28.809,54.199,40.039,0
1583510182.637,-9.766,35.156,29.297,34.180,28.809,0
1583510182.641,-6.836,34.668,28.320,-15.625,8.789,0
1583510182.645,-9.277,36.621,31.250,-0.977,20.020,0
1583510182.648,-6.348,38.086,32.227,55.664,57.129,0
1583510182.652,4.395,37.598,29.785,36.133,98.145,0
1583510182.656,9.277,33.691,28.809,-23.926,14.648,0
1583510182.660,6.836,32.227,27.344,-16.602,-55.664,0
1583510182.664,8.301,32.715,30.273,48.828,-1.465,0
1583510182.681,11.719,29.297,31.250,57.129,-17.090,0
1583510182.685,15.625,30.762,31.738,-3.418,0.488,0
1583510182.689,16.113,32.715,33.691,-21.973,57.617,0
1583510182.693,18.066,32.715,32.227,28.809,-7.812,0
1583510182.697,20.996,34.180,35.156,60.547,-44.434,0
1583510182.701,21.484,33.691,34.668,23.926,-6.348,0
1583510182.705,20.508,31.738,32.715,-29.297,4.883,0
1583510182.708,22.949,29.785,33.203,10.742,5.371,0
1583510182.712,29.297,32.715,32.715,69.824,16.602,0
1583510182.716,34.668,36.621,31.738,48.828,21.484,0
1583510182.720,33.203,38.574,33.691,-8.301,45.898,0
1583510182.724,23.926,39.062,33.691,-14.648,16.113,0
1583510182.721,20.996,38.574,32.227,50.781,1.465,0
1583510182.725,22.461,37.109,30.762,62.988,0.488,0
1583510182.729,23.926,36.133,29.785,9.766,38.574,0
1583510182.733,24.902,36.621,31.738,0.977,65.430,0
1583510182.737,29.297,36.133,32.227,49.316,46.875,0
1583510182.741,37.109,35.156,29.785,71.289,58.105,0
1583510182.745,42.480,35.645,26.855,27.344,48.340,0
1583510182.748,45.410,37.598,27.344,-12.207,28.320,0
1583510182.752,40.527,36.133,29.785,29.297,38.086,0
1583510182.756,30.273,35.156,30.273,53.223,24.414,0
1583510182.760,34.180,36.133,29.297,16.602,15.137,0
1583510182.764,39.062,35.645,32.715,-19.531,52.246,0
1583510182.762,33.203,34.180,36.133,1.953,9.277,0
1583510182.766,25.391,30.762,34.668,62.012,22.949,0
1583510182.770,29.785,29.297,31.250,49.805,35.645,0
1583510182.774,41.016,29.785,27.344,1.465,-11.230,0
1583510182.778,18.066,28.320,34.180,2.930,-30.273,0
1583510182.782,-0.977,29.785,35.645,55.664,20.996,0
1583510182.786,12.207,29.297,30.762,70.312,41.992,0
1583510182.789,13.672,29.297,34.668,10.742,76.172,0
1583510182.793,3.906,30.762,36.133,-0.488,144.531,0
1583510182.797,13.184,29.785,34.180,61.523,142.090,0
1583510182.801,21.973,30.273,34.180,82.520,98.145,0
1583510182.805,22.949,32.227,33.691,19.531,86.914,0
1583510182.821,25.879,33.691,31.738,-36.621,93.750,0
1583510182.825,36.621,33.203,32.715,14.648,18.555,0
1583510182.829,41.016,34.180,33.203,66.406,4.883,0
1583510182.833,29.785,37.109,34.180,42.480,30.762,0
1583510182.837,24.414,39.062,36.133,-7.812,5.859,0
1583510182.841,19.531,37.109,36.133,6.836,-18.066,0
1583510182.845,19.043,35.156,38.086,80.566,31.250,0
1583510182.848,25.391,34.668,38.574,73.242,67.383,0
1583510182.852,27.832,30.273,38.086,0.488,52.734,0
1583510182.856,35.645,31.250,37.109,-24.902,-5.371,0
1583510182.860,37.598,31.738,35.156,12.695,-22.461,0
1583510182.864,45.898,30.762,33.691,31.738,30.762,0
1583510182.861,57.129,31.738,32.227,-26.367,20.020,0
1583510182.865,49.805,30.273,31.250,-53.223,-15.137,0
1583510182.869,48.828,32.715,33.203,5.371,30.762,0
1583510182.873,52.734,34.668,34.668,39.551,65.918,0
1583510182.877,51.270,36.133,33.691,17.090,12.207,0
1583510182.881,44.922,36.133,32.227,-10.742,10.254,0
1583510182.885,42.969,33.691,31.738,33.691,-7.324,0
1583510182.888,53.223,34.180,29.297,77.637,24.414,0
1583510182.892,56.641,35.156,26.855,51.758,101.074,0
1583510182.896,50.781,35.156,29.785,4.883,34.668,0
1583510182.900,59.082,36.621,32.227,23.926,49.316,0
1583510182.904,63.965,36.133,28.809,91.797,62.988,0
1583510182.901,63.477,33.691,28.809,66.895,-14.160,0
1583510182.905,61.523,35.156,31.250,-1.953,3.418,0
1583510182.909,59.082,37.109,28.320,7.812,6.836,0
1583510182.913,64.453,36.621,29.785,60.059,-32.227,0
1583510182.917,62.500,32.715,34.180,73.730,-23.438,0
1583510182.921,60.059,32.715,34.180,14.160,11.719,0
1583510182.925,52.734,34.668,34.180,-24.902,30.273,0
1583510182.928,47.363,35.156,34.668,31.250,26.367,0
1583510182.932,50.293,35.645,33.203,61.035,0.977,0
1583510182.936,48.340,37.109,31.738,23.438,-18.066,0
1583510182.940,41.016,38.086,32.227,-33.203,22.949,0
1583510182.944,31.250,37.109,34.180,-5.371,98.145,1
1583510182.961,27.344,37.598,36.621,62.988,119.141,0
1583510182.965,30.273,37.109,36.133,34.180,64.453,0
