timestamps,TP9,AF7,AF8,TP10,Right AUX,Marker0
1583421770.594,36.621,37.109,44.434,38.086,67.871,0
1583421770.598,41.504,37.109,36.133,42.969,22.461,0
1583421770.602,42.480,35.156,34.180,41.504,-9.766,0
1583421770.606,41.992,37.109,34.180,37.109,60.059,0
1583421770.610,44.922,37.598,32.715,38.574,76.660,0
1583421770.614,46.875,41.992,24.902,39.062,20.020,0
1583421770.618,39.551,40.527,28.809,31.738,-17.578,0
1583421770.621,32.227,34.180,38.086,27.344,14.648,0
1583421770.625,30.273,33.203,36.621,31.250,103.027,0
1583421770.629,27.344,34.180,36.621,29.785,83.008,0
1583421770.633,26.367,34.180,40.527,30.273,14.160,0
1583421770.637,37.109,35.156,38.086,39.062,36.133,0
1583421770.634,42.480,27.344,33.691,40.039,68.359,0
1583421770.638,27.344,21.973,33.203,27.832,36.133,0
1583421770.642,16.113,26.855,30.273,22.949,7.324,0
1583421770.646,13.184,24.902,37.109,25.391,29.297,0
1583421770.650,15.137,23.438,44.434,24.414,59.570,0
1583421770.654,18.555,23.438,48.340,25.391,41.504,0
1583421770.658,16.602,23.438,46.387,26.855,41.016,0
1583421770.661,14.160,24.902,42.969,28.809,66.406,0
1583421770.665,14.648,24.902,41.992,28.320,-9.766,0
1583421770.669,20.996,24.414,40.039,27.832,-15.625,0
1583421770.673,28.809,20.996,45.410,30.273,62.012,0
1583421770.677,28.320,19.043,47.363,31.738,82.520,0
1583421770.674,30.273,22.461,42.969,31.738,64.941,0
1583421770.678,32.715,24.902,42.969,31.738,57.129,0
1583421770.682,32.715,32.715,45.410,32.715,17.578,0
1583421770.686,29.785,34.180,37.109,33.203,20.020,0
1583421770.690,31.250,30.762,22.461,32.715,-11.719,0
1583421770.694,35.156,31.738,37.109,37.109,3.906,0
1583421770.698,40.039,32.227,51.758,41.016,1.465,0
1583421770.701,38.574,33.691,44.922,39.062,-37.109,0
1583421770.705,31.250,33.203,42.480,34.668,1.953,0
1583421770.709,31.738,32.715,42.969,39.062,-15.625,0
1583421770.713,32.227,32.715,37.109,41.992,4.395,0
1583421770.717,26.855,25.879,34.668,38.574,50.293,0
1583421770.734,23.926,28.320,45.898,34.668,21.973,0
1583421770.738,22.461,37.109,51.758,31.250,55.176,0
1583421770.742,25.391,33.203,47.363,35.156,104.980,0
1583421770.746,26.367,28.809,40.527,37.598,82.520,0
1583421770.750,25.879,34.180,38.574,40.527,69.824,0
1583421770.754,31.738,38.574,43.457,41.016,91.797,0
1583421770.758,34.180,38.574,42.480,32.715,74.707,0
1583421770.761,31.250,38.574,31.738,33.691,26.855,0
1583421770.765,35.645,39.062,28.320,33.691,-6.836,0
1583421770.769,35.156,37.109,33.691,31.250,41.016,0
1583421770.773,32.715,32.715,23.926,36.621,61.523,0
1583421770.777,31.250,34.668,16.602,38.086,13.672,0
1583421770.774,29.297,38.574,32.227,32.715,31.738,0
1583421770.778,29.785,32.227,35.156,28.809,92.773,0
1583421770.782,29.297,29.785,41.016,28.320,51.758,0
1583421770.786,31.250,37.109,44.434,27.832,23.926,0
1583421770.790,35.156,34.180,29.785,26.855,62.500,0
1583421770.794,38.086,36.133,32.227,28.809,47.852,0
1583421770.798,33.691,42.480,41.504,29.785,30.273,0
1583421770.801,29.785,38.574,35.156,26.855,22.949,0
1583421770.805,32.227,30.762,28.809,28.809,29.785,0
1583421770.809,32.227,32.715,30.762,30.273,35.156,0
1583421770.813,25.391,37.109,33.691,31.250,28.320,0
1583421770.817,20.996,32.715,33.203,33.203,50.781,0
1583421770.814,22.461,31.250,35.645,31.250,50.293,0
1583421770.818,19.531,33.203,38.574,25.879,23.926,0
1583421770.822,20.996,38.086,38.574,26.855,-11.230,0
1583421770.826,26.367,41.504,37.109,28.320,36.621,0
1583421770.830,26.855,38.574,36.133,28.320,54.199,0
1583421770.834,33.203,33.691,32.715,32.227,9.277,0
1583421770.838,35.645,33.691,25.391,35.645,60.547,0
1583421770.841,30.273,39.062,35.156,31.250,102.539,0
1583421770.845,29.297,39.062,37.598,25.879,21.484,0
1583421770.849,29.785,39.551,37.598,33.691,-20.020,0
1583421770.853,31.738,41.992,43.945,41.992,23.438,0
1583421770.857,27.344,36.133,42.480,38.574,29.297,0
1583421770.874,26.367,36.133,45.410,36.133,56.641,0
1583421770.878,29.297,40.527,46.387,38.574,73.242,0
1583421770.882,29.785,39.551,40.527,39.062,56.641,0
1583421770.886,35.645,38.086,40.527,38.574,44.434,0
1583421770.890,35.645,42.480,38.086,40.039,52.246,0
1583421770.894,29.297,42.969,33.691,36.133,15.625,0
1583421770.898,30.762,40.039,32.227,33.203,8.789,0
1583421770.901,33.691,39.062,25.879,30.762,54.199,0
1583421770.905,35.156,34.668,32.227,26.855,14.648,0
1583421770.909,36.621,33.203,36.133,29.297,17.578,0
1583421770.913,35.645,34.180,38.086,29.785,24.414,0
1583421770.917,34.180,32.715,38.574,26.367,4.395,0
1583421770.914,33.691,35.156,36.133,28.809,42.480,0
1583421770.918,36.621,41.504,30.762,34.180,-12.207,0
1583421770.922,37.598,41.992,30.762,32.715,-20.996,0
1583421770.926,36.133,39.551,32.227,36.133,36.621,0
1583421770.930,35.645,39.062,33.203,39.062,20.508,0
1583421770.934,38.086,40.527,37.598,38.086,17.090,0
1583421770.938,31.738,41.504,36.133,41.016,21.973,0
1583421770.941,27.832,40.039,26.855,41.992,64.453,0
1583421770.945,32.227,38.086,26.855,40.527,54.199,0
1583421770.949,33.203,41.016,37.598,37.598,12.695,0
1583421770.953,32.715,41.504,30.273,37.109,28.809,0
1583421770.957,32.227,37.109,24.414,39.062,33.691,0
1583421770.954,30.273,35.156,40.039,34.668,43.457,0
1583421770.958,32.227,35.645,44.922,28.320,-6.348,0
1583421770.962,36.133,37.598,39.062,27.344,8.789,0
1583421770.966,37.109,36.621,35.645,25.879,69.824,0
1583421770.970,34.668,32.715,33.203,23.926,31.738,0
1583421770.974,37.598,36.133,35.156,29.297,-25.391,0
1583421770.978,38.574,37.598,33.691,32.715,8.301,0
1583421770.981,34.180,36.621,30.762,30.273,25.391,0
1583421770.985,31.738,37.598,30.273,28.320,17.090,0
1583421770.989,34.668,36.621,32.715,26.367,31.250,0
1583421770.993,35.156,35.156,33.203,25.879,58.594,0
1583421770.997,33.691,33.691,33.203,29.297,86.426,0
1583421771.014,33.691,32.227,35.156,33.691,28.320,0
1583421771.018,30.273,32.715,26.367,33.203,13.672,0
1583421771.022,27.344,33.203,23.438,28.320,67.871,0
1583421771.026,23.926,32.715,32.715,26.855,24.902,0
1583421771.030,23.438,31.738,37.598,25.391,-16.602,0
1583421771.034,26.367,32.715,37.109,20.996,22.461,0
1583421771.038,25.879,32.715,36.133,20.996,29.297,0
1583421771.041,27.832,30.273,28.320,25.391,0.000,0
1583421771.045,33.691,32.715,25.879,27.344,44.434,0
1583421771.049,37.598,33.691,37.109,31.250,86.426,0
1583421771.053,41.504,35.156,38.574,33.691,23.926,0
1583421771.057,39.551,32.715,40.039,30.273,43.457,0
1583421771.054,39.551,31.738,43.457,35.156,50.781,0
1583421771.058,40.039,35.645,41.504,37.598,19.531,0
1583421771.062,38.086,34.668,34.668,33.203,60.547,0
1583421771.066,34.668,34.668,33.203,32.227,32.715,0
1583421771.070,33.691,35.156,41.016,33.203,-1.465,0
1583421771.074,33.691,36.621,38.086,38.574,31.250,0
1583421771.078,27.344,36.133,33.203,35.645,25.391,0
1583421771.081,24.902,34.668,37.109,32.715,-5.859,0
1583421771.085,25.879,35.645,40.039,29.785,20.508,0
1583421771.089,25.391,35.645,41.992,23.926,17.090,0
1583421771.093,26.367,37.109,41.504,27.832,63.477,0
1583421771.097,26.855,39.062,34.180,29.297,110.352,0
1583421771.114,28.809,39.551,25.879,28.809,72.754,0
1583421771.118,34.668,39.062,31.250,32.715,46.387,0
1583421771.122,37.598,37.109,34.180,35.156,-17.090,0
1583421771.126,37.109,33.203,32.715,35.645,-6.836,0
1583421771.130,39.551,32.715,40.039,36.133,64.453,0
1583421771.134,36.621,37.109,43.457,32.715,41.992,0
1583421771.138,30.762,40.039,39.062,30.273,58.105,0
1583421771.141,30.273,39.551,37.598,27.344,83.496,0
1583421771.145,34.180,40.039,37.598,26.855,60.059,0
1583421771.149,34.668,38.574,34.180,28.809,23.438,0
1583421771.153,33.203,36.133,34.180,30.273,-15.137,0
1583421771.157,34.180,36.621,36.133,34.180,-33.691,0
1583421771.154,39.062,38.086,38.086,36.621,-54.199,0
1583421771.158,41.992,38.574,36.133,38.574,5.371,0
1583421771.162,34.668,36.133,32.715,41.016,74.219,0
1583421771.166,31.250,35.645,34.180,39.062,18.066,0
1583421771.170,36.621,36.621,35.156,37.109,0.488,0
1583421771.174,36.621,37.598,38.086,36.133,57.617,0
1583421771.178,34.668,38.574,37.598,37.109,82.031,0
1583421771.181,39.062,40.039,32.227,35.645,118.652,0
1583421771.185,41.016,40.527,27.344,30.273,83.008,0
1583421771.189,41.016,40.527,28.320,30.273,33.691,0
1583421771.193,38.086,38.574,38.086,30.273,62.500,0
1583421771.197,35.156,33.691,37.598,30.273,39.551,0
1583421771.195,35.645,31.738,32.227,28.809,55.664,0
1583421771.199,35.645,35.645,34.180,26.855,73.242,0
1583421771.203,34.668,38.574,37.109,26.855,39.551,0
1583421771.207,36.621,35.645,38.574,29.297,-26.855,0
1583421771.211,35.645,30.273,34.668,28.320,10.254,0
1583421771.215,29.297,34.668,38.086,28.320,49.805,0
1583421771.219,28.320,37.109,37.598,29.297,18.555,0
1583421771.222,31.250,33.691,30.273,32.715,72.754,0
1583421771.226,33.691,35.156,33.203,36.621,12.207,0
1583421771.230,27.832,37.598,39.551,34.668,-13.184,0
1583421771.234,21.973,34.668,36.133,29.785,68.359,0
1583421771.238,25.391,34.180,34.668,31.738,55.176,0
1583421771.234,31.738,38.574,35.156,38.086,25.391,0
1583421771.238,33.203,37.109,31.250,37.109,17.578,0
1583421771.242,33.691,34.668,36.621,31.738,41.504,0
1583421771.246,34.668,35.645,39.551,29.785,-12.695,0
1583421771.250,33.691,34.180,37.598,33.203,-26.367,0
1583421771.254,32.715,34.180,31.738,36.133,57.129,0
1583421771.258,33.203,35.645,35.645,36.133,33.691,0
1583421771.261,30.762,35.645,39.551,34.180,-10.742,0
1583421771.265,26.855,33.203,36.621,31.250,0.488,0
1583421771.269,26.855,32.227,36.133,33.691,-16.113,0
1583421771.273,24.902,31.738,34.668,33.691,-16.113,0
1583421771.277,23.926,31.738,36.621,32.227,45.898,0
1583421771.294,23.926,32.227,35.645,30.273,40.527,0
1583421771.298,24.414,33.203,33.691,27.344,10.742,0
1583421771.302,21.484,33.691,37.598,28.809,45.410,0
1583421771.306,19.531,33.691,34.668,29.297,29.785,0
1583421771.310,23.438,34.668,29.785,28.320,46.875,0
1583421771.314,22.949,36.133,35.645,27.344,82.031,0
1583421771.318,24.414,38.574,35.156,28.809,44.922,0
1583421771.321,31.250,39.551,35.645,31.738,61.035,0
1583421771.325,34.668,40.527,26.855,29.785,50.293,0
1583421771.329,34.180,41.504,20.996,29.785,34.180,0
1583421771.333,36.621,41.992,38.086,31.250,34.180,0
1583421771.337,38.086,38.574,42.969,29.297,-1.465,0
1583421771.334,35.645,36.133,36.133,27.344,22.949,0
1583421771.338,34.180,35.645,35.156,26.855,-18.066,0
1583421771.342,29.785,34.180,36.133,25.879,6.348,0
1583421771.346,26.367,33.203,34.668,22.949,109.375,0
1583421771.350,23.926,33.691,39.551,22.949,89.355,0
1583421771.354,26.855,40.527,43.457,30.273,42.480,0
1583421771.358,27.832,42.969,38.086,32.715,105.957,0
1583421771.361,17.090,39.062,36.621,22.461,124.512,0
1583421771.365,9.277,39.062,42.969,18.555,35.645,0
1583421771.369,10.742,43.457,51.758,23.926,15.137,0
1583421771.373,10.254,46.387,53.711,27.344,44.434,0
1583421771.377,-0.977,49.805,49.316,15.625,26.855,0
1583421771.394,-18.066,47.363,56.152,1.465,0.000,0
1583421771.398,-27.832,46.875,62.988,-19.531,-35.645,0
1583421771.402,-41.504,48.340,56.641,-43.457,-38.574,0
1583421771.406,-56.152,48.340,55.664,-52.246,40.527,0
1583421771.410,-63.965,52.246,58.594,-69.336,60.547,0
1583421771.414,-86.426,54.688,60.059,-92.285,47.852,0
1583421771.418,-106.445,52.734,59.082,-111.816,20.020,0
1583421771.421,-115.234,53.711,57.129,-132.324,48.340,0
1583421771.425,-133.301,53.223,56.641,-143.555,84.961,0
1583421771.429,-153.320,48.828,53.711,-158.203,58.105,0
1583421771.433,-163.574,49.805,54.199,-167.969,71.289,0
1583421771.437,-173.340,57.129,51.758,-173.828,37.598,0
1583421771.434,-186.523,58.594,41.016,-187.988,-7.324,0
1583421771.438,-182.129,61.035,35.156,-187.500,31.738,0
1583421771.442,-176.270,63.965,35.645,-185.059,49.805,0
1583421771.446,-175.293,62.988,33.203,-184.082,27.832,0
1583421771.450,-165.039,64.941,35.156,-170.410,19.531,0
1583421771.454,-151.855,65.918,33.203,-154.785,60.059,0
1583421771.458,-142.578,62.500,24.414,-147.461,55.664,0
1583421771.461,-130.859,58.105,32.227,-135.254,25.879,0
1583421771.465,-117.676,55.664,38.086,-121.582,20.996,0
1583421771.469,-101.562,54.688,36.621,-111.816,22.949,0
1583421771.473,-87.891,50.781,34.180,-97.168,4.883,0
1583421771.477,-77.148,45.898,33.203,-73.242,-5.371,0
1583421771.474,-55.664,45.410,32.227,-53.223,3.418,0
1583421771.478,-34.668,44.434,24.902,-41.016,48.828,0
1583421771.482,-10.254,43.457,21.973,-13.184,26.367,0
1583421771.486,17.578,47.852,17.090,17.090,16.113,0
1583421771.490,32.715,47.852,12.207,29.785,-20.508,0
1583421771.494,44.922,40.527,18.555,41.016,-53.711,0
1583421771.498,60.059,35.156,15.137,52.246,8.789,0
1583421771.501,70.312,34.180,8.789,60.059,55.664,0
1583421771.505,81.055,30.273,16.113,69.336,45.410,0
1583421771.509,87.891,27.344,23.926,80.566,48.828,0
1583421771.513,93.262,30.762,19.043,89.355,-9.277,0
1583421771.517,100.098,33.691,15.137,90.820,-1.953,0
1583421771.554,105.957,33.203,16.113,94.727,67.871,0
1583421771.558,110.840,32.715,14.160,101.562,70.312,0
1583421771.562,116.211,32.227,14.160,107.422,67.871,0
1583421771.566,124.512,27.832,12.695,112.793,28.320,0
1583421771.570,130.859,28.320,6.836,122.559,5.859,0
1583421771.574,128.418,29.785,9.277,129.395,58.105,0
1583421771.578,131.348,31.738,15.625,129.395,31.738,0
1583421771.581,133.789,31.738,15.625,130.859,-5.371,0
1583421771.585,133.301,28.809,17.090,132.812,-21.484,0
1583421771.589,139.160,29.785,18.555,133.789,-12.207,0
1583421771.593,139.648,28.809,16.113,132.324,20.020,0
1583421771.597,138.184,29.297,12.695,131.348,15.137,0
1583421771.574,138.672,28.809,18.066,132.324,39.062,0
1583421771.578,135.742,28.809,22.461,133.301,39.551,0
1583421771.582,134.277,26.367,25.879,129.395,53.711,0
1583421771.586,135.742,23.926,19.043,130.859,59.570,0
1583421771.590,133.301,28.809,12.695,131.348,48.828,0
1583421771.594,128.418,33.203,21.973,125.977,24.414,0
1583421771.598,119.629,32.715,23.438,124.023,-2.441,0
1583421771.601,116.211,30.762,19.531,122.559,18.555,0
1583421771.605,113.770,29.785,23.438,118.652,0.488,0
1583421771.609,115.234,32.227,24.414,118.164,30.762,0
1583421771.613,113.770,34.668,17.090,118.164,59.570,0
1583421771.617,107.910,25.879,23.926,114.746,69.824,0
1583421771.614,99.609,19.043,38.086,104.004,47.363,0
1583421771.618,86.914,22.949,37.109,93.262,55.176,0
1583421771.622,87.402,26.367,37.598,94.727,100.098,0
1583421771.626,94.727,27.832,40.527,94.727,46.387,0
1583421771.630,90.820,25.879,34.180,86.914,20.508,0
1583421771.634,91.797,27.832,31.250,85.449,7.324,0
1583421771.638,92.773,27.344,31.738,85.938,35.645,0
1583421771.641,85.938,24.414,19.043,84.473,56.641,0
1583421771.645,81.055,25.391,18.555,83.496,-17.578,0
1583421771.649,74.707,24.902,33.203,80.566,-2.930,0
1583421771.653,71.289,22.461,38.574,80.566,65.430,0
1583421771.657,72.266,24.902,31.738,78.613,54.199,0
1583421771.674,66.895,27.832,26.855,73.730,48.340,0
1583421771.678,61.523,26.367,36.621,66.406,48.828,0
1583421771.682,51.758,24.902,36.133,58.594,31.250,0
1583421771.686,51.270,29.785,38.574,63.477,-31.250,0
1583421771.690,53.223,34.180,42.480,62.500,-11.719,0
1583421771.694,46.387,35.156,38.574,53.711,40.039,0
1583421771.698,42.480,34.180,40.039,47.363,9.277,0
1583421771.701,36.133,37.598,34.668,40.527,49.316,0
1583421771.705,25.391,41.504,34.668,32.227,86.426,0
1583421771.709,10.254,40.527,38.086,20.508,40.527,0
1583421771.713,-0.488,45.410,38.086,9.277,55.664,0
1583421771.717,-14.160,51.758,43.945,-8.789,83.496,0
1583421771.714,-23.926,60.059,47.363,-20.020,71.289,0
1583421771.718,-41.504,58.105,49.805,-41.504,59.570,0
1583421771.722,-68.359,57.129,53.223,-71.289,21.973,0
1583421771.726,-97.168,61.035,48.340,-97.656,5.371,0
1583421771.730,-115.723,62.012,47.363,-118.652,9.766,0
1583421771.734,-130.371,61.035,51.758,-132.324,4.395,0
1583421771.738,-151.367,58.594,49.805,-153.320,27.344,0
1583421771.741,-162.598,59.570,48.340,-166.016,54.688,0
1583421771.745,-168.945,58.594,47.363,-169.922,12.207,0
1583421771.749,-170.898,59.570,45.898,-174.805,-9.277,0
1583421771.753,-175.293,62.988,41.504,-180.176,51.758,0
1583421771.757,-175.781,62.988,36.133,-178.711,78.613,0
1583421771.754,-164.062,61.523,41.992,-168.457,-2.930,0
1583421771.758,-162.109,59.082,47.363,-165.527,19.531,0
1583421771.762,-155.273,58.105,47.852,-156.738,72.754,0
1583421771.766,-136.230,54.199,50.781,-136.230,46.875,0
1583421771.770,-120.117,49.805,53.223,-118.652,31.250,0
1583421771.774,-102.539,48.828,51.758,-102.539,41.016,0
1583421771.778,-82.031,45.898,47.363,-82.031,31.250,0
1583421771.781,-52.246,45.410,46.387,-47.852,2.930,0
1583421771.785,-20.996,47.363,41.016,-29.785,82.520,0
1583421771.789,-5.371,40.527,34.668,-22.461,122.559,0
1583421771.793,19.043,39.062,32.227,8.301,52.246,0
1583421771.797,43.945,43.945,31.250,40.527,50.781,0
1583421771.814,58.594,40.527,31.738,59.570,61.523,0
1583421771.818,76.660,38.086,29.297,75.195,-6.836,0
1583421771.822,95.215,39.551,24.414,91.797,39.062,0
1583421771.826,107.910,36.133,16.602,103.516,108.398,0
1583421771.830,113.770,31.738,15.137,112.793,57.617,0
1583421771.834,122.559,34.180,18.555,120.605,26.855,0
1583421771.838,134.766,37.598,12.207,129.395,60.547,0
1583421771.841,135.742,35.156,5.859,132.324,55.664,0
1583421771.845,133.789,32.227,12.695,132.324,18.555,0
1583421771.849,133.301,30.273,24.902,135.254,-29.785,0
1583421771.853,135.254,27.832,25.391,137.695,-2.930,0
1583421771.857,141.113,30.273,21.484,138.672,14.648,0
1583421771.854,138.672,28.320,20.508,138.184,18.555,0
1583421771.858,139.648,26.367,19.043,137.695,54.199,0
1583421771.862,143.555,31.250,23.438,138.184,37.109,0
1583421771.866,147.461,30.273,22.949,137.695,-25.391,0
1583421771.870,151.367,25.391,20.020,139.648,-9.766,0
1583421771.874,151.367,26.367,18.555,144.043,79.102,0
1583421771.878,149.902,26.855,9.766,145.508,71.289,0
1583421771.881,148.926,25.391,11.719,145.996,-20.020,0
1583421771.885,139.648,24.414,24.414,140.625,-37.598,0
1583421771.889,130.859,25.391,36.133,136.230,-5.859,0
1583421771.893,125.488,25.391,37.598,131.348,20.996,0
1583421771.897,116.211,23.926,34.180,125.000,22.461,0
1583421771.894,110.840,20.508,34.180,122.559,48.828,0
1583421771.898,107.910,20.020,31.250,119.141,46.387,0
1583421771.902,109.863,24.902,29.297,116.211,55.664,0
1583421771.906,112.793,28.809,24.414,113.770,54.199,0
1583421771.910,108.887,24.902,24.902,111.328,-0.977,0
1583421771.914,103.027,20.508,30.762,107.910,9.277,0
1583421771.918,99.121,22.461,29.297,106.445,6.836,0
1583421771.921,97.656,23.926,33.203,101.562,36.133,0
1583421771.925,97.656,24.414,30.762,99.121,61.035,0
1583421771.929,98.145,25.391,19.531,100.586,28.320,0
1583421771.933,99.121,20.508,27.344,99.609,-14.160,0
1583421771.937,94.727,19.531,40.039,95.215,-49.805,0
1583421771.954,90.332,25.391,36.621,91.309,-9.277,0
1583421771.958,89.355,28.809,33.203,88.867,-9.277,0
1583421771.962,90.332,28.809,36.133,85.938,20.996,0
1583421771.966,88.867,27.832,34.668,83.496,60.059,0
1583421771.970,82.520,27.832,31.738,82.520,57.617,0
1583421771.974,75.684,26.855,30.273,81.543,44.434,0
1583421771.978,73.730,27.832,31.738,77.637,13.672,0
1583421771.981,70.801,26.367,34.180,74.219,37.109,0
1583421771.985,65.430,23.926,34.668,72.754,27.832,0
1583421771.989,61.523,26.855,32.715,68.359,12.207,0
1583421771.993,64.453,29.297,31.250,66.895,20.996,0
1583421771.997,64.941,29.297,28.320,68.359,57.617,0
1583421771.994,65.430,30.273,25.879,67.383,36.133,0
1583421771.998,66.895,28.809,31.738,65.918,2.441,0
1583421772.002,64.453,26.367,34.180,62.988,54.688,0
1583421772.006,60.547,28.320,26.367,61.523,42.480,0
1583421772.010,60.059,32.227,23.438,62.988,10.742,0
1583421772.014,60.059,34.180,33.203,56.641,2.930,0
1583421772.018,58.105,33.203,40.039,51.270,0.000,0
1583421772.021,58.594,28.320,40.527,50.293,10.742,0
1583421772.025,59.570,26.367,37.109,50.293,41.016,0
1583421772.029,55.176,30.762,34.668,50.293,57.617,0
1583421772.033,47.363,30.273,35.645,47.852,87.891,0
1583421772.037,48.340,29.297,37.109,50.293,32.227,0
1583421772.035,50.293,30.273,36.133,53.223,-74.707,0
1583421772.039,50.781,30.273,28.809,55.176,22.949,0
1583421772.043,51.270,30.273,26.367,52.734,81.543,0
1583421772.047,45.898,28.809,33.203,49.316,44.922,0
1583421772.051,44.434,29.785,34.668,51.758,14.160,0
1583421772.055,44.922,27.344,28.809,53.711,0.488,0
1583421772.059,39.551,24.414,29.785,49.805,16.602,0
1583421772.062,33.203,28.320,34.668,44.434,-6.348,0
1583421772.066,32.715,33.203,35.156,47.363,9.766,0
1583421772.070,30.762,35.156,34.180,44.922,47.363,0
1583421772.074,25.879,35.645,39.062,35.156,60.059,0
1583421772.078,34.180,37.109,39.062,34.668,42.480,0
1583421772.094,43.457,38.574,34.668,38.574,98.145,0
1583421772.098,38.574,36.621,34.668,37.109,84.473,0
1583421772.102,41.992,33.203,31.738,36.621,-0.977,0
1583421772.106,44.922,35.645,31.738,38.574,15.625,0
1583421772.110,40.527,38.574,33.203,35.645,77.148,0
1583421772.114,41.016,39.062,26.855,38.086,73.730,0
1583421772.118,41.504,41.504,27.832,41.016,-11.719,0
1583421772.121,37.598,39.062,33.691,38.574,12.207,0
1583421772.125,34.180,37.598,29.785,39.062,93.750,0
1583421772.129,35.156,41.016,21.484,44.922,75.195,0
1583421772.133,37.598,40.039,22.949,44.434,73.242,0
1583421772.137,36.133,35.156,37.109,39.062,76.660,0
1583421772.134,29.297,31.738,35.156,33.203,101.562,0
1583421772.138,30.762,31.738,30.273,31.250,39.551,0
1583421772.142,31.250,34.180,32.227,32.715,-14.160,0
1583421772.146,28.809,35.156,33.691,31.738,23.926,0
1583421772.150,32.715,31.250,31.738,29.297,1.465,0
1583421772.154,35.156,32.227,30.273,31.738,12.695,0
1583421772.158,33.691,36.621,27.832,29.785,41.992,0
1583421772.161,31.250,37.598,26.367,25.879,28.809,0
1583421772.165,31.250,38.086,33.691,26.855,13.184,0
1583421772.169,35.156,38.574,35.645,26.367,5.859,0
1583421772.173,31.738,36.133,31.738,24.414,2.930,0
1583421772.177,26.855,34.180,32.715,25.391,53.223,0
1583421772.174,25.879,37.598,38.574,28.809,63.477,0
1583421772.178,21.484,37.109,36.621,26.855,23.438,0
1583421772.182,11.230,34.180,28.320,17.578,-21.973,0
1583421772.186,0.488,36.133,31.250,5.371,-42.969,0
1583421772.190,-5.371,38.086,44.922,0.488,12.695,0
1583421772.194,-15.137,39.551,53.223,-5.371,42.480,0
1583421772.198,-29.297,41.992,50.781,-19.043,32.227,0
1583421772.201,-39.062,41.992,53.223,-32.715,46.875,0
1583421772.205,-49.805,39.062,57.129,-44.922,48.828,0
1583421772.209,-67.383,39.551,60.547,-62.500,38.086,0
1583421772.213,-95.215,45.898,62.012,-88.867,49.805,0
1583421772.217,-117.188,50.781,55.664,-112.793,66.895,0
1583421772.236,-129.395,51.758,56.152,-127.930,41.016,0
1583421772.240,-143.066,48.828,57.617,-141.113,63.477,0
1583421772.244,-154.297,52.246,59.570,-153.320,25.391,0
1583421772.248,-158.203,55.664,61.035,-160.645,27.344,0
1583421772.252,-158.203,50.781,53.711,-164.062,37.109,0
1583421772.256,-159.180,51.758,53.223,-163.086,-7.812,0
1583421772.260,-143.555,48.828,54.199,-152.344,-23.438,0
1583421772.263,-121.582,43.945,49.316,-132.324,32.715,0
1583421772.267,-102.539,48.828,39.062,-108.887,54.688,0
1583421772.271,-86.426,42.480,39.062,-92.773,38.086,0
1583421772.275,-61.035,35.645,53.711,-67.871,63.477,0
1583421772.279,-30.762,38.574,48.828,-36.133,17.090,0
1583421772.274,-10.742,39.551,33.203,-13.672,-32.715,0
1583421772.278,14.160,40.527,28.320,8.789,-41.992,0
1583421772.282,29.297,38.574,38.574,22.461,-6.836,0
1583421772.286,44.434,38.086,39.551,42.969,39.062,0
1583421772.290,65.918,39.551,19.531,66.406,81.543,0
1583421772.294,81.543,44.434,5.371,75.684,72.266,0
1583421772.298,90.332,41.016,20.020,84.473,31.250,0
1583421772.301,91.797,34.180,39.062,86.914,13.672,0
1583421772.305,92.773,33.691,34.668,84.961,35.645,0
1583421772.309,95.215,33.691,24.902,83.984,17.578,0
1583421772.313,99.121,34.668,21.484,86.426,-36.133,0
1583421772.317,100.098,34.180,15.137,88.379,9.277,0
1583421772.314,102.051,33.691,14.648,93.750,65.918,0
1583421772.318,101.562,29.297,15.137,101.074,80.566,0
1583421772.322,100.098,23.926,17.578,100.098,114.258,0
1583421772.326,97.656,21.484,22.461,100.586,83.496,0
1583421772.330,100.586,23.926,21.484,107.910,71.777,0
1583421772.334,102.051,30.762,23.438,110.840,84.473,0
1583421772.338,100.098,31.738,19.043,112.305,10.254,0
1583421772.341,106.934,22.949,23.926,115.723,7.324,0
1583421772.345,106.445,21.484,32.227,110.352,47.363,0
1583421772.349,97.656,28.809,29.785,104.980,60.547,0
1583421772.353,95.703,22.461,30.762,105.957,65.918,0
1583421772.357,97.656,18.555,28.809,104.980,53.223,0
1583421772.374,96.680,32.715,21.484,101.074,-0.488,0
1583421772.378,97.168,31.738,19.531,101.074,0.977,0
1583421772.382,98.633,26.367,19.043,104.492,35.156,0
1583421772.386,92.773,32.227,16.113,95.703,26.367,0
1583421772.390,85.938,29.297,20.020,83.496,-14.648,0
1583421772.394,80.566,25.879,21.973,72.754,-6.836,0
1583421772.398,68.359,31.250,22.949,64.453,38.574,0
1583421772.401,53.711,31.738,30.273,63.965,48.828,0
1583421772.405,48.828,25.879,33.691,65.430,20.996,0
1583421772.409,61.035,28.320,33.203,70.312,13.184,0
1583421772.413,66.406,36.133,34.180,71.289,3.418,0
1583421772.417,67.383,33.203,27.344,71.777,2.930,0
1583421772.414,71.777,32.715,23.926,73.730,29.785,0
1583421772.418,80.078,35.645,18.066,77.148,18.066,0
1583421772.422,85.449,32.227,13.672,79.590,2.441,0
1583421772.426,79.102,33.203,27.832,75.195,24.902,0
1583421772.430,72.754,39.062,38.086,69.824,16.602,0
1583421772.434,70.312,38.086,39.551,67.383,53.711,0
1583421772.438,70.312,39.551,34.180,67.383,46.387,0
1583421772.441,62.012,33.203,29.785,65.918,-16.602,0
1583421772.445,54.199,25.391,35.645,62.988,0.488,0
1583421772.449,54.199,30.762,36.133,60.547,-8.301,0
1583421772.453,48.828,32.715,34.180,55.176,34.180,0
1583421772.457,44.922,30.273,32.227,52.734,98.633,0
1583421772.454,42.969,32.715,28.809,52.246,62.012,0
1583421772.458,42.480,36.621,30.762,52.734,25.879,0
1583421772.462,41.504,41.016,31.738,53.711,23.926,0
1583421772.466,38.574,39.551,28.320,51.758,70.312,0
1583421772.470,42.480,37.109,22.461,52.734,90.332,0
1583421772.474,42.480,38.086,21.973,52.246,74.219,0
1583421772.478,35.156,33.691,27.344,50.293,57.129,0
1583421772.481,31.738,32.227,33.691,43.457,25.879,0
1583421772.485,38.086,36.133,35.645,40.039,16.113,0
1583421772.489,44.922,36.621,29.785,43.457,-5.859,0
1583421772.493,41.016,33.203,29.297,39.551,11.230,0
1583421772.497,48.828,35.645,26.367,39.551,55.664,0
1583421772.514,50.781,37.109,26.367,40.039,27.344,0
1583421772.518,43.457,34.668,25.879,37.598,12.207,0
1583421772.522,40.039,33.691,23.438,34.668,16.113,0
1583421772.526,34.180,33.203,30.762,33.691,-8.789,0
1583421772.530,24.414,36.133,34.668,33.691,-10.254,0
1583421772.534,16.113,38.086,33.691,31.250,23.438,0
1583421772.538,7.812,38.086,33.203,25.879,105.957,0
1583421772.541,0.977,32.715,35.156,20.508,69.824,0
1583421772.545,4.883,35.645,36.133,24.902,10.254,0
1583421772.549,4.883,43.945,33.691,17.090,49.316,0
1583421772.553,9.277,48.340,35.156,7.324,64.941,0
1583421772.557,8.301,47.852,39.062,10.254,17.578,0
1583421772.555,-0.977,42.480,37.109,5.371,-17.578,0
1583421772.559,-1.953,48.828,33.691,-6.348,16.113,0
1583421772.563,-13.672,50.293,39.062,-20.508,75.195,0
1583421772.567,-27.832,45.410,49.316,-35.156,65.918,0
1583421772.571,-41.016,46.875,44.434,-54.688,44.922,0
1583421772.575,-60.059,49.805,44.434,-69.336,79.590,0
1583421772.579,-71.777,49.316,55.176,-78.125,54.199,0
1583421772.582,-88.867,46.875,57.617,-96.680,39.551,0
1583421772.586,-111.816,44.434,56.152,-116.211,32.715,0
1583421772.590,-125.977,44.922,57.129,-132.812,60.547,0
1583421772.594,-143.555,44.434,57.129,-148.438,101.074,0
1583421772.598,-155.762,42.969,49.805,-157.227,66.406,0
1583421772.594,-158.691,43.945,45.410,-162.109,34.668,0
1583421772.598,-158.691,43.457,58.105,-159.180,41.504,0
1583421772.602,-154.785,45.410,60.547,-151.367,61.035,0
1583421772.606,-147.949,50.781,48.340,-141.602,63.477,0
1583421772.610,-138.184,51.270,50.293,-127.930,-8.789,0
1583421772.614,-131.836,45.898,58.594,-122.559,-4.883,0
1583421772.618,-113.770,47.363,44.922,-105.469,41.016,0
1583421772.621,-96.191,52.734,30.762,-85.449,13.184,0
1583421772.625,-82.031,48.828,36.133,-69.824,49.316,0
1583421772.629,-63.477,42.480,46.387,-46.387,96.680,0
1583421772.633,-40.527,41.016,46.875,-25.879,72.754,0
1583421772.637,-9.766,39.551,38.086,0.977,15.625,0
1583421772.654,13.184,35.156,28.320,23.438,4.395,0
1583421772.658,36.621,37.109,26.855,36.133,0.488,0
1583421772.662,63.477,38.086,27.832,53.223,-17.578,0
1583421772.666,84.473,31.738,19.531,77.148,-1.953,0
1583421772.670,96.191,37.598,8.789,86.426,13.184,0
1583421772.674,99.121,37.109,19.043,85.938,9.277,0
1583421772.678,105.957,35.156,36.621,93.750,54.688,0
1583421772.681,110.352,38.574,34.180,102.539,74.219,0
1583421772.685,118.652,35.156,31.250,110.352,49.316,0
1583421772.689,119.141,32.715,29.785,112.793,42.480,0
1583421772.693,117.188,31.250,24.902,114.746,66.895,0
1583421772.697,123.047,34.180,19.531,113.770,61.523,0
1583421772.694,113.770,28.320,13.672,109.863,31.250,0
1583421772.698,113.281,27.344,1.465,118.652,21.973,0
1583421772.702,118.164,33.203,0.000,129.883,-41.504,0
1583421772.706,119.629,34.180,15.137,126.953,36.621,0
1583421772.710,119.141,32.227,27.344,112.793,99.609,0
1583421772.714,113.770,30.762,29.785,116.211,20.996,0
1583421772.718,116.699,32.227,33.691,125.977,1.953,0
1583421772.721,112.793,29.785,29.297,120.117,-4.395,0
1583421772.725,106.934,39.551,21.484,119.141,1.465,0
1583421772.729,108.887,37.598,24.902,124.023,20.996,0
1583421772.733,104.004,22.461,24.902,114.258,19.043,0
1583421772.737,95.215,22.949,25.391,105.957,33.203,0
1583421772.754,91.797,21.484,29.297,111.328,57.617,0
1583421772.758,94.238,24.414,27.832,104.980,97.656,0
1583421772.762,95.703,38.086,20.508,92.285,89.355,0
1583421772.766,91.797,41.504,21.484,91.309,32.715,0
1583421772.770,91.797,29.297,26.367,97.656,-4.395,0
1583421772.774,92.773,29.297,25.879,99.121,-3.906,0
1583421772.778,95.703,31.738,23.926,96.680,39.062,0
1583421772.781,94.238,23.438,15.137,92.285,33.203,0
1583421772.785,88.867,34.180,8.789,82.520,54.688,0
1583421772.789,90.332,44.434,24.902,82.031,92.773,0
1583421772.793,91.309,30.762,41.016,84.961,26.855,0
1583421772.797,84.961,36.133,28.809,76.172,-12.695,0
1583421772.794,88.867,44.922,29.297,75.195,26.367,0
1583421772.798,96.680,41.016,30.273,70.801,76.172,0
1583421772.802,87.891,34.668,28.809,70.801,80.078,0
1583421772.806,76.172,36.133,32.715,78.613,8.789,0
1583421772.810,71.777,39.062,35.156,65.918,-11.230,0
1583421772.814,79.590,43.945,34.668,62.012,12.695,0
1583421772.818,80.566,42.480,32.227,68.848,-5.859,0
1583421772.821,68.848,41.992,34.180,63.965,-71.777,0
1583421772.825,74.707,41.016,27.344,67.383,-53.223,0
1583421772.829,73.242,32.715,24.414,64.941,16.602,0
1583421772.833,62.988,34.668,31.250,55.664,68.848,0
1583421772.837,57.617,39.062,33.203,57.129,38.574,0
1583421772.834,46.387,32.715,33.691,52.246,3.418,0
1583421772.838,36.621,30.273,38.086,42.480,48.340,0
1583421772.842,35.645,30.762,34.180,43.457,56.152,0
1583421772.846,34.180,34.180,29.297,44.434,98.145,0
1583421772.850,27.832,41.992,36.133,32.227,48.828,0
1583421772.854,26.855,39.551,42.969,30.762,-5.859,0
1583421772.858,32.227,35.645,43.945,38.574,0.977,0
1583421772.861,23.438,43.457,42.480,24.902,-10.742,0
1583421772.865,-3.418,47.363,49.805,-4.883,7.812,0
1583421772.869,-26.367,46.387,47.852,-36.621,-8.301,0
1583421772.873,-38.086,43.457,42.969,-46.387,26.855,0
1583421772.877,-51.758,43.945,47.363,-51.758,34.180,0
1583421772.894,-75.684,47.852,54.199,-73.730,-3.418,0
1583421772.898,-101.562,50.781,61.035,-99.609,18.555,0
1583421772.902,-121.582,48.340,56.641,-124.023,-0.488,0
1583421772.906,-135.742,49.316,53.711,-140.137,-6.836,0
1583421772.910,-159.668,45.898,61.035,-166.016,41.992,0
1583421772.914,-181.152,49.316,56.641,-186.523,51.758,0
1583421772.918,-190.918,50.781,54.688,-191.895,53.223,0
1583421772.921,-198.242,49.316,53.223,-198.242,53.711,0
1583421772.925,-204.590,54.688,43.945,-209.473,41.016,0
1583421772.929,-206.055,55.176,49.316,-207.520,80.566,0
1583421772.933,-207.031,54.688,53.711,-200.684,45.898,0
1583421772.937,-203.613,53.711,38.574,-197.266,-29.785,0
1583421772.934,-202.148,49.316,38.574,-197.266,79.590,0
1583421772.938,-192.871,52.734,48.828,-191.406,145.020,0
1583421772.942,-179.199,59.570,44.922,-181.152,91.309,0
1583421772.946,-175.781,56.641,34.180,-178.223,48.340,0
1583421772.950,-167.480,52.246,32.227,-176.270,10.254,0
1583421772.954,-154.785,51.758,35.156,-163.086,1.953,0
1583421772.958,-137.207,53.223,35.645,-145.996,29.785,0
1583421772.961,-118.164,47.363,30.273,-135.254,133.789,0
1583421772.965,-94.727,45.898,29.785,-117.676,118.164,0
1583421772.969,-71.289,51.270,30.762,-89.355,28.809,0
1583421772.973,-46.387,50.293,21.484,-64.941,21.484,0
1583421772.977,-17.578,42.969,24.414,-39.062,47.363,0
1583421772.975,7.812,36.133,21.484,-5.859,41.504,0
1583421772.979,30.273,38.574,16.602,16.602,99.609,0
1583421772.983,46.387,40.527,29.297,32.715,99.121,0
1583421772.987,64.453,38.086,31.738,55.664,52.246,0
1583421772.991,83.008,40.039,22.949,83.496,66.895,0
1583421772.995,96.680,37.109,17.090,102.539,58.594,0
1583421772.999,115.234,31.250,13.672,118.652,50.781,0
1583421773.002,134.277,34.180,7.812,134.766,30.273,0
1583421773.006,145.020,29.785,11.719,141.602,58.594,0
1583421773.010,150.391,23.438,21.973,148.926,44.434,0
1583421773.014,160.645,27.344,18.066,157.227,25.391,0
1583421773.018,168.457,33.691,15.137,158.203,43.945,0
1583421773.034,170.898,31.250,16.113,156.738,52.246,0
1583421773.038,177.246,31.738,15.137,161.133,47.363,0
1583421773.042,186.523,33.691,12.207,169.922,-7.324,0
1583421773.046,185.547,32.227,6.348,167.480,21.973,0
1583421773.050,175.781,32.227,7.812,161.621,12.695,0
1583421773.054,170.410,29.297,22.461,161.133,-18.555,0
1583421773.058,166.992,26.855,28.320,162.598,19.043,0
1583421773.061,162.109,25.391,20.020,156.738,5.371,0
1583421773.065,159.668,22.949,19.531,151.367,20.508,0
1583421773.069,153.320,24.902,24.902,147.461,51.270,0
1583421773.073,146.973,28.809,23.926,141.602,25.391,0
1583421773.077,143.066,30.273,20.020,136.719,4.883,0
1583421773.075,140.625,28.320,18.066,136.719,24.414,0
1583421773.079,138.184,25.391,24.902,137.207,85.449,0
1583421773.083,130.859,29.297,26.367,133.301,59.570,0
1583421773.087,125.000,27.344,20.508,128.418,0.000,0
1583421773.091,125.977,25.391,24.902,131.348,-37.109,0
1583421773.095,123.047,24.902,26.855,133.789,9.766,0
1583421773.099,120.605,22.949,23.438,130.859,58.105,0
1583421773.102,120.117,23.926,20.996,126.465,55.176,0
1583421773.106,119.141,23.926,22.461,118.652,65.430,0
1583421773.110,122.070,27.344,28.320,120.117,17.090,0
1583421773.114,118.652,28.809,30.762,116.699,-10.742,0
1583421773.118,115.723,28.809,31.738,109.863,6.836,0
1583421773.114,116.699,34.668,31.250,108.398,-23.438,0
1583421773.118,110.352,36.133,22.461,100.098,-4.883,0
1583421773.122,100.586,32.227,20.020,95.703,63.477,0
1583421773.126,95.703,32.227,29.297,87.891,75.195,0
1583421773.130,89.844,33.203,37.598,78.125,83.496,0
1583421773.134,88.379,33.203,35.645,79.102,41.992,0
1583421773.138,86.426,31.250,30.762,83.008,50.293,0
1583421773.141,76.660,29.785,35.645,80.078,46.387,0
1583421773.145,76.660,31.738,28.809,80.566,58.594,0
1583421773.149,79.102,30.762,20.020,85.938,96.191,0
1583421773.153,73.242,29.785,26.855,87.891,59.570,0
1583421773.157,73.242,30.273,31.250,84.473,8.789,0
1583421773.174,70.312,28.320,38.574,73.730,3.418,0
1583421773.178,70.312,27.832,41.992,73.242,15.137,0
1583421773.182,73.242,28.809,37.109,73.242,70.801,0
1583421773.186,69.824,37.109,37.598,70.801,88.379,0
1583421773.190,62.988,39.551,38.086,68.359,14.160,0
1583421773.194,62.012,34.180,32.715,63.965,35.156,0
1583421773.198,58.105,35.645,30.762,58.105,74.219,0
1583421773.201,57.129,34.180,36.621,55.664,36.133,0
1583421773.205,63.477,31.250,33.203,54.199,46.387,0
1583421773.209,57.617,33.691,27.344,50.781,34.668,0
1583421773.213,53.223,32.715,33.691,50.781,55.664,0
1583421773.217,57.617,33.203,27.832,52.734,61.035,0
1583421773.215,56.152,32.715,29.297,51.758,-3.418,0
1583421773.219,47.363,31.250,40.039,47.363,33.203,0
1583421773.223,42.969,26.855,40.039,55.176,81.543,0
1583421773.227,50.781,27.832,36.133,66.895,7.324,0
1583421773.231,46.387,32.227,33.691,59.082,-23.926,0
1583421773.235,39.551,33.203,31.250,41.992,8.301,0
1583421773.239,48.828,33.203,29.785,44.434,5.859,0
1583421773.242,44.434,34.668,28.320,41.504,-1.465,0
1583421773.246,42.480,35.156,26.855,38.574,13.184,0
1583421773.250,54.688,40.039,19.531,50.781,28.809,0
1583421773.254,55.176,39.551,13.184,46.875,41.504,0
1583421773.258,50.781,33.203,20.996,41.016,29.297,0
1583421773.254,50.293,35.156,35.645,40.527,12.207,0
1583421773.258,44.434,39.062,32.227,39.062,42.480,0
1583421773.262,44.434,41.504,24.414,43.457,39.551,0
1583421773.266,46.387,40.039,32.715,43.945,11.230,0
1583421773.270,41.016,35.645,35.645,38.086,26.855,0
1583421773.274,41.016,34.180,40.039,39.551,-4.395,0
1583421773.278,45.898,33.691,38.574,43.945,-22.461,0
1583421773.281,44.434,37.109,22.461,42.969,27.832,0
1583421773.285,43.945,41.016,19.531,35.156,25.879,0
1583421773.289,44.922,40.039,21.973,38.086,59.570,0
1583421773.293,45.410,38.086,31.738,44.922,73.242,0
1583421773.297,42.480,35.645,41.992,40.527,-5.859,0
1583421773.314,36.621,32.227,39.062,36.621,10.254,0
1583421773.318,30.762,27.832,41.016,35.156,35.645,0
1583421773.322,26.855,31.738,35.645,38.086,13.672,0
1583421773.326,24.414,34.180,29.297,36.621,23.438,0
1583421773.330,24.902,34.180,26.855,36.621,2.930,0
1583421773.334,36.133,31.738,35.156,45.410,28.320,0
1583421773.338,37.109,27.344,41.016,41.016,65.430,0
1583421773.341,26.855,30.273,41.992,35.156,71.777,0
1583421773.345,26.855,28.809,35.645,35.645,32.715,0
1583421773.349,34.180,32.227,32.715,36.133,-4.883,0
1583421773.353,34.180,38.086,33.691,34.668,32.227,0
1583421773.357,29.297,34.668,33.691,30.273,38.086,0
1583421773.354,27.344,33.203,33.203,33.691,-13.672,0
1583421773.358,22.949,30.762,30.273,29.785,9.766,0
1583421773.362,25.879,31.250,28.809,27.344,12.695,0
1583421773.366,23.926,34.668,25.391,33.691,-1.953,0
1583421773.370,16.602,34.180,29.785,28.809,24.414,0
1583421773.374,20.020,32.227,32.715,27.832,29.785,0
1583421773.378,28.809,27.832,34.668,34.668,11.719,0
1583421773.381,26.367,31.738,33.203,35.156,40.527,0
1583421773.385,13.672,41.016,32.715,23.438,23.438,0
1583421773.389,12.695,47.363,38.086,17.090,16.602,0
1583421773.393,24.414,40.039,37.109,18.555,44.434,0
1583421773.397,20.996,32.227,30.273,12.207,21.484,0
1583421773.394,16.113,40.039,26.367,14.160,-12.207,0
1583421773.398,17.090,41.016,32.227,20.508,-17.090,0
1583421773.402,10.254,36.621,35.156,21.484,5.859,0
1583421773.406,4.883,37.109,29.297,24.902,-3.906,0
1583421773.410,13.184,36.133,29.297,20.996,33.691,0
1583421773.414,26.855,35.156,33.691,26.855,103.516,0
1583421773.418,25.879,34.180,27.832,29.297,83.984,0
1583421773.421,28.320,36.621,29.785,26.855,75.684,0
1583421773.425,27.344,37.109,21.484,27.832,87.402,0
1583421773.429,23.438,29.785,27.344,16.113,73.242,0
1583421773.433,26.367,34.668,45.410,19.043,23.926,0
1583421773.437,31.738,38.574,41.016,25.391,26.367,0
1583421773.454,27.344,34.668,40.039,27.832,82.520,0
1583421773.458,13.672,35.645,34.180,32.227,56.152,0
1583421773.462,19.531,28.320,25.879,33.691,6.836,0
1583421773.466,30.762,28.320,35.156,32.227,30.273,0
1583421773.470,27.832,38.086,27.832,25.879,-15.625,0
1583421773.474,23.926,42.480,19.531,28.809,-41.504,0
1583421773.478,23.926,39.551,37.109,24.902,15.137,0
1583421773.481,20.996,35.645,32.715,20.508,56.641,0
1583421773.485,21.484,36.133,33.691,20.508,61.035,0
1583421773.489,17.578,38.086,29.785,13.672,32.227,0
1583421773.493,13.672,36.133,26.367,16.113,48.828,0
1583421773.497,17.578,33.691,37.109,24.902,83.008,0
1583421773.494,17.578,39.062,35.645,31.738,56.641,0
1583421773.498,28.809,37.109,40.527,35.645,18.066,0
1583421773.502,30.762,32.715,37.109,31.250,45.898,0
1583421773.506,15.137,36.621,35.645,28.320,57.617,0
1583421773.510,20.508,39.062,33.203,28.809,80.566,0
1583421773.514,47.852,28.809,27.344,42.480,95.703,0
1583421773.518,27.832,33.203,32.227,33.203,50.781,0
1583421773.521,11.230,31.250,29.785,23.926,63.965,0
1583421773.525,23.438,21.973,28.809,25.879,39.062,0
1583421773.529,23.926,23.926,35.156,21.484,8.301,0
1583421773.533,23.438,23.438,27.344,21.973,23.438,0
1583421773.537,18.066,19.531,27.832,25.391,15.137,0
1583421773.534,17.578,18.066,37.109,22.949,39.551,0
1583421773.538,26.855,20.508,37.109,29.785,84.961,0
1583421773.542,15.137,23.926,44.922,27.832,81.543,0
1583421773.546,7.812,22.949,39.062,21.484,95.703,0
1583421773.550,19.531,24.902,15.137,25.391,96.191,0
1583421773.554,19.531,24.414,20.020,29.785,4.395,0
1583421773.558,25.391,22.461,44.434,30.273,-45.898,0
1583421773.561,33.203,24.414,55.664,26.855,-21.484,0
1583421773.565,30.273,24.414,50.781,31.250,63.965,0
1583421773.569,15.137,27.832,40.039,29.297,70.801,0
1583421773.573,15.137,25.391,43.457,24.902,23.926,0
1583421773.577,26.855,25.391,38.574,33.203,42.969,0
1583421773.594,28.809,25.879,37.109,33.691,31.250,0
1583421773.598,38.086,26.855,36.133,34.668,37.598,0
1583421773.602,36.621,30.762,31.738,36.621,33.203,0
1583421773.606,33.203,22.949,43.945,40.039,-8.789,0
1583421773.610,39.062,26.367,41.016,43.945,-30.273,0
1583421773.614,38.574,30.273,35.156,40.527,-13.672,0
1583421773.618,37.109,22.461,36.133,36.133,56.641,0
1583421773.621,37.109,23.926,38.086,29.297,81.055,0
1583421773.625,27.344,32.227,38.574,13.184,61.035,0
1583421773.629,26.855,37.109,29.297,16.602,51.270,0
1583421773.633,35.156,42.969,27.832,32.715,2.441,0
1583421773.637,37.109,39.062,38.086,30.762,11.719,0
1583421773.634,36.621,34.668,30.273,29.297,61.523,0
1583421773.638,35.645,43.457,26.855,34.180,63.477,0
1583421773.642,31.250,44.922,36.621,30.762,29.785,0
1583421773.646,35.156,34.180,34.180,30.273,-13.184,0
1583421773.650,35.156,30.762,39.551,32.715,-24.414,0
1583421773.654,33.691,38.086,40.039,30.273,22.461,0
1583421773.658,38.574,34.180,41.016,32.227,14.648,0
1583421773.661,38.086,34.668,37.109,30.762,39.062,0
1583421773.665,24.414,38.574,19.531,26.367,31.738,0
1583421773.669,28.809,38.086,23.438,31.250,2.441,0
1583421773.673,45.898,37.109,42.969,32.227,41.016,0
1583421773.677,34.668,39.551,45.410,23.926,44.922,0
1583421773.675,27.344,37.598,37.109,28.809,40.039,0
1583421773.679,34.180,31.250,37.109,35.645,-6.348,0
1583421773.683,27.344,32.715,32.227,34.180,7.812,0
1583421773.687,14.160,32.715,31.250,26.367,52.246,0
1583421773.691,25.391,36.133,37.598,33.203,2.930,0
1583421773.695,30.762,34.668,33.691,35.156,10.742,0
1583421773.699,20.020,30.762,34.668,23.926,0.488,0
1583421773.702,26.367,37.109,39.062,28.320,8.789,0
1583421773.706,31.738,39.551,40.039,31.250,41.504,0
1583421773.710,22.949,35.156,39.062,26.855,25.391,0
1583421773.714,20.996,33.203,40.039,28.320,77.148,0
1583421773.718,25.391,34.668,42.480,35.156,63.965,0
1583421773.734,24.414,43.945,36.133,36.621,-5.859,0
1583421773.738,31.250,41.016,28.320,40.039,-22.461,0
1583421773.742,32.715,29.785,22.461,41.016,-1.465,0
1583421773.746,26.367,31.250,30.762,37.109,55.664,0
1583421773.750,25.879,36.621,41.992,31.250,44.922,0
1583421773.754,17.578,37.109,40.039,31.250,81.055,0
1583421773.758,25.879,32.227,38.574,35.156,102.051,0
1583421773.761,33.691,31.250,44.922,33.203,76.660,0
1583421773.765,28.809,32.227,48.340,42.969,97.656,0
1583421773.769,15.137,30.273,41.016,34.180,54.688,0
1583421773.773,28.809,33.203,31.250,40.527,25.879,0
1583421773.777,36.621,36.621,16.602,48.828,53.711,0
1583421773.774,13.672,32.715,19.043,40.527,86.914,0
1583421773.778,16.113,27.832,45.410,39.551,30.273,0
1583421773.782,30.273,27.344,52.246,34.668,29.785,0
1583421773.786,19.531,38.574,45.410,32.715,51.758,0
1583421773.790,19.043,41.992,45.410,33.203,-0.977,0
1583421773.794,35.156,31.738,45.898,35.156,-19.043,0
1583421773.798,34.668,34.180,39.551,31.738,82.031,0
1583421773.801,36.133,38.574,35.156,32.227,65.430,0
1583421773.805,45.898,34.180,31.250,34.180,1.953,0
1583421773.809,52.734,34.668,22.461,35.156,38.086,0
1583421773.813,42.969,36.621,34.180,31.738,35.156,0
1583421773.817,19.531,39.551,45.410,23.926,35.156,0
1583421773.814,12.207,41.992,36.621,27.344,34.180,0
1583421773.818,22.461,31.738,33.203,28.320,57.129,0
1583421773.822,35.645,29.785,41.504,29.785,40.039,0
1583421773.826,38.574,33.691,40.039,28.809,34.668,0
1583421773.830,46.387,33.691,34.180,35.645,89.844,0
1583421773.834,44.922,38.086,33.691,47.852,35.645,0
1583421773.838,33.691,41.504,39.551,42.480,-22.461,0
1583421773.841,41.504,38.086,41.016,40.527,13.184,0
1583421773.845,35.645,38.086,31.738,35.645,26.855,0
1583421773.849,22.461,39.062,28.320,36.133,32.715,0
1583421773.853,24.414,31.738,44.434,37.598,42.480,0
1583421773.857,33.691,35.645,42.969,30.273,6.836,0
1583421773.874,36.621,39.062,33.691,31.250,27.832,0
1583421773.878,33.203,37.109,35.645,33.691,76.660,0
1583421773.882,24.414,40.527,39.062,34.668,53.711,0
1583421773.886,33.203,36.621,42.969,38.574,23.926,0
1583421773.890,40.039,30.762,41.016,36.621,12.695,0
1583421773.894,38.086,36.621,36.621,37.109,11.230,0
1583421773.898,47.363,42.480,30.762,40.527,27.832,0
1583421773.901,35.645,39.551,20.996,41.016,-6.836,0
1583421773.905,27.832,36.133,26.367,35.645,-6.348,0
1583421773.909,36.621,34.180,29.297,33.691,79.102,0
1583421773.913,38.086,39.551,24.902,38.086,56.641,0
1583421773.917,42.969,38.574,41.016,34.668,16.113,0
1583421773.915,30.762,37.598,44.922,30.273,42.969,0
1583421773.919,24.414,41.016,40.527,27.832,11.230,0
1583421773.923,26.855,42.480,38.574,30.762,23.438,0
1583421773.927,23.926,39.551,31.250,30.273,35.156,0
1583421773.931,22.461,39.062,24.414,26.855,7.324,0
1583421773.935,29.785,36.133,30.762,34.668,36.621,0
1583421773.939,31.250,35.645,39.551,34.668,37.598,0
1583421773.942,23.438,33.691,33.691,33.203,32.227,0
1583421773.946,22.949,37.109,24.414,42.969,41.016,0
1583421773.950,20.508,38.574,20.020,34.180,92.773,0
1583421773.954,35.156,33.691,34.668,33.691,74.219,0
1583421773.958,30.762,38.574,35.645,41.016,30.273,0
1583421773.954,26.855,39.062,30.273,36.133,23.438,0
1583421773.958,41.504,32.227,37.109,37.598,-3.418,0
1583421773.962,27.344,30.762,40.527,33.691,-9.277,0
1583421773.966,29.297,29.785,38.574,37.109,25.391,0
1583421773.970,34.668,39.551,34.180,41.504,41.016,0
1583421773.974,25.391,45.410,43.457,38.086,53.223,0
1583421773.978,31.250,39.551,39.062,37.109,29.785,0
1583421773.981,24.902,39.551,27.344,32.715,79.102,0
1583421773.985,23.438,35.156,40.039,30.762,76.660,0
1583421773.989,24.902,34.668,41.992,27.344,78.125,0
1583421773.993,27.344,36.133,32.227,31.250,120.117,0
1583421773.997,29.297,39.551,32.715,38.574,45.410,0
1583421774.014,27.832,41.016,33.203,34.668,17.090,0
1583421774.018,22.461,40.527,31.250,27.832,20.996,0
1583421774.022,14.648,35.645,35.156,26.367,2.441,0
1583421774.026,16.602,33.203,38.574,23.438,-62.988,0
1583421774.030,26.855,32.715,39.062,32.227,-57.129,0
1583421774.034,22.949,27.832,44.922,33.691,25.879,0
1583421774.038,16.113,39.062,41.992,23.438,52.734,0
1583421774.041,20.508,34.180,41.504,24.414,1.465,0
1583421774.045,17.578,27.832,36.621,21.973,-34.668,0
1583421774.049,16.602,35.156,20.020,21.973,0.488,0
1583421774.053,25.879,34.668,26.855,23.926,30.762,0
1583421774.057,31.738,34.668,38.086,20.996,27.344,0
1583421774.054,35.156,36.621,26.367,26.855,57.129,0
1583421774.058,36.133,30.762,22.461,32.715,69.336,0
1583421774.062,24.902,25.879,41.992,29.297,20.020,0
1583421774.066,19.531,31.738,46.387,26.367,9.766,0
1583421774.070,29.297,32.715,44.434,35.645,12.207,0
1583421774.074,21.484,30.762,42.480,32.227,33.691,0
1583421774.078,16.602,29.297,42.969,24.902,55.176,0
1583421774.081,20.508,26.367,41.504,29.785,46.387,0
1583421774.085,20.508,30.273,23.926,31.250,32.227,0
1583421774.089,28.320,35.645,33.203,28.320,29.785,0
1583421774.093,21.484,37.109,47.852,26.855,28.809,0
1583421774.097,28.320,33.691,45.410,29.297,9.277,0
1583421774.114,33.203,30.762,42.480,33.691,20.020,0
1583421774.118,34.668,31.250,42.480,40.039,40.527,0
1583421774.122,35.156,31.250,43.457,36.133,53.223,0
1583421774.126,30.273,31.250,41.016,28.320,88.379,0
1583421774.130,31.250,30.273,34.180,31.738,71.777,0
1583421774.134,29.297,28.320,29.297,34.180,31.250,0
1583421774.138,29.785,29.785,22.461,32.715,88.867,0
1583421774.141,37.598,36.133,31.250,31.738,94.727,0
1583421774.145,35.156,34.180,53.223,32.715,-1.953,0
1583421774.149,20.996,34.668,49.316,26.367,2.930,0
1583421774.153,15.625,36.621,48.828,20.020,39.062,0
1583421774.157,22.461,27.832,49.316,33.691,27.344,0
1583421774.154,19.531,39.062,20.996,36.621,76.172,0
1583421774.158,25.391,37.598,20.996,30.273,119.629,0
1583421774.162,18.066,24.902,44.434,27.344,85.938,0
1583421774.166,12.695,32.227,44.922,26.855,48.340,0
1583421774.170,34.180,40.527,42.969,25.879,42.480,0
1583421774.174,28.320,38.086,43.457,25.391,60.547,0
1583421774.178,17.090,40.039,41.016,27.832,34.180,0
1583421774.181,24.902,36.133,37.598,29.785,23.438,0
1583421774.185,22.461,33.691,35.156,32.227,122.070,0
1583421774.189,25.391,36.621,23.926,35.156,19.531,0
1583421774.193,27.344,41.504,27.344,32.227,-54.199,0
1583421774.197,23.438,36.133,41.992,28.809,28.809,0
1583421774.214,32.227,32.227,44.922,33.203,70.312,0
1583421774.218,33.203,35.156,40.039,32.715,33.691,0
1583421774.222,25.391,38.086,34.668,30.273,6.836,0
1583421774.226,31.250,37.598,28.320,31.250,53.223,0
1583421774.230,41.016,39.551,29.785,28.320,40.039,0
1583421774.234,30.273,40.039,48.340,29.785,23.926,0
1583421774.238,29.297,36.133,42.969,29.785,20.508,0
1583421774.241,41.016,35.645,34.668,30.762,7.812,0
1583421774.245,42.969,33.203,28.809,35.156,-39.551,0
1583421774.249,40.039,35.645,21.973,28.809,4.395,0
1583421774.253,35.645,39.551,35.645,21.973,23.438,0
1583421774.257,28.320,39.551,46.387,22.949,-30.273,0
1583421774.254,36.133,34.668,41.016,29.297,-12.207,0
1583421774.258,42.969,37.109,33.691,31.250,-21.973,0
1583421774.262,26.855,38.574,42.969,30.273,21.484,0
1583421774.266,32.715,34.180,40.039,34.180,57.129,0
1583421774.270,43.945,41.016,37.109,38.086,9.766,0
1583421774.274,35.156,42.480,41.992,28.809,26.855,0
1583421774.278,31.738,38.086,41.504,22.461,57.617,0
1583421774.281,40.527,40.039,36.621,27.344,13.672,0
1583421774.285,36.133,35.645,26.367,25.879,-38.086,0
1583421774.289,35.645,31.250,33.691,26.367,-22.461,0
1583421774.293,36.621,36.133,43.457,29.297,-0.977,0
1583421774.297,31.738,36.621,40.039,26.367,-7.812,0
1583421774.294,37.598,34.180,45.410,26.855,5.859,0
1583421774.298,31.738,33.691,47.852,26.367,5.371,0
1583421774.302,29.785,30.762,42.480,26.855,15.137,0
1583421774.306,35.645,32.715,42.969,29.297,8.301,0
1583421774.310,33.203,37.109,45.898,30.762,20.508,0
1583421774.314,22.461,38.574,34.180,31.738,61.523,0
1583421774.318,29.785,39.551,27.832,32.227,77.637,0
1583421774.321,44.922,37.598,34.668,34.668,53.711,0
1583421774.325,38.086,33.691,41.504,34.180,42.969,0
1583421774.329,40.039,35.645,46.387,33.203,42.480,0
1583421774.333,42.969,42.969,42.969,32.715,58.105,0
1583421774.337,40.039,44.434,38.574,31.738,73.730,0
1583421774.335,36.621,42.480,41.016,33.691,50.781,0
1583421774.339,28.809,35.645,42.480,35.156,72.754,0
1583421774.343,40.039,33.203,36.621,38.574,63.477,0
1583421774.347,44.434,37.598,32.227,39.062,5.371,0
1583421774.351,26.855,37.598,39.062,36.621,17.578,0
1583421774.355,27.832,35.645,48.828,39.551,30.762,0
1583421774.359,35.645,39.551,44.434,35.156,39.062,0
1583421774.362,38.574,38.574,31.738,34.180,45.898,0
1583421774.366,46.387,36.621,30.762,38.086,53.711,0
1583421774.370,50.781,41.016,38.086,39.062,55.664,0
1583421774.374,41.504,42.480,42.969,32.715,31.738,0
1583421774.378,20.508,42.969,41.992,23.438,20.020,0
1583421774.394,36.133,35.645,40.039,33.691,40.039,0
1583421774.398,52.734,36.621,28.809,41.016,51.270,0
1583421774.402,38.574,37.598,31.738,32.227,34.180,0
1583421774.406,32.227,30.762,41.992,25.391,72.754,0
1583421774.410,33.203,31.738,42.969,21.973,76.660,0
1583421774.414,30.273,38.086,44.922,28.320,43.457,0
1583421774.418,34.180,41.504,42.969,33.203,-8.789,0
1583421774.421,34.180,42.480,33.691,31.738,-7.812,0
1583421774.425,33.203,39.062,31.738,29.785,39.062,0
1583421774.429,32.227,36.621,41.016,31.738,45.898,0
1583421774.433,37.598,32.227,40.527,39.551,43.457,0
1583421774.437,44.922,37.109,34.668,41.504,40.527,0
1583421774.434,41.016,41.992,27.832,39.062,40.527,0
1583421774.438,35.645,34.668,31.738,33.691,15.625,0
1583421774.442,30.273,36.621,33.691,31.738,14.160,0
1583421774.446,23.438,41.016,30.762,33.691,7.324,0
1583421774.450,27.344,38.086,30.762,31.250,-18.555,0
1583421774.454,37.109,36.133,34.180,33.203,2.441,0
1583421774.458,27.832,35.645,40.527,29.297,44.434,0
1583421774.461,21.484,38.574,44.434,25.879,34.668,0
1583421774.465,32.715,37.598,33.691,29.297,33.691,0
1583421774.469,29.785,32.227,31.250,31.738,55.176,0
1583421774.473,28.809,33.691,39.551,29.297,79.590,0
1583421774.477,25.391,32.227,38.086,27.344,67.871,0
1583421774.474,9.277,29.785,31.738,30.273,87.891,0
1583421774.478,10.254,29.785,28.809,31.250,107.422,0
1583421774.482,28.809,28.320,39.551,34.668,62.012,0
1583421774.486,34.180,30.273,47.363,36.621,60.059,0
1583421774.490,32.227,33.203,46.875,39.551,21.484,0
1583421774.494,30.273,35.156,49.316,40.039,-6.836,0
1583421774.498,29.785,32.715,39.551,31.738,11.719,0
1583421774.501,32.227,32.227,31.250,28.320,81.055,0
1583421774.505,40.039,34.180,32.227,34.668,35.156,0
1583421774.509,38.086,37.598,35.156,34.668,-13.672,0
1583421774.513,27.344,29.785,42.969,30.273,90.332,0
1583421774.517,22.461,26.367,39.551,24.414,53.711,0
1583421774.554,23.926,28.809,42.969,25.391,-55.176,0
1583421774.558,23.438,35.645,36.621,29.297,-29.297,0
1583421774.562,24.414,42.480,31.250,27.344,34.180,0
1583421774.566,34.668,37.598,39.551,33.203,23.926,0
1583421774.570,30.762,35.645,45.898,33.203,18.066,0
1583421774.574,30.762,34.180,43.457,33.691,32.715,0
1583421774.578,35.645,33.691,41.016,37.109,17.090,0
1583421774.581,28.320,36.133,34.668,33.691,9.766,0
1583421774.585,29.297,34.668,22.949,35.645,-0.977,0
1583421774.589,35.156,30.762,22.461,33.691,34.668,0
1583421774.593,27.344,29.785,36.133,22.949,50.293,0
1583421774.597,29.785,33.203,55.176,21.484,45.410,0
1583421774.574,38.086,34.668,45.898,31.250,22.949,0
1583421774.578,31.738,39.551,34.180,35.156,8.301,0
1583421774.582,24.902,36.133,46.875,28.809,41.992,0
1583421774.586,27.832,30.273,47.852,25.391,74.219,0
1583421774.590,25.879,30.273,42.969,25.391,71.289,0
1583421774.594,21.484,31.738,40.527,26.367,9.766,0
1583421774.598,24.414,34.668,27.832,28.809,-15.625,0
1583421774.601,22.461,33.691,32.715,31.738,-9.277,0
1583421774.605,24.902,31.250,50.293,29.297,-1.465,0
1583421774.609,24.902,32.715,50.781,23.926,1.465,0
1583421774.613,23.926,34.668,47.852,22.949,35.156,0
1583421774.617,31.250,30.273,38.574,26.855,43.457,0
1583421774.614,36.133,27.832,29.297,28.809,41.016,0
1583421774.618,34.180,35.156,37.109,28.809,14.648,0
1583421774.622,35.645,35.156,38.574,30.762,-5.371,0
1583421774.626,37.109,28.809,38.086,28.809,60.547,0
1583421774.630,33.691,32.715,38.574,21.973,72.266,0
1583421774.634,32.715,32.715,28.320,27.832,47.852,0
1583421774.638,35.156,27.832,13.672,36.621,1.953,0
1583421774.641,37.109,28.809,25.391,34.180,-12.207,0
1583421774.645,31.250,30.762,51.270,27.832,15.137,0
1583421774.649,27.832,32.227,46.387,25.391,-5.371,0
1583421774.653,31.250,33.203,37.598,36.621,-13.184,0
1583421774.657,31.738,36.621,36.133,41.504,0.000,0
1583421774.674,29.785,37.109,30.273,41.016,38.574,0
1583421774.678,34.180,35.156,34.668,41.992,87.402,0
1583421774.682,34.180,36.133,37.598,38.574,65.430,0
1583421774.686,28.320,34.668,37.109,35.156,46.387,0
1583421774.690,28.320,31.738,43.945,34.180,71.289,0
1583421774.694,36.133,32.227,47.363,38.574,38.574,0
1583421774.698,35.156,34.668,44.434,43.457,2.930,0
1583421774.701,33.691,31.738,34.180,42.969,19.531,0
1583421774.705,33.203,29.785,31.250,38.086,69.824,0
1583421774.709,33.691,30.273,42.969,35.645,32.227,0
1583421774.713,33.691,29.785,39.062,37.598,-12.695,0
1583421774.717,32.227,33.203,27.344,35.645,90.332,0
1583421774.714,32.715,27.832,29.297,35.156,93.262,0
1583421774.718,27.344,26.855,31.250,41.016,25.391,0
1583421774.722,26.855,31.250,33.691,38.086,22.461,0
1583421774.726,29.297,33.203,40.039,27.832,24.414,0
1583421774.730,31.738,34.668,44.922,29.297,34.180,0
1583421774.734,33.203,29.785,43.457,30.762,78.125,0
1583421774.738,44.922,29.297,38.086,34.180,18.555,0
1583421774.741,52.246,29.297,27.344,40.039,-4.883,0
1583421774.745,42.969,31.738,19.531,33.203,73.242,0
1583421774.749,44.434,32.227,28.809,26.367,48.828,0
1583421774.753,40.039,31.738,45.410,27.832,35.645,0
1583421774.757,18.066,34.180,46.875,29.785,47.363,0
1583421774.754,22.949,33.691,41.504,37.598,12.207,0
1583421774.758,34.668,32.715,35.645,40.039,35.645,0
1583421774.762,41.504,35.645,24.414,38.086,70.801,0
1583421774.766,47.363,39.551,22.949,41.504,51.758,0
1583421774.770,42.969,36.133,27.832,38.086,72.754,0
1583421774.774,47.852,36.621,30.762,38.574,84.473,0
1583421774.778,45.410,39.062,37.109,42.969,65.430,0
1583421774.781,38.574,36.621,41.016,41.016,40.039,0
1583421774.785,43.945,41.504,38.086,43.457,5.371,0
1583421774.789,43.945,45.410,25.879,43.457,16.602,0
1583421774.793,41.504,40.039,31.250,38.086,50.781,0
1583421774.797,35.156,33.691,38.086,33.203,54.199,0
1583421774.814,35.645,33.691,31.250,33.691,56.152,0
1583421774.818,38.574,34.180,34.180,40.527,39.062,0
1583421774.822,29.297,39.551,37.109,37.109,20.508,0
1583421774.826,31.250,44.434,34.180,34.668,27.344,0
1583421774.830,34.180,42.480,30.273,33.203,60.059,0
1583421774.834,32.227,39.062,37.109,32.227,31.738,0
1583421774.838,34.668,37.109,26.367,36.133,-5.859,0
1583421774.841,38.086,35.156,22.461,30.762,-4.883,0
1583421774.845,34.180,31.738,38.574,25.879,-3.418,0
1583421774.849,28.809,30.762,33.691,28.809,48.340,0
1583421774.853,29.297,38.574,30.762,30.273,25.879,0
1583421774.857,36.133,41.992,34.180,33.203,-19.043,0
1583421774.855,41.016,34.180,27.832,35.645,-13.184,0
1583421774.859,38.574,31.250,34.180,35.156,3.906,0
1583421774.863,40.527,33.691,47.363,32.715,14.160,0
1583421774.867,45.898,37.598,40.039,27.344,-3.906,0
1583421774.871,46.875,41.992,28.320,31.250,27.832,0
1583421774.875,49.316,38.086,23.438,37.598,74.219,0
1583421774.879,40.039,37.109,35.645,35.156,29.297,0
1583421774.882,32.715,35.156,42.969,31.250,10.742,0
1583421774.886,39.551,32.227,38.086,30.273,73.730,0
1583421774.890,36.621,42.480,25.391,32.227,58.105,0
1583421774.894,39.062,41.016,31.738,37.109,2.930,0
1583421774.898,47.852,32.227,39.551,36.621,38.086,0
1583421774.894,43.457,37.598,18.066,31.738,-4.395,0
1583421774.898,33.203,37.598,28.809,31.250,-22.461,0
1583421774.902,38.086,35.156,47.363,29.785,-2.930,0
1583421774.906,41.016,35.156,44.922,24.414,-0.977,0
1583421774.910,33.691,33.203,40.039,24.414,10.254,0
1583421774.914,29.297,35.156,25.391,28.809,24.902,0
1583421774.918,27.344,33.691,31.250,30.762,57.129,0
1583421774.921,26.367,33.691,45.898,28.320,72.754,0
1583421774.925,21.484,45.410,40.527,25.391,47.852,0
1583421774.929,30.273,42.969,32.227,31.250,36.133,0
1583421774.933,36.133,35.645,36.133,35.645,50.293,0
1583421774.937,34.180,35.156,29.297,33.691,16.602,0
1583421774.954,34.180,36.133,21.484,31.738,75.684,0
1583421774.958,33.203,34.180,37.109,31.250,63.477,0
1583421774.962,36.621,37.109,34.180,34.668,-3.418,0
1583421774.966,32.227,40.527,29.785,31.250,45.410,0
1583421774.970,29.297,36.621,40.039,28.320,25.879,0
1583421774.974,37.109,34.668,29.785,28.809,41.992,0
1583421774.978,40.527,37.109,33.203,30.273,18.555,0
1583421774.981,37.598,35.645,44.434,31.738,20.996,0
1583421774.985,25.879,31.738,39.062,25.879,116.699,0
1583421774.989,20.020,28.320,41.016,20.508,127.441,0
1583421774.993,30.762,32.227,45.410,24.414,61.523,0
1583421774.997,31.738,32.227,43.945,25.879,-18.066,0
1583421774.994,28.809,30.762,36.621,26.367,22.461,0
1583421774.998,30.273,37.109,38.574,24.414,91.309,0
1583421775.002,33.691,36.133,38.574,23.926,33.203,0
1583421775.006,38.086,35.645,37.109,29.297,-45.898,0
1583421775.010,37.598,36.621,30.762,31.738,-54.199,0
1583421775.014,35.645,34.180,24.414,35.156,25.879,0
1583421775.018,33.691,37.109,39.062,35.645,15.137,0
1583421775.021,33.203,39.551,48.340,32.227,8.301,0
1583421775.025,35.645,33.691,45.898,35.156,72.266,0
1583421775.029,39.551,35.156,43.945,34.668,54.199,0
1583421775.033,41.992,38.086,39.062,28.809,24.414,0
1583421775.037,34.180,30.273,32.715,26.367,64.941,0
1583421775.034,26.855,33.691,33.691,27.344,64.453,0
1583421775.038,29.785,39.062,39.062,28.320,30.762,0
1583421775.042,31.738,41.504,36.621,27.344,12.695,0
1583421775.046,31.738,40.527,27.344,27.344,32.715,0
1583421775.050,36.133,39.551,27.344,30.273,62.012,0
1583421775.054,34.668,43.945,29.785,33.203,53.223,0
1583421775.058,26.855,37.109,36.133,30.762,54.199,0
1583421775.061,24.902,33.691,48.340,25.391,39.551,0
1583421775.065,29.297,38.086,48.828,29.297,-12.207,0
1583421775.069,35.156,39.551,43.457,34.668,-34.668,0
1583421775.073,40.527,38.574,40.527,36.133,5.859,0
1583421775.077,42.480,39.551,32.715,41.992,39.062,0
1583421775.094,51.270,42.969,28.320,49.316,32.227,0
1583421775.098,48.828,46.875,30.762,41.992,97.656,0
1583421775.102,35.156,44.922,37.598,26.367,64.453,0
1583421775.106,32.227,40.527,39.062,25.879,-14.648,0
1583421775.110,35.156,40.039,35.645,32.715,10.254,0
1583421775.114,30.273,41.016,33.203,33.203,52.246,0
1583421775.118,32.715,41.016,29.785,31.738,63.965,0
1583421775.121,33.203,41.504,20.996,31.250,38.086,0
1583421775.125,30.273,41.992,28.809,32.715,28.320,0
1583421775.129,30.762,42.480,30.273,33.203,34.180,0
1583421775.133,29.297,42.969,23.926,31.250,-20.020,0
1583421775.137,29.297,41.504,36.621,25.879,-22.949,0
1583421775.134,28.809,40.527,39.551,23.926,13.184,0
1583421775.138,34.668,40.527,33.691,27.344,63.477,0
1583421775.142,37.598,39.062,31.250,26.367,54.688,0
1583421775.146,42.969,41.504,29.297,25.879,39.551,0
1583421775.150,48.828,36.621,21.484,29.297,59.570,0
1583421775.154,43.457,35.156,27.344,29.297,11.230,0
1583421775.158,36.133,43.945,35.156,29.785,-12.695,0
1583421775.161,35.645,43.945,45.410,26.855,44.434,0
1583421775.165,35.645,44.434,40.527,23.438,16.113,0
1583421775.169,36.133,48.828,29.297,23.926,43.457,0
1583421775.173,33.203,46.387,34.668,21.484,84.961,0
1583421775.177,26.367,42.480,34.668,21.484,46.387,0
1583421775.194,25.391,42.480,35.156,22.461,58.105,0
1583421775.198,24.414,38.574,42.969,21.973,62.500,0
1583421775.202,23.926,37.109,38.086,27.832,19.043,0
1583421775.206,27.832,36.621,27.344,34.668,-48.828,0
1583421775.210,29.297,35.156,35.156,31.738,-72.266,0
1583421775.214,32.227,37.598,41.016,28.320,-53.711,0
1583421775.218,30.762,36.621,33.203,30.762,14.160,0
1583421775.221,32.715,38.574,29.297,34.668,45.898,0
1583421775.225,32.715,37.109,31.738,35.645,50.781,0
1583421775.229,30.762,33.203,30.762,34.668,75.684,0
1583421775.233,36.621,38.574,38.574,39.062,25.391,0
1583421775.237,33.203,34.668,41.992,38.086,9.277,0
1583421775.234,29.297,31.738,37.109,34.180,20.996,0
1583421775.238,28.320,37.109,35.156,29.297,-4.883,0
1583421775.242,25.391,35.156,21.973,27.344,20.020,0
1583421775.246,25.391,32.715,27.344,29.297,32.715,0
1583421775.250,28.320,33.691,39.551,30.762,41.992,0
1583421775.254,42.969,33.691,32.715,38.574,43.945,0
1583421775.258,45.410,37.109,30.762,37.598,-8.789,0
1583421775.261,40.039,41.504,33.203,36.133,-9.766,0
1583421775.265,45.898,42.480,40.039,39.551,-11.719,0
1583421775.269,47.852,41.016,46.387,38.574,50.293,0
1583421775.273,46.387,38.574,33.691,41.992,87.402,0
1583421775.277,49.316,39.062,28.320,44.922,34.668,0
1583421775.294,46.875,38.574,32.227,42.969,23.926,0
1583421775.298,46.875,37.598,31.738,41.016,9.766,0
1583421775.302,44.434,39.062,36.621,37.598,-0.488,0
1583421775.306,40.039,41.504,45.898,34.668,26.855,0
1583421775.310,42.480,41.504,43.945,36.621,-34.180,0
1583421775.314,41.504,40.039,30.762,40.527,-27.832,0
1583421775.318,39.551,39.062,26.855,37.598,69.824,0
1583421775.321,37.598,36.621,27.344,32.227,62.500,0
1583421775.325,35.645,33.203,30.762,32.715,26.367,0
1583421775.329,36.621,34.180,38.574,36.621,58.594,0
1583421775.333,36.621,38.574,41.992,36.133,92.773,0
1583421775.337,36.621,38.574,42.480,33.691,67.383,0
1583421775.335,38.574,40.527,38.574,31.738,46.387,0
1583421775.339,39.062,41.504,34.668,29.297,79.590,0
1583421775.343,38.574,36.133,37.109,27.344,94.727,0
1583421775.347,38.574,36.133,35.156,23.926,33.203,0
1583421775.351,40.039,43.945,20.020,26.367,-0.488,0
1583421775.355,37.598,45.410,28.809,28.809,26.855,0
1583421775.359,35.156,43.457,47.852,24.414,42.480,0
1583421775.362,30.273,38.086,44.922,22.461,52.734,0
1583421775.366,29.297,35.645,41.016,25.391,71.289,0
1583421775.370,30.273,37.598,31.738,31.250,56.152,0
1583421775.374,30.762,37.598,22.949,33.203,4.395,0
1583421775.378,34.180,41.504,32.227,30.273,-8.301,0
1583421775.374,35.156,43.945,37.109,30.762,10.254,0
1583421775.378,31.250,38.086,32.227,30.762,24.414,0
1583421775.382,29.297,34.180,28.809,27.344,-10.254,0
1583421775.386,32.227,40.527,28.809,26.367,-18.555,0
1583421775.390,33.203,42.480,47.852,30.273,32.227,0
1583421775.394,32.227,40.039,54.688,28.320,12.207,0
1583421775.398,23.926,38.086,43.457,19.531,4.395,0
1583421775.401,20.508,36.621,41.504,20.020,-18.066,0
1583421775.405,26.367,36.133,40.527,27.344,-4.395,0
1583421775.409,27.344,37.598,36.621,27.832,50.293,0
1583421775.413,26.367,37.109,31.250,25.391,52.246,0
1583421775.417,30.273,37.109,31.250,32.227,22.461,0
1583421775.414,28.809,38.086,38.574,30.762,12.207,0
1583421775.418,25.391,34.668,41.992,25.879,38.574,0
1583421775.422,25.391,31.738,46.875,25.391,35.156,0
1583421775.426,26.855,32.715,48.828,25.391,12.695,0
1583421775.430,28.809,33.691,37.598,27.832,7.812,0
1583421775.434,31.738,32.227,33.203,25.879,5.371,0
1583421775.438,32.715,37.598,43.457,26.855,9.277,0
1583421775.441,28.809,40.527,43.945,28.809,82.520,0
1583421775.445,29.785,36.621,35.645,31.738,78.613,0
1583421775.449,32.227,37.598,38.086,30.273,61.523,0
1583421775.453,28.809,36.621,45.898,30.762,64.453,0
1583421775.457,27.344,32.715,49.805,39.062,22.949,0
1583421775.454,27.832,31.738,39.551,40.527,20.020,0
1583421775.458,26.855,32.227,38.086,33.691,58.105,0
1583421775.462,21.973,32.715,47.852,33.203,38.086,0
1583421775.466,25.879,31.250,45.410,38.086,-3.906,0
1583421775.470,32.227,30.762,39.551,41.504,14.648,0
1583421775.474,29.785,32.715,33.203,37.109,39.551,0
1583421775.478,29.785,31.250,34.180,32.715,29.785,0
1583421775.481,34.180,31.738,28.809,34.668,0.488,0
1583421775.485,37.109,37.598,21.484,34.180,-30.762,0
1583421775.489,33.691,39.062,31.250,35.645,-17.090,0
1583421775.493,30.273,37.598,39.551,39.062,26.855,0
1583421775.497,32.715,38.086,41.992,36.133,54.199,0
1583421775.514,37.598,39.062,42.480,32.227,1.465,0
1583421775.518,37.598,38.086,39.062,34.180,-50.781,0
1583421775.522,31.738,34.180,30.273,30.273,0.000,0
1583421775.526,33.691,37.598,26.367,36.133,89.844,0
1583421775.530,36.133,41.992,21.484,45.898,83.008,0
1583421775.534,30.762,38.574,32.715,37.598,-2.930,0
1583421775.538,24.414,38.086,50.781,30.273,13.672,0
1583421775.541,23.438,34.668,42.969,32.715,119.141,0
1583421775.545,23.926,33.203,37.109,37.109,82.520,0
1583421775.549,20.508,33.691,41.016,37.598,-43.945,0
1583421775.553,20.508,34.668,36.133,34.668,3.906,0
1583421775.557,18.555,33.203,34.180,31.250,40.527,0
1583421775.554,17.578,27.832,31.250,34.668,-22.949,0
1583421775.558,25.391,27.832,26.855,38.086,-3.906,0
1583421775.562,30.762,31.250,27.344,38.086,12.207,0
1583421775.566,30.762,35.156,26.367,37.598,46.875,0
1583421775.570,27.344,36.133,35.156,32.227,50.293,0
1583421775.574,26.367,34.180,39.062,25.879,52.734,0
1583421775.578,28.809,35.645,29.785,23.926,91.309,0
1583421775.581,26.367,37.109,23.438,27.344,108.887,0
1583421775.585,26.367,35.645,28.809,29.297,86.426,0
1583421775.589,34.180,36.621,35.156,26.367,20.996,0
1583421775.593,37.109,35.156,37.598,28.320,16.113,0
1583421775.597,36.133,33.203,38.574,29.785,17.090,0
1583421775.594,33.691,31.738,42.969,27.344,3.418,0
1583421775.598,30.273,34.668,38.574,31.250,52.734,0
1583421775.602,30.762,39.551,30.762,37.598,47.363,0
1583421775.606,27.832,31.738,35.156,33.691,44.922,0
1583421775.610,19.531,26.367,34.180,25.879,51.270,0
1583421775.614,13.184,32.227,25.391,24.414,52.246,0
1583421775.618,16.113,33.203,29.785,27.344,83.496,0
1583421775.621,21.484,31.250,39.062,27.832,42.969,0
1583421775.625,21.484,29.297,36.621,27.344,14.160,0
1583421775.629,24.902,30.273,37.598,29.297,57.617,0
1583421775.633,30.273,31.250,38.086,33.691,113.281,0
1583421775.637,33.691,31.250,33.691,35.645,42.969,0
1583421775.654,38.574,32.227,38.086,33.691,-6.348,0
1583421775.658,42.480,30.762,36.621,30.762,67.871,0
1583421775.662,40.527,32.227,30.762,29.297,82.031,0
1583421775.666,36.621,36.621,30.762,29.785,95.215,0
1583421775.670,36.133,37.598,35.156,28.809,83.496,0
1583421775.674,38.086,36.621,41.992,31.250,31.738,0
1583421775.678,34.180,33.203,42.480,32.715,3.906,0
1583421775.681,30.762,37.598,39.551,34.668,38.574,0
1583421775.685,36.621,40.527,36.133,37.109,16.602,0
1583421775.689,40.039,38.574,37.109,34.668,-55.176,0
1583421775.693,42.480,39.062,43.457,37.109,20.020,0
1583421775.697,39.551,39.062,38.086,39.551,65.918,0
1583421775.694,33.203,35.156,36.133,37.598,75.195,0
1583421775.698,29.785,34.668,52.246,35.645,73.730,0
1583421775.702,27.832,39.062,49.316,32.227,-13.672,0
1583421775.706,26.367,43.457,40.039,26.855,10.254,0
1583421775.710,21.973,41.504,39.062,23.438,86.426,0
1583421775.714,22.461,35.156,43.457,21.973,67.383,0
1583421775.718,23.438,37.109,47.852,22.949,39.062,0
1583421775.721,20.020,40.527,40.039,20.020,43.945,0
1583421775.725,24.414,42.480,37.598,19.043,56.641,0
1583421775.729,27.832,45.410,39.062,18.066,45.898,0
1583421775.733,20.996,46.387,37.109,16.113,69.824,0
1583421775.737,16.602,47.852,41.016,18.066,29.297,0
1583421775.754,15.137,47.852,44.922,18.555,38.574,0
1583421775.758,7.812,47.363,42.969,14.160,74.707,0
1583421775.762,5.859,46.387,46.875,9.277,3.906,0
1583421775.766,3.906,45.898,47.363,7.324,31.250,0
1583421775.770,-4.395,47.363,43.457,-3.418,75.195,0
1583421775.774,-13.672,48.828,48.828,-11.719,29.297,0
1583421775.778,-22.461,50.293,56.152,-15.625,69.824,0
1583421775.781,-38.574,53.711,57.129,-30.762,90.332,0
1583421775.785,-58.105,58.105,53.711,-51.758,56.152,0
1583421775.789,-67.871,61.523,55.176,-62.988,10.742,0
1583421775.793,-79.590,62.500,56.152,-73.242,-6.836,0
1583421775.797,-95.215,62.500,58.594,-90.332,-3.418,0
1583421775.795,-110.840,63.477,55.664,-104.004,3.418,0
1583421775.799,-123.535,67.871,48.340,-119.141,-19.531,0
1583421775.803,-138.184,67.383,56.641,-138.184,-10.742,0
1583421775.807,-157.715,64.453,58.594,-158.691,39.062,0
1583421775.811,-168.945,69.336,50.781,-167.480,-1.465,0
1583421775.815,-175.781,73.730,50.781,-169.922,-2.441,0
1583421775.819,-181.641,77.148,53.223,-182.129,20.020,0
1583421775.822,-185.059,76.660,47.363,-189.453,37.598,0
1583421775.826,-183.105,74.707,36.621,-190.918,17.090,0
1583421775.830,-178.223,75.195,28.809,-190.918,29.297,0
1583421775.834,-172.363,76.660,28.809,-185.547,32.715,0
1583421775.838,-176.270,78.125,26.855,-189.453,20.996,0
1583421775.834,-177.734,77.148,24.902,-189.941,36.133,0
1583421775.838,-172.852,79.102,30.273,-179.688,45.410,0
1583421775.842,-170.898,77.148,31.738,-172.363,12.207,0
1583421775.846,-168.457,73.242,29.785,-174.316,22.461,0
1583421775.850,-154.297,71.289,32.227,-168.457,54.688,0
1583421775.854,-140.625,70.801,25.879,-154.785,48.828,0
1583421775.858,-138.672,69.336,20.020,-149.902,42.969,0
1583421775.861,-134.277,68.359,28.320,-143.066,26.855,0
1583421775.865,-119.629,67.871,35.156,-126.465,59.570,0
1583421775.869,-107.422,68.848,30.762,-113.770,88.379,0
1583421775.873,-104.492,67.383,21.973,-106.934,27.832,0
1583421775.877,-90.820,61.035,28.320,-90.820,40.039,0
1583421775.894,-75.684,57.129,36.621,-71.289,34.668,0
1583421775.898,-63.965,53.223,35.645,-52.246,17.090,0
1583421775.902,-46.387,47.852,32.227,-30.273,37.598,0
1583421775.906,-22.949,44.922,28.320,-5.371,32.715,0
1583421775.910,3.418,46.875,19.043,15.137,35.645,0
1583421775.914,29.297,44.434,18.066,34.668,-31.250,0
1583421775.918,52.734,38.086,23.438,57.129,-12.207,0
1583421775.921,66.895,39.551,22.461,76.172,70.312,0
1583421775.925,83.496,38.086,18.555,95.215,24.902,0
1583421775.929,110.352,28.320,17.090,117.188,60.059,0
1583421775.933,127.930,26.855,12.207,129.883,76.172,0
1583421775.937,134.277,28.809,17.090,136.719,29.785,0
1583421775.934,143.066,26.367,26.855,144.531,2.930,0
1583421775.938,151.367,22.461,23.438,146.973,-10.742,0
1583421775.942,161.133,20.020,24.414,157.227,33.691,0
1583421775.946,173.828,18.555,22.949,174.805,32.715,0
1583421775.950,177.734,19.043,24.902,182.129,29.785,0
1583421775.954,177.246,19.531,28.809,181.641,81.055,0
1583421775.958,178.223,17.578,26.367,185.059,77.148,0
1583421775.961,173.828,14.648,25.391,182.617,41.992,0
1583421775.965,168.457,14.160,26.367,176.758,17.090,0
1583421775.969,169.922,17.578,28.320,175.781,36.133,0
1583421775.973,167.969,17.578,26.855,176.758,41.504,0
1583421775.977,164.062,17.578,24.414,179.199,6.836,0
1583421775.974,166.016,18.555,22.461,176.270,-6.348,0
1583421775.978,167.480,18.066,20.996,173.828,-0.977,0
1583421775.982,166.016,16.602,27.832,168.945,25.879,0
1583421775.986,167.480,16.113,36.133,166.504,60.547,0
1583421775.990,166.992,17.090,31.250,165.527,41.992,0
1583421775.994,164.551,16.602,39.551,163.086,16.113,0
1583421775.998,160.645,15.625,40.527,160.156,37.598,0
1583421776.001,150.391,14.648,34.180,153.320,61.035,0
1583421776.005,144.531,18.555,41.992,147.949,47.363,0
1583421776.009,139.648,19.043,40.527,143.555,15.137,0
1583421776.013,128.418,16.602,33.203,133.789,-7.812,0
1583421776.017,124.512,16.602,27.344,129.883,35.645,0
1583421776.034,123.535,19.043,23.926,127.930,48.828,0
1583421776.038,119.141,18.066,30.762,122.070,37.109,0
1583421776.042,116.699,14.648,35.156,118.164,76.660,0
1583421776.046,113.281,19.531,25.879,116.699,46.387,0
1583421776.050,106.445,20.020,25.879,112.305,13.184,0
1583421776.054,103.516,18.066,38.086,112.305,55.664,0
1583421776.058,101.074,22.949,38.574,112.793,76.660,0
1583421776.061,97.168,22.461,25.391,106.934,31.250,0
1583421776.065,95.703,17.090,22.949,104.980,5.371,0
1583421776.069,92.773,18.066,33.203,104.492,-11.230,0
1583421776.073,89.355,19.531,36.621,99.121,-11.719,0
1583421776.077,86.914,20.996,41.992,97.168,-27.832,0
1583421776.074,83.984,21.973,41.016,96.680,-9.277,0
1583421776.078,86.426,21.973,35.645,92.773,-15.625,0
1583421776.082,89.355,26.367,45.410,89.844,9.277,0
1583421776.086,88.379,23.926,42.480,88.379,87.402,0
1583421776.090,92.773,25.879,31.250,90.820,87.402,0
1583421776.094,94.727,30.273,32.715,91.309,44.922,0
1583421776.098,92.285,26.855,26.855,87.402,39.062,0
1583421776.101,87.891,26.367,23.926,79.102,94.238,0
1583421776.105,79.102,25.879,31.738,67.871,94.727,0
1583421776.109,74.707,24.414,38.086,69.336,35.645,0
1583421776.113,75.195,25.879,41.992,70.801,106.445,0
1583421776.117,69.336,24.902,47.363,65.918,94.238,0
1583421776.114,66.406,22.949,39.062,67.871,5.371,0
1583421776.118,72.754,29.297,29.785,76.172,15.137,0
1583421776.122,69.336,30.273,34.180,72.266,5.371,0
1583421776.126,47.852,26.855,37.598,53.711,-10.254,0
1583421776.130,40.527,30.762,36.621,45.898,32.227,0
1583421776.134,42.969,32.227,39.551,47.852,52.246,0
1583421776.138,41.016,30.762,40.527,46.875,30.273,0
1583421776.141,42.969,29.297,38.574,46.387,34.668,0
1583421776.145,43.945,30.762,39.062,43.945,79.102,0
1583421776.149,46.875,31.250,42.480,43.457,38.086,0
1583421776.153,49.805,28.320,30.762,51.758,-3.418,0
1583421776.157,43.945,23.438,19.531,52.734,45.898,0
1583421776.175,44.434,23.926,36.621,50.781,34.180,0
1583421776.179,44.922,27.344,48.340,48.828,9.766,0
1583421776.183,36.133,22.949,41.504,41.016,58.105,0
1583421776.187,32.227,24.902,29.297,39.551,42.969,0
1583421776.191,30.762,34.180,19.043,41.016,39.551,0
1583421776.195,26.367,34.668,24.902,38.574,55.176,0
1583421776.199,30.762,34.668,36.133,40.527,26.855,0
1583421776.202,33.691,33.203,39.062,42.480,6.348,0
1583421776.206,29.297,29.785,44.922,34.180,34.180,0
1583421776.210,34.668,28.809,45.410,33.691,57.617,0
1583421776.214,37.598,28.320,41.504,41.504,48.828,0
1583421776.218,40.039,30.273,43.945,42.969,30.762,0
1583421776.214,43.457,31.250,33.691,41.504,-50.781,0
1583421776.218,41.016,27.832,32.715,40.039,-51.270,0
1583421776.222,40.527,29.785,45.898,35.645,-26.367,0
1583421776.226,39.551,34.668,41.992,40.527,-18.555,0
1583421776.230,37.598,32.227,40.039,41.504,-8.789,0
1583421776.234,34.668,26.367,38.574,37.598,42.480,0
1583421776.238,31.738,31.250,32.715,37.598,87.402,0
1583421776.241,32.715,31.250,31.250,34.668,57.617,0
1583421776.245,32.227,26.855,28.320,35.156,40.039,0
1583421776.249,36.133,34.668,15.137,39.062,9.277,0
1583421776.253,35.156,36.133,19.043,34.668,18.555,0
1583421776.257,27.832,28.809,47.363,29.785,53.223,0
1583421776.254,29.297,29.297,51.270,34.180,61.523,0
1583421776.258,30.762,25.391,41.504,38.574,54.688,0
1583421776.262,34.180,22.461,40.527,39.062,29.785,0
1583421776.266,37.109,31.250,36.133,37.109,1.953,0
1583421776.270,34.668,35.645,32.715,39.062,14.648,0
1583421776.274,35.156,36.621,32.227,41.016,47.363,0
1583421776.278,33.691,34.668,20.020,39.062,59.082,0
1583421776.281,34.668,34.180,21.484,37.109,-0.488,0
1583421776.285,36.621,36.133,32.715,30.762,-18.066,0
1583421776.289,36.133,34.180,31.738,28.809,41.992,0
1583421776.293,32.227,30.762,41.016,30.273,27.344,0
1583421776.297,28.809,31.250,38.086,30.273,-10.742,0
1583421776.314,31.738,28.809,32.227,32.227,12.207,0
1583421776.318,32.227,32.227,34.180,32.715,3.906,0
1583421776.322,30.273,40.527,32.227,31.250,32.227,0
1583421776.326,27.832,40.527,33.203,26.855,26.855,0
1583421776.330,26.367,36.133,34.180,24.414,21.484,0
1583421776.334,26.367,35.156,33.691,25.879,31.738,0
1583421776.338,31.250,39.062,17.578,27.832,53.223,0
1583421776.341,29.785,37.109,18.555,23.438,140.137,0
1583421776.345,25.391,29.785,41.992,22.949,79.102,0
1583421776.349,24.902,28.809,41.016,29.785,8.789,0
1583421776.353,25.879,31.738,39.062,32.715,29.297,0
1583421776.357,34.668,35.645,41.016,38.574,-1.953,0
1583421776.354,42.969,36.621,39.551,41.016,13.184,0
1583421776.358,39.551,32.227,27.832,32.715,78.125,0
1583421776.362,35.645,32.715,18.066,30.273,80.566,0
1583421776.366,36.133,36.133,24.414,28.809,62.988,0
1583421776.370,37.598,34.668,30.762,26.855,40.039,0
1583421776.374,35.645,34.668,29.297,29.785,19.043,0
1583421776.378,34.668,36.133,22.949,34.668,24.902,0
1583421776.381,35.156,34.180,27.344,36.133,46.387,0
1583421776.385,33.691,31.738,30.273,36.621,40.039,0
1583421776.389,40.527,36.621,29.297,44.922,7.324,0
1583421776.393,40.527,31.738,36.621,44.922,20.996,0
1583421776.397,36.621,23.926,37.598,41.504,29.785,0
1583421776.394,41.016,35.645,22.461,42.969,18.066,0
1583421776.398,39.062,40.039,20.996,41.016,33.203,0
1583421776.402,35.645,37.598,32.715,35.645,71.289,0
1583421776.406,33.691,35.645,38.574,33.203,57.129,0
1583421776.410,32.227,33.203,33.203,34.180,-9.277,0
1583421776.414,29.297,32.715,28.809,33.691,-22.461,0
1583421776.418,29.785,36.133,36.621,34.180,-2.441,0
1583421776.421,31.738,39.551,36.621,32.227,54.688,0
1583421776.425,32.227,42.969,24.902,32.227,93.262,0
1583421776.429,39.062,45.898,12.695,39.551,24.414,0
1583421776.433,36.621,40.527,24.414,36.621,-3.418,0
1583421776.437,28.809,30.762,41.992,31.738,67.383,0
1583421776.454,31.250,30.762,47.363,35.645,104.004,0
1583421776.458,34.668,32.715,35.645,34.668,86.914,0
1583421776.462,31.250,34.668,24.414,30.273,64.453,0
1583421776.466,33.203,38.086,34.180,35.156,32.227,0
1583421776.470,40.527,28.320,41.504,39.062,15.137,0
1583421776.474,41.504,27.832,37.109,40.039,-10.742,0
1583421776.478,41.992,42.969,24.414,42.480,8.789,0
1583421776.481,36.621,43.945,23.926,41.504,52.734,0
1583421776.485,28.320,36.621,30.762,38.086,64.453,0
1583421776.489,26.367,32.227,32.227,31.250,49.316,0
1583421776.493,28.809,34.668,32.715,30.762,57.129,0
1583421776.497,32.715,36.621,33.691,31.738,23.926,0
1583421776.494,32.715,35.156,33.691,27.832,15.137,0
1583421776.498,35.156,37.109,35.645,25.879,-9.277,0
1583421776.502,33.691,39.062,34.180,22.461,13.184,0
1583421776.506,32.227,39.551,32.227,20.020,60.059,0
1583421776.510,34.180,41.016,26.367,17.090,48.340,0
1583421776.514,34.668,42.969,18.066,14.160,10.742,0
1583421776.518,33.691,39.062,25.879,14.648,-7.324,0
1583421776.521,30.762,36.133,23.438,16.113,52.734,0
1583421776.525,29.297,37.109,22.949,18.555,-6.836,0
1583421776.529,24.902,39.062,42.969,14.648,-45.898,0
1583421776.533,22.461,36.133,50.781,11.719,2.441,0
1583421776.537,20.020,31.250,47.363,19.531,4.883,0
1583421776.535,19.531,33.691,44.922,24.902,15.625,0
1583421776.539,27.832,40.527,39.062,28.320,5.371,0
1583421776.543,32.715,38.574,38.086,25.391,37.109,0
1583421776.547,28.320,34.180,40.527,20.508,77.637,0
1583421776.551,32.715,35.156,36.621,29.297,75.195,0
1583421776.555,43.457,34.180,32.715,42.480,83.496,0
1583421776.559,39.062,31.250,26.855,33.203,62.012,0
1583421776.562,29.785,40.039,28.809,20.020,-1.953,0
1583421776.566,33.691,46.387,30.762,16.602,15.625,0
1583421776.570,39.551,41.992,27.832,20.020,35.156,0
1583421776.574,39.551,44.434,16.113,20.508,-4.395,0
1583421776.578,37.109,47.363,17.578,12.695,10.254,0
1583421776.594,38.574,45.410,29.297,15.625,66.895,0
1583421776.598,37.598,42.480,25.879,15.625,64.453,0
1583421776.602,32.715,42.969,17.090,12.207,35.645,0
1583421776.606,29.785,43.457,17.090,12.207,13.184,0
1583421776.610,29.785,44.434,20.020,12.207,66.406,0
1583421776.614,38.574,46.387,17.090,15.137,66.406,0
1583421776.618,39.062,48.340,25.879,16.113,46.387,0
1583421776.621,30.762,46.387,23.438,13.672,84.473,0
1583421776.625,29.785,43.945,16.113,12.207,70.312,0
1583421776.629,28.320,42.969,28.320,9.277,41.016,0
1583421776.633,29.785,40.527,29.785,9.766,17.090,0
1583421776.637,32.715,41.504,26.367,12.207,31.250,0
1583421776.634,31.250,41.992,28.809,13.184,2.930,0
1583421776.638,38.086,38.574,27.832,19.531,5.371,0
1583421776.642,37.109,34.668,32.227,25.391,39.551,0
1583421776.646,35.645,35.156,43.457,28.809,15.625,0
1583421776.650,41.016,39.551,38.086,31.738,59.082,0
1583421776.654,39.062,38.574,27.832,27.832,25.391,0
1583421776.658,37.109,37.109,34.180,26.367,34.180,0
1583421776.661,32.715,37.598,37.109,22.461,52.246,0
1583421776.665,33.691,36.133,31.250,21.973,22.949,0
1583421776.669,34.180,34.668,25.391,23.438,44.922,0
1583421776.673,32.715,30.273,20.996,21.484,76.660,0
1583421776.677,32.227,33.203,25.879,21.973,81.055,0
1583421776.674,31.738,40.527,23.438,23.438,66.406,0
1583421776.678,29.297,39.062,25.879,20.996,21.973,0
1583421776.682,29.785,34.668,44.922,20.996,17.578,0
1583421776.686,29.297,30.273,43.457,21.973,-9.277,0
1583421776.690,28.809,28.809,40.527,24.414,-22.949,0
1583421776.694,28.809,32.715,44.434,27.344,15.137,0
1583421776.698,25.879,33.203,41.504,27.344,44.434,0
1583421776.701,28.320,34.180,37.598,30.762,49.805,0
1583421776.705,30.273,38.574,34.668,33.691,42.969,0
1583421776.709,33.691,37.109,29.297,35.156,4.883,0
1583421776.713,38.574,38.086,19.043,37.109,2.441,0
1583421776.717,38.574,38.574,22.949,38.086,27.832,0
1583421776.734,38.086,35.645,37.109,36.621,25.391,0
1583421776.738,36.621,38.574,40.039,32.715,59.082,0
1583421776.742,36.621,40.039,42.480,32.715,72.754,0
1583421776.746,36.621,36.621,38.086,30.762,29.785,0
1583421776.750,35.156,35.156,34.668,28.809,-36.133,0
1583421776.754,34.668,35.645,41.016,30.762,35.156,0
1583421776.758,36.621,38.574,40.039,29.297,56.641,0
1583421776.761,38.086,39.062,30.273,33.203,3.418,0
1583421776.765,38.086,38.574,31.250,40.039,69.336,0
1583421776.769,40.039,38.086,33.691,40.039,30.273,0
1583421776.773,42.480,36.621,32.715,40.527,-20.020,0
1583421776.777,40.039,37.109,34.180,41.016,-34.180,0
1583421776.774,34.180,40.039,24.414,41.016,12.695,0
1583421776.778,31.738,36.133,34.180,42.480,67.871,0
1583421776.782,28.809,31.738,41.016,40.527,38.574,0
1583421776.786,20.020,35.156,39.062,36.621,50.293,0
1583421776.790,16.113,33.203,47.363,33.203,40.527,0
1583421776.794,20.508,32.227,42.969,29.785,-21.973,0
1583421776.798,25.879,33.691,41.016,23.438,15.625,0
1583421776.801,28.809,35.645,40.527,27.344,39.551,0
1583421776.805,27.832,37.109,33.691,32.227,10.254,0
1583421776.809,30.762,38.574,27.832,31.738,62.988,0
1583421776.813,30.273,36.621,30.762,30.273,40.527,0
1583421776.817,28.320,32.715,38.574,30.762,12.207,0
1583421776.814,35.156,34.668,40.527,37.109,63.477,0
1583421776.818,35.156,35.645,30.273,39.551,65.918,0
1583421776.822,30.762,36.133,29.297,35.645,-6.836,0
1583421776.826,33.691,38.086,33.691,35.645,7.324,0
1583421776.830,39.062,42.480,30.762,36.621,51.758,0
1583421776.834,38.574,41.016,32.715,41.016,33.203,0
1583421776.838,35.645,34.668,40.527,40.039,-16.113,0
1583421776.841,30.273,35.645,41.504,28.809,3.418,0
1583421776.845,17.090,36.621,37.598,17.090,18.555,0
1583421776.849,16.113,34.668,30.273,17.090,22.949,0
1583421776.853,23.926,33.691,29.297,22.949,50.781,0
1583421776.857,25.879,32.227,31.250,20.508,14.160,0
1583421776.875,27.344,33.691,29.297,19.531,21.973,0
1583421776.879,27.832,35.156,31.250,19.531,71.777,0
1583421776.883,31.738,34.180,38.086,23.438,73.730,0
1583421776.887,33.203,35.156,35.645,28.320,35.156,0
1583421776.891,29.785,35.156,30.273,30.273,-15.137,0
1583421776.895,33.691,34.180,32.715,31.738,-14.648,0
1583421776.899,38.574,34.180,33.203,29.297,17.090,0
1583421776.902,36.133,33.203,30.273,27.832,53.711,0
1583421776.906,37.109,29.297,33.203,29.297,62.988,0
1583421776.910,36.621,29.297,33.691,34.180,53.711,0
1583421776.914,31.738,33.691,34.668,36.133,53.711,0
1583421776.918,28.809,34.180,30.762,34.180,70.312,0
1583421776.914,34.180,28.320,27.344,34.180,83.496,0
1583421776.918,34.180,22.949,31.250,31.738,65.430,0
1583421776.922,37.109,26.855,36.133,32.715,37.598,0
1583421776.926,39.551,26.855,46.875,31.738,11.230,0
1583421776.930,36.133,31.738,46.875,31.738,52.246,0
1583421776.934,41.016,41.504,43.457,35.156,9.766,0
1583421776.938,42.480,41.016,37.109,39.062,18.555,0
1583421776.941,40.527,39.062,34.668,41.992,79.102,0
1583421776.945,44.434,41.504,30.762,41.992,58.594,0
1583421776.949,47.363,40.039,27.344,42.969,57.129,0
1583421776.953,46.875,35.645,39.551,45.898,86.426,0
1583421776.957,48.340,35.645,36.133,51.270,54.199,0
1583421776.954,48.340,37.109,33.203,52.246,34.668,0
1583421776.958,47.363,38.574,31.250,47.363,53.711,0
1583421776.962,41.504,40.527,31.738,42.969,67.871,0
1583421776.966,33.691,37.598,37.598,37.109,43.457,0
1583421776.970,35.156,37.598,36.621,36.133,-20.020,0
1583421776.974,37.598,38.086,34.180,36.133,14.160,0
1583421776.978,34.180,35.645,27.832,32.227,57.129,0
1583421776.981,34.180,38.574,28.320,29.785,59.570,0
1583421776.985,36.621,37.109,34.668,29.785,89.844,0
1583421776.989,33.203,33.203,29.785,35.645,69.824,0
1583421776.993,33.691,36.621,24.414,41.504,-25.391,0
1583421776.997,36.621,36.133,33.691,42.969,-36.621,0
1583421777.014,32.715,33.691,43.945,43.457,21.973,0
1583421777.018,25.879,33.691,48.340,39.551,-11.719,0
1583421777.022,23.926,34.180,47.852,38.574,-16.113,0
1583421777.026,28.320,32.715,33.691,44.434,40.039,0
1583421777.030,31.738,32.715,27.832,47.363,49.805,0
1583421777.034,33.691,36.621,42.969,44.434,8.301,0
1583421777.038,28.809,30.762,43.945,33.691,-18.555,0
1583421777.041,25.879,28.809,35.156,30.762,66.895,0
1583421777.045,29.785,34.180,29.785,35.156,71.289,0
1583421777.049,31.250,38.086,28.809,35.645,40.039,0
1583421777.053,41.016,42.480,35.156,37.598,37.598,0
1583421777.057,44.434,39.551,40.527,37.598,12.207,0
1583421777.054,35.645,35.156,42.969,37.598,0.488,0
1583421777.058,35.156,38.086,42.480,39.551,40.039,0
1583421777.062,35.645,41.016,38.086,38.086,58.594,0
1583421777.066,37.109,38.574,30.273,37.109,42.480,0
1583421777.070,38.574,37.598,31.738,39.062,120.605,0
1583421777.074,34.180,36.621,30.762,39.551,135.742,0
1583421777.078,31.250,34.668,28.320,34.668,59.082,0
1583421777.081,31.250,34.180,34.180,28.320,22.949,0
1583421777.085,37.109,36.133,36.133,30.762,24.414,0
1583421777.089,39.551,37.598,33.203,31.738,36.133,0
1583421777.093,38.574,37.598,29.785,31.738,17.578,0
1583421777.097,41.504,40.039,38.086,38.574,3.418,0
1583421777.094,40.039,39.062,40.039,37.109,8.789,0
1583421777.098,37.598,33.691,34.668,34.180,-6.836,0
1583421777.102,38.086,31.738,34.668,39.551,-26.855,0
1583421777.106,31.738,29.785,36.133,39.551,-14.160,0
1583421777.110,24.414,31.250,37.109,36.133,31.738,0
1583421777.114,23.438,32.715,39.062,38.086,51.758,0
1583421777.118,20.996,23.926,32.227,32.715,12.207,0
1583421777.121,22.461,26.855,29.785,21.973,-16.602,0
1583421777.125,23.926,36.133,29.297,18.066,-15.625,0
1583421777.129,20.020,38.574,28.809,20.020,-16.602,0
1583421777.133,24.414,40.527,35.156,19.043,57.129,0
1583421777.137,32.227,34.180,39.062,20.508,107.910,0
1583421777.154,38.574,35.645,38.574,25.391,57.617,0
1583421777.158,43.457,37.598,36.133,27.832,50.781,0
1583421777.162,44.922,36.133,31.250,31.250,61.035,0
1583421777.166,40.039,38.574,28.320,33.203,46.387,0
1583421777.170,34.668,39.062,32.715,35.156,-29.785,0
1583421777.174,33.691,36.133,36.621,39.062,-5.371,0
1583421777.178,32.227,35.645,41.504,40.527,33.203,0
1583421777.181,28.809,34.180,43.457,37.109,17.090,0
1583421777.185,29.297,31.738,46.387,35.156,75.684,0
1583421777.189,29.297,35.645,38.574,32.227,35.645,0
1583421777.193,30.762,38.574,32.227,32.227,2.441,0
1583421777.197,36.133,36.621,37.598,33.691,70.312,0
1583421777.194,36.133,33.203,36.621,31.738,46.387,0
1583421777.198,33.203,36.621,33.691,32.227,15.625,0
1583421777.202,28.320,36.133,36.133,29.297,15.137,0
1583421777.206,30.273,30.762,41.504,33.203,5.859,0
1583421777.210,40.527,33.203,41.016,43.945,27.344,0
1583421777.214,38.086,37.109,34.668,36.133,23.438,0
1583421777.218,25.879,35.645,29.785,22.949,52.734,0
1583421777.221,21.973,34.668,30.762,26.855,81.543,0
1583421777.225,24.414,31.738,34.668,28.809,59.570,0
1583421777.229,29.297,34.668,35.156,28.320,70.312,0
1583421777.233,29.785,35.645,30.273,30.273,53.223,0
1583421777.237,27.832,38.086,20.020,31.738,41.504,0
1583421777.235,32.227,41.992,20.020,31.250,28.320,0
1583421777.239,28.320,40.039,28.320,26.367,54.199,0
1583421777.243,27.344,41.016,31.250,24.902,57.129,0
1583421777.247,33.691,41.504,29.785,25.879,1.953,0
1583421777.251,34.668,38.574,23.438,24.902,-55.664,0
1583421777.255,34.668,37.598,25.879,21.973,-24.414,0
1583421777.259,31.738,38.086,35.645,19.043,30.273,0
1583421777.262,24.414,35.156,29.297,17.090,50.293,0
1583421777.266,25.879,33.691,27.832,22.949,44.434,0
1583421777.270,29.297,35.156,36.133,27.832,-26.855,0
1583421777.274,27.344,35.645,38.086,27.832,-14.648,0
1583421777.278,25.879,31.250,36.621,31.738,64.453,0
1583421777.294,24.414,29.297,23.438,37.109,78.613,0
1583421777.298,22.949,31.250,26.855,36.133,61.035,0
1583421777.302,23.438,37.109,41.992,34.180,46.387,0
1583421777.306,22.461,35.645,43.457,32.715,40.527,0
1583421777.310,24.902,33.691,41.016,32.715,37.598,0
1583421777.314,34.668,38.574,39.551,33.203,55.176,0
1583421777.318,34.668,36.621,35.156,30.273,6.348,0
1583421777.321,40.039,35.156,29.785,33.691,2.930,0
1583421777.325,44.922,41.992,15.137,39.551,80.566,0
1583421777.329,33.691,41.504,22.949,39.062,66.895,0
1583421777.333,31.738,40.527,44.922,39.062,87.402,0
1583421777.337,34.180,41.016,43.457,39.062,91.309,0
1583421777.335,37.109,41.016,40.527,36.621,-7.812,0
1583421777.339,40.039,40.527,38.086,34.180,39.062,0
1583421777.343,41.992,39.062,37.109,33.203,76.660,0
1583421777.347,45.898,41.992,35.156,39.551,49.805,0
1583421777.351,40.527,41.504,27.832,38.086,45.898,0
1583421777.355,37.109,38.086,34.668,35.645,21.973,0
1583421777.359,38.086,36.133,34.668,38.086,8.301,0
1583421777.362,41.016,35.645,31.250,34.668,47.852,0
1583421777.366,44.922,32.715,40.527,35.156,28.809,0
1583421777.370,42.480,30.273,40.527,34.668,-20.020,0
1583421777.374,37.109,36.133,29.297,32.715,-20.508,0
1583421777.378,34.180,38.086,31.738,30.273,-32.715,0
1583421777.394,29.297,38.086,34.668,33.691,9.277,0
1583421777.398,31.738,39.551,28.320,41.504,10.254,0
1583421777.402,34.180,33.691,30.273,41.016,-2.441,0
1583421777.406,29.785,32.715,37.109,37.598,14.160,0
1583421777.410,31.738,38.086,39.062,36.621,9.277,0
1583421777.414,34.668,35.645,36.133,34.180,2.930,0
1583421777.418,36.621,35.156,39.551,37.598,21.484,0
1583421777.421,37.109,40.039,27.344,36.621,-8.301,0
1583421777.425,34.668,41.016,11.230,30.273,31.738,0
1583421777.429,32.715,39.062,22.949,31.250,59.570,0
1583421777.433,32.715,36.133,42.480,34.668,9.766,0
1583421777.437,34.668,36.133,40.527,33.691,27.344,0
1583421777.434,33.203,30.762,32.227,27.344,29.297,0
1583421777.438,27.832,26.855,37.109,27.344,84.961,0
1583421777.442,30.273,32.715,35.645,31.250,135.254,0
1583421777.446,36.133,34.180,32.715,32.227,56.641,0
1583421777.450,38.574,34.668,32.227,35.156,14.160,0
1583421777.454,42.480,34.668,27.344,39.551,17.090,0
1583421777.458,40.039,32.715,23.438,38.086,29.297,0
1583421777.461,31.738,36.133,30.762,36.133,22.461,0
1583421777.465,25.879,34.668,41.992,32.227,39.062,0
1583421777.469,27.344,34.668,43.457,32.715,49.805,0
1583421777.473,28.809,41.016,37.598,32.227,50.781,0
1583421777.477,25.391,38.574,33.691,30.273,71.289,0
1583421777.474,25.391,31.738,32.227,32.715,33.691,0
1583421777.478,26.855,33.203,41.016,31.250,-18.066,0
1583421777.482,26.367,34.180,42.480,29.785,-4.883,0
1583421777.486,25.391,37.598,39.551,31.250,39.551,0
1583421777.490,28.809,37.109,38.086,33.203,15.137,0
1583421777.494,27.344,32.227,34.668,32.715,40.039,0
1583421777.498,22.949,33.203,32.715,30.762,90.332,0
1583421777.501,26.367,36.621,35.645,32.227,41.992,0
1583421777.505,34.180,41.504,33.691,33.691,28.809,0
1583421777.509,34.180,44.434,26.367,30.762,30.273,0
1583421777.513,31.738,43.457,27.344,26.367,-12.695,0
1583421777.517,32.715,40.039,28.809,24.414,-13.672,0
1583421777.534,29.297,39.551,33.203,25.879,11.230,0
1583421777.538,31.738,41.016,32.715,30.273,44.434,0
1583421777.542,34.180,39.551,29.297,34.180,43.457,0
1583421777.546,34.180,36.621,32.715,33.203,7.324,0
1583421777.550,35.156,33.203,35.156,34.668,16.602,0
1583421777.554,29.297,29.785,37.109,35.645,49.316,0
1583421777.558,29.785,33.691,38.086,35.156,20.508,0
1583421777.561,31.738,37.598,31.738,35.645,-36.621,0
1583421777.565,26.855,35.645,24.902,33.691,18.066,0
1583421777.569,28.809,34.180,25.391,38.086,65.430,0
1583421777.573,32.227,38.086,31.250,37.598,54.199,0
1583421777.577,37.109,36.133,35.156,31.250,50.781,0
1583421777.577,43.945,40.527,35.156,30.273,35.156,0
1583421777.581,41.504,44.922,35.645,24.902,42.969,0
1583421777.585,32.715,36.621,33.203,21.484,51.758,0
1583421777.589,32.227,36.621,28.809,26.367,27.832,0
1583421777.593,33.691,39.062,30.762,28.320,2.930,0
1583421777.597,31.250,39.062,35.645,27.832,-31.250,0
1583421777.601,30.273,41.504,33.203,25.879,-27.832,0
1583421777.604,30.273,40.039,30.273,25.879,4.883,0
1583421777.608,34.180,36.621,28.809,29.785,39.062,0
1583421777.612,38.574,42.480,27.832,33.691,45.898,0
1583421777.616,37.598,44.922,31.250,33.203,47.852,0
1583421777.620,40.527,42.480,31.738,32.227,70.801,0
1583421777.614,41.504,41.992,28.320,33.203,84.961,0
1583421777.618,37.109,40.039,32.715,34.180,13.672,0
1583421777.622,38.574,39.551,31.250,35.645,-9.277,0
1583421777.626,42.480,42.969,26.855,38.086,55.176,0
1583421777.630,36.133,41.992,31.250,34.180,55.176,0
1583421777.634,30.762,38.574,35.156,32.227,26.367,0
1583421777.638,35.156,38.086,35.156,33.203,34.668,0
1583421777.641,35.156,39.551,33.203,29.785,78.613,0
1583421777.645,35.645,41.504,34.180,27.832,71.777,0
1583421777.649,33.691,38.574,37.109,26.367,60.547,0
1583421777.653,30.273,37.109,30.762,27.344,43.457,0
1583421777.657,29.297,39.062,24.414,27.344,37.109,0
1583421777.675,32.715,37.598,26.367,28.320,40.039,0
1583421777.679,34.180,38.086,26.367,31.250,45.898,0
1583421777.683,26.855,33.203,28.809,29.785,55.176,0
1583421777.687,24.414,34.668,34.668,29.785,-20.996,0
1583421777.691,29.297,41.504,29.297,30.273,-21.973,0
1583421777.695,34.180,39.551,24.902,32.715,37.109,0
1583421777.699,38.086,39.062,26.855,34.668,70.312,0
1583421777.702,42.969,38.086,33.691,32.227,49.316,0
1583421777.706,40.527,37.109,33.203,32.227,9.766,0
1583421777.710,36.621,40.527,31.250,34.668,-22.461,0
1583421777.714,37.598,36.621,31.738,35.156,20.996,0
1583421777.718,35.156,33.203,32.227,35.645,96.680,0
1583421777.714,29.297,36.621,31.738,34.668,113.770,0
1583421777.718,25.879,37.109,30.762,29.297,83.496,0
1583421777.722,26.855,37.598,31.738,29.297,48.340,0
1583421777.726,27.344,37.109,30.762,35.645,72.754,0
1583421777.730,28.809,35.156,30.762,36.621,99.121,0
1583421777.734,32.715,38.086,37.109,39.062,77.637,0
1583421777.738,35.645,40.039,26.367,39.551,22.461,0
1583421777.741,33.203,37.598,13.184,35.645,64.941,0
1583421777.745,30.273,36.133,31.250,38.086,55.176,0
1583421777.749,34.668,36.133,45.410,38.574,38.574,0
1583421777.753,29.785,30.762,38.574,31.250,94.238,0
1583421777.757,24.902,29.785,34.668,29.297,104.492,0
1583421777.754,27.344,34.180,34.668,30.273,41.504,0
1583421777.758,24.414,34.180,33.691,23.926,-11.719,0
1583421777.762,26.367,36.133,27.832,20.020,21.484,0
1583421777.766,29.297,36.133,28.320,22.949,44.434,0
1583421777.770,25.879,33.691,34.668,24.902,23.926,0
1583421777.774,23.438,33.691,34.180,23.438,24.902,0
1583421777.778,26.855,34.180,34.668,26.367,24.414,0
1583421777.781,31.738,34.668,33.691,30.762,20.508,0
1583421777.785,30.762,36.621,32.715,28.809,4.395,0
1583421777.789,25.391,35.645,31.250,27.344,-41.504,0
1583421777.793,28.809,37.109,28.320,28.320,-32.715,0
1583421777.797,26.367,41.016,31.250,23.926,-1.953,0
1583421777.814,24.414,43.457,34.180,20.508,11.719,0
1583421777.818,20.020,43.945,35.156,19.531,29.297,0
1583421777.822,17.090,40.527,36.133,13.184,27.832,0
1583421777.826,19.043,45.410,37.598,12.207,3.418,0
1583421777.830,7.812,48.340,37.109,7.324,2.930,0
1583421777.834,1.465,44.922,35.156,-0.977,46.387,0
1583421777.838,3.418,47.363,39.062,-2.930,64.453,0
1583421777.841,1.953,50.781,38.574,-7.324,38.086,0
1583421777.845,-4.883,51.758,36.133,-11.719,15.625,0
1583421777.849,-6.348,58.594,44.434,-11.719,-4.395,0
1583421777.853,-10.742,61.035,48.828,-15.625,-12.695,0
1583421777.857,-28.320,58.594,46.387,-30.762,18.066,0
1583421777.854,-45.410,58.594,43.945,-43.945,66.895,0
1583421777.858,-59.570,57.617,44.434,-52.246,72.754,0
1583421777.862,-76.172,53.223,52.246,-63.965,40.527,0
1583421777.866,-88.379,52.734,58.594,-79.102,28.320,0
1583421777.870,-96.680,54.199,59.570,-90.332,23.926,0
1583421777.874,-105.957,51.270,57.129,-98.145,-25.391,0
1583421777.878,-116.211,46.387,57.129,-112.305,7.324,0
1583421777.881,-129.883,44.434,62.988,-126.465,56.152,0
1583421777.885,-133.789,47.363,62.988,-129.883,53.223,0
1583421777.889,-139.648,48.340,60.059,-133.301,21.484,0
1583421777.893,-150.391,49.805,61.035,-142.578,12.207,0
1583421777.897,-153.809,50.293,55.664,-151.855,62.012,0
1583421777.894,-156.738,49.316,49.805,-158.203,69.336,0
1583421777.898,-156.738,47.852,55.664,-159.180,64.941,3
1583421777.902,-158.203,49.316,53.711,-163.574,38.574,0
1583421777.906,-159.180,49.316,43.945,-164.062,-44.922,0
1583421777.910,-156.738,48.828,44.922,-157.715,31.250,0
1583421777.914,-148.926,53.711,46.387,-151.367,56.641,0
1583421777.918,-145.508,53.223,38.086,-148.438,10.742,0
1583421777.921,-143.066,50.781,32.715,-141.602,0.000,0
1583421777.925,-130.371,48.340,39.062,-132.324,-3.906,0
1583421777.929,-123.047,46.875,39.551,-124.023,9.766,0
1583421777.933,-109.863,44.434,34.668,-114.746,5.859,0
1583421777.937,-88.867,49.316,34.180,-102.051,16.113,0
1583421777.954,-68.848,54.688,25.879,-83.496,32.715,0
1583421777.958,-53.223,45.410,23.438,-64.453,46.387,0
1583421777.962,-38.574,42.480,31.250,-48.340,14.648,0
1583421777.966,-18.555,38.574,28.320,-29.785,36.621,0
1583421777.970,0.488,23.438,25.879,-9.766,64.941,0
1583421777.974,19.531,32.227,29.785,11.719,32.715,0
1583421777.978,42.480,48.828,29.297,34.668,35.156,0
1583421777.981,61.035,48.340,27.344,55.664,54.199,0
1583421777.985,77.637,47.363,26.855,74.707,54.688,0
1583421777.989,96.191,42.969,27.344,89.844,70.801,0
1583421777.993,110.352,37.598,24.414,104.980,47.852,0
1583421777.997,114.746,38.086,22.949,119.141,34.668,0
1583421777.994,123.047,39.551,16.602,130.859,40.039,0
1583421777.998,134.766,36.133,11.719,137.207,49.805,0
1583421778.002,135.254,32.715,17.578,140.625,64.453,0
1583421778.006,139.160,33.691,20.020,146.973,55.664,0
1583421778.010,145.020,36.133,18.555,150.879,-4.883,0
1583421778.014,145.996,37.109,16.113,152.344,0.488,0
1583421778.018,151.367,35.156,16.602,153.320,54.199,0
1583421778.021,156.738,32.715,15.625,149.414,55.176,0
1583421778.025,151.855,31.738,14.648,147.461,44.922,0
1583421778.029,152.832,34.668,17.090,146.484,92.285,0
1583421778.033,153.809,32.715,18.066,142.090,117.188,0
1583421778.037,148.926,25.391,16.602,140.625,102.539,0
1583421778.034,149.902,25.391,16.113,145.996,52.734,0
1583421778.038,147.949,26.855,13.184,149.414,39.551,0
1583421778.042,142.090,30.273,12.207,147.949,62.012,0
1583421778.046,139.160,30.762,17.090,145.996,49.805,0
1583421778.050,139.160,27.344,24.902,145.996,41.016,0
1583421778.054,132.812,22.461,28.320,140.137,25.879,0
1583421778.058,123.535,20.996,23.926,133.789,-18.066,0
1583421778.061,119.141,23.926,23.926,128.418,-41.016,0
1583421778.065,116.211,23.926,26.367,121.094,36.133,0
1583421778.069,112.793,27.344,21.973,120.605,74.219,0
1583421778.073,109.863,28.320,20.996,120.605,69.336,0
1583421778.077,106.445,24.414,24.414,117.676,64.941,0
1583421778.094,106.934,27.832,25.391,114.746,44.922,0
1583421778.098,111.328,29.297,21.973,111.816,-4.395,0
1583421778.102,105.957,25.879,23.438,109.375,-8.301,0
1583421778.106,95.703,29.297,19.043,105.957,37.109,0
1583421778.110,88.867,27.344,19.531,107.910,27.832,0
1583421778.114,85.449,22.949,28.320,108.398,21.973,0
1583421778.118,83.496,24.414,33.203,99.121,27.832,0
1583421778.121,83.496,24.414,30.273,93.750,-20.996,0
1583421778.125,79.590,26.367,26.367,88.379,16.602,0
1583421778.129,76.172,32.227,35.645,84.961,36.133,0
1583421778.133,72.754,31.738,37.598,82.520,24.414,0
1583421778.137,69.824,30.762,31.738,77.637,44.434,0
1583421778.134,72.266,34.180,23.438,72.754,3.418,0
1583421778.138,73.242,33.203,22.949,74.219,0.000,0
1583421778.142,69.336,32.227,29.297,73.730,45.898,0
1583421778.146,70.312,32.227,33.203,67.871,17.578,0
1583421778.150,77.637,33.691,34.180,69.824,18.066,0
1583421778.154,77.637,33.203,31.250,74.707,53.223,0
1583421778.158,73.242,31.250,32.227,76.660,20.020,0
1583421778.161,69.336,31.250,35.156,69.336,12.695,0
1583421778.165,64.453,31.738,26.855,60.547,54.688,0
1583421778.169,69.336,36.133,21.484,59.082,45.410,0
1583421778.173,67.871,30.273,27.832,56.641,7.812,0
1583421778.177,60.059,23.926,28.809,58.105,-0.977,0
1583421778.175,56.152,28.320,29.785,55.664,31.738,0
1583421778.179,52.734,31.250,36.621,49.805,55.176,0
1583421778.183,50.293,31.738,38.086,51.758,43.457,0
1583421778.187,51.758,28.809,35.156,55.176,74.219,0
1583421778.191,56.152,29.785,31.738,55.176,66.406,0
1583421778.195,58.594,33.691,32.227,56.152,51.758,0
1583421778.199,52.246,34.180,31.250,56.641,33.203,0
1583421778.202,51.758,35.645,35.156,55.664,0.977,0
1583421778.206,61.035,40.527,38.574,57.129,28.320,0
1583421778.210,47.363,37.109,36.133,44.922,62.012,0
1583421778.214,28.320,33.203,36.621,33.203,105.469,0
1583421778.218,34.668,36.133,35.156,39.062,75.684,0
1583421778.254,41.016,36.133,32.715,45.898,23.926,0
1583421778.258,36.621,35.156,33.691,43.457,24.902,0
1583421778.262,34.180,32.227,39.551,39.062,3.906,0
1583421778.266,33.691,30.762,40.039,38.086,40.039,0
1583421778.270,36.621,29.297,36.133,41.016,81.543,0
1583421778.274,43.945,29.785,37.109,42.969,69.336,0
1583421778.278,47.852,33.691,36.621,42.480,63.477,0
1583421778.281,51.758,33.203,34.668,44.922,40.527,0
1583421778.285,58.105,33.203,38.086,48.828,56.641,0
1583421778.289,59.082,34.180,39.551,49.316,36.133,0
1583421778.293,59.082,35.156,40.039,46.387,-30.762,0
1583421778.297,55.176,39.062,40.039,43.945,21.973,0
1583421778.276,48.828,35.156,38.574,41.992,86.914,0
1583421778.280,46.387,29.297,41.016,44.922,35.156,0
1583421778.284,41.016,34.180,41.504,44.434,-16.113,0
1583421778.288,41.504,37.109,41.992,45.898,24.414,0
1583421778.292,39.551,32.227,42.480,45.898,33.691,0
1583421778.296,34.180,28.809,41.504,38.574,-3.906,0
1583421778.300,33.691,30.762,44.434,37.598,8.301,0
1583421778.303,34.668,30.273,42.480,38.574,5.859,0
1583421778.307,37.109,27.344,39.062,38.574,34.668,0
1583421778.311,37.598,28.809,39.062,41.016,41.016,0
1583421778.315,39.062,32.227,35.645,44.434,7.812,0
1583421778.319,41.504,33.203,35.645,46.387,-7.812,0
1583421778.314,41.016,34.668,33.203,49.805,59.082,0
1583421778.318,41.504,36.621,29.297,49.316,48.828,0
1583421778.322,37.598,28.320,32.715,43.945,29.297,0
1583421778.326,27.832,29.297,41.504,41.016,41.016,0
1583421778.330,21.973,28.809,43.457,38.086,19.043,0
1583421778.334,25.391,26.367,39.551,39.551,-44.434,0
1583421778.338,30.762,31.738,37.109,38.574,-8.789,0
1583421778.341,35.156,32.227,40.527,40.039,56.641,0
1583421778.345,33.203,29.785,41.504,38.574,34.668,0
1583421778.349,29.297,28.320,39.551,36.133,12.695,0
1583421778.353,35.645,32.227,39.551,40.527,15.137,0
1583421778.357,41.992,33.691,38.086,38.574,35.645,0
1583421778.374,41.992,31.738,36.133,36.133,16.113,0
1583421778.378,43.457,33.691,32.227,36.133,15.625,0
1583421778.382,45.898,32.227,31.250,35.156,52.246,0
1583421778.386,44.434,34.180,34.668,34.180,32.715,0
1583421778.390,39.551,36.621,31.738,28.809,30.762,0
1583421778.394,37.598,32.715,33.691,24.902,12.207,0
1583421778.398,37.598,31.738,29.785,24.902,9.277,0
1583421778.401,34.180,38.574,22.949,23.438,19.531,0
1583421778.405,31.250,42.480,23.926,22.461,23.438,0
1583421778.409,27.344,36.133,28.809,23.438,27.344,0
1583421778.413,25.879,34.668,36.133,20.508,25.391,0
1583421778.417,28.809,39.551,32.715,19.531,43.457,0
1583421778.415,28.809,41.992,26.855,21.484,40.527,0
1583421778.419,24.414,41.016,27.344,22.949,57.617,0
1583421778.423,22.461,35.645,30.273,27.832,28.320,0
1583421778.427,25.879,33.691,31.250,36.133,-39.062,0
1583421778.431,31.738,36.133,32.227,38.086,-14.648,0
1583421778.435,35.156,36.621,33.203,37.109,-11.230,0
1583421778.439,34.668,37.598,33.691,39.551,-0.977,0
1583421778.442,33.691,37.109,32.227,37.598,38.574,0
1583421778.446,32.227,33.691,28.809,34.668,36.133,0
1583421778.450,27.344,33.691,31.250,30.273,56.152,0
1583421778.454,26.855,33.691,37.598,28.809,18.555,0
1583421778.458,29.785,34.668,37.109,31.250,7.324,0
1583421778.454,27.832,34.668,34.180,30.273,89.844,0
1583421778.458,29.785,33.691,33.203,31.250,51.758,0
1583421778.462,28.320,32.227,33.203,31.738,65.430,0
1583421778.466,23.438,31.738,34.180,28.809,47.363,0
1583421778.470,30.273,34.180,31.738,32.227,-3.906,0
1583421778.474,34.668,34.668,24.902,35.156,18.555,0
1583421778.478,37.109,33.691,20.020,36.621,-3.906,0
1583421778.481,40.039,34.180,28.809,35.156,16.113,0
1583421778.485,35.645,28.320,36.621,30.762,27.344,0
1583421778.489,31.738,19.531,34.180,31.250,24.902,0
1583421778.493,32.227,23.926,33.691,33.203,12.207,0
1583421778.497,35.645,33.691,30.762,36.133,48.340,0
1583421778.514,39.062,39.551,23.438,39.062,84.961,0
1583421778.518,34.668,37.598,22.461,40.039,59.570,0
1583421778.522,34.180,35.156,25.391,38.574,71.289,0
1583421778.526,38.086,35.645,28.320,38.086,42.480,0
1583421778.530,38.086,36.621,30.273,40.527,41.504,0
1583421778.534,36.621,37.598,32.227,41.016,27.344,0
1583421778.538,37.109,37.598,34.668,41.016,6.836,0
1583421778.541,38.086,37.109,30.762,38.574,34.668,0
1583421778.545,41.016,35.645,26.367,35.156,26.855,0
1583421778.549,44.922,35.156,23.926,34.180,23.926,0
1583421778.553,44.922,39.062,29.297,37.109,74.219,0
1583421778.557,38.574,39.551,34.180,38.086,67.383,0
1583421778.554,33.203,37.109,36.133,38.574,11.230,0
1583421778.558,33.203,35.156,37.598,37.598,25.879,0
1583421778.562,32.715,35.156,29.297,38.086,101.074,0
1583421778.566,34.180,38.574,34.668,42.480,60.547,0
1583421778.570,31.250,36.133,39.062,39.062,-40.039,0
1583421778.574,24.902,34.180,41.992,34.668,23.926,0
1583421778.578,29.785,33.691,45.898,36.621,68.848,0
1583421778.581,38.574,33.691,40.039,34.668,61.523,0
1583421778.585,40.527,40.039,37.109,32.227,83.984,0
1583421778.589,42.969,38.086,38.574,35.645,77.148,0
1583421778.593,45.410,35.156,32.227,36.621,78.613,0
1583421778.597,46.387,38.086,28.320,36.133,35.645,0
1583421778.594,45.898,37.109,36.133,36.133,41.016,0
1583421778.598,46.387,35.156,40.039,37.109,99.121,0
1583421778.602,41.992,34.180,40.039,36.621,70.312,0
1583421778.606,28.809,34.668,39.551,35.156,40.039,0
1583421778.610,23.438,37.598,39.551,32.715,15.625,0
1583421778.614,21.973,37.109,35.156,30.273,-9.277,0
1583421778.618,19.531,35.156,30.762,32.227,17.090,0
1583421778.621,21.973,36.621,33.691,32.715,89.355,0
1583421778.625,22.461,35.156,27.344,29.297,70.312,0
1583421778.629,25.391,34.180,20.020,28.809,56.152,0
1583421778.633,32.227,33.691,32.227,33.691,30.273,0
1583421778.637,33.691,33.691,33.203,37.109,-32.227,0
1583421778.654,34.668,34.180,21.973,35.645,56.641,0
1583421778.658,36.621,32.715,35.156,35.156,99.121,0
1583421778.662,36.133,32.227,41.504,37.109,48.828,0
1583421778.666,42.480,36.133,36.621,38.086,27.344,0
1583421778.670,43.457,36.133,36.621,36.621,11.230,0
1583421778.674,37.598,35.156,37.598,37.109,23.926,0
1583421778.678,35.156,32.227,41.016,37.598,26.855,0
1583421778.681,28.809,25.879,39.551,32.227,-9.766,0
1583421778.685,28.320,30.273,37.109,32.715,41.016,0
1583421778.689,32.227,36.133,35.645,30.762,73.242,0
1583421778.693,24.414,36.133,33.691,19.531,38.086,0
1583421778.697,15.625,31.250,35.645,14.648,44.434,0
1583421778.694,16.113,30.273,34.668,15.137,36.133,0
1583421778.698,17.578,36.621,30.762,12.207,20.020,0
1583421778.702,16.113,37.598,30.273,9.766,13.672,0
1583421778.706,20.020,37.109,28.320,15.137,4.395,0
1583421778.710,20.996,38.574,26.367,20.996,31.250,0
1583421778.714,24.902,40.039,29.785,25.391,48.828,0
1583421778.718,32.227,38.086,37.109,32.715,12.207,0
1583421778.721,32.715,33.691,35.645,38.086,-23.926,0
1583421778.725,35.645,34.180,34.180,39.551,5.859,0
1583421778.729,30.762,35.645,35.645,35.645,16.602,0
1583421778.733,26.855,34.180,30.762,33.691,-9.766,0
1583421778.737,23.438,36.621,28.809,33.203,54.688,0
1583421778.735,15.625,36.133,34.668,29.297,65.430,0
1583421778.739,19.043,37.109,35.156,26.855,67.871,0
1583421778.743,17.578,39.062,37.109,22.949,56.641,0
1583421778.747,15.625,36.621,34.668,26.367,13.672,0
1583421778.751,21.484,35.156,30.762,32.715,18.066,0
1583421778.755,23.438,33.691,32.227,31.738,-14.648,0
1583421778.759,30.273,33.691,36.133,33.691,0.000,0
1583421778.762,32.227,32.715,25.879,34.180,16.113,0
1583421778.766,32.715,31.738,25.879,35.645,31.250,0
1583421778.770,43.457,33.203,37.109,40.527,29.297,0
1583421778.774,43.945,32.715,34.180,36.621,42.480,0
1583421778.778,40.527,30.762,41.504,32.715,61.523,0
1583421778.794,40.527,29.785,41.504,33.691,39.551,0
1583421778.798,38.086,30.762,35.645,33.691,-22.949,0
1583421778.802,30.762,31.250,34.668,31.250,-23.438,0
1583421778.806,23.438,31.250,35.645,30.762,-15.625,0
1583421778.810,21.973,33.203,34.180,30.762,5.371,0
1583421778.814,22.461,33.691,34.668,30.762,30.762,0
1583421778.818,24.414,30.762,35.645,32.227,0.000,0
1583421778.821,22.461,29.785,34.668,31.250,51.758,0
1583421778.825,19.531,30.762,34.668,30.762,104.492,0
1583421778.829,17.578,29.297,32.715,28.809,56.641,0
1583421778.833,27.832,32.715,27.832,34.180,11.719,0
1583421778.837,34.180,40.527,29.297,32.227,41.504,0
1583421778.834,34.668,42.480,34.668,27.344,12.695,0
1583421778.838,40.039,39.551,33.691,27.344,-5.859,0
1583421778.842,38.086,39.551,35.645,25.879,90.332,0
1583421778.846,35.645,41.504,35.645,24.902,72.754,0
1583421778.850,34.180,40.039,38.086,24.902,50.293,0
1583421778.854,31.738,41.504,34.180,27.832,112.305,0
1583421778.858,27.832,41.504,25.391,27.832,9.766,0
1583421778.861,23.926,37.598,30.762,25.391,-5.859,0
1583421778.865,22.949,34.668,39.551,24.902,68.848,0
1583421778.869,23.926,33.691,37.598,26.855,49.805,0
1583421778.873,24.902,35.156,35.156,29.785,66.406,0
1583421778.877,25.391,33.691,34.180,29.785,65.918,0
1583421778.894,24.414,33.203,33.691,28.809,16.602,0
1583421778.898,26.367,39.551,35.156,31.250,-57.129,0
1583421778.902,29.785,36.133,38.086,27.832,-33.691,0
1583421778.906,30.273,29.785,32.715,22.949,10.254,0
1583421778.910,32.715,37.109,35.645,21.484,-13.672,0
1583421778.914,31.738,40.527,35.156,21.484,-3.906,0
1583421778.918,28.320,36.133,32.227,21.973,-30.762,0
1583421778.921,26.855,30.762,39.551,16.602,-27.344,0
1583421778.925,21.484,26.855,35.156,9.766,25.879,0
1583421778.929,22.461,30.273,26.855,13.184,-8.301,0
1583421778.933,21.973,35.156,26.855,16.602,15.137,0
1583421778.937,24.902,30.273,36.133,19.043,72.266,0
1583421778.934,31.250,31.250,39.551,22.461,61.523,0
1583421778.938,30.762,35.156,33.203,25.391,51.270,0
1583421778.942,30.762,34.180,34.668,26.855,28.809,0
1583421778.946,29.785,34.180,36.133,27.344,26.367,0
1583421778.950,38.574,35.645,34.180,30.762,68.359,0
1583421778.954,45.410,39.062,34.668,32.715,85.449,0
1583421778.958,40.039,36.621,32.227,31.738,30.762,0
1583421778.961,36.133,35.156,30.762,31.738,57.617,0
1583421778.965,36.133,34.180,31.250,29.297,87.891,0
1583421778.969,32.227,34.180,30.273,26.855,64.941,0
1583421778.973,31.738,39.062,27.344,23.438,-8.789,0
1583421778.977,32.227,39.062,16.113,22.461,3.418,0
1583421778.994,28.320,39.062,20.020,22.949,27.832,0
1583421778.998,23.438,38.086,31.250,19.531,-10.254,0
1583421779.002,21.484,34.668,34.180,21.973,36.621,0
1583421779.006,26.367,37.598,37.598,25.879,58.594,0
1583421779.010,28.809,39.062,36.133,26.855,17.090,0
1583421779.014,28.809,35.156,33.691,32.227,5.371,0
1583421779.018,29.297,33.203,33.691,36.621,-9.766,0
1583421779.021,33.203,29.785,33.691,41.016,10.254,0
1583421779.025,40.039,33.691,36.133,42.969,67.871,0
1583421779.029,38.086,36.621,35.156,35.645,97.168,1
1583421779.033,33.203,28.320,34.668,31.738,99.121,0
1583421779.037,33.691,33.203,19.531,32.227,27.832,0
1583421779.034,32.227,41.992,17.578,29.297,17.090,0
1583421779.038,30.762,42.480,33.691,25.879,66.406,0
1583421779.042,26.367,41.016,28.320,22.461,19.043,0
1583421779.046,18.555,37.598,24.414,17.090,2.930,0
1583421779.050,20.996,36.133,31.250,16.113,19.531,0
1583421779.054,25.391,35.645,37.598,22.461,26.367,0
1583421779.058,27.832,36.133,35.645,25.879,103.027,0
1583421779.061,28.809,33.691,35.156,28.320,74.219,0
1583421779.065,23.438,36.133,34.668,30.273,49.805,0
1583421779.069,21.484,39.551,34.180,33.203,80.566,0
1583421779.073,23.438,35.645,31.738,31.250,25.391,0
1583421779.077,22.461,35.156,28.809,24.902,6.836,0
1583421779.074,27.832,40.527,31.738,26.855,35.156,0
1583421779.078,32.227,40.039,34.180,29.785,44.434,0
1583421779.082,31.738,41.016,28.320,30.762,29.297,0
1583421779.086,27.344,41.016,32.227,31.738,-7.324,0
1583421779.090,26.367,41.016,37.598,28.320,-16.113,0
1583421779.094,28.809,38.574,36.621,28.320,47.852,0
1583421779.098,25.391,36.621,32.227,29.297,11.719,0
1583421779.101,29.297,42.480,24.414,25.879,-4.883,0
1583421779.105,35.645,39.062,29.297,25.391,-22.461,0
1583421779.109,37.598,36.621,34.668,32.227,-41.504,0
1583421779.113,44.434,38.574,34.180,37.598,5.371,0
1583421779.117,44.922,36.133,37.598,37.598,30.762,0
1583421779.115,42.969,35.645,37.598,37.598,10.742,0
1583421779.119,41.016,35.645,39.551,42.969,-0.488,0
1583421779.123,36.133,36.621,44.434,44.434,47.852,0
1583421779.127,32.227,37.109,41.504,37.598,89.844,0
1583421779.131,34.180,39.062,31.250,37.109,84.473,0
1583421779.135,38.086,40.527,28.809,40.039,31.250,0
1583421779.139,35.645,37.109,36.621,34.668,-15.137,0
1583421779.142,32.715,39.062,41.016,30.762,35.156,0
1583421779.146,31.250,41.992,41.016,28.320,42.480,0
1583421779.150,33.203,41.016,36.133,27.344,-10.742,0
1583421779.154,36.621,40.039,32.227,30.762,-17.578,0
1583421779.158,31.738,30.762,34.668,27.344,-5.859,0
1583421779.174,30.273,26.855,34.668,25.391,61.523,0
1583421779.178,29.297,38.086,34.180,28.320,73.730,0
1583421779.182,24.902,45.410,34.668,28.320,58.594,0
1583421779.186,21.484,44.922,26.855,25.391,67.871,0
1583421779.190,22.461,43.457,23.438,21.973,48.340,0
1583421779.194,26.855,41.016,32.715,24.902,-8.301,0
1583421779.198,27.832,41.016,40.527,28.320,20.996,0
1583421779.201,26.855,38.574,38.574,23.438,34.668,0
1583421779.205,28.320,35.645,30.273,21.484,30.762,0
1583421779.209,25.391,36.621,32.715,27.832,47.852,0
1583421779.213,21.484,36.133,40.527,30.762,79.590,0
1583421779.217,24.414,38.086,42.969,32.227,115.234,0
1583421779.214,28.809,39.551,33.691,34.180,97.656,0
1583421779.218,33.203,36.133,29.297,32.227,58.105,0
1583421779.222,30.762,36.621,39.551,33.203,44.434,0
1583421779.226,29.785,40.039,41.016,33.691,56.641,0
1583421779.230,33.691,39.062,39.551,30.762,35.156,0
1583421779.234,35.645,40.039,38.086,31.250,-0.977,0
1583421779.238,36.621,40.039,36.133,33.691,2.930,0
1583421779.241,38.086,38.574,39.551,35.156,57.617,0
1583421779.245,37.598,36.133,41.016,39.062,74.219,0
1583421779.249,34.668,34.668,40.527,41.016,53.711,0
1583421779.253,35.645,37.598,41.016,41.992,41.992,0
1583421779.257,38.086,40.039,37.598,41.992,38.086,0
1583421779.254,40.039,39.551,33.691,41.016,4.883,0
1583421779.258,40.039,39.062,40.039,37.598,9.766,0
1583421779.262,40.039,39.062,39.551,38.574,27.832,0
1583421779.266,40.039,38.086,30.273,39.551,21.973,0
1583421779.270,39.551,37.598,35.156,37.109,32.715,0
1583421779.274,40.527,39.062,40.039,38.574,54.199,0
1583421779.278,40.527,39.062,31.250,41.504,62.012,0
1583421779.281,43.945,38.086,34.668,45.898,13.672,0
1583421779.285,43.457,37.109,43.457,41.992,1.465,0
1583421779.289,35.645,37.598,41.504,34.668,90.332,0
1583421779.293,36.621,35.645,39.551,35.645,81.055,0
1583421779.297,38.086,32.227,41.504,37.598,11.719,0
1583421779.314,37.109,33.203,38.086,34.668,23.438,0
1583421779.318,37.109,38.574,33.691,32.227,21.484,0
1583421779.322,34.180,36.621,34.668,32.227,39.551,0
1583421779.326,35.156,34.180,32.227,29.785,53.223,0
1583421779.330,36.133,33.691,29.297,31.738,53.223,0
1583421779.334,34.180,28.809,30.273,40.039,73.242,0
1583421779.338,36.133,29.297,36.621,42.969,77.637,0
1583421779.341,36.621,33.691,37.109,39.062,47.852,0
1583421779.345,34.668,33.691,26.855,41.504,77.148,0
1583421779.349,30.762,33.691,37.109,41.504,42.480,0
1583421779.353,27.832,30.762,41.992,38.086,-21.484,0
1583421779.357,31.250,32.227,39.551,40.039,20.020,0
1583421779.355,29.297,37.598,41.504,38.086,21.484,0
