timestamps,TP9,AF7,AF8,TP10,Right AUX,Marker0
1583510580.890,28.320,38.086,29.785,11.719,25.879,0
1583510580.894,25.391,39.062,28.320,8.789,23.438,0
1583510580.898,26.855,36.621,25.391,40.039,77.637,0
1583510580.902,31.738,37.109,27.344,41.504,59.082,0
1583510580.906,34.668,41.016,29.297,20.508,40.527,0
1583510580.910,30.762,41.016,26.855,11.719,31.738,0
1583510580.914,31.738,35.156,28.809,35.645,54.688,0
1583510580.917,35.645,33.691,32.227,55.664,73.242,0
1583510580.921,33.203,37.109,33.203,29.297,17.090,0
1583510580.925,34.668,35.645,28.809,4.883,-16.113,0
1583510580.929,28.809,35.156,29.297,18.066,-8.789,0
1583510580.933,27.832,35.645,29.785,36.621,29.785,0
1583510580.922,33.691,36.133,27.344,30.273,97.168,0
1583510580.926,33.691,39.062,26.855,-5.371,47.852,0
1583510580.930,30.762,37.598,28.320,4.395,-10.254,0
1583510580.934,33.691,38.086,29.297,38.574,18.555,0
1583510580.938,38.574,40.527,25.391,35.156,40.527,0
1583510580.942,38.086,41.992,25.391,10.742,51.758,0
1583510580.946,41.504,43.457,29.297,9.277,96.191,0
1583510580.949,46.387,41.992,28.809,35.156,50.293,0
1583510580.953,46.387,42.969,27.344,48.340,2.930,0
1583510580.957,49.316,44.922,28.809,30.762,35.156,0
1583510580.961,49.805,41.016,29.297,18.066,31.250,0
1583510580.965,46.387,40.039,28.809,43.457,30.273,0
1583510580.963,45.898,40.039,33.203,66.406,54.199,0
1583510580.967,45.410,36.133,35.156,44.434,45.410,0
1583510580.971,41.504,36.621,32.227,19.043,28.809,0
1583510580.975,33.203,35.156,32.715,34.180,14.160,0
1583510580.979,32.227,33.691,34.180,51.758,1.465,0
1583510580.983,37.109,33.691,36.621,43.945,16.602,0
1583510580.987,29.785,31.738,38.086,13.672,-11.719,0
1583510580.990,21.973,32.715,36.621,15.137,-18.066,0
1583510580.994,27.344,32.715,33.691,46.875,26.367,0
1583510580.998,26.855,31.250,34.668,40.527,-7.324,0
1583510581.002,23.438,28.809,37.598,20.996,-21.484,0
1583510581.006,23.438,27.832,38.086,20.508,13.184,0
1583510581.025,26.367,27.832,38.086,41.992,5.859,0
1583510581.029,36.621,28.320,38.086,59.082,26.367,0
1583510581.033,44.434,32.227,39.062,41.504,78.613,0
1583510581.037,46.875,33.691,38.574,28.809,58.105,0
1583510581.041,43.945,33.203,37.109,47.852,57.129,0
1583510581.045,56.152,34.668,33.691,73.242,41.016,0
1583510581.049,70.312,35.645,37.109,66.895,-14.648,0
1583510581.052,51.758,36.133,38.086,25.391,9.277,0
1583510581.056,42.480,30.762,35.645,34.180,55.176,0
1583510581.060,42.480,28.809,37.598,57.617,43.945,0
1583510581.064,48.340,31.738,33.691,46.875,23.926,0
1583510581.068,54.688,28.320,33.691,28.320,-0.488,0
1583510581.062,40.527,26.367,37.109,20.020,3.906,0
1583510581.066,34.668,26.367,38.086,48.828,0.977,0
1583510581.070,39.062,27.832,37.598,57.617,-42.969,0
1583510581.074,36.621,27.832,38.086,29.785,-9.277,0
1583510581.078,35.645,27.832,35.645,12.207,37.598,0
1583510581.082,38.086,29.297,34.180,31.250,42.480,0
1583510581.086,32.715,30.273,34.668,47.852,18.066,0
1583510581.089,37.598,30.273,31.738,28.320,32.715,0
1583510581.093,37.598,27.832,32.715,11.719,54.199,0
1583510581.097,32.715,29.297,35.156,33.203,57.129,0
1583510581.101,41.504,32.227,33.691,60.547,61.035,0
1583510581.105,43.457,33.203,31.738,54.688,6.836,0
1583510581.121,37.109,30.762,32.715,26.855,-37.109,0
1583510581.125,34.180,30.762,33.691,35.645,-51.270,0
1583510581.129,36.133,32.715,37.598,64.453,-17.090,0
1583510581.133,45.410,32.227,41.504,62.500,13.672,0
1583510581.137,45.898,34.180,40.039,42.480,26.367,0
1583510581.141,37.598,33.203,39.551,38.574,24.902,0
1583510581.145,37.598,31.250,41.504,66.406,65.430,0
1583510581.148,35.156,32.227,37.109,59.082,94.727,0
1583510581.152,33.691,31.738,35.156,28.809,90.820,0
1583510581.156,27.832,29.297,40.039,31.738,39.551,0
1583510581.160,20.996,26.855,39.551,55.664,7.324,0
1583510581.164,23.926,26.367,40.527,74.707,17.090,0
1583510581.163,30.762,27.832,39.062,48.828,39.062,0
1583510581.167,34.668,26.855,36.621,21.973,60.547,0
1583510581.171,30.762,27.832,40.527,50.781,55.176,0
1583510581.175,29.297,29.297,39.551,71.289,35.156,0
1583510581.179,33.203,28.809,40.527,54.199,9.766,0
1583510581.183,35.156,31.250,38.574,24.414,18.555,0
1583510581.187,36.621,33.691,31.738,24.414,13.184,0
1583510581.190,38.574,36.621,28.320,59.082,49.316,0
1583510581.194,40.527,39.062,30.273,55.664,57.129,0
1583510581.198,42.480,40.039,31.250,23.438,52.734,0
1583510581.202,41.504,41.992,30.273,6.348,51.270,0
1583510581.206,43.457,40.527,31.738,29.297,17.578,0
1583510581.201,46.387,39.062,31.250,55.664,25.879,0
1583510581.205,45.410,40.527,31.250,32.227,88.379,0
1583510581.209,41.504,38.086,34.668,18.555,113.281,0
1583510581.213,39.062,36.133,35.156,25.391,29.297,0
1583510581.217,40.039,39.062,34.668,35.645,-15.625,0
1583510581.221,34.180,38.574,36.621,36.621,20.508,0
1583510581.225,20.508,35.156,37.598,9.277,25.879,0
1583510581.228,20.020,34.180,36.133,24.902,48.828,0
1583510581.232,22.461,32.715,36.133,47.852,88.867,0
1583510581.236,22.461,32.227,35.645,31.250,55.176,0
1583510581.240,26.855,33.203,32.715,14.160,28.320,0
1583510581.244,27.344,32.715,32.227,16.602,27.344,0
1583510581.262,34.668,35.645,34.668,51.270,8.301,0
1583510581.266,37.598,37.109,36.133,42.969,9.277,0
1583510581.270,41.504,34.180,35.645,12.207,20.020,0
1583510581.274,47.852,36.621,39.551,20.996,29.297,0
1583510581.278,44.434,38.086,40.039,41.016,-23.438,0
1583510581.282,45.898,36.133,36.133,56.641,25.879,0
1583510581.286,48.340,38.086,34.180,27.344,111.328,0
1583510581.289,41.992,40.039,32.227,-5.371,19.043,0
1583510581.293,36.133,40.039,31.250,28.320,-21.973,0
1583510581.297,37.109,38.086,34.668,56.641,-23.926,0
1583510581.301,39.551,37.598,36.621,43.945,-79.590,0
1583510581.305,33.203,38.086,36.621,13.672,-15.137,0
1583510581.303,29.785,37.598,41.016,24.414,65.918,0
1583510581.307,33.691,36.621,40.527,59.570,60.059,0
1583510581.311,37.109,37.109,37.109,50.781,59.082,0
1583510581.315,37.598,39.551,36.133,24.414,93.750,0
1583510581.319,34.180,40.527,37.598,16.602,81.055,0
1583510581.323,32.715,41.504,37.109,40.527,87.402,0
1583510581.327,34.668,42.969,36.621,57.617,122.070,0
1583510581.330,30.273,39.062,37.598,26.367,113.770,0
1583510581.334,23.438,36.621,34.180,7.812,70.312,0
1583510581.338,25.391,35.156,33.691,34.180,65.918,0
1583510581.342,20.020,32.715,38.574,46.387,101.562,0
1583510581.346,19.043,33.691,36.621,28.809,83.496,0
1583510581.343,23.438,35.156,35.156,13.184,33.203,0
1583510581.347,22.949,32.715,37.598,35.645,53.223,0
1583510581.351,25.391,32.715,40.039,51.270,60.059,0
1583510581.355,26.367,35.156,40.039,35.156,40.527,0
1583510581.359,26.367,33.691,39.062,16.113,42.969,0
1583510581.363,30.762,35.156,41.016,28.809,68.359,0
1583510581.367,38.086,35.156,35.645,60.547,73.730,0
1583510581.370,45.410,32.715,31.250,54.199,30.273,0
1583510581.374,48.340,31.250,36.133,27.344,-30.273,0
1583510581.378,32.715,33.691,43.457,16.113,-36.133,0
1583510581.382,27.344,38.086,41.504,32.715,-19.531,0
1583510581.386,54.688,39.062,38.086,62.012,-1.465,0
1583510581.402,58.594,36.133,40.527,35.156,-5.371,0
1583510581.406,45.898,34.180,38.574,11.230,7.324,0
1583510581.410,43.945,32.715,36.133,38.086,28.809,0
1583510581.414,49.805,33.691,33.203,53.711,28.320,0
1583510581.418,53.711,40.039,32.227,36.133,0.488,0
1583510581.422,47.363,41.016,32.715,9.277,11.719,0
1583510581.426,42.969,39.551,31.250,28.809,47.852,0
1583510581.429,41.992,38.086,29.785,58.105,16.113,0
1583510581.433,43.945,39.062,31.250,48.340,24.414,0
1583510581.437,42.480,39.062,34.180,24.414,14.648,0
1583510581.441,37.109,37.109,34.668,27.832,6.348,0
1583510581.445,33.203,35.645,33.203,49.805,22.949,0
1583510581.442,32.227,34.668,32.715,44.922,-5.859,0
1583510581.446,33.203,35.156,34.180,19.043,-17.090,0
1583510581.450,35.156,34.668,34.180,17.578,-0.977,0
1583510581.454,30.762,33.691,34.180,39.062,-6.836,0
1583510581.458,26.855,36.133,36.133,52.246,48.828,0
1583510581.462,26.855,37.109,34.668,32.715,78.125,0
1583510581.466,27.344,34.668,34.180,14.648,22.461,0
1583510581.469,28.809,34.180,34.668,38.086,9.766,0
1583510581.473,31.738,35.156,31.250,56.152,70.312,0
1583510581.477,32.715,32.715,31.250,37.598,70.801,0
1583510581.481,33.203,30.762,32.715,13.184,51.270,0
1583510581.485,40.039,32.227,30.762,26.367,70.801,0
1583510581.482,44.922,33.203,30.762,53.711,68.359,0
1583510581.486,51.270,34.180,32.227,46.875,15.625,0
1583510581.490,54.199,37.598,29.785,19.531,37.598,0
1583510581.494,44.922,40.527,27.832,20.020,62.012,0
1583510581.498,40.039,39.062,28.809,46.875,80.566,0
1583510581.502,34.668,37.598,33.203,39.062,76.172,0
1583510581.506,32.715,39.062,33.691,6.836,37.109,0
1583510581.509,33.691,38.574,32.227,4.395,30.762,0
1583510581.513,30.273,35.645,34.180,25.391,33.203,0
1583510581.517,32.715,35.645,34.668,37.598,47.852,0
1583510581.521,33.203,34.180,34.668,18.555,40.527,0
1583510581.525,30.273,34.668,32.715,-1.465,60.059,0
1583510581.542,36.133,38.574,31.250,33.203,77.637,0
1583510581.546,38.086,38.574,32.227,56.641,2.930,0
1583510581.550,37.109,39.551,32.227,36.621,-56.641,0
1583510581.554,39.062,41.992,33.203,19.531,48.340,0
1583510581.558,40.527,39.551,34.180,26.367,60.547,0
1583510581.562,37.109,34.668,33.203,51.270,-31.250,0
1583510581.566,31.738,35.156,31.250,42.969,14.160,0
1583510581.569,32.715,31.250,33.203,10.254,11.719,0
1583510581.573,27.344,27.344,35.156,12.207,9.766,0
1583510581.577,23.926,30.762,32.227,37.109,20.508,0
1583510581.581,22.949,30.762,32.227,47.852,20.020,0
1583510581.585,21.973,30.762,32.715,18.555,59.570,0
1583510581.581,23.438,34.668,33.203,4.395,25.391,0
1583510581.585,27.344,36.133,33.691,31.250,0.488,0
1583510581.589,30.762,36.133,33.691,38.574,12.695,0
1583510581.593,31.738,38.086,31.250,19.043,20.996,0
1583510581.597,35.645,40.039,30.762,1.465,65.918,0
1583510581.601,39.062,40.527,34.180,19.531,35.156,0
1583510581.605,37.598,39.062,33.203,43.457,17.090,0
1583510581.608,34.668,40.039,30.762,27.344,48.340,0
1583510581.612,32.715,39.551,34.668,5.859,-41.016,0
1583510581.616,29.785,39.551,36.621,14.648,-73.242,0
1583510581.620,31.250,40.527,36.133,39.062,11.230,0
1583510581.624,35.156,41.504,35.156,37.109,37.598,0
1583510581.624,32.715,42.480,34.180,9.766,22.461,0
1583510581.628,35.645,41.504,36.621,22.461,71.289,0
1583510581.632,40.039,41.992,37.598,57.617,118.652,0
1583510581.636,34.668,40.039,37.109,59.082,92.773,0
1583510581.640,39.062,38.574,34.668,23.438,43.945,0
1583510581.644,43.457,39.551,32.715,5.859,45.898,0
1583510581.648,33.203,38.086,34.180,33.203,10.742,0
1583510581.651,25.879,37.109,30.762,41.016,-15.625,0
1583510581.655,29.297,39.062,33.691,24.902,45.898,0
1583510581.659,31.250,39.551,36.621,7.324,73.242,0
1583510581.663,27.832,36.133,36.621,20.020,60.059,0
1583510581.667,24.902,33.203,35.645,52.734,37.109,0
1583510581.683,25.879,33.691,34.668,46.875,82.520,0
1583510581.687,27.832,31.738,36.133,18.555,41.504,0
1583510581.691,29.297,32.715,36.621,19.531,-22.949,0
1583510581.695,32.715,33.691,36.133,46.387,20.508,0
1583510581.699,36.621,32.227,38.086,57.617,58.105,0
1583510581.703,38.574,34.180,40.527,32.715,63.965,0
1583510581.707,39.062,37.109,39.062,24.414,54.688,0
1583510581.710,38.086,38.086,35.156,45.898,14.160,0
1583510581.714,41.992,38.086,30.273,50.293,-17.090,0
1583510581.718,39.551,37.598,30.762,32.715,54.199,0
1583510581.722,33.691,36.621,33.691,11.230,104.492,0
1583510581.726,33.691,38.086,35.645,29.297,52.734,0
1583510581.721,39.062,39.062,36.621,42.480,62.500,0
1583510581.725,41.016,40.527,34.668,18.555,4.395,0
1583510581.729,36.133,41.992,34.668,0.000,-32.715,0
1583510581.733,34.668,41.016,34.180,13.184,36.621,0
1583510581.737,29.785,42.969,30.273,39.062,43.457,0
1583510581.741,27.344,44.434,29.297,24.902,29.297,0
1583510581.745,24.902,42.969,29.785,-2.930,35.645,0
1583510581.748,22.949,43.945,30.273,12.207,52.246,0
1583510581.752,29.785,42.969,30.762,42.480,58.105,0
1583510581.756,29.297,42.969,34.668,43.457,50.781,0
1583510581.760,28.320,44.434,34.180,6.836,36.621,0
1583510581.764,31.738,43.945,32.715,0.000,9.766,0
1583510581.762,27.344,40.039,35.156,41.992,-5.371,0
1583510581.766,26.367,39.062,35.156,51.270,18.555,0
1583510581.770,24.902,40.039,36.133,31.738,46.875,0
1583510581.774,20.996,35.645,36.621,10.254,18.555,0
1583510581.778,26.855,35.156,40.527,30.273,-11.230,0
1583510581.782,33.203,35.156,41.992,67.871,25.879,0
1583510581.786,32.227,32.227,37.598,50.293,-12.695,0
1583510581.789,31.738,29.297,40.527,29.297,-36.621,0
1583510581.793,28.320,29.297,41.016,37.598,26.855,0
1583510581.797,33.691,32.227,39.062,64.941,19.531,0
1583510581.801,39.062,32.227,39.551,70.801,0.488,0
1583510581.805,36.133,30.762,38.574,38.086,47.363,0
1583510581.821,33.691,33.203,40.039,32.227,30.762,0
1583510581.825,31.250,37.109,41.992,52.734,-10.254,0
1583510581.829,30.762,39.062,41.016,52.246,32.715,0
1583510581.833,31.250,39.062,36.133,27.344,-0.488,0
1583510581.837,34.668,38.086,32.715,12.207,15.137,0
1583510581.841,36.133,38.086,33.691,38.574,0.488,0
1583510581.845,34.668,39.551,37.109,43.457,-15.137,0
1583510581.848,40.527,42.969,32.715,17.578,25.879,0
1583510581.852,53.223,43.457,29.785,17.578,37.598,0
1583510581.856,47.852,42.480,32.715,30.762,78.613,0
1583510581.860,39.551,40.039,37.598,43.945,72.754,0
1583510581.864,31.738,37.598,41.016,14.648,33.691,0
1583510581.862,26.367,37.598,38.086,-15.625,18.066,0
1583510581.866,38.086,36.621,37.109,19.043,58.105,0
1583510581.870,40.527,38.574,36.133,49.316,34.668,0
1583510581.874,44.434,37.598,37.598,49.316,45.898,0
1583510581.878,43.457,35.645,37.109,16.113,69.824,0
1583510581.882,38.574,36.133,37.109,12.695,5.371,0
1583510581.886,39.062,37.598,39.062,50.293,-13.672,0
1583510581.889,44.922,37.109,37.598,61.035,47.363,0
1583510581.893,48.340,38.086,38.574,34.180,5.371,0
1583510581.897,42.969,40.527,37.109,6.836,11.230,0
1583510581.901,40.527,40.039,35.645,26.367,0.000,0
1583510581.905,41.016,38.574,37.109,56.152,6.348,0
1583510581.903,39.062,41.504,35.645,34.180,50.781,0
1583510581.907,33.203,39.551,32.715,7.812,34.180,0
1583510581.911,28.809,36.621,34.668,20.508,36.621,0
1583510581.915,28.320,38.086,35.156,47.363,37.598,0
1583510581.919,29.297,36.621,35.645,49.316,48.828,0
1583510581.923,29.297,35.645,37.109,19.531,29.297,0
1583510581.927,29.785,36.133,34.180,25.391,9.766,0
1583510581.930,30.273,35.645,33.691,51.270,20.996,0
1583510581.934,31.250,36.133,35.156,45.410,13.672,0
1583510581.938,31.738,38.574,36.621,23.926,15.625,0
1583510581.942,26.855,40.039,36.621,23.438,34.668,0
1583510581.946,29.785,41.504,35.645,50.293,27.344,0
1583510581.961,32.227,40.039,35.645,53.711,25.391,0
1583510581.965,29.785,41.504,33.203,29.297,39.551,0
1583510581.969,33.691,42.969,34.180,14.160,39.062,0
1583510581.973,38.574,44.434,36.621,40.039,34.180,0
1583510581.977,37.598,46.387,33.203,61.035,27.832,0
1583510581.981,32.715,42.480,32.227,33.691,54.688,0
1583510581.985,29.297,39.551,33.691,5.859,30.273,0
1583510581.988,29.297,41.992,32.715,26.855,13.184,0
1583510581.992,31.250,43.945,33.203,58.594,13.672,0
1583510581.996,30.273,42.969,35.156,48.828,31.250,0
1583510582.000,27.832,39.062,34.180,14.648,41.016,0
1583510582.004,27.344,38.574,35.645,23.926,42.969,0
1583510582.001,20.508,39.062,39.062,52.734,25.391,0
1583510582.005,19.043,39.062,35.156,52.246,-1.953,0
1583510582.009,24.414,35.645,35.156,22.461,26.855,0
1583510582.013,26.367,35.156,37.109,8.789,6.836,0
1583510582.017,31.738,40.039,38.574,44.434,53.711,0
1583510582.021,27.832,35.156,39.551,54.199,86.914,0
1583510582.025,24.414,35.156,36.621,26.855,20.996,0
1583510582.028,27.832,36.621,34.180,13.672,52.734,0
1583510582.032,26.367,34.668,35.156,30.762,110.840,0
1583510582.036,27.832,37.598,36.621,49.805,61.035,0
1583510582.040,30.762,37.109,38.574,37.109,62.988,0
1583510582.044,25.879,35.645,38.574,12.695,60.547,0
1583510582.041,28.320,36.133,34.668,24.414,47.852,0
1583510582.045,37.109,36.621,35.156,53.711,68.848,0
1583510582.049,36.621,36.621,40.527,51.270,83.984,0
1583510582.053,35.645,34.180,39.551,26.855,26.855,0
1583510582.057,35.156,35.156,37.109,29.785,29.785,0
1583510582.061,33.691,37.109,39.551,55.176,124.023,0
1583510582.065,31.250,34.668,41.016,54.688,92.773,0
1583510582.068,32.227,35.645,41.992,26.367,-10.254,0
1583510582.072,37.598,36.133,38.086,17.578,-37.109,0
1583510582.076,37.598,33.691,38.086,47.852,31.250,0
1583510582.080,37.109,35.156,37.598,62.012,56.152,0
1583510582.084,38.086,37.109,35.156,37.598,62.988,0
1583510582.101,34.180,38.086,36.621,17.090,94.238,0
1583510582.105,36.133,40.039,39.062,37.598,109.375,0
1583510582.109,42.480,41.504,35.156,61.035,100.586,0
1583510582.113,42.969,42.480,32.715,41.504,75.195,0
1583510582.117,39.062,42.969,29.785,3.906,52.246,0
1583510582.121,34.668,42.480,27.832,8.301,51.758,0
1583510582.125,33.203,42.480,29.785,35.156,36.133,0
1583510582.128,31.250,41.504,28.809,31.738,4.395,0
1583510582.132,33.203,40.527,31.738,1.953,22.461,0
1583510582.136,35.156,40.039,31.738,-4.395,-12.207,0
1583510582.140,32.715,41.016,30.762,37.598,13.672,0
1583510582.144,32.227,42.969,34.180,52.246,56.152,0
1583510582.141,33.203,41.016,35.645,28.320,12.695,0
1583510582.145,27.832,37.109,35.645,17.578,23.438,0
1583510582.149,21.973,34.180,32.715,36.621,14.160,0
1583510582.153,29.297,33.691,30.273,56.152,-20.020,0
1583510582.157,39.551,32.715,30.273,38.574,7.812,0
1583510582.161,40.039,28.320,33.691,19.043,32.227,0
1583510582.165,32.227,28.809,34.668,28.320,38.574,0
1583510582.168,27.344,34.668,33.691,38.086,40.039,0
1583510582.172,25.391,35.156,34.180,26.855,5.859,0
1583510582.176,26.367,37.598,35.645,-5.859,-33.691,0
1583510582.180,37.598,36.621,33.203,11.230,14.160,0
1583510582.184,39.062,34.180,28.320,46.875,72.754,0
1583510582.181,38.086,34.180,30.273,41.016,41.504,0
1583510582.185,43.945,36.133,32.715,25.879,-19.531,0
1583510582.189,43.945,38.574,32.715,16.602,-20.020,0
1583510582.193,41.504,34.180,31.250,44.434,3.418,0
1583510582.197,40.039,33.691,35.156,58.594,45.410,0
1583510582.201,37.598,35.645,37.598,24.414,37.598,0
1583510582.205,38.574,35.156,36.133,19.043,53.711,0
1583510582.208,42.480,37.598,36.621,48.828,69.824,0
1583510582.212,43.945,36.621,35.645,64.453,26.367,0
1583510582.216,47.363,35.645,34.180,42.480,26.367,0
1583510582.220,48.340,34.668,35.645,20.020,30.762,0
1583510582.224,48.828,36.133,35.645,43.945,19.531,0
1583510582.241,51.758,38.574,34.180,67.383,42.480,0
1583510582.245,50.293,38.574,33.691,54.199,38.574,0
1583510582.249,50.293,39.062,33.691,15.625,51.758,0
1583510582.253,47.852,41.016,30.762,10.254,25.879,0
1583510582.257,42.480,42.969,31.250,44.434,-18.555,0
1583510582.261,37.109,39.551,34.180,40.527,34.668,0
1583510582.265,35.156,37.109,32.715,14.648,41.016,0
1583510582.268,30.762,37.109,33.203,2.441,70.801,0
1583510582.272,33.203,37.598,30.762,24.902,85.449,0
1583510582.276,38.574,35.645,30.762,48.340,18.555,0
1583510582.280,36.133,33.691,34.180,25.879,52.246,0
1583510582.284,37.109,36.133,32.715,12.695,44.922,0
1583510582.285,39.551,37.598,30.762,31.250,11.719,0
1583510582.289,40.039,40.527,31.738,47.852,39.062,0
1583510582.293,41.992,41.016,34.180,39.551,50.293,0
1583510582.297,38.574,38.574,34.180,11.719,43.457,0
1583510582.301,38.086,38.574,34.668,23.438,48.828,0
1583510582.305,39.062,38.086,32.715,49.805,52.734,0
1583510582.309,39.551,40.039,31.250,39.551,35.156,0
1583510582.312,45.410,41.504,31.250,21.973,18.555,0
1583510582.316,47.363,37.598,30.273,23.926,23.926,0
1583510582.320,40.039,39.551,32.227,49.316,70.801,0
1583510582.324,45.410,44.434,34.180,48.340,87.402,0
1583510582.328,51.758,44.434,34.180,20.508,77.148,0
1583510582.326,42.480,44.434,33.691,16.113,57.617,0
1583510582.330,35.156,42.480,34.180,33.203,26.855,0
1583510582.334,35.156,40.527,36.133,49.316,42.969,0
1583510582.338,33.203,41.016,38.086,22.461,57.617,0
1583510582.342,32.227,38.574,36.133,-4.395,60.547,0
1583510582.346,29.785,37.109,35.156,29.297,29.785,0
1583510582.350,26.367,37.109,35.156,48.828,40.039,0
1583510582.353,23.926,39.551,37.598,29.785,88.379,0
1583510582.357,24.902,38.574,39.551,4.883,69.824,0
1583510582.361,32.227,37.598,39.062,14.648,33.203,0
1583510582.365,33.203,40.039,39.551,50.293,23.438,0
1583510582.369,28.809,35.645,37.598,45.410,-20.020,0
1583510582.381,28.809,33.691,34.668,17.090,18.066,0
1583510582.385,25.391,35.156,36.621,10.254,115.234,0
1583510582.389,21.484,35.645,39.062,29.785,116.211,0
1583510582.393,23.438,33.203,36.133,44.922,54.199,0
1583510582.397,27.832,32.227,37.109,22.949,31.738,0
1583510582.401,29.297,36.621,39.551,8.301,6.348,0
1583510582.405,27.344,35.645,38.086,22.949,-0.488,0
1583510582.408,29.297,35.156,37.109,42.969,24.414,0
1583510582.412,32.715,36.133,34.668,34.668,40.527,0
1583510582.416,34.668,36.133,35.645,10.742,49.316,0
1583510582.420,32.227,36.133,39.551,19.531,-0.488,0
1583510582.424,31.250,39.551,37.109,40.039,64.453,0
1583510582.421,35.156,40.527,34.180,38.574,119.629,0
1583510582.425,37.598,38.574,35.645,18.066,64.453,0
1583510582.429,36.133,39.551,34.180,25.391,81.055,0
1583510582.433,34.180,40.039,33.203,51.270,42.969,0
1583510582.437,35.645,36.621,34.668,46.875,31.738,0
1583510582.441,34.668,36.621,34.180,23.926,18.555,0
1583510582.445,29.785,38.086,35.645,23.438,20.996,0
1583510582.448,28.809,35.156,35.156,52.246,36.133,0
1583510582.452,35.645,35.645,31.738,70.801,30.762,0
1583510582.456,42.480,35.645,31.250,41.016,8.789,0
1583510582.460,30.762,36.133,33.203,9.766,18.066,0
1583510582.464,13.184,39.062,35.645,19.531,16.113,0
1583510582.481,22.949,39.062,37.109,47.363,25.391,0
1583510582.485,34.180,39.551,31.738,36.133,53.711,0
1583510582.489,32.715,38.574,30.273,2.441,-1.953,0
1583510582.493,33.203,38.086,33.203,20.508,-24.902,0
1583510582.497,36.621,41.992,34.668,52.734,14.160,0
1583510582.501,38.574,42.480,37.109,46.387,10.742,0
1583510582.505,37.598,39.551,36.133,19.531,14.648,0
1583510582.508,32.715,41.016,35.156,15.137,52.246,0
1583510582.512,32.227,44.922,36.621,45.898,41.016,0
1583510582.516,35.645,44.434,38.086,54.199,31.738,0
1583510582.520,38.086,43.457,36.133,25.391,58.105,0
1583510582.524,38.086,42.480,34.668,17.090,90.332,0
1583510582.522,31.738,41.016,36.621,36.621,50.781,0
1583510582.526,36.133,42.480,32.715,47.363,-4.395,0
1583510582.530,38.086,41.992,31.738,30.273,10.742,0
1583510582.534,31.250,40.039,35.645,9.766,-17.090,0
1583510582.538,27.344,40.039,34.180,29.785,-10.254,0
1583510582.542,24.902,37.109,32.227,47.852,51.758,0
1583510582.546,23.926,35.156,32.715,28.809,39.551,0
1583510582.549,23.926,36.133,32.227,4.395,-26.367,0
1583510582.553,24.414,35.156,28.320,13.184,6.348,0
1583510582.557,24.902,33.691,28.809,40.527,59.570,0
1583510582.561,23.438,33.691,31.738,33.203,78.613,0
1583510582.565,23.438,33.691,32.715,6.348,45.898,0
1583510582.562,32.227,36.133,35.156,19.043,0.977,0
1583510582.566,37.598,36.621,35.645,53.223,45.898,0
1583510582.570,31.250,36.621,32.715,54.199,35.156,0
1583510582.574,28.809,35.645,31.250,20.508,-24.414,0
1583510582.578,31.250,33.691,31.250,8.789,-9.766,0
1583510582.582,31.738,34.180,33.691,36.133,-8.789,0
1583510582.586,34.668,36.621,33.691,53.711,-16.113,0
1583510582.589,41.016,40.039,31.738,34.668,13.672,0
1583510582.593,34.668,40.527,32.715,9.766,41.504,0
1583510582.597,33.203,39.062,30.762,22.461,22.949,0
1583510582.601,38.574,40.527,30.762,49.316,-14.648,0
1583510582.605,39.062,41.016,34.668,40.039,-8.789,0
1583510582.622,38.086,38.086,34.668,9.766,20.996,0
1583510582.626,34.180,35.645,32.715,10.742,33.691,0
1583510582.630,32.715,35.645,31.738,41.016,27.344,0
1583510582.634,32.227,33.691,34.668,45.410,25.879,0
1583510582.638,36.133,32.715,35.156,11.719,-10.254,0
1583510582.642,37.109,35.156,34.668,8.789,30.762,0
1583510582.646,32.715,35.156,32.227,34.668,68.359,0
1583510582.649,29.785,35.645,30.273,39.551,84.961,0
1583510582.653,32.715,34.668,32.715,19.043,62.500,0
1583510582.657,36.621,35.645,37.109,14.648,20.020,0
1583510582.661,38.086,37.109,38.086,42.969,12.207,0
1583510582.665,37.598,34.668,35.645,54.688,24.414,0
1583510582.666,37.598,33.691,33.691,38.574,49.805,0
1583510582.670,35.645,34.668,31.250,13.672,29.297,0
1583510582.674,35.156,35.645,30.762,31.250,5.859,0
1583510582.678,39.062,37.598,30.762,54.199,24.414,0
1583510582.682,39.551,39.062,33.203,27.832,51.270,0
1583510582.686,38.086,37.598,32.715,1.465,46.875,0
1583510582.690,35.645,38.086,32.227,8.789,22.461,0
1583510582.693,36.133,39.062,33.203,36.621,-2.441,0
1583510582.697,38.574,37.109,28.809,34.668,57.617,0
1583510582.701,37.598,35.156,26.367,0.000,75.195,0
1583510582.705,32.227,35.156,27.832,-1.465,54.199,0
1583510582.709,34.668,36.621,29.785,28.809,-10.254,0
1583510582.703,42.480,37.109,29.297,44.434,-64.453,0
1583510582.707,40.039,36.621,25.391,15.137,36.133,0
1583510582.711,36.133,36.133,22.461,-8.301,82.520,0
1583510582.715,35.156,36.133,24.902,21.973,32.715,0
1583510582.719,30.273,35.156,26.855,38.574,13.184,0
1583510582.723,27.832,35.645,26.855,23.438,24.902,0
1583510582.727,28.809,37.598,29.297,-1.465,71.777,0
1583510582.730,25.879,33.691,29.297,5.371,62.012,0
1583510582.734,21.973,30.762,29.297,38.574,24.902,0
1583510582.738,26.855,30.273,28.320,32.715,-7.324,0
1583510582.742,29.785,29.297,28.320,9.766,-5.371,0
1583510582.746,22.461,31.250,31.250,8.301,-12.207,0
1583510582.761,24.902,30.762,29.297,34.668,29.297,0
1583510582.765,30.273,29.297,29.785,49.805,93.750,0
1583510582.769,27.832,31.738,30.273,19.043,59.570,0
1583510582.773,23.926,32.715,25.391,12.207,40.039,0
1583510582.777,22.949,32.715,26.367,36.621,86.914,0
1583510582.781,23.438,31.250,30.762,47.363,82.031,0
1583510582.785,26.367,29.785,32.227,31.250,58.105,0
1583510582.788,24.902,31.250,31.738,6.348,63.965,0
1583510582.792,23.926,29.785,35.156,34.180,34.180,0
1583510582.796,25.391,28.320,34.668,58.594,32.227,0
1583510582.800,26.367,32.227,31.250,36.133,3.906,0
1583510582.804,24.414,31.250,33.203,18.066,-13.672,0
1583510582.801,24.902,33.203,34.180,35.645,83.496,0
1583510582.805,29.785,37.598,32.227,62.500,55.664,0
1583510582.809,34.668,39.551,31.738,50.293,16.602,0
1583510582.813,34.668,37.598,33.203,17.090,17.090,0
1583510582.817,30.273,36.621,30.762,23.926,6.836,0
1583510582.821,24.902,35.645,27.832,50.293,1.953,0
1583510582.825,22.949,32.227,27.344,49.316,0.000,0
1583510582.828,23.438,34.180,27.344,12.695,37.598,0
1583510582.832,23.438,34.180,27.344,-1.953,22.461,0
1583510582.836,29.785,33.691,27.344,39.062,57.617,0
1583510582.840,32.227,37.109,28.809,49.316,68.359,0
1583510582.844,36.133,37.598,30.762,28.320,75.684,0
1583510582.842,41.992,34.668,30.762,5.859,69.824,0
1583510582.846,42.969,33.691,29.785,20.020,67.871,0
1583510582.850,39.551,32.715,33.203,52.734,66.406,0
1583510582.854,38.574,31.738,34.668,35.645,41.504,0
1583510582.858,41.016,34.180,33.203,6.348,7.812,0
1583510582.862,35.645,36.133,35.156,15.137,52.246,0
1583510582.866,35.645,35.156,34.668,40.527,88.867,0
1583510582.869,30.762,33.203,31.738,44.434,34.668,0
1583510582.873,22.461,32.715,32.715,8.301,-70.312,0
1583510582.877,28.320,36.133,33.203,3.418,-31.738,0
1583510582.881,32.715,35.156,30.273,31.250,24.414,0
1583510582.885,26.855,30.273,30.273,34.180,45.898,0
1583510582.901,27.344,32.227,31.250,16.602,47.852,0
1583510582.905,31.250,33.203,32.227,-3.906,-55.176,0
1583510582.909,32.227,31.250,29.297,25.391,-26.855,0
1583510582.913,31.250,30.273,27.344,38.086,20.996,0
1583510582.917,31.250,32.227,29.297,14.160,-0.488,0
1583510582.921,29.785,34.180,31.250,7.812,34.668,0
1583510582.925,25.391,33.203,29.785,25.391,33.691,0
1583510582.928,26.855,33.691,29.297,48.828,46.875,0
1583510582.932,27.344,33.691,29.785,37.109,65.918,0
1583510582.936,21.484,33.203,31.738,17.090,78.125,0
1583510582.940,23.926,33.691,31.250,24.902,62.012,0
1583510582.944,23.926,34.668,29.297,47.852,-35.156,0
1583510582.941,26.367,33.691,28.809,51.270,9.277,0
1583510582.945,32.227,30.273,26.855,13.672,64.941,0
1583510582.949,30.273,31.250,27.344,6.836,28.320,0
1583510582.953,31.250,33.203,29.785,50.293,61.035,0
1583510582.957,30.762,34.668,32.227,57.129,76.172,0
1583510582.961,27.344,33.691,34.180,21.973,15.137,0
1583510582.965,26.367,28.809,32.227,1.465,21.973,0
1583510582.968,23.438,30.273,31.738,30.762,63.965,0
1583510582.972,23.926,32.227,32.715,59.570,52.734,0
1583510582.976,27.832,31.738,33.691,40.527,21.484,0
1583510582.980,28.320,32.715,34.668,11.719,7.324,0
1583510582.984,31.250,33.203,32.715,22.461,-5.371,0
1583510582.981,42.480,30.762,30.273,64.453,1.465,0
1583510582.985,41.992,31.738,32.715,59.570,11.719,0
1583510582.989,16.113,32.715,38.574,12.207,16.602,0
1583510582.993,10.254,31.250,35.156,3.906,53.711,0
1583510582.997,23.926,35.156,30.273,35.156,2.930,0
1583510583.001,35.156,36.621,29.785,49.805,7.812,0
1583510583.005,38.574,32.227,29.297,23.926,34.180,0
1583510583.008,30.762,32.227,30.762,9.766,40.039,0
1583510583.012,28.809,37.109,30.273,33.203,87.891,0
1583510583.016,29.785,36.621,29.297,38.574,27.832,0
1583510583.020,34.668,34.668,25.391,18.066,3.418,0
1583510583.024,37.109,34.668,25.879,3.906,6.836,0
1583510583.041,30.273,34.668,32.227,23.926,-12.695,0
1583510583.045,24.902,32.715,32.227,46.387,-7.812,0
1583510583.049,26.367,29.785,29.785,30.273,48.828,0
1583510583.053,29.297,27.832,31.250,11.230,52.734,0
1583510583.057,32.715,30.273,32.227,31.738,65.918,0
1583510583.061,35.645,32.715,31.250,60.547,79.102,0
1583510583.065,31.250,31.738,33.203,50.781,59.082,0
1583510583.068,30.273,30.762,37.109,20.020,4.395,0
1583510583.072,35.645,30.762,36.621,34.180,-3.906,0
1583510583.076,37.109,32.227,36.133,65.430,37.598,0
1583510583.080,36.133,33.691,35.645,66.895,72.266,0
1583510583.084,34.668,31.250,36.621,35.645,64.453,0
1583510583.082,36.133,32.227,33.203,14.648,76.172,0
1583510583.086,40.527,34.668,30.762,39.551,61.035,0
1583510583.090,47.852,35.156,32.715,53.223,33.203,0
1583510583.094,49.805,36.621,32.227,26.855,-0.977,0
1583510583.098,44.922,35.645,30.273,4.883,4.395,0
1583510583.102,40.527,35.156,27.832,20.020,8.301,0
1583510583.106,41.016,37.109,26.367,41.016,-25.391,0
1583510583.109,40.039,37.598,30.762,35.645,26.855,0
1583510583.113,44.434,39.551,33.691,11.719,41.016,0
1583510583.117,42.969,40.039,31.250,12.207,48.340,0
1583510583.121,28.320,33.691,30.762,35.156,20.996,0
1583510583.125,27.344,30.762,32.227,41.504,6.348,0
1583510583.122,29.297,31.250,33.203,19.531,-2.441,0
1583510583.126,31.738,28.320,32.227,16.602,-78.125,0
1583510583.130,34.180,27.832,34.668,51.758,-5.859,0
1583510583.134,37.598,33.203,34.668,62.500,102.539,0
1583510583.138,41.504,34.668,36.621,40.527,82.520,0
1583510583.142,38.086,32.715,38.086,21.973,78.125,0
1583510583.146,47.852,35.645,31.250,34.668,71.777,0
1583510583.149,47.363,37.598,28.320,49.805,87.891,0
1583510583.153,34.180,34.668,32.227,28.320,56.641,0
1583510583.157,46.875,36.621,28.809,6.836,24.902,0
1583510583.161,55.176,36.621,26.855,27.832,33.691,0
1583510583.165,58.594,34.180,27.832,59.082,57.129,0
1583510583.182,59.082,32.227,27.832,56.152,74.219,0
1583510583.186,34.668,29.785,32.715,14.160,85.449,0
1583510583.190,21.973,31.250,33.691,10.742,100.098,0
1583510583.194,31.738,29.785,29.297,53.711,82.031,0
1583510583.198,35.156,26.855,32.227,60.547,17.090,0
1583510583.202,25.391,28.320,32.227,25.879,-7.324,0
1583510583.206,18.066,28.320,27.832,10.254,25.879,0
1583510583.209,20.508,26.855,26.855,45.410,53.223,0
1583510583.213,22.461,29.785,23.926,55.176,29.297,0
1583510583.217,23.926,29.297,23.438,25.879,-33.203,0
1583510583.221,14.648,27.832,25.391,6.348,24.902,0
1583510583.225,11.719,29.785,24.902,15.137,81.543,0
1583510583.221,17.090,31.738,25.391,33.203,22.461,0
1583510583.225,18.555,31.250,26.367,20.020,31.250,0
1583510583.229,17.578,32.715,29.297,3.418,75.684,0
1583510583.233,17.090,31.250,31.738,18.555,55.176,0
1583510583.237,18.555,27.832,35.645,39.062,33.203,0
1583510583.241,18.555,27.832,39.551,41.992,7.812,0
1583510583.245,11.230,29.297,36.621,15.625,-8.301,0
1583510583.248,6.348,30.273,32.715,16.113,41.504,0
1583510583.252,2.441,30.762,32.715,45.410,112.793,0
1583510583.256,-9.766,30.273,31.250,44.922,114.258,0
1583510583.260,-12.207,28.320,29.785,22.461,76.660,0
1583510583.264,2.441,32.227,31.738,19.043,72.266,0
1583510583.261,4.883,34.180,35.156,44.434,39.062,0
1583510583.265,-1.465,33.203,33.203,45.410,14.160,0
1583510583.269,-6.836,31.250,31.250,18.555,5.371,0
1583510583.273,-8.789,28.809,30.273,7.324,27.344,0
1583510583.277,-12.207,27.832,26.367,27.344,25.879,0
1583510583.281,-17.090,28.320,27.344,45.410,1.465,0
1583510583.285,-22.461,30.762,31.738,19.043,-5.859,0
1583510583.288,-31.250,27.344,32.227,-14.160,-2.441,0
1583510583.292,-33.203,25.879,30.273,-6.348,25.391,0
1583510583.296,-28.320,28.809,31.250,25.391,13.184,0
1583510583.300,-27.344,31.250,32.227,29.785,44.922,0
1583510583.304,-20.508,33.203,29.297,-11.719,37.598,0
1583510583.321,-15.137,33.203,30.273,-19.531,3.418,0
1583510583.325,-19.043,31.738,29.297,19.531,-3.906,0
1583510583.329,-18.555,31.738,29.297,31.738,18.555,0
1583510583.333,-13.672,30.273,35.645,6.836,73.730,0
1583510583.337,-14.160,28.320,36.133,-11.230,111.328,0
1583510583.341,-21.484,28.320,32.715,11.230,84.961,0
1583510583.345,-25.879,29.785,35.156,29.297,23.438,0
1583510583.348,-15.137,28.320,36.133,7.812,22.949,0
1583510583.352,-9.766,29.785,33.691,-11.230,25.391,0
1583510583.356,-6.836,32.715,34.180,3.418,20.508,0
1583510583.360,-3.906,32.227,33.203,27.832,61.035,0
1583510583.364,-7.324,30.762,29.785,20.020,83.008,0
1583510583.364,-10.254,31.738,28.809,-11.719,57.129,0
1583510583.368,-7.324,34.180,30.273,-2.441,32.227,0
1583510583.372,-7.324,33.691,32.715,20.020,2.930,0
1583510583.376,-6.348,35.645,32.715,11.719,2.441,0
1583510583.380,-1.465,35.156,31.250,-6.836,38.574,0
1583510583.384,-4.883,32.715,31.250,-9.277,20.020,0
1583510583.388,-6.348,34.180,30.273,11.719,19.531,0
1583510583.391,-3.906,34.668,33.203,11.230,33.691,0
1583510583.395,4.395,36.133,30.273,-16.113,64.941,0
1583510583.399,4.883,35.645,27.344,-34.668,84.473,0
1583510583.403,3.906,31.738,28.809,-18.066,13.672,0
1583510583.407,17.090,31.250,25.879,13.672,-30.273,0
1583510583.401,13.672,31.250,23.438,-10.254,-33.691,0
1583510583.405,7.812,27.832,22.949,-33.203,-5.859,0
1583510583.409,12.695,30.273,25.879,0.977,6.836,0
1583510583.413,15.625,29.785,31.738,32.715,-22.949,0
1583510583.417,17.578,27.832,31.738,25.879,-26.367,0
1583510583.421,17.090,29.785,27.344,-6.836,0.000,0
1583510583.425,19.531,32.227,26.367,-3.418,67.383,0
1583510583.428,29.785,32.227,29.785,33.691,58.594,0
1583510583.432,28.809,36.133,29.297,29.785,41.504,0
1583510583.436,39.551,34.180,27.832,6.836,71.289,0
1583510583.440,50.781,28.320,33.691,0.000,3.418,0
1583510583.444,40.039,32.715,31.738,24.414,-22.949,0
1583510583.463,40.039,32.715,27.832,38.574,4.395,0
1583510583.467,47.363,33.691,28.320,13.184,52.246,0
1583510583.471,50.293,36.133,27.344,-5.371,40.527,0
1583510583.475,54.199,37.598,27.344,7.324,11.719,0
1583510583.479,54.688,36.133,25.391,37.598,18.066,0
1583510583.483,52.246,32.715,25.391,27.344,-5.859,0
1583510583.487,42.480,37.109,26.367,-9.766,-20.996,0
1583510583.490,25.879,37.109,28.320,0.977,21.484,0
1583510583.494,28.320,29.785,32.715,28.809,64.453,0
1583510583.498,45.898,30.762,31.250,33.691,73.730,0
1583510583.502,50.781,28.809,26.855,12.207,69.336,0
1583510583.506,50.781,27.344,29.785,5.371,36.133,0
1583510583.502,47.363,30.273,32.715,45.898,68.359,0
1583510583.506,45.898,31.250,28.320,49.316,48.340,0
1583510583.510,50.781,30.762,28.809,16.113,31.250,0
1583510583.514,49.805,31.250,29.785,9.277,-10.254,0
1583510583.518,49.805,29.297,30.273,36.133,-28.809,0
1583510583.522,53.711,28.809,31.738,55.664,14.160,0
1583510583.526,47.852,31.738,31.738,25.391,3.906,0
1583510583.529,44.434,29.785,33.691,9.766,31.738,0
1583510583.533,49.805,27.344,34.668,35.156,83.984,0
1583510583.537,52.734,30.762,33.691,47.852,56.641,0
1583510583.541,47.363,32.715,30.762,36.621,59.082,0
1583510583.545,44.922,32.227,29.785,9.277,30.273,0
1583510583.542,45.410,35.156,32.715,20.508,-7.812,0
1583510583.546,38.574,32.227,33.203,44.434,44.434,0
1583510583.550,48.340,34.180,29.297,39.551,46.875,0
1583510583.554,55.176,36.621,28.809,16.113,35.645,0
1583510583.558,50.293,33.691,33.203,12.207,52.734,0
1583510583.562,42.480,34.180,31.738,40.039,76.660,0
1583510583.566,36.133,34.180,32.715,43.457,48.828,0
1583510583.569,45.410,33.203,38.086,21.973,48.340,0
1583510583.573,43.945,37.598,31.738,11.719,70.801,0
1583510583.577,32.227,34.180,29.785,34.668,60.547,0
1583510583.581,28.809,32.227,30.273,60.547,37.109,0
1583510583.585,29.785,34.668,27.832,41.992,44.434,0
1583510583.601,28.320,34.668,26.367,7.324,71.289,0
1583510583.605,26.367,37.109,25.391,13.184,82.520,0
1583510583.609,22.461,34.668,27.344,32.715,42.969,0
1583510583.613,22.949,28.809,30.273,31.738,66.406,0
1583510583.617,27.344,28.320,33.691,15.625,42.480,0
1583510583.621,30.273,34.180,31.738,18.066,9.277,0
1583510583.625,32.227,32.227,30.273,35.645,74.707,0
1583510583.628,29.785,28.809,31.738,30.762,-1.953,0
1583510583.632,20.020,30.273,31.250,8.789,-14.160,0
1583510583.636,15.625,30.273,33.203,11.719,28.320,0
1583510583.640,14.160,31.250,33.691,49.316,41.504,0
1583510583.644,11.719,32.715,32.227,45.898,-13.184,0
1583510583.641,1.953,29.785,30.273,9.277,-15.137,0
1583510583.645,-12.695,27.832,29.297,-4.883,30.273,0
1583510583.649,-13.184,22.461,34.180,9.766,44.922,0
1583510583.653,-1.953,22.461,35.645,37.109,34.180,0
1583510583.657,0.488,27.344,30.762,20.508,18.555,0
1583510583.661,0.000,25.879,31.250,-11.719,29.785,0
1583510583.665,15.137,30.762,31.738,-3.418,65.918,0
1583510583.668,10.254,36.133,25.391,10.742,62.988,0
1583510583.672,9.277,33.203,31.738,0.977,38.086,0
1583510583.676,10.254,30.762,39.062,-30.273,14.160,0
1583510583.680,24.902,38.574,25.391,-34.668,-19.043,0
1583510583.684,25.879,38.574,24.414,-2.441,0.977,0
1583510583.689,25.391,38.086,28.809,29.297,39.062,0
1583510583.693,42.969,34.668,31.250,29.297,52.734,0
1583510583.697,42.969,30.273,34.668,18.066,29.297,0
1583510583.701,43.457,33.203,40.039,23.438,23.438,0
1583510583.705,56.152,40.527,33.691,51.270,34.180,0
1583510583.709,79.590,44.922,24.414,60.059,-26.855,0
1583510583.713,75.684,41.016,28.809,37.598,26.367,0
1583510583.716,56.641,33.203,35.645,58.594,123.535,0
1583510583.720,72.754,30.273,36.133,90.820,62.012,0
1583510583.724,103.516,38.574,31.250,71.289,38.086,0
1583510583.728,97.168,38.086,34.180,41.016,79.102,0
1583510583.732,83.008,30.762,37.598,68.359,93.750,0
1583510583.743,102.539,33.203,38.086,94.727,63.477,0
1583510583.747,103.516,34.180,34.668,50.781,44.922,0
1583510583.751,73.730,34.668,31.738,-3.418,38.574,0
1583510583.755,77.637,30.273,33.203,4.395,57.617,0
1583510583.759,103.027,30.762,31.250,45.410,74.707,0
1583510583.763,91.797,35.645,28.320,46.875,81.055,0
1583510583.767,65.918,28.320,33.203,3.418,18.555,0
1583510583.770,42.969,26.367,36.621,-27.832,-9.277,0
1583510583.774,50.781,30.762,30.762,-3.418,24.902,0
1583510583.778,73.242,32.227,29.785,25.391,27.832,0
1583510583.782,89.844,32.227,28.320,1.953,57.129,0
1583510583.786,75.195,32.227,30.273,-23.926,17.090,0
1583510583.781,61.523,23.926,39.551,33.203,-41.992,0
1583510583.785,94.727,33.691,31.738,62.500,-19.531,0
1583510583.789,107.910,43.457,20.508,32.227,25.879,0
1583510583.793,92.773,38.574,24.902,-1.465,41.504,0
1583510583.797,89.844,36.621,30.273,15.625,49.316,0
1583510583.801,90.820,34.668,29.297,51.270,-16.602,0
1583510583.805,79.590,30.762,30.273,41.504,-30.273,0
1583510583.808,79.590,31.250,34.180,27.832,43.457,0
1583510583.812,101.074,36.621,30.762,39.551,91.797,0
1583510583.816,102.539,38.086,26.855,53.711,29.785,0
1583510583.820,78.613,40.527,27.344,49.805,12.207,0
1583510583.824,83.496,38.574,33.691,46.387,52.246,0
1583510583.821,83.984,30.273,37.598,38.086,54.688,0
1583510583.825,62.012,27.832,31.250,55.664,50.293,0
1583510583.829,58.105,29.297,30.762,69.336,28.809,0
1583510583.833,70.312,32.715,28.320,52.246,62.988,0
1583510583.837,71.777,31.250,28.809,25.879,34.668,0
1583510583.841,60.059,28.809,33.203,36.133,-2.930,0
1583510583.845,55.176,31.250,30.273,53.223,93.262,0
1583510583.848,65.430,34.668,29.297,50.293,67.871,0
1583510583.852,60.059,34.180,34.180,34.668,26.367,0
1583510583.856,47.363,33.691,34.668,30.273,20.996,0
1583510583.860,63.965,37.109,30.762,57.617,-6.348,0
1583510583.864,75.684,35.645,34.180,56.152,20.020,0
1583510583.881,55.176,28.320,36.133,24.414,3.906,0
1583510583.885,56.641,29.785,29.297,33.203,3.418,0
1583510583.889,68.359,34.668,26.855,60.547,54.199,0
1583510583.893,50.293,33.203,31.738,61.523,91.309,0
1583510583.897,46.387,35.156,28.809,34.668,57.129,0
1583510583.901,45.898,33.691,30.273,22.949,11.719,0
1583510583.905,57.617,36.133,30.762,49.805,-38.574,0
1583510583.908,56.152,38.086,29.297,57.617,-42.480,0
1583510583.912,23.438,33.203,32.227,26.855,16.113,0
1583510583.916,6.348,34.668,31.250,-16.602,41.504,0
1583510583.920,24.414,36.621,30.762,2.930,69.824,0
1583510583.924,38.086,38.086,32.715,38.086,22.461,0
1583510583.922,37.109,39.551,30.273,21.484,-11.719,0
1583510583.926,33.203,36.621,30.762,3.418,76.660,0
1583510583.930,46.387,35.645,34.180,24.414,77.148,0
1583510583.934,49.316,39.062,31.738,62.012,47.363,0
1583510583.938,38.574,39.062,29.297,62.500,41.992,0
1583510583.942,31.250,34.668,32.715,16.602,21.484,0
1583510583.946,32.227,33.203,34.668,18.555,54.199,0
1583510583.949,34.180,36.133,34.668,54.199,32.227,0
1583510583.953,29.785,36.621,32.715,60.059,30.762,0
1583510583.957,18.555,36.621,31.250,42.480,137.207,0
1583510583.961,26.855,35.645,26.367,34.668,116.211,0
1583510583.965,52.734,32.715,26.855,65.918,48.340,0
1583510583.981,34.180,34.180,28.320,51.270,63.965,0
1583510583.985,13.672,35.156,27.832,22.461,65.918,0
1583510583.989,41.016,38.086,26.855,21.973,33.691,0
1583510583.993,39.551,35.645,33.203,46.387,57.129,0
1583510583.997,17.090,31.250,38.086,69.824,35.156,0
1583510584.001,17.090,29.297,38.086,57.617,32.227,0
1583510584.005,14.648,29.297,35.156,29.785,67.871,0
1583510584.008,16.602,33.691,27.344,2.441,91.797,0
1583510584.012,15.137,33.691,27.832,18.555,62.500,0
1583510584.016,20.020,29.297,30.273,54.688,17.090,0
1583510584.020,33.691,29.785,29.297,22.461,56.641,0
1583510584.024,42.969,33.691,30.273,11.719,34.180,0
1583510584.021,39.551,33.691,27.832,51.270,-1.953,0
1583510584.025,40.039,36.133,27.344,58.594,16.113,0
1583510584.029,31.738,34.668,33.203,41.992,17.578,0
1583510584.033,45.410,35.645,33.203,23.926,51.758,0
1583510584.037,43.945,36.133,28.809,19.043,21.973,0
1583510584.041,37.109,32.715,28.809,60.059,-19.043,0
1583510584.045,40.039,33.691,30.762,52.734,17.578,0
1583510584.048,37.109,39.062,31.738,4.395,17.090,0
1583510584.052,49.805,41.016,33.691,26.367,-21.484,0
1583510584.056,42.480,40.039,32.227,49.316,2.930,0
1583510584.060,29.785,36.133,31.738,38.086,40.039,0
1583510584.064,29.785,32.227,33.691,16.113,4.395,0
1583510584.062,29.785,37.109,31.738,12.207,-12.695,0
1583510584.066,31.738,37.109,34.180,55.176,6.348,0
1583510584.070,24.902,35.645,31.738,56.152,5.371,0
1583510584.074,11.230,33.691,29.297,15.137,19.531,0
1583510584.078,23.926,30.273,30.762,13.184,23.438,0
1583510584.082,49.316,32.227,27.344,40.039,8.301,0
1583510584.086,43.945,32.227,29.785,60.547,22.461,0
1583510584.089,5.859,29.785,33.203,39.062,25.879,0
1583510584.093,3.418,28.809,32.715,16.113,39.062,0
1583510584.097,41.504,32.715,31.250,35.645,58.594,0
1583510584.101,42.969,31.738,33.203,57.129,50.781,0
1583510584.105,23.926,28.809,34.668,37.598,-19.043,0
1583510584.122,16.602,25.391,38.086,20.508,-9.766,0
1583510584.126,22.461,25.879,33.203,21.973,30.762,0
1583510584.130,39.551,31.250,28.320,41.016,25.879,0
1583510584.134,24.414,31.250,33.691,60.059,66.406,0
1583510584.138,29.297,34.668,30.273,13.672,41.504,0
1583510584.142,45.410,34.180,28.809,16.113,43.945,0
1583510584.146,31.738,25.391,37.109,83.984,86.426,0
1583510584.149,45.410,29.297,36.133,83.984,81.543,0
1583510584.153,58.594,34.668,32.227,40.039,58.594,0
1583510584.157,67.871,33.203,33.691,31.250,46.387,0
1583510584.161,62.988,33.691,30.273,57.617,54.199,0
1583510584.165,23.926,27.832,38.086,79.102,45.410,0
1583510584.162,46.875,35.645,37.109,56.641,0.977,0
1583510584.166,75.195,40.039,30.762,29.297,-7.324,0
1583510584.170,34.668,30.273,35.645,40.527,45.410,0
1583510584.174,31.250,32.227,33.203,61.523,87.402,0
1583510584.178,55.664,34.668,31.738,54.688,96.191,0
1583510584.182,16.113,25.879,37.109,35.645,27.344,0
1583510584.186,2.930,26.855,36.133,38.574,-7.812,0
1583510584.189,51.758,38.086,29.785,51.758,12.695,0
1583510584.193,38.574,35.645,28.809,51.758,16.602,0
1583510584.197,23.926,34.668,31.738,18.555,-13.184,0
1583510584.201,45.410,39.551,34.180,7.324,-35.645,0
1583510584.205,39.062,35.645,36.621,51.758,6.836,0
1583510584.203,26.855,35.156,34.668,52.246,15.625,0
1583510584.207,20.020,36.133,32.715,20.020,32.227,0
1583510584.211,23.926,36.621,34.668,14.648,77.637,0
1583510584.215,16.113,33.691,41.016,30.273,22.949,0
1583510584.219,18.066,34.180,36.621,35.645,-14.160,0
1583510584.223,36.621,35.156,29.297,1.465,3.906,0
1583510584.227,10.254,29.297,33.203,-0.488,21.484,0
1583510584.230,5.371,32.715,26.855,26.855,-22.949,0
1583510584.234,23.438,37.109,25.879,53.711,-28.809,0
1583510584.238,22.461,36.133,29.297,47.363,37.598,0
1583510584.242,24.902,33.203,31.738,19.531,9.277,0
1583510584.246,15.625,27.344,37.109,31.738,20.996,0
1583510584.263,6.836,29.297,33.691,61.523,25.879,0
1583510584.267,12.695,34.180,29.785,59.570,56.152,0
1583510584.271,11.230,32.227,31.250,33.691,109.375,0
1583510584.275,8.301,31.250,28.809,13.672,61.523,0
1583510584.279,11.719,33.203,30.273,44.434,24.414,0
1583510584.283,6.836,31.250,34.668,76.172,59.570,0
1583510584.287,1.953,30.273,35.645,39.062,48.828,0
1583510584.290,-0.977,33.691,33.691,4.883,34.668,0
1583510584.294,0.000,33.691,31.250,20.996,40.039,0
1583510584.298,-0.488,31.738,35.645,47.363,11.719,0
1583510584.302,8.789,33.691,33.203,29.297,23.438,0
1583510584.306,0.977,29.297,30.762,9.277,83.008,0
1583510584.301,-7.812,26.367,35.156,26.855,82.520,0
1583510584.305,0.000,30.762,35.645,44.922,43.945,0
1583510584.309,0.977,27.832,37.109,47.852,37.598,0
1583510584.313,2.930,28.320,37.109,20.020,55.176,0
1583510584.317,-10.742,27.832,37.598,15.137,106.934,0
1583510584.321,-13.672,26.367,36.621,23.438,51.758,0
1583510584.325,-13.672,27.344,34.668,16.113,-8.789,0
1583510584.328,-9.277,29.785,30.762,-10.254,57.129,0
1583510584.332,1.953,29.785,29.785,-20.508,89.355,0
1583510584.336,-3.906,30.762,29.785,19.531,65.918,0
1583510584.340,0.488,35.645,29.297,30.273,32.227,0
1583510584.344,12.207,34.668,33.203,10.254,2.930,0
1583510584.342,10.742,32.715,31.250,-0.488,-0.977,0
1583510584.346,13.672,34.180,26.855,4.395,11.719,0
1583510584.350,15.137,35.156,25.879,37.109,-12.207,0
1583510584.354,6.836,34.180,31.250,39.062,7.812,0
1583510584.358,14.160,35.645,33.203,4.883,71.289,0
1583510584.362,18.555,34.668,33.691,24.902,41.992,0
1583510584.366,18.555,35.645,35.645,60.547,-6.348,0
1583510584.369,23.438,37.109,36.621,58.105,77.148,0
1583510584.373,22.949,32.227,37.598,23.926,101.074,0
1583510584.377,23.438,30.762,35.156,4.395,24.414,0
1583510584.381,25.391,32.715,31.738,38.086,55.664,0
1583510584.385,26.855,33.203,36.133,55.664,88.867,0
1583510584.402,24.902,32.227,36.621,21.973,29.297,0
1583510584.406,19.531,32.227,35.156,-10.254,-1.953,0
1583510584.410,20.020,30.762,33.691,20.020,-3.906,0
1583510584.414,20.996,28.809,31.738,57.617,31.250,0
1583510584.418,17.578,30.273,34.668,35.645,74.707,0
1583510584.422,18.066,33.203,36.621,13.672,19.043,0
1583510584.426,12.695,30.762,36.621,17.578,-4.395,0
1583510584.429,14.648,30.273,33.203,29.297,23.926,0
1583510584.433,20.996,31.250,31.250,30.273,62.988,0
1583510584.437,23.926,31.738,32.227,6.348,43.457,0
1583510584.441,30.762,31.738,31.738,16.602,-11.719,0
1583510584.445,29.297,28.320,28.809,39.062,25.879,0
1583510584.441,27.344,29.297,29.785,31.250,28.809,0
1583510584.445,36.133,31.250,30.762,17.090,24.902,0
1583510584.449,26.367,30.762,30.273,8.789,45.898,0
1583510584.453,26.367,30.762,32.715,37.109,0.000,0
1583510584.457,48.828,31.738,31.738,66.895,-14.648,0
1583510584.461,48.340,35.156,31.250,42.480,-27.832,0
1583510584.465,20.996,38.086,33.203,6.348,20.996,0
1583510584.468,17.090,39.062,31.738,22.461,87.402,0
1583510584.472,32.715,41.992,26.855,47.852,37.598,0
1583510584.476,34.668,42.480,28.320,24.414,19.531,0
1583510584.480,27.832,41.992,31.738,-3.906,47.852,0
1583510584.484,22.949,43.457,30.273,20.020,80.078,0
1583510584.482,23.926,42.480,28.809,48.828,84.961,0
1583510584.486,27.344,38.574,27.344,42.480,62.500,0
1583510584.490,16.602,33.203,27.832,9.766,41.504,0
1583510584.494,9.766,33.203,29.297,16.113,30.273,0
1583510584.498,14.648,36.621,26.855,52.734,60.059,0
1583510584.502,18.555,38.086,25.391,49.805,26.367,0
1583510584.506,24.902,36.621,24.414,19.531,39.551,0
1583510584.509,27.344,36.133,28.320,9.277,68.848,0
1583510584.513,20.508,35.645,29.297,39.062,44.922,0
1583510584.517,25.879,35.645,27.832,60.059,22.461,0
1583510584.521,37.598,36.621,29.785,38.086,-0.977,0
1583510584.525,32.715,36.133,30.762,20.020,15.137,0
1583510584.541,32.227,39.551,32.227,36.133,50.293,0
1583510584.545,37.109,39.062,32.715,59.082,23.438,0
1583510584.549,35.645,34.180,29.785,53.223,54.199,0
1583510584.553,34.180,35.156,30.762,29.785,97.656,0
1583510584.557,31.738,36.621,34.180,38.574,41.504,0
1583510584.561,31.738,33.691,34.180,62.012,24.414,0
1583510584.565,33.203,36.133,31.738,57.129,-35.156,0
1583510584.568,38.086,39.062,31.250,36.621,-0.977,0
1583510584.572,39.062,36.621,26.367,34.180,64.941,0
1583510584.576,41.504,37.598,22.949,54.688,9.766,0
1583510584.580,43.945,39.062,24.902,52.734,-11.719,0
1583510584.584,41.992,37.109,25.391,27.832,13.184,0
1583510584.582,36.133,35.645,28.320,15.625,17.578,0
1583510584.586,32.227,38.086,24.414,34.668,13.672,0
1583510584.590,29.785,38.086,22.949,47.852,14.648,0
1583510584.594,28.320,33.203,25.879,20.508,17.578,0
1583510584.598,25.391,33.203,26.367,-2.930,35.645,0
1583510584.602,22.949,33.203,30.273,15.625,20.020,0
1583510584.606,26.855,33.691,34.180,40.527,32.715,0
1583510584.609,24.414,34.668,29.785,25.879,27.344,0
1583510584.613,20.020,34.668,28.809,-5.859,-14.160,0
1583510584.617,20.020,35.645,31.738,1.953,-25.879,0
1583510584.621,21.973,33.203,31.250,33.203,-8.789,0
1583510584.625,31.738,34.180,34.180,42.480,-4.883,0
1583510584.621,34.668,35.156,34.668,20.508,28.320,0
1583510584.625,28.809,32.715,35.645,8.301,59.082,0
1583510584.629,20.996,32.715,34.668,37.598,79.102,0
1583510584.633,19.531,33.203,31.738,46.875,89.355,0
1583510584.637,22.461,30.762,35.156,18.555,31.738,0
1583510584.641,25.879,31.250,34.180,5.859,17.578,0
1583510584.645,25.391,35.645,32.715,25.879,24.902,0
1583510584.648,23.438,35.156,33.203,38.574,-17.578,0
1583510584.652,26.855,35.156,29.785,21.484,-2.930,0
1583510584.656,31.738,34.668,29.297,9.766,87.402,0
1583510584.660,34.180,31.738,32.715,32.227,103.516,0
1583510584.664,32.227,32.715,34.668,51.758,49.805,0
1583510584.681,32.715,32.715,35.645,46.875,40.039,0
1583510584.685,34.180,29.785,36.133,21.484,26.855,0
1583510584.689,35.156,30.762,35.156,21.973,16.602,0
1583510584.693,41.504,33.203,36.621,53.223,36.133,0
1583510584.697,41.504,31.738,35.156,45.410,19.531,0
1583510584.701,41.016,32.715,32.715,16.602,17.090,0
1583510584.705,42.969,34.668,31.250,6.836,64.453,0
1583510584.708,39.062,35.156,28.809,22.949,-4.883,0
1583510584.712,40.527,34.180,28.320,40.527,35.645,0
1583510584.716,41.992,34.180,27.832,18.555,81.055,0
1583510584.720,40.039,37.598,30.273,8.301,19.531,0
1583510584.724,39.062,32.227,33.203,42.480,5.859,0
1583510584.721,42.969,32.227,29.297,62.500,36.133,0
1583510584.725,51.270,36.621,29.297,39.062,83.984,0
1583510584.729,48.340,35.156,32.715,5.859,24.414,0
1583510584.733,35.645,35.156,32.715,12.695,-18.066,0
1583510584.737,35.156,30.273,35.156,43.457,62.988,0
1583510584.741,56.641,29.297,30.273,52.246,64.453,0
1583510584.745,56.641,34.180,28.320,29.297,16.602,0
1583510584.748,17.090,35.645,34.668,-7.812,-3.906,0
1583510584.752,16.113,40.527,30.273,14.648,34.180,0
1583510584.756,38.574,44.922,24.902,43.457,28.809,0
1583510584.760,34.180,43.457,28.320,11.719,28.809,0
1583510584.764,29.297,43.457,29.297,-5.859,102.051,0
1583510584.761,33.203,42.969,28.320,21.484,113.770,0
1583510584.765,40.527,41.504,28.809,52.246,78.125,0
1583510584.769,43.457,41.016,29.785,31.738,12.695,0
1583510584.773,41.504,41.016,28.320,6.348,-15.137,0
1583510584.777,43.945,40.039,28.320,27.344,41.016,0
1583510584.781,41.992,37.109,25.879,48.340,37.598,0
1583510584.785,39.551,34.668,25.879,41.992,27.832,0
1583510584.788,34.180,34.668,27.832,17.090,33.203,0
1583510584.792,31.250,36.621,26.367,30.762,38.574,0
1583510584.796,33.691,35.645,27.344,59.570,7.812,0
1583510584.800,33.691,34.180,30.273,53.711,26.367,0
1583510584.804,35.645,36.133,30.273,31.738,19.043,0
1583510584.821,34.180,35.156,26.855,29.785,19.531,0
1583510584.825,31.738,33.203,26.367,61.523,75.684,0
1583510584.829,33.691,33.203,30.762,62.988,76.172,0
1583510584.833,40.039,34.180,25.879,27.344,53.711,0
1583510584.837,43.457,33.691,20.996,25.391,25.879,0
1583510584.841,37.598,33.691,25.879,49.805,69.336,0
1583510584.845,38.574,37.109,30.762,55.664,70.312,0
1583510584.848,45.898,39.062,28.809,29.785,19.531,0
1583510584.852,44.434,37.598,27.344,4.883,-7.324,0
1583510584.856,43.945,37.598,28.809,31.738,12.695,0
1583510584.860,47.852,40.039,28.809,55.664,18.555,0
1583510584.864,45.410,37.598,29.785,40.527,33.203,0
1583510584.861,46.875,35.645,28.809,0.000,45.898,0
1583510584.865,43.457,36.133,27.832,-0.488,35.156,0
1583510584.869,35.156,36.133,26.855,35.645,24.902,0
1583510584.873,34.668,36.621,24.414,33.203,25.391,0
1583510584.877,27.344,33.203,21.973,5.371,25.391,0
1583510584.881,20.020,32.227,21.484,-3.418,99.121,0
1583510584.885,20.020,36.133,24.414,26.367,108.887,0
1583510584.888,21.484,33.691,26.367,44.434,-4.395,0
1583510584.892,21.484,32.227,23.438,28.809,34.180,0
1583510584.896,18.066,34.180,24.902,14.648,73.242,0
1583510584.900,23.438,34.180,27.344,23.926,26.855,0
1583510584.904,30.762,35.645,28.320,41.992,0.000,0
1583510584.901,30.762,36.133,26.855,42.480,57.129,0
1583510584.905,29.297,34.668,27.344,20.996,61.035,0
1583510584.909,26.855,33.691,27.832,27.832,-0.488,0
1583510584.913,29.785,36.133,25.391,43.945,47.852,0
1583510584.917,27.832,37.109,24.414,31.250,62.012,0
1583510584.921,21.484,33.691,24.414,12.695,26.367,0
1583510584.925,20.508,32.227,28.320,16.113,60.059,0
1583510584.928,21.973,36.133,28.320,46.875,31.738,0
1583510584.932,33.691,36.133,25.391,52.734,11.719,0
1583510584.936,26.367,35.156,27.344,20.508,39.062,0
1583510584.940,0.000,36.133,32.715,8.789,0.000,0
1583510584.944,-9.277,32.227,36.621,32.715,-42.969,0
1583510584.961,-7.324,26.367,37.598,46.387,-14.160,0
1583510584.965,-5.371,21.973,40.527,17.578,16.113,0
1583510584.969,-14.648,19.043,43.945,-5.371,31.250,0
1583510584.973,-20.508,18.555,44.434,26.855,21.973,0
1583510584.977,-18.066,18.066,45.410,53.711,-36.133,0
1583510584.981,-23.438,16.113,43.945,39.062,-22.949,0
1583510584.985,-27.832,17.578,41.016,0.000,52.734,0
1583510584.988,-25.879,20.996,42.480,-2.441,-13.672,0
1583510584.992,-20.996,21.484,42.969,35.156,-18.066,0
1583510584.996,-21.484,22.461,42.480,33.691,90.332,0
1583510585.000,-29.297,23.438,42.969,8.789,62.988,0
1583510585.004,-39.062,22.949,42.480,-0.488,32.227,0
1583510585.021,-41.504,23.926,41.016,25.879,91.797,0
1583510585.025,-36.133,25.391,40.527,45.410,52.246,0
1583510585.029,-35.156,25.879,38.086,17.578,10.742,0
1583510585.033,-34.180,26.367,38.574,9.277,25.879,0
1583510585.037,-31.738,26.855,35.645,30.762,56.641,0
1583510585.041,-25.391,27.344,32.715,50.781,79.102,0
1583510585.045,-15.625,28.320,37.109,39.062,69.824,0
1583510585.048,-12.695,26.855,36.133,14.648,23.438,0
1583510585.052,-8.301,27.344,30.762,35.645,39.062,0
1583510585.056,-1.953,28.320,30.273,50.293,67.871,0
1583510585.060,6.348,29.785,33.691,39.062,64.453,0
1583510585.064,10.742,31.250,35.645,26.855,91.797,0
1583510585.043,13.184,33.203,36.621,31.250,41.016,0
1583510585.047,14.648,32.227,35.156,56.152,37.109,0
1583510585.051,14.648,31.250,32.227,42.969,71.289,0
1583510585.055,11.719,32.715,31.738,12.207,10.254,0
1583510585.059,3.906,31.250,31.250,14.648,-2.441,0
1583510585.063,-2.930,30.273,29.785,34.180,-20.996,0
1583510585.067,-6.836,29.785,29.297,40.039,-68.848,0
1583510585.070,-2.441,30.762,30.273,16.602,-14.648,0
1583510585.074,-1.953,32.227,29.297,3.906,33.203,0
1583510585.078,4.883,34.668,28.320,32.227,34.180,0
1583510585.082,11.230,37.598,27.344,49.316,12.207,0
1583510585.086,5.371,35.645,28.809,32.227,43.457,0
1583510585.101,4.883,34.668,33.691,7.324,64.941,0
1583510585.105,9.277,34.180,35.645,25.879,50.293,0
1583510585.109,12.695,35.156,34.668,58.594,43.945,0
1583510585.113,19.043,35.156,32.715,52.246,56.641,0
1583510585.117,27.832,33.691,32.715,30.273,84.961,0
1583510585.121,17.090,32.715,35.156,23.926,37.109,0
1583510585.125,2.930,31.250,37.109,41.504,64.453,0
1583510585.128,0.000,27.344,33.691,33.203,66.895,0
1583510585.132,12.695,22.949,34.668,11.230,41.016,0
1583510585.136,21.973,20.996,36.621,10.742,40.039,0
1583510585.140,18.555,20.996,33.691,29.785,-1.465,0
1583510585.144,16.113,21.484,34.668,39.551,15.137,0
1583510585.141,21.484,21.484,35.645,23.926,39.551,0
1583510585.145,26.367,22.461,33.203,13.184,64.453,0
1583510585.149,19.531,24.414,33.691,31.738,99.609,0
1583510585.153,22.949,25.879,32.715,43.457,41.504,0
1583510585.157,28.320,24.414,33.203,28.320,17.090,0
1583510585.161,24.414,23.438,34.668,9.277,50.781,0
1583510585.165,23.438,25.879,36.621,22.949,13.672,0
1583510585.168,23.926,25.879,37.598,52.734,40.527,0
1583510585.172,18.555,23.926,33.691,40.527,70.801,0
1583510585.176,12.207,25.391,35.645,2.441,41.016,0
1583510585.180,15.137,26.855,35.156,12.207,37.598,0
1583510585.184,24.902,26.367,32.227,55.664,35.156,0
1583510585.183,25.879,27.344,32.715,55.664,24.902,0
1583510585.187,10.742,27.344,38.086,14.160,44.922,0
1583510585.191,0.488,25.391,41.992,2.441,53.223,0
1583510585.195,5.371,21.973,40.039,32.227,22.949,0
1583510585.199,10.254,18.555,40.039,46.875,38.574,0
1583510585.203,8.789,15.137,41.992,23.926,32.227,0
1583510585.207,11.230,12.695,40.039,1.953,-4.883,0
1583510585.210,8.789,12.207,41.016,25.391,27.344,0
1583510585.214,7.812,15.137,41.504,53.711,81.055,0
1583510585.218,17.578,18.066,40.039,39.062,48.828,0
1583510585.222,21.484,20.508,37.598,13.184,43.457,0
1583510585.226,20.508,22.949,35.156,27.832,66.406,0
1583510585.241,16.113,22.949,37.109,51.270,24.902,0
1583510585.245,22.461,22.949,39.551,46.387,4.395,0
1583510585.249,28.809,23.438,39.062,24.414,-3.906,0
1583510585.253,24.902,23.926,36.133,22.461,-12.695,0
1583510585.257,24.902,23.926,35.645,48.340,27.832,0
1583510585.261,23.438,24.414,34.668,44.922,-16.602,0
1583510585.265,23.926,25.879,34.180,17.578,-4.883,0
1583510585.268,25.879,25.391,35.156,12.695,-0.488,0
1583510585.272,25.879,26.367,37.109,34.668,-18.066,0
1583510585.276,30.762,26.367,39.062,45.898,16.602,0
1583510585.280,34.180,27.832,38.574,27.344,20.020,0
1583510585.284,34.180,29.785,33.691,3.906,27.344,0
1583510585.281,40.039,30.273,31.738,29.297,55.176,0
1583510585.285,47.363,28.320,36.133,57.617,67.383,0
1583510585.289,48.340,27.832,36.133,37.109,59.082,0
1583510585.293,43.457,30.273,33.203,12.695,40.039,0
1583510585.297,45.410,31.738,34.180,20.020,22.949,0
1583510585.301,46.387,32.715,33.203,44.922,11.230,0
1583510585.305,45.898,35.156,33.203,38.086,6.836,0
1583510585.308,47.363,36.133,37.109,10.742,48.828,0
1583510585.312,42.969,33.691,34.180,17.578,52.246,0
1583510585.316,42.480,35.156,30.273,43.945,20.020,0
1583510585.320,49.316,38.086,31.250,45.410,23.438,0
1583510585.324,56.152,36.133,30.762,16.602,53.223,0
1583510585.321,60.059,38.086,29.785,2.441,10.254,0
1583510585.325,59.570,40.039,30.762,34.668,-18.555,0
1583510585.329,58.594,37.598,32.715,53.223,-8.301,0
1583510585.333,63.477,34.668,33.203,33.203,-3.906,0
1583510585.337,51.270,32.227,33.691,5.859,0.977,0
1583510585.341,42.480,31.738,33.691,14.160,14.648,0
1583510585.345,44.434,30.762,33.691,43.457,7.812,0
1583510585.348,38.574,30.273,33.691,34.668,60.547,0
1583510585.352,42.969,32.715,35.156,6.348,25.391,0
1583510585.356,46.875,32.227,38.086,13.672,59.570,0
1583510585.360,44.922,32.715,36.621,38.574,72.266,0
1583510585.364,45.410,33.203,35.156,42.480,-19.043,0
1583510585.381,47.363,33.203,36.133,15.625,-18.066,0
1583510585.385,50.781,33.203,34.180,11.230,40.039,0
1583510585.389,50.293,33.203,32.715,33.691,95.703,0
1583510585.393,52.734,35.645,32.227,42.969,79.102,0
1583510585.397,47.363,32.715,34.180,28.809,37.598,0
1583510585.401,38.086,32.715,38.086,7.812,23.438,0
1583510585.405,42.480,37.109,39.551,31.738,41.504,0
1583510585.408,47.363,37.598,36.133,48.828,80.078,0
1583510585.412,47.363,36.133,38.574,28.320,15.625,0
1583510585.416,46.875,38.086,41.504,16.113,22.949,0
1583510585.420,37.598,41.016,38.574,23.438,48.828,0
1583510585.424,33.691,38.574,44.434,45.410,28.320,0
1583510585.422,33.203,34.668,51.758,33.203,79.590,0
1583510585.426,27.344,39.062,51.758,-1.465,73.730,0
1583510585.430,23.926,37.598,57.129,8.789,45.898,0
1583510585.434,19.531,40.527,65.430,30.762,16.113,0
1583510585.438,-2.441,49.316,72.266,8.789,5.859,0
1583510585.442,-25.879,42.969,73.730,-44.434,-2.930,0
1583510585.446,-36.133,43.945,75.195,-64.941,34.180,0
1583510585.449,-53.223,43.457,84.473,-46.387,53.711,0
1583510585.453,-67.871,38.086,87.891,-45.898,37.109,0
1583510585.457,-74.707,44.922,90.332,-75.684,80.566,0
1583510585.461,-93.262,44.922,93.750,-122.070,42.969,0
1583510585.465,-110.352,42.480,94.727,-123.535,-2.930,0
1583510585.461,-109.863,41.992,101.074,-94.727,16.113,0
1583510585.465,-113.770,45.898,103.027,-120.117,37.109,0
1583510585.469,-130.859,46.875,103.516,-165.039,-9.277,0
1583510585.473,-138.184,44.434,106.445,-159.180,-25.391,0
1583510585.477,-135.254,49.805,104.980,-132.324,26.367,0
1583510585.481,-140.137,50.781,98.633,-143.555,44.922,0
1583510585.485,-141.113,49.316,94.238,-181.152,43.457,0
1583510585.488,-135.742,49.316,90.820,-178.711,47.363,0
1583510585.492,-134.277,52.246,90.332,-153.809,56.152,0
1583510585.496,-139.160,53.711,89.844,-154.785,31.738,0
1583510585.500,-126.465,51.270,84.473,-155.762,26.367,0
1583510585.504,-113.281,57.129,78.613,-152.832,70.312,0
1583510585.521,-123.535,60.059,79.102,-136.230,78.125,0
1583510585.525,-98.633,57.617,74.219,-97.656,58.594,0
1583510585.529,-81.055,65.430,65.430,-112.305,56.152,0
1583510585.533,-90.332,63.965,66.406,-142.578,73.242,0
1583510585.537,-59.082,62.500,59.570,-91.309,54.688,0
1583510585.541,-48.340,67.383,49.316,-54.199,20.508,0
1583510585.545,-45.898,62.500,46.387,-79.102,30.273,0
1583510585.548,-5.371,62.988,39.062,-70.312,51.758,0
1583510585.552,-1.465,65.918,31.738,-45.898,78.125,0
1583510585.556,-4.395,62.012,23.926,-18.066,8.789,0
1583510585.560,24.414,64.453,12.207,7.324,8.301,0
1583510585.564,37.598,67.383,8.789,-16.602,54.688,0
1583510585.561,60.059,62.500,7.812,5.859,20.996,0
1583510585.565,76.660,59.570,3.418,63.477,28.320,0
1583510585.569,81.055,58.105,0.000,72.754,43.945,0
1583510585.573,100.586,56.641,-4.883,62.988,82.031,0
1583510585.577,115.723,57.129,-11.230,55.664,71.289,0
1583510585.581,117.676,53.223,-10.254,86.426,31.738,0
1583510585.585,122.070,51.270,-6.836,116.699,53.223,0
1583510585.588,134.766,48.828,-12.695,106.445,33.691,0
1583510585.592,137.695,46.875,-18.555,86.426,25.879,0
1583510585.596,139.160,47.363,-18.066,96.680,8.301,0
1583510585.600,143.555,45.898,-19.043,131.836,-22.461,0
1583510585.604,152.832,44.434,-21.484,133.789,23.926,0
1583510585.621,160.156,42.969,-21.973,103.027,16.113,0
1583510585.625,161.621,42.969,-19.531,111.816,-12.695,0
1583510585.629,160.156,41.016,-15.625,140.137,-6.836,0
1583510585.633,152.832,39.062,-15.137,141.602,-0.977,0
1583510585.637,153.809,39.551,-16.602,115.234,-36.621,0
1583510585.641,156.738,37.598,-16.602,106.934,13.184,0
1583510585.645,151.855,34.180,-16.113,131.836,53.711,0
1583510585.648,149.902,37.598,-15.137,136.230,42.969,0
1583510585.652,149.902,38.574,-14.648,119.141,41.992,0
1583510585.656,146.973,37.598,-15.625,110.352,48.828,0
1583510585.660,142.578,37.109,-14.648,129.883,26.855,0
1583510585.664,136.719,35.156,-12.207,149.902,35.645,0
1583510585.661,135.254,36.133,-12.207,130.371,81.543,0
1583510585.665,135.742,35.156,-13.184,107.422,37.598,0
1583510585.669,127.930,33.203,-10.254,119.629,-15.137,0
1583510585.673,125.488,35.156,-8.301,142.578,43.457,0
1583510585.677,129.395,37.109,-8.301,138.672,90.332,0
1583510585.681,120.605,32.715,-3.418,101.074,72.266,0
1583510585.685,106.934,29.785,-3.418,92.285,57.129,0
1583510585.688,102.539,32.227,-7.812,121.094,83.008,0
1583510585.692,101.562,29.785,-6.348,118.652,43.457,0
1583510585.696,101.562,28.320,-3.418,84.961,-2.930,0
1583510585.700,95.703,32.227,-1.465,67.383,11.719,0
1583510585.704,93.750,34.668,0.488,92.773,29.297,0
1583510585.701,96.680,34.180,2.930,111.816,29.785,0
1583510585.705,100.098,36.621,3.906,87.402,21.484,0
1583510585.709,100.586,36.621,5.371,59.570,9.766,0
1583510585.713,104.004,36.621,5.371,72.754,-0.488,0
1583510585.717,108.398,38.086,5.371,105.957,30.273,0
1583510585.721,101.074,36.133,8.789,92.285,43.945,0
1583510585.725,97.656,37.109,6.348,58.105,8.789,0
1583510585.728,98.145,38.086,7.324,76.172,9.766,0
1583510585.732,90.332,36.621,9.766,95.703,18.066,0
1583510585.736,87.402,37.598,6.836,83.496,10.742,0
1583510585.740,84.961,35.645,9.766,62.500,16.602,0
1583510585.744,76.172,33.203,11.230,56.152,35.645,0
1583510585.761,76.660,36.621,13.184,83.008,43.945,0
1583510585.765,81.543,37.109,19.531,95.215,59.570,0
1583510585.769,90.820,35.156,16.113,81.055,51.758,0
1583510585.773,82.031,37.598,11.719,58.594,28.809,0
1583510585.777,53.711,37.109,16.602,55.176,42.480,0
1583510585.781,52.734,39.062,18.066,58.594,13.672,0
1583510585.785,64.453,43.457,14.160,45.410,-13.672,0
1583510585.788,56.152,42.480,11.719,30.273,6.836,0
1583510585.792,51.270,43.945,14.160,48.828,30.762,0
1583510585.796,54.199,46.875,14.648,71.777,22.949,0
1583510585.800,57.129,47.363,15.625,63.477,35.156,0
1583510585.804,61.523,46.387,17.578,39.062,19.531,0
1583510585.801,60.547,45.410,14.648,49.316,34.180,0
1583510585.805,59.570,41.992,12.695,81.055,92.285,0
1583510585.809,65.918,44.434,14.160,77.637,20.020,0
1583510585.813,65.430,44.922,12.695,41.992,5.371,0
1583510585.817,61.035,43.945,9.766,29.785,61.523,0
1583510585.821,57.617,42.969,10.742,57.129,47.363,0
1583510585.825,53.711,41.504,11.719,64.453,15.625,0
1583510585.828,55.664,41.016,14.160,43.945,36.621,0
1583510585.832,54.199,41.016,16.602,20.020,20.996,0
1583510585.836,49.805,41.016,18.066,35.645,32.715,0
1583510585.840,49.316,41.016,20.996,60.059,52.246,0
1583510585.844,47.363,41.016,25.391,45.898,43.457,0
1583510585.841,41.992,37.109,25.391,24.414,-10.742,0
1583510585.845,36.621,34.668,24.902,31.250,17.578,0
1583510585.849,36.621,37.109,23.438,49.316,74.707,0
1583510585.853,39.062,36.621,25.391,54.199,76.660,0
1583510585.857,38.086,33.203,26.855,35.645,73.242,0
1583510585.861,37.598,31.738,26.367,44.922,40.527,0
1583510585.865,41.504,32.227,28.320,68.359,-16.602,0
1583510585.868,48.828,34.668,26.855,70.801,-21.973,0
1583510585.872,45.898,35.645,24.902,53.223,60.547,0
1583510585.876,49.316,35.645,27.832,40.527,60.059,0
1583510585.880,53.711,38.574,28.809,76.172,18.555,0
1583510585.884,46.875,39.551,25.391,77.637,25.391,0
1583510585.901,50.293,37.109,25.879,45.410,25.391,0
1583510585.905,53.223,35.645,26.367,35.156,46.875,0
1583510585.909,49.316,35.156,22.949,50.781,18.066,0
1583510585.913,43.945,36.621,22.461,70.801,-14.160,0
1583510585.917,43.457,38.086,26.367,46.387,12.207,0
1583510585.921,40.527,34.668,23.926,9.766,45.898,0
1583510585.925,36.621,33.691,22.461,23.438,49.316,0
1583510585.928,41.016,36.133,23.926,50.781,42.969,0
1583510585.932,44.922,34.668,23.926,46.875,8.789,0
1583510585.936,46.387,35.645,26.855,16.113,35.645,0
1583510585.940,43.945,37.598,28.320,13.672,34.668,0
1583510585.944,37.109,34.180,25.879,48.340,33.203,0
1583510585.941,33.203,32.227,23.438,49.805,44.922,0
1583510585.945,33.203,34.180,24.902,24.902,-3.906,0
1583510585.949,36.621,34.668,26.367,14.648,27.344,0
1583510585.953,35.645,30.273,29.297,41.504,11.230,0
1583510585.957,36.133,31.250,29.297,66.406,3.906,0
1583510585.961,44.434,33.691,20.996,49.316,16.113,0
1583510585.965,59.570,30.273,21.484,43.945,-13.672,0
1583510585.968,46.875,23.926,34.180,46.875,-24.902,0
1583510585.972,16.602,24.414,33.203,41.016,-16.602,0
1583510585.976,25.391,24.902,29.297,45.410,68.359,0
1583510585.980,30.762,17.090,36.621,17.090,17.578,0
1583510585.984,14.160,14.160,39.551,20.508,-4.395,0
1583510585.981,13.184,12.695,40.527,47.852,37.598,0
1583510585.985,20.508,6.836,42.969,47.363,25.879,0
1583510585.989,21.973,7.324,43.457,33.691,81.055,0
1583510585.993,14.648,12.695,41.992,21.973,86.426,0
1583510585.997,18.066,14.160,40.527,49.316,48.340,0
1583510586.001,25.879,14.648,39.551,56.641,49.805,0
1583510586.005,32.227,18.066,37.598,22.461,28.320,0
1583510586.008,32.715,21.484,36.133,14.160,24.414,0
1583510586.012,30.273,22.949,35.645,37.598,33.203,0
1583510586.016,35.645,25.391,32.227,53.711,8.789,0
1583510586.020,41.016,23.438,31.738,32.715,39.551,0
1583510586.024,44.434,25.879,33.691,11.230,69.336,0
1583510586.041,42.969,26.855,33.691,35.156,57.129,0
1583510586.045,42.969,24.902,34.180,57.617,41.504,0
1583510586.049,40.527,27.832,35.156,49.805,62.012,0
1583510586.053,35.156,28.320,35.645,17.578,112.305,0
1583510586.057,34.668,25.879,37.109,20.508,94.238,0
1583510586.061,37.598,26.855,37.598,58.594,2.441,0
1583510586.065,36.621,25.391,39.062,52.246,-19.531,0
1583510586.068,33.203,24.902,39.062,22.461,38.574,0
1583510586.072,31.250,28.320,37.109,13.672,72.266,0
1583510586.076,31.738,30.762,36.133,39.551,20.020,0
1583510586.080,31.738,28.809,37.598,56.152,14.648,0
1583510586.084,29.785,27.832,35.645,25.391,29.297,0
1583510586.081,31.250,27.832,34.668,9.277,38.086,0
1583510586.085,35.156,27.832,36.133,29.785,33.203,0
1583510586.089,33.203,28.320,33.203,45.898,-2.441,0
1583510586.093,31.738,29.785,32.227,30.762,-20.996,0
1583510586.097,36.621,32.715,33.691,6.836,-24.414,0
1583510586.101,38.086,32.715,33.203,24.414,76.172,0
1583510586.105,38.086,33.203,28.320,38.086,86.914,0
1583510586.108,32.227,34.180,27.344,28.320,48.340,0
1583510586.112,29.785,34.180,28.809,12.207,74.219,0
1583510586.116,33.691,33.203,28.320,8.789,11.230,0
1583510586.120,34.668,33.691,30.762,33.691,-26.855,0
1583510586.124,38.086,35.645,29.785,33.691,26.855,0
1583510586.121,36.621,34.668,27.832,14.648,73.242,0
1583510586.125,34.668,32.227,29.297,9.766,43.457,0
1583510586.129,33.203,35.156,27.832,33.691,-27.832,0
1583510586.133,38.574,35.156,28.809,51.270,-50.293,0
1583510586.137,38.574,31.738,30.762,25.879,13.184,0
1583510586.141,28.320,31.250,27.832,7.812,63.965,0
1583510586.145,27.832,31.738,30.762,32.227,64.453,0
1583510586.148,29.297,29.297,30.762,54.199,2.441,0
1583510586.152,28.320,27.344,26.855,36.133,-5.859,0
1583510586.156,26.855,25.879,28.809,9.766,71.289,0
1583510586.160,26.855,25.391,31.250,24.414,64.941,0
1583510586.164,31.250,30.762,31.250,56.152,30.762,0
1583510586.181,36.133,31.250,31.250,50.781,8.789,0
1583510586.185,34.668,27.832,32.715,20.020,17.578,0
1583510586.189,32.715,29.297,33.203,15.137,20.020,0
1583510586.193,35.645,28.809,33.691,47.363,40.039,0
1583510586.197,38.574,28.320,34.180,57.129,4.395,0
1583510586.201,38.086,32.227,33.691,31.738,14.648,0
1583510586.205,35.156,32.227,34.180,16.113,64.453,0
1583510586.208,41.016,31.250,34.180,34.180,29.297,0
1583510586.212,41.992,32.227,29.297,56.641,56.152,0
1583510586.216,35.645,32.227,28.809,37.109,-8.301,0
1583510586.220,35.156,32.227,31.250,20.020,-20.508,0
1583510586.224,34.668,31.250,31.738,42.969,43.945,0
1583510586.221,31.250,30.762,32.715,64.453,33.203,0
1583510586.225,29.785,30.762,35.156,49.805,50.293,0
1583510586.229,24.902,29.785,31.250,14.160,-13.184,0
1583510586.233,25.391,29.785,29.785,25.879,-64.941,0
1583510586.237,28.320,28.809,34.180,61.523,-4.883,0
1583510586.241,24.414,29.785,36.133,52.246,73.730,0
1583510586.245,27.832,30.762,35.645,26.855,45.898,0
1583510586.248,35.645,34.180,35.156,34.180,25.391,0
1583510586.252,36.621,35.645,34.180,58.105,67.383,0
1583510586.256,32.227,31.738,32.715,58.105,61.523,0
1583510586.260,33.691,31.738,31.250,25.391,-14.648,0
1583510586.264,36.133,33.691,28.320,14.160,12.695,0
1583510586.261,33.691,34.180,28.320,41.016,42.480,0
1583510586.265,33.691,35.156,28.320,58.105,23.926,0
1583510586.269,32.715,34.668,27.832,33.203,35.645,0
1583510586.273,33.691,33.691,27.832,5.859,24.902,0
1583510586.277,37.109,36.133,25.879,32.227,48.828,0
1583510586.281,40.527,38.086,25.391,57.129,42.480,0
1583510586.285,41.992,36.621,23.926,39.551,52.734,0
1583510586.288,39.551,35.156,23.926,11.230,74.707,0
1583510586.292,34.668,36.621,24.902,13.672,89.844,0
1583510586.296,31.250,34.180,26.855,42.480,1.465,0
1583510586.300,36.621,32.715,26.855,45.898,-16.113,0
1583510586.304,41.504,34.668,28.809,26.367,33.691,0
1583510586.321,33.691,34.180,32.227,19.531,30.762,0
1583510586.325,30.762,32.227,30.273,33.691,16.113,0
1583510586.329,33.203,29.785,28.320,46.875,12.695,0
1583510586.333,33.691,29.297,28.809,26.855,-5.859,0
1583510586.337,31.738,31.738,28.809,11.719,6.836,0
1583510586.341,29.297,32.227,29.297,37.598,26.367,0
1583510586.345,31.738,34.180,33.203,51.270,-2.441,0
1583510586.348,35.156,36.133,33.203,41.504,20.996,0
1583510586.352,34.668,33.203,30.762,21.973,17.090,0
1583510586.356,29.785,32.227,28.809,29.785,20.508,0
1583510586.360,28.809,31.738,26.855,50.293,65.918,0
1583510586.364,30.273,30.273,32.227,36.133,70.312,0
1583510586.361,35.645,33.691,34.180,15.137,34.180,0
1583510586.365,39.062,33.203,31.738,21.973,33.691,0
1583510586.369,41.992,30.762,30.762,51.758,43.945,0
1583510586.373,43.457,31.738,31.250,47.852,0.977,0
1583510586.377,41.992,32.715,30.762,17.090,31.738,0
1583510586.381,41.016,33.691,28.320,18.066,72.754,0
1583510586.385,39.062,35.156,29.785,45.410,69.336,0
1583510586.388,43.945,38.574,27.344,57.129,9.766,0
1583510586.392,42.969,37.598,23.926,25.879,-12.207,0
1583510586.396,33.691,33.691,24.902,1.465,32.715,0
1583510586.400,33.691,34.180,25.879,35.156,21.973,0
1583510586.404,38.574,33.691,27.832,59.082,11.719,0
1583510586.401,34.180,33.203,29.297,45.410,4.883,0
1583510586.405,30.273,32.227,29.785,13.672,38.086,0
1583510586.409,27.344,32.227,31.250,10.254,58.105,0
1583510586.413,26.367,32.227,29.785,42.969,31.738,0
1583510586.417,27.832,29.785,28.809,38.574,6.348,0
1583510586.421,23.926,29.785,31.738,10.254,-44.434,0
1583510586.425,23.926,33.203,32.715,11.719,25.879,0
1583510586.428,27.832,34.668,31.738,39.062,44.922,0
1583510586.432,29.785,33.203,32.227,43.945,-1.953,0
1583510586.436,37.598,32.715,33.691,18.066,12.207,0
1583510586.440,36.133,33.691,34.668,15.137,36.621,0
1583510586.444,29.785,35.156,33.691,32.227,63.965,0
1583510586.461,26.367,32.227,30.762,39.551,68.359,0
1583510586.465,28.809,29.785,29.785,30.762,42.480,0
1583510586.469,27.344,31.738,28.320,12.207,65.430,0
1583510586.473,22.461,32.227,28.320,24.902,17.090,0
1583510586.477,26.367,33.691,30.762,41.992,-4.395,0
1583510586.481,27.832,32.715,28.809,20.508,4.883,0
1583510586.485,28.320,35.156,28.320,-4.883,17.090,0
1583510586.488,29.297,38.574,30.273,4.395,42.480,0
1583510586.492,26.367,35.645,30.762,37.109,65.430,0
1583510586.496,26.367,33.203,29.297,28.320,61.523,0
1583510586.500,25.879,33.203,27.344,-3.418,9.277,0
1583510586.504,23.926,35.645,28.809,3.906,25.391,0
1583510586.501,25.391,37.109,30.762,36.621,8.789,0
1583510586.505,26.855,34.180,29.785,50.781,-1.953,0
1583510586.509,24.414,35.645,28.320,16.602,25.879,0
1583510586.513,22.949,34.668,28.320,-0.977,16.113,0
1583510586.517,22.461,31.738,28.809,32.227,18.066,0
1583510586.521,21.484,29.785,29.785,46.875,76.660,0
1583510586.525,18.555,30.762,30.273,29.297,106.445,0
1583510586.528,17.090,32.715,30.762,-0.488,51.270,0
1583510586.532,17.090,30.273,30.762,16.602,54.199,0
1583510586.536,15.137,31.738,29.297,49.805,60.059,0
1583510586.540,23.926,33.691,31.250,37.109,8.789,0
1583510586.544,25.879,31.738,30.273,17.090,17.090,0
1583510586.541,21.484,31.738,27.832,22.949,83.984,0
1583510586.545,25.391,29.785,29.297,44.922,21.484,0
1583510586.549,25.391,30.273,30.762,49.805,-28.809,0
1583510586.553,24.414,30.273,29.785,22.949,29.785,0
1583510586.557,25.391,28.320,30.762,18.555,55.664,0
1583510586.561,24.902,29.297,33.691,41.992,-2.930,0
1583510586.565,21.973,31.738,31.250,45.898,-20.020,0
1583510586.568,20.508,33.203,29.297,23.438,35.156,0
1583510586.572,19.043,32.227,29.785,3.418,24.902,0
1583510586.576,20.996,32.227,32.227,30.273,4.395,0
1583510586.580,20.508,31.250,31.738,47.363,36.133,0
1583510586.584,22.949,32.227,29.297,33.691,36.621,0
1583510586.601,28.809,34.180,32.227,17.578,2.930,0
1583510586.605,31.250,34.180,33.691,27.832,-30.762,0
1583510586.609,27.344,34.668,27.832,49.316,-8.789,0
1583510586.613,26.855,35.645,25.391,32.715,80.566,0
1583510586.617,30.762,35.156,26.367,8.789,106.934,0
1583510586.621,26.855,32.715,25.879,16.602,106.445,0
1583510586.625,23.438,31.738,28.809,37.598,11.230,0
1583510586.628,29.297,31.738,30.273,43.457,-10.742,0
1583510586.632,31.738,31.250,29.785,16.602,80.566,0
1583510586.636,28.320,30.273,31.738,6.348,106.445,0
1583510586.640,23.438,30.273,31.250,31.738,66.895,0
1583510586.644,21.973,29.785,31.250,40.527,10.742,0
1583510586.642,26.855,28.320,31.738,19.043,9.277,0
1583510586.646,24.902,30.273,29.297,0.000,44.922,0
1583510586.650,20.996,31.250,27.344,20.996,22.949,0
1583510586.654,29.785,26.855,29.297,55.664,-0.488,0
1583510586.658,32.715,28.809,30.762,45.410,22.949,0
1583510586.662,26.367,29.785,32.227,9.766,30.762,0
1583510586.666,41.016,31.738,29.297,24.902,59.570,0
1583510586.669,38.574,36.133,27.832,46.387,72.754,0
1583510586.673,25.879,35.156,32.715,30.273,51.270,0
1583510586.677,37.109,36.621,29.297,12.207,31.250,0
1583510586.681,46.875,38.086,26.367,21.973,-14.648,0
1583510586.685,45.410,38.086,29.297,49.805,38.574,0
1583510586.702,44.434,37.109,30.273,55.176,60.059,0
1583510586.706,50.293,36.133,28.320,31.250,32.715,0
1583510586.710,42.969,35.645,27.344,14.160,70.801,0
1583510586.714,37.598,34.180,25.879,35.156,30.762,0
1583510586.718,42.969,37.598,24.902,51.270,14.648,0
1583510586.722,42.969,38.086,26.855,33.203,18.066,0
1583510586.726,40.527,37.598,28.320,16.602,69.336,0
1583510586.729,42.480,37.598,27.832,36.621,102.539,0
1583510586.733,44.434,35.156,27.344,59.082,47.363,0
1583510586.737,47.852,34.180,28.809,43.457,45.410,0
1583510586.741,50.293,35.156,28.809,19.531,29.297,0
1583510586.745,49.805,35.645,32.715,34.180,27.832,0
1583510586.741,44.922,36.621,34.668,58.105,27.344,0
1583510586.745,43.945,36.621,32.227,54.688,8.789,0
1583510586.749,41.992,36.621,31.250,26.367,68.848,0
1583510586.753,41.504,35.156,31.738,18.555,84.961,0
1583510586.757,39.062,33.691,31.738,44.434,67.383,0
1583510586.761,35.645,35.645,32.715,46.387,50.293,0
1583510586.765,33.691,36.133,33.691,15.137,4.395,0
1583510586.768,30.273,30.273,32.227,-1.465,-6.348,0
1583510586.772,28.809,27.344,32.227,29.785,33.203,0
1583510586.776,25.879,29.297,32.715,44.434,32.227,0
1583510586.780,21.973,29.785,32.715,16.113,12.695,0
1583510586.784,23.926,28.809,28.320,-7.812,22.949,0
1583510586.782,28.809,29.297,25.391,11.230,14.160,0
1583510586.786,28.320,28.320,26.367,47.852,43.457,0
1583510586.790,32.227,27.832,27.344,41.504,41.504,0
1583510586.794,37.109,29.297,29.785,19.043,25.391,0
1583510586.798,33.203,30.273,32.227,26.855,58.594,0
1583510586.802,34.180,34.180,29.785,49.316,6.836,0
1583510586.806,39.551,32.715,29.785,56.152,-20.996,0
1583510586.809,41.016,30.273,29.297,32.715,-22.949,0
1583510586.813,39.551,32.715,24.902,24.902,-15.137,0
1583510586.817,36.133,36.621,26.855,50.781,64.941,0
1583510586.821,40.039,38.086,29.785,58.594,59.082,0
1583510586.825,42.480,36.621,28.320,40.039,21.484,0
1583510586.821,43.457,35.645,27.344,24.902,70.801,0
1583510586.825,41.016,34.180,31.250,43.457,0.488,0
1583510586.829,38.086,31.738,31.738,62.988,-50.781,0
1583510586.833,39.551,31.738,29.297,44.434,-28.320,0
1583510586.837,34.668,32.227,27.832,20.996,34.180,0
1583510586.841,32.227,30.273,30.273,43.457,74.219,0
1583510586.845,43.945,30.273,32.227,83.008,33.691,0
1583510586.848,48.340,35.645,29.785,66.895,69.336,0
1583510586.852,31.250,36.621,31.738,9.277,59.570,0
1583510586.856,13.672,35.156,34.668,8.301,36.621,0
1583510586.860,13.184,36.133,31.738,41.016,50.781,0
1583510586.864,24.414,36.133,33.691,47.852,22.461,0
1583510586.881,36.133,38.086,33.203,26.855,-6.836,0
1583510586.885,36.621,37.109,29.297,8.301,-4.395,0
1583510586.889,30.273,36.621,29.297,35.645,-0.977,0
1583510586.893,25.391,37.598,29.297,49.316,-46.875,0
1583510586.897,24.414,38.086,28.320,23.438,0.977,0
1583510586.901,28.320,37.109,26.855,3.418,57.617,0
1583510586.905,29.785,37.109,27.344,19.531,34.180,0
1583510586.908,32.227,39.551,28.320,49.805,17.090,0
1583510586.912,42.969,40.527,27.344,37.109,-12.207,0
1583510586.916,45.898,40.039,24.414,15.625,16.602,0
1583510586.920,38.574,36.621,27.832,18.555,24.414,0
1583510586.924,39.062,36.133,27.344,40.039,23.438,0
1583510586.921,38.574,37.109,24.902,46.387,62.500,0
1583510586.925,36.621,35.645,23.926,11.719,43.945,0
1583510586.929,37.109,36.621,27.344,11.719,13.184,0
1583510586.933,34.180,38.086,29.785,39.062,7.324,0
1583510586.937,27.344,36.621,26.367,38.574,35.156,0
1583510586.941,20.020,34.180,25.391,18.555,20.508,0
1583510586.945,17.578,33.203,25.391,9.277,22.949,0
1583510586.948,23.926,33.203,25.879,36.133,-22.461,0
1583510586.952,26.855,33.691,28.320,49.316,-3.906,0
1583510586.956,27.832,34.180,30.762,24.902,47.363,0
1583510586.960,32.227,33.203,32.227,19.043,49.316,0
1583510586.964,41.016,33.691,30.762,44.922,96.191,0
1583510586.981,46.875,35.156,30.273,65.430,24.902,0
1583510586.985,44.922,34.180,30.762,42.969,15.137,0
1583510586.989,46.387,32.715,31.738,11.230,20.508,0
1583510586.993,48.828,34.668,31.738,27.344,-9.766,0
1583510586.997,47.363,34.180,29.297,51.758,-22.949,0
1583510587.001,41.992,29.785,30.273,46.875,-29.297,0
1583510587.005,38.574,26.367,30.273,15.625,33.691,0
1583510587.008,35.156,30.273,29.785,3.418,89.844,0
1583510587.012,32.715,32.715,28.809,36.621,48.828,0
1583510587.016,37.598,32.227,27.832,52.734,32.715,0
1583510587.020,38.574,32.227,27.832,31.250,38.574,0
1583510587.024,36.133,32.715,29.297,12.695,14.648,0
1583510587.021,36.133,35.645,28.809,29.297,49.805,0
1583510587.025,40.039,37.109,24.414,53.711,58.105,0
1583510587.029,41.992,36.133,23.926,37.109,76.660,0
1583510587.033,42.969,37.109,28.320,13.672,27.832,0
1583510587.037,43.945,38.574,29.785,26.855,27.344,0
1583510587.041,43.945,41.016,27.832,51.270,69.336,0
1583510587.045,44.434,41.504,31.250,50.293,-28.320,0
1583510587.048,45.898,41.504,34.180,25.391,17.090,0
1583510587.052,47.363,39.551,31.738,29.785,83.008,0
1583510587.056,42.480,36.621,32.715,53.711,51.270,0
1583510587.060,41.504,36.621,34.668,46.875,14.160,0
1583510587.064,41.504,33.203,34.180,20.996,8.789,0
1583510587.062,41.504,31.250,33.203,19.531,47.852,0
1583510587.066,38.086,32.715,32.715,49.805,28.809,0
1583510587.070,38.574,32.715,33.203,54.688,0.977,0
1583510587.074,36.621,32.715,34.180,22.949,10.742,0
1583510587.078,34.668,32.715,34.668,11.230,13.672,0
1583510587.082,32.227,32.715,36.133,31.738,15.137,0
1583510587.086,30.273,33.691,35.645,47.363,20.996,0
1583510587.089,36.133,33.691,30.762,23.438,46.875,0
1583510587.093,33.691,34.668,28.320,-6.348,67.871,0
1583510587.097,31.250,34.180,29.297,15.137,30.762,0
1583510587.101,37.598,32.715,29.785,45.410,49.805,0
1583510587.105,43.945,34.180,32.227,43.457,68.359,0
1583510587.121,48.828,35.156,30.762,15.137,14.648,0
1583510587.125,43.945,35.156,32.227,18.555,-3.906,0
1583510587.129,38.086,34.668,34.180,51.270,-0.977,0
1583510587.133,38.574,33.691,29.785,56.152,64.941,0
1583510587.137,41.504,33.203,27.344,30.762,83.496,0
1583510587.141,47.363,35.156,28.809,11.719,93.262,0
1583510587.145,45.410,35.645,29.785,36.133,84.473,0
1583510587.148,40.039,36.133,27.832,50.293,80.566,0
1583510587.152,41.016,36.133,27.832,21.484,64.453,0
1583510587.156,39.062,33.691,29.297,3.418,-9.766,0
1583510587.160,34.668,32.715,27.832,18.066,39.062,0
1583510587.164,37.598,33.203,26.367,37.109,76.172,0
1583510587.161,37.109,32.715,28.320,27.832,11.230,0
1583510587.165,35.156,34.180,29.785,6.836,37.109,0
1583510587.169,30.762,33.203,27.832,15.625,23.438,0
1583510587.173,28.809,31.250,31.250,38.574,-10.742,0
1583510587.177,37.109,33.203,34.180,41.992,-18.066,0
1583510587.181,41.016,35.156,31.738,22.461,7.812,0
1583510587.185,39.551,36.133,34.180,22.461,36.133,0
1583510587.188,37.598,35.645,36.621,49.316,34.180,0
1583510587.192,37.598,31.738,32.227,45.410,72.754,0
1583510587.196,37.109,28.809,32.227,21.973,74.219,0
1583510587.200,35.645,30.273,32.715,10.742,73.242,0
1583510587.204,35.156,30.762,28.809,29.297,33.691,0
1583510587.201,41.504,32.715,27.832,51.270,51.758,0
1583510587.205,47.363,37.109,28.809,28.809,77.637,0
1583510587.209,48.828,35.156,26.367,7.324,44.922,0
1583510587.213,50.293,33.691,28.320,30.762,15.625,0
1583510587.217,42.480,32.715,31.250,56.641,6.836,0
1583510587.221,35.645,33.203,27.344,45.410,34.668,0
1583510587.225,34.668,35.645,27.344,15.625,35.645,0
1583510587.228,35.645,35.645,31.738,24.414,25.879,0
1583510587.232,41.016,35.645,28.320,58.105,62.988,0
1583510587.236,44.434,34.180,25.879,55.664,62.500,0
1583510587.240,33.691,31.738,31.250,19.043,24.414,0
1583510587.244,25.391,33.203,33.203,7.812,64.941,0
1583510587.261,30.273,32.227,34.668,41.504,153.809,0
1583510587.265,36.133,31.250,34.668,53.711,121.582,0
1583510587.269,39.551,30.273,32.715,23.926,62.012,0
1583510587.273,39.062,26.367,31.250,10.742,68.359,0
1583510587.277,38.574,26.855,30.273,29.785,61.523,0
1583510587.281,34.668,27.344,28.809,44.434,11.719,0
1583510587.285,29.297,26.367,26.855,24.902,-4.395,0
1583510587.288,26.367,27.832,29.785,-3.418,11.230,0
1583510587.292,24.902,29.785,29.785,16.113,22.949,0
1583510587.296,23.438,30.273,29.297,40.039,51.758,0
1583510587.300,25.391,30.273,31.738,29.297,44.922,0
1583510587.304,27.832,27.832,29.785,3.906,42.969,0
1583510587.302,28.809,25.879,27.832,9.766,7.812,0
1583510587.306,33.691,25.391,30.273,43.945,9.766,0
1583510587.310,40.039,23.926,30.762,49.805,56.641,0
1583510587.314,44.434,26.855,28.809,28.809,10.254,0
1583510587.318,44.922,29.297,30.273,23.926,-6.836,0
1583510587.322,41.992,26.367,29.297,49.805,11.719,0
1583510587.326,39.551,28.320,27.344,59.570,50.781,0
1583510587.329,39.062,29.297,30.762,32.227,53.711,0
1583510587.333,30.762,28.320,32.715,14.648,48.340,0
1583510587.337,20.996,28.809,31.738,38.574,76.172,0
1583510587.341,19.531,26.367,35.645,58.105,67.871,0
1583510587.345,22.949,24.902,35.156,38.574,27.832,0
1583510587.341,24.902,27.344,31.738,13.184,8.789,0
1583510587.345,23.926,28.320,32.715,26.367,-6.836,0
1583510587.349,28.809,27.832,32.715,56.641,24.902,0
1583510587.353,36.133,30.273,31.250,46.387,35.156,0
1583510587.357,40.039,31.738,31.738,13.184,-1.953,0
1583510587.361,42.480,32.227,32.715,11.230,-1.465,0
1583510587.365,45.898,34.668,31.250,43.457,46.387,0
1583510587.368,51.758,37.598,31.738,52.246,86.914,0
1583510587.372,53.711,38.086,30.762,21.484,30.273,0
1583510587.376,50.293,36.621,28.320,5.859,52.246,0
1583510587.380,49.316,36.133,29.785,27.344,82.520,0
1583510587.384,43.457,34.180,29.297,43.945,55.176,0
1583510587.401,40.527,31.738,27.344,23.438,41.992,0
1583510587.405,39.062,31.738,28.320,8.301,75.684,0
1583510587.409,34.668,34.668,26.855,23.926,104.004,0
1583510587.413,42.969,35.156,26.367,47.852,31.250,0
1583510587.417,47.852,31.738,28.809,48.340,-39.062,0
1583510587.421,43.457,31.738,30.273,29.785,-1.465,0
1583510587.425,41.992,31.250,30.273,42.969,25.879,0
1583510587.428,39.551,31.250,31.738,64.941,38.574,0
1583510587.432,36.133,30.762,33.691,54.688,84.961,0
1583510587.436,35.645,30.273,33.203,32.715,50.293,0
1583510587.440,41.992,33.691,32.715,35.645,8.301,0
1583510587.444,44.434,32.227,34.180,62.012,4.395,0
1583510587.441,46.875,28.809,34.668,60.059,27.344,0
1583510587.445,45.410,30.273,31.738,27.832,44.922,0
1583510587.449,40.527,30.273,33.691,21.973,42.969,0
1583510587.453,37.598,27.344,33.691,45.410,-38.086,0
1583510587.457,37.598,29.785,27.832,58.594,-32.715,0
1583510587.461,34.180,32.227,30.762,32.227,67.871,0
1583510587.465,29.297,28.809,33.691,1.465,39.062,0
1583510587.468,29.785,29.785,28.320,20.508,22.949,0
1583510587.472,25.879,31.250,26.855,41.016,19.531,0
1583510587.476,22.949,30.762,28.809,34.180,-23.438,0
1583510587.480,19.043,30.273,29.297,6.348,-28.320,0
1583510587.484,28.320,33.691,25.391,16.602,-30.762,0
1583510587.481,37.598,35.156,26.367,64.941,0.000,0
1583510587.485,25.879,32.227,32.715,53.711,22.461,0
1583510587.489,20.020,34.180,34.180,19.043,28.809,0
1583510587.493,33.691,33.691,35.156,17.578,50.781,0
1583510587.497,39.062,30.762,36.133,45.898,33.203,0
1583510587.501,33.691,31.738,36.133,59.570,59.082,0
1583510587.505,36.621,31.250,37.109,28.320,62.500,0
1583510587.508,41.016,31.250,34.180,25.391,40.527,0
1583510587.512,37.109,30.273,30.762,42.480,87.402,0
1583510587.516,37.109,28.320,32.227,52.246,93.750,0
1583510587.520,41.992,29.297,32.227,49.805,13.672,0
1583510587.524,37.109,31.250,30.273,24.414,16.113,0
1583510587.541,33.203,31.250,29.785,33.691,27.832,0
1583510587.545,31.250,29.297,30.273,52.734,8.301,0
1583510587.549,26.855,28.320,31.250,36.621,70.801,0
1583510587.553,30.762,27.344,30.273,16.113,39.062,0
1583510587.557,32.227,27.832,29.785,20.508,0.488,0
1583510587.561,31.738,29.297,30.273,47.852,19.043,0
1583510587.565,33.691,29.297,32.715,43.457,34.180,0
1583510587.568,28.320,29.785,32.715,9.277,30.762,0
1583510587.572,26.367,26.855,29.297,10.742,2.441,0
1583510587.576,27.832,24.414,26.855,41.016,27.832,0
1583510587.580,29.297,26.367,28.809,51.270,48.828,0
1583510587.584,33.203,30.273,31.738,21.484,43.945,0
1583510587.581,33.691,33.203,31.250,4.883,62.988,0
1583510587.585,30.273,34.668,27.832,37.598,44.922,0
1583510587.589,32.715,35.156,27.344,58.594,42.480,0
1583510587.593,38.086,34.180,30.762,41.992,31.738,0
1583510587.597,38.086,32.227,32.227,15.137,74.219,0
1583510587.601,36.621,32.715,30.273,22.461,81.055,0
1583510587.605,35.156,33.691,30.762,51.270,-25.879,0
1583510587.608,36.133,34.668,31.738,41.992,-36.621,0
1583510587.612,34.180,33.691,33.203,16.602,7.812,0
1583510587.616,27.832,32.715,33.691,12.207,38.574,0
1583510587.620,22.461,31.738,35.156,29.785,17.090,0
1583510587.624,21.973,31.250,37.109,45.898,20.508,0
1583510587.622,22.461,29.297,36.133,19.531,52.246,0
1583510587.626,22.949,30.273,35.156,5.859,21.973,0
1583510587.630,23.438,29.297,36.133,28.320,-9.766,0
1583510587.634,25.879,28.809,34.668,36.621,-15.625,0
1583510587.638,27.832,30.762,34.668,26.855,-2.441,0
1583510587.642,25.879,31.738,34.180,15.137,42.969,0
1583510587.646,27.832,31.250,31.738,34.180,68.848,0
1583510587.649,32.715,30.273,35.645,49.316,60.547,0
1583510587.653,34.668,32.227,38.574,38.086,29.297,0
1583510587.657,30.762,30.273,34.668,17.578,12.695,0
1583510587.661,27.832,28.320,30.762,25.391,28.320,0
1583510587.665,29.297,29.297,28.809,50.781,36.621,0
1583510587.681,27.832,30.273,30.762,40.527,41.992,0
1583510587.685,28.809,32.227,32.227,13.672,63.965,0
1583510587.689,30.762,31.250,31.250,13.672,37.598,0
1583510587.693,31.738,32.715,32.227,45.410,18.066,0
1583510587.697,34.668,36.133,33.691,55.176,32.715,0
1583510587.701,35.645,37.109,33.691,16.602,49.805,0
1583510587.705,33.203,36.621,33.203,2.930,55.176,0
1583510587.708,34.180,36.621,32.715,36.133,51.758,0
1583510587.712,34.668,37.109,29.297,48.340,85.449,0
1583510587.716,31.250,32.227,29.785,24.902,74.219,0
1583510587.720,27.344,28.809,27.344,-1.465,-27.344,0
1583510587.724,21.484,28.320,23.926,14.648,-75.195,0
1583510587.721,22.949,27.344,26.855,45.410,-0.488,0
1583510587.725,28.809,28.320,29.297,41.504,14.648,0
1583510587.729,24.414,28.320,32.227,19.531,-0.977,0
1583510587.733,25.391,29.785,31.738,25.879,72.266,0
1583510587.737,29.785,30.762,31.738,54.199,53.223,0
1583510587.741,26.855,28.320,32.715,50.781,5.371,0
1583510587.745,29.785,29.297,31.738,21.973,29.297,0
1583510587.748,32.715,30.273,35.156,20.996,65.430,0
1583510587.752,31.738,26.367,36.621,41.992,70.312,0
1583510587.756,29.785,28.809,36.621,53.711,65.918,0
1583510587.760,30.273,33.691,34.668,31.250,57.617,0
1583510587.764,35.156,32.715,31.250,15.137,62.988,0
1583510587.761,35.645,32.715,27.832,38.574,56.152,0
1583510587.765,39.062,34.180,25.391,50.781,12.207,0
1583510587.769,38.086,35.156,28.320,27.832,9.277,0
1583510587.773,29.785,35.156,30.762,-3.418,-36.133,0
1583510587.777,29.785,35.156,29.785,13.672,-22.461,0
1583510587.781,32.715,35.645,29.785,44.922,64.941,0
1583510587.785,35.645,35.645,30.273,31.250,61.523,0
1583510587.788,35.645,34.668,31.738,3.906,6.348,0
1583510587.792,32.715,34.668,30.762,9.277,12.695,0
1583510587.796,39.062,35.645,32.227,42.480,92.285,0
1583510587.800,39.551,34.668,32.715,48.828,80.078,0
1583510587.804,32.227,35.645,31.738,14.648,15.625,0
1583510587.821,25.879,35.645,31.250,5.859,11.230,0
1583510587.825,28.809,36.133,31.250,38.574,44.922,0
1583510587.829,27.344,35.645,33.203,51.270,42.969,0
1583510587.833,24.414,32.715,33.691,29.297,23.926,0
1583510587.837,31.250,32.227,34.668,13.672,48.340,0
1583510587.841,23.926,28.809,36.133,33.691,57.129,0
1583510587.845,17.090,26.367,34.180,49.805,26.855,0
1583510587.848,21.973,30.273,31.250,29.297,35.645,0
1583510587.852,23.438,30.273,31.738,9.277,53.223,0
1583510587.856,34.668,27.344,32.227,37.109,26.855,0
1583510587.860,42.480,32.715,28.320,67.383,21.973,0
1583510587.864,22.461,36.621,32.715,33.203,30.762,0
1583510587.862,28.809,35.645,32.715,10.254,3.418,0
1583510587.866,39.062,39.551,28.809,26.855,17.090,0
1583510587.870,21.973,37.109,31.738,38.086,30.273,0
1583510587.874,26.855,32.715,26.367,40.039,27.832,0
1583510587.878,34.180,37.598,25.391,25.391,59.570,0
1583510587.882,30.273,38.574,28.320,16.602,52.246,0
1583510587.886,33.203,36.133,26.367,38.086,69.336,0
1583510587.889,37.109,40.039,27.344,49.316,46.387,0
1583510587.893,36.133,43.457,28.320,32.715,30.273,0
1583510587.897,34.180,41.992,29.297,10.254,50.293,0
1583510587.901,31.738,41.992,28.320,20.020,11.230,0
1583510587.905,38.086,45.410,27.344,43.457,-29.785,0
1583510587.901,44.434,45.898,30.273,33.691,-0.977,0
1583510587.905,40.527,41.992,31.738,16.602,12.695,0
1583510587.909,41.016,41.992,29.297,26.367,24.414,0
1583510587.913,45.898,43.457,25.391,52.246,32.227,0
1583510587.917,41.992,43.945,26.855,43.457,42.969,0
1583510587.921,34.180,42.969,26.367,6.836,69.824,0
1583510587.925,27.832,41.016,24.414,12.695,108.887,0
1583510587.928,31.738,40.039,26.855,38.086,109.863,0
1583510587.932,33.691,40.527,29.297,35.156,10.742,0
1583510587.936,28.320,42.480,27.832,10.254,-22.461,0
1583510587.940,22.461,40.527,29.297,0.977,63.965,0
1583510587.944,23.926,38.086,32.715,32.715,8.789,0
1583510587.961,21.484,36.621,33.691,46.387,27.832,0
1583510587.965,18.555,35.645,32.715,25.879,110.352,0
1583510587.969,24.414,34.668,34.180,2.441,115.234,0
1583510587.973,26.367,36.133,35.645,15.625,56.641,0
1583510587.977,27.344,38.086,34.668,48.828,-4.395,0
1583510587.981,23.926,35.645,32.227,33.691,3.906,0
1583510587.985,22.461,34.668,30.762,2.930,36.621,0
1583510587.988,26.855,32.715,29.297,8.789,27.344,0
1583510587.992,30.762,31.250,32.227,38.574,36.133,0
1583510587.996,28.809,30.762,35.156,43.457,69.336,0
1583510588.000,29.297,31.250,32.715,18.066,40.039,0
1583510588.004,30.762,33.203,34.180,20.020,28.809,0
1583510588.001,35.156,31.738,37.109,46.387,45.898,0
1583510588.005,39.551,30.273,36.133,52.246,7.812,0
1583510588.009,34.668,34.180,34.180,35.645,14.648,0
1583510588.013,27.832,33.203,33.691,23.926,25.391,0
1583510588.017,26.855,31.250,36.621,49.316,31.738,0
1583510588.021,30.762,33.691,36.621,62.500,37.109,0
1583510588.025,36.133,34.668,33.203,39.062,12.207,0
1583510588.028,31.738,34.180,33.691,16.602,-20.020,0
1583510588.032,30.762,34.668,34.668,24.902,-51.270,0
1583510588.036,36.133,36.133,31.250,47.363,14.648,0
1583510588.040,38.086,36.621,32.715,23.926,27.344,0
1583510588.044,40.527,37.109,35.156,-5.371,16.113,0
1583510588.041,43.457,41.992,34.180,12.695,14.160,0
1583510588.045,43.945,43.457,30.762,43.945,79.590,0
1583510588.049,40.527,41.016,27.344,47.852,104.492,0
1583510588.053,44.922,41.016,28.320,12.695,44.434,0
1583510588.057,44.922,40.527,30.762,8.301,22.461,0
1583510588.061,39.551,40.039,31.250,48.340,-33.691,0
1583510588.065,41.016,41.016,30.273,59.570,-17.090,0
1583510588.068,38.574,37.109,28.809,33.691,59.570,0
1583510588.072,36.133,36.621,28.809,6.836,36.621,0
1583510588.076,34.668,38.574,30.273,30.273,56.152,0
1583510588.080,29.785,38.574,30.762,57.617,78.613,0
1583510588.084,30.273,37.598,30.762,37.109,54.199,0
1583510588.101,40.039,38.086,29.297,16.113,41.992,0
1583510588.105,41.016,36.621,28.809,24.414,56.152,0
1583510588.109,35.645,33.691,28.809,47.852,71.289,0
1583510588.113,38.086,31.738,30.762,50.781,44.434,0
1583510588.117,36.621,30.762,33.691,20.996,46.387,0
1583510588.121,33.203,33.691,33.691,21.484,61.035,0
1583510588.125,34.180,34.180,32.227,33.691,79.590,0
1583510588.128,40.527,35.156,28.809,27.832,39.062,0
1583510588.132,41.504,35.156,26.367,14.648,15.625,0
1583510588.136,37.109,34.180,27.344,1.465,-7.812,0
1583510588.140,32.715,33.691,26.855,29.297,-43.945,0
1583510588.144,31.250,35.156,28.809,38.574,1.465,0
1583510588.141,32.227,35.645,31.250,8.789,44.434,0
1583510588.145,27.344,34.180,34.180,-0.977,38.086,0
1583510588.149,27.344,37.109,34.668,19.043,0.488,0
1583510588.153,31.738,40.527,31.250,47.363,41.016,0
1583510588.157,41.992,38.086,30.273,40.527,110.352,0
1583510588.161,44.922,34.180,33.691,10.254,44.922,0
1583510588.165,20.020,32.227,36.621,11.230,67.871,0
1583510588.168,17.578,31.250,37.109,35.645,30.273,0
1583510588.172,30.762,25.391,40.039,43.945,-16.602,0
1583510588.176,20.020,23.926,42.480,1.465,57.129,0
1583510588.180,20.996,21.484,43.945,0.000,32.227,0
1583510588.184,26.367,17.090,45.410,41.504,-20.996,0
1583510588.181,28.320,21.973,45.898,44.434,-24.414,0
1583510588.185,31.250,22.949,42.480,18.555,13.672,0
1583510588.189,24.902,23.438,39.551,-8.301,5.859,0
1583510588.193,27.344,25.391,37.109,21.484,6.348,0
1583510588.197,32.227,28.320,35.156,46.875,-20.996,0
1583510588.201,27.832,30.273,38.086,23.926,-33.203,0
1583510588.205,27.832,27.344,37.109,8.789,42.969,0
1583510588.208,28.320,26.855,34.668,19.043,79.102,0
1583510588.212,28.809,30.762,33.691,41.504,77.637,0
1583510588.216,32.227,32.227,34.668,40.527,69.336,0
1583510588.220,33.203,30.762,35.156,10.742,29.785,0
1583510588.224,33.203,32.715,33.691,12.207,28.809,0
1583510588.241,33.691,30.762,32.227,37.598,71.289,0
1583510588.245,33.691,29.297,32.715,42.480,45.898,0
1583510588.249,34.180,31.250,32.715,22.949,9.766,0
1583510588.253,36.621,29.785,31.738,21.484,-3.906,0
1583510588.257,36.621,29.297,30.762,53.711,4.883,0
1583510588.261,36.621,30.273,31.738,49.805,2.930,0
1583510588.265,40.527,32.715,30.273,20.020,2.930,0
1583510588.268,42.969,34.180,30.273,12.207,23.438,0
1583510588.272,37.598,31.738,30.273,30.762,37.109,0
1583510588.276,30.273,31.738,27.344,46.875,24.414,0
1583510588.280,29.785,35.645,26.855,28.320,48.340,0
1583510588.284,34.180,33.691,32.715,8.789,73.730,0
1583510588.281,39.551,32.227,36.621,27.832,25.879,0
1583510588.285,39.551,32.715,35.156,54.199,33.691,0
1583510588.289,34.668,30.273,33.691,42.480,78.125,0
1583510588.293,31.738,28.320,34.180,7.324,41.016,0
1583510588.297,31.738,29.785,35.645,11.230,26.367,0
1583510588.301,30.273,29.785,37.598,46.387,70.312,0
1583510588.305,29.297,28.320,35.645,44.434,59.570,0
1583510588.308,32.715,29.297,35.156,16.113,25.391,0
1583510588.312,34.180,28.320,38.086,13.672,25.391,0
1583510588.316,28.809,28.809,37.598,38.086,41.504,0
1583510588.320,34.668,31.738,35.645,57.129,64.941,0
1583510588.324,39.551,30.762,36.133,45.898,111.328,0
1583510588.321,38.574,30.762,34.180,20.996,91.309,0
1583510588.325,38.574,31.250,32.715,28.809,25.391,0
1583510588.329,37.109,32.227,34.668,49.316,20.020,0
1583510588.333,30.762,32.715,35.156,37.109,0.000,0
1583510588.337,27.344,31.738,34.180,13.672,0.488,0
1583510588.341,26.855,30.762,35.645,20.020,43.457,0
1583510588.345,29.297,30.762,36.133,40.039,-7.324,0
1583510588.348,29.297,33.691,36.133,34.668,-33.691,0
1583510588.352,27.344,37.109,37.598,11.230,14.648,0
1583510588.356,27.344,36.621,38.574,18.066,8.301,0
1583510588.360,28.320,35.156,38.086,53.711,32.227,0
1583510588.364,30.762,36.133,37.109,54.688,54.688,0
1583510588.381,31.738,36.621,37.598,27.344,-8.789,0
1583510588.385,34.668,39.062,38.574,21.484,-51.270,0
1583510588.389,35.645,38.086,38.086,45.898,-41.992,0
1583510588.393,35.645,36.133,38.574,60.059,19.043,0
1583510588.397,36.621,37.598,37.598,36.133,44.434,0
1583510588.401,33.203,37.598,34.668,13.672,32.715,0
1583510588.405,31.250,36.133,34.180,32.227,35.645,0
1583510588.408,30.762,36.133,36.133,57.129,80.078,0
1583510588.412,30.762,35.645,34.180,37.109,79.590,0
1583510588.416,29.297,36.621,35.645,5.371,44.434,0
1583510588.420,31.250,39.062,36.133,15.137,13.672,0
1583510588.424,33.203,38.574,37.109,38.574,3.418,0
1583510588.421,33.203,37.598,35.645,36.621,-4.395,0
1583510588.425,28.320,35.645,36.133,8.301,48.828,0
1583510588.429,32.227,34.180,35.645,6.836,68.848,0
1583510588.433,41.016,33.203,35.156,50.293,29.297,0
1583510588.437,23.926,37.109,34.180,47.363,83.984,0
1583510588.441,7.324,41.992,32.715,1.465,71.289,0
1583510588.445,13.672,36.621,30.762,-18.555,17.578,0
1583510588.448,25.391,38.574,25.879,10.254,3.418,0
1583510588.452,30.762,41.016,29.297,45.898,12.695,0
1583510588.456,36.133,40.527,33.691,22.949,46.875,0
1583510588.460,37.598,38.574,31.738,-1.953,41.504,0
1583510588.464,36.133,39.062,31.738,14.648,8.789,0
1583510588.461,35.645,39.551,33.691,37.598,18.555,0
1583510588.465,35.156,35.645,30.762,38.574,103.027,0
1583510588.469,33.691,36.621,28.320,10.254,79.102,0
1583510588.473,35.156,38.086,30.762,19.531,13.672,0
1583510588.477,38.086,37.598,33.691,47.852,63.965,0
1583510588.481,36.133,35.645,33.691,39.062,70.312,0
1583510588.485,33.691,35.156,33.691,19.043,34.668,0
1583510588.488,32.715,36.133,35.645,13.184,43.457,0
1583510588.492,29.297,36.133,31.738,37.109,39.551,0
1583510588.496,25.391,35.156,31.250,42.480,19.043,0
1583510588.500,28.320,35.645,32.715,19.043,4.395,0
1583510588.504,35.645,38.086,29.297,15.625,-15.137,0
1583510588.521,37.109,37.598,30.762,32.715,-2.441,0
1583510588.525,38.086,34.668,32.715,50.781,18.066,0
1583510588.529,40.039,35.645,31.250,29.785,-5.859,0
1583510588.533,39.062,36.133,33.203,4.883,1.953,0
1583510588.537,40.527,36.133,35.156,25.879,49.805,0
1583510588.541,41.992,37.598,34.668,47.363,50.293,0
1583510588.545,38.574,38.086,31.250,42.969,57.129,0
1583510588.548,37.598,36.133,29.785,8.789,47.363,0
1583510588.552,39.551,36.621,30.273,10.742,60.059,0
1583510588.556,37.598,37.598,27.832,53.223,66.406,0
1583510588.560,33.691,35.645,27.344,52.734,39.062,0
1583510588.564,31.738,35.645,31.738,28.320,75.684,0
1583510588.561,30.273,34.668,30.762,13.672,106.934,0
1583510588.565,31.250,37.598,27.344,32.227,38.086,0
1583510588.569,33.691,40.039,30.273,50.781,-50.293,0
1583510588.573,32.715,37.598,30.273,24.902,-11.719,0
1583510588.577,25.879,37.598,26.855,2.930,29.297,0
1583510588.581,25.391,40.527,29.785,18.066,-36.133,0
1583510588.585,28.809,39.551,31.738,37.109,-4.883,0
1583510588.588,28.320,37.598,30.273,30.762,88.867,0
1583510588.592,24.414,37.109,31.738,7.324,93.750,0
1583510588.596,21.973,36.133,36.133,21.484,60.547,0
1583510588.600,31.250,34.180,35.645,43.945,8.301,0
1583510588.604,33.691,35.645,32.715,38.086,-27.832,0
1583510588.621,28.809,36.133,30.762,27.344,-27.832,0
1583510588.625,25.879,35.645,31.250,32.715,-16.113,0
1583510588.629,24.414,38.086,35.156,59.570,2.930,0
1583510588.633,24.414,34.668,34.668,58.105,29.297,0
1583510588.637,29.297,31.250,33.691,28.320,17.090,0
1583510588.641,31.738,31.738,31.738,28.320,-4.395,0
1583510588.645,31.250,30.273,34.180,57.129,-7.324,0
1583510588.648,37.109,32.227,36.133,68.848,-24.414,0
1583510588.652,43.457,33.691,34.668,40.527,-10.742,0
1583510588.656,41.504,31.250,36.133,17.090,2.930,0
1583510588.660,32.715,30.762,35.156,40.039,41.992,0
1583510588.664,26.367,31.738,32.227,55.176,59.570,0
1583510588.661,27.344,35.156,31.738,36.621,32.715,0
1583510588.665,32.715,37.109,29.785,6.836,42.480,0
1583510588.669,31.738,33.691,29.297,14.648,47.852,0
1583510588.673,28.809,34.180,27.344,46.875,74.707,0
1583510588.677,28.320,35.156,27.832,39.062,83.984,0
1583510588.681,27.832,35.156,30.762,11.719,75.684,0
1583510588.685,31.738,35.645,28.809,5.859,92.285,0
1583510588.688,32.227,35.645,27.344,33.203,23.926,0
1583510588.692,34.180,36.621,29.297,52.246,12.695,0
1583510588.696,36.133,33.691,29.785,26.367,61.523,0
1583510588.700,31.738,33.691,28.809,3.906,87.402,0
1583510588.704,28.809,37.598,28.320,19.531,28.809,0
1583510588.701,27.832,35.156,26.367,44.434,19.531,0
1583510588.705,28.320,31.738,27.832,29.785,56.641,0
1583510588.709,32.227,33.691,30.273,6.348,33.203,0
1583510588.713,33.691,33.203,31.738,27.832,15.137,0
1583510588.717,33.691,29.785,34.180,46.875,-3.906,0
1583510588.721,34.668,30.273,32.227,36.621,22.461,0
1583510588.725,32.227,33.203,32.227,12.695,21.484,0
1583510588.728,27.344,32.227,35.645,15.137,46.875,0
1583510588.732,31.738,29.785,34.180,43.457,86.914,0
1583510588.736,31.738,28.809,35.156,34.180,75.684,0
1583510588.740,27.832,27.832,35.645,10.742,74.219,0
1583510588.744,29.297,29.785,33.691,15.625,110.840,0
1583510588.761,28.320,31.738,30.273,37.109,100.586,0
1583510588.765,26.367,30.762,30.273,39.551,37.109,0
1583510588.769,26.855,31.738,31.738,12.695,32.227,0
1583510588.773,25.391,32.715,31.738,3.906,80.078,0
1583510588.777,24.414,32.715,31.738,30.273,24.902,0
1583510588.781,28.320,32.715,33.203,49.316,0.000,0
1583510588.785,30.762,33.203,33.203,33.691,27.344,0
1583510588.788,31.250,34.668,34.180,6.836,-5.371,0
1583510588.792,32.715,33.203,33.691,25.879,-5.859,0
1583510588.796,35.156,30.762,30.273,58.105,13.672,0
1583510588.800,37.109,31.738,31.250,50.293,3.906,0
1583510588.804,37.109,30.762,35.156,21.973,16.602,0
1583510588.801,37.598,31.738,33.203,17.578,37.598,0
1583510588.805,35.156,31.738,29.297,42.969,36.621,0
1583510588.809,31.250,29.785,31.250,48.340,82.031,0
1583510588.813,28.320,30.762,33.203,20.996,68.359,0
1583510588.817,30.762,29.297,29.785,11.230,18.066,0
1583510588.821,32.227,29.297,28.809,35.645,2.441,0
1583510588.825,37.109,30.273,29.785,51.270,-11.230,0
1583510588.828,39.062,29.297,26.855,30.762,8.789,0
1583510588.832,41.992,29.785,27.832,9.277,23.438,0
1583510588.836,40.527,29.297,29.297,29.785,10.254,0
1583510588.840,30.273,29.297,29.785,43.457,37.109,0
1583510588.844,37.109,32.227,32.227,33.691,79.590,0
1583510588.841,46.875,32.227,32.715,18.555,117.188,0
1583510588.845,44.922,31.738,32.227,26.367,74.219,0
1583510588.849,45.898,31.250,33.203,59.570,28.809,0
1583510588.853,48.340,32.715,32.715,48.340,22.949,0
1583510588.857,43.457,35.156,28.809,19.531,43.457,0
1583510588.861,41.016,36.621,26.855,27.832,67.383,0
1583510588.865,41.992,37.109,27.344,54.199,52.734,0
1583510588.868,44.922,34.668,28.320,55.664,48.828,0
1583510588.872,45.898,31.738,30.762,25.879,19.043,0
1583510588.876,42.480,33.203,31.738,20.508,14.648,0
1583510588.880,41.016,37.109,32.715,48.828,-20.020,0
1583510588.884,40.527,34.668,34.180,63.965,-45.410,0
1583510588.901,41.016,32.715,32.715,41.504,-5.859,0
1583510588.905,36.133,34.668,33.203,11.230,2.930,0
1583510588.909,31.738,34.668,35.645,28.809,16.113,0
1583510588.913,35.645,36.133,33.203,55.176,19.531,0
1583510588.917,37.598,37.109,32.227,44.922,20.996,0
1583510588.921,36.621,35.645,32.715,20.020,18.066,0
1583510588.925,35.645,35.156,32.715,24.902,11.230,0
1583510588.928,36.133,33.691,34.668,52.246,10.254,0
1583510588.932,38.086,32.715,36.133,54.199,-13.672,0
1583510588.936,37.109,33.691,32.715,30.273,51.758,0
1583510588.940,31.738,35.156,34.668,26.855,76.660,0
1583510588.944,28.320,37.109,37.598,50.293,106.445,0
1583510588.941,26.367,34.180,31.738,53.711,115.723,0
1583510588.945,26.855,31.738,28.809,25.391,52.246,0
1583510588.949,30.273,33.203,29.297,11.719,47.852,0
1583510588.953,32.715,36.133,29.297,35.645,72.266,0
1583510588.957,21.484,35.645,32.715,45.898,42.480,0
1583510588.961,17.578,35.156,35.645,31.738,40.527,0
1583510588.965,25.391,36.621,32.227,10.254,2.441,0
1583510588.968,26.855,36.621,31.738,23.926,-20.508,0
1583510588.972,27.344,34.180,35.156,43.457,30.762,0
1583510588.976,26.367,34.180,35.156,30.762,45.898,0
1583510588.980,21.973,35.156,35.645,5.371,43.945,0
1583510588.984,27.832,34.668,36.133,14.160,53.223,0
1583510588.981,31.250,33.203,35.156,47.852,45.898,0
1583510588.985,30.762,33.203,30.273,45.410,96.191,0
1583510588.989,35.156,31.738,28.809,12.207,85.449,0
1583510588.993,35.645,32.227,29.297,9.277,-15.625,0
1583510588.997,32.227,33.203,29.785,37.598,8.301,0
1583510589.001,32.227,32.715,30.273,41.504,1.465,0
1583510589.005,35.156,36.133,28.809,9.766,-9.766,0
1583510589.008,35.156,38.086,28.320,-11.230,12.695,0
1583510589.012,30.762,38.574,30.762,16.602,0.488,0
1583510589.016,32.227,40.527,32.227,41.016,-5.371,0
1583510589.020,33.203,37.109,32.227,25.391,-14.648,0
1583510589.024,27.344,32.227,30.762,-8.789,-35.156,0
1583510589.041,27.832,35.156,31.250,4.395,42.480,0
1583510589.045,27.344,36.133,34.668,39.062,38.086,0
1583510589.049,27.344,32.227,35.156,26.855,0.488,0
1583510589.053,28.809,32.227,35.156,0.977,28.320,0
1583510589.057,27.832,34.668,37.598,4.883,95.215,0
1583510589.061,28.809,33.691,36.621,33.691,110.840,0
1583510589.065,26.367,29.785,36.621,41.992,92.773,0
1583510589.068,20.996,28.320,35.156,6.836,61.035,0
1583510589.072,21.973,30.762,34.180,4.883,21.973,0
1583510589.076,26.367,29.785,38.086,34.668,84.473,0
1583510589.080,28.320,30.762,38.086,44.434,115.234,0
1583510589.084,28.809,34.180,37.109,30.273,62.988,0
1583510589.081,31.738,34.668,37.109,10.742,22.461,0
1583510589.085,31.250,32.227,35.645,36.133,18.555,0
1583510589.089,25.879,33.203,34.180,52.246,49.316,0
1583510589.093,29.297,36.133,32.715,27.832,6.836,0
1583510589.097,31.738,36.621,33.691,11.230,22.949,0
1583510589.101,32.227,37.598,32.227,25.391,32.227,0
1583510589.105,34.668,38.086,31.250,54.688,-12.695,0
1583510589.108,31.250,38.574,29.785,43.457,29.785,0
1583510589.112,30.762,40.039,29.785,17.090,45.898,0
1583510589.116,32.715,39.062,30.273,29.297,39.062,0
1583510589.120,34.668,39.062,29.297,52.246,36.621,0
1583510589.124,33.203,38.086,31.250,56.641,-6.836,0
1583510589.121,31.250,36.133,29.297,21.973,1.953,0
1583510589.125,30.762,35.645,29.297,6.836,41.016,0
1583510589.129,25.391,35.156,29.785,44.922,41.992,0
1583510589.133,24.902,33.203,30.762,55.664,30.762,0
1583510589.137,34.180,32.715,34.180,36.621,-0.977,0
1583510589.141,37.598,34.668,34.180,18.066,20.020,0
1583510589.145,34.180,34.180,32.227,29.297,57.129,0
1583510589.148,33.691,33.691,32.227,57.129,17.090,0
1583510589.152,35.156,34.668,34.180,41.016,10.742,0
1583510589.156,41.504,35.156,34.180,20.996,60.547,0
1583510589.160,51.758,33.691,31.738,37.598,16.113,0
1583510589.164,46.875,37.109,26.367,54.199,-12.695,0
1583510589.181,25.879,38.086,32.227,40.527,38.086,0
1583510589.185,27.344,34.668,30.762,10.742,50.781,0
1583510589.189,43.457,37.109,23.438,17.578,34.180,0
1583510589.193,41.504,38.574,29.297,42.480,67.383,0
1583510589.197,40.039,39.551,31.738,47.363,51.270,0
1583510589.201,43.457,41.016,28.809,30.762,15.625,0
1583510589.205,40.039,41.992,27.832,5.371,28.809,0
1583510589.208,36.133,40.039,26.855,26.367,20.996,0
1583510589.212,37.109,39.062,26.367,50.781,-14.648,0
1583510589.216,43.945,40.039,28.320,35.645,40.527,0
1583510589.220,44.922,39.062,30.273,17.090,57.617,0
1583510589.224,38.574,36.133,30.762,30.273,-5.371,0
1583510589.241,34.180,33.203,29.297,53.711,13.184,0
1583510589.245,34.668,31.738,31.250,34.668,31.738,0
1583510589.249,36.621,32.715,31.250,7.812,15.625,0
1583510589.253,37.598,33.203,27.832,20.020,43.457,0
1583510589.257,39.551,33.203,27.832,46.387,39.062,0
1583510589.261,43.945,35.645,28.320,49.805,29.297,0
1583510589.265,47.852,37.598,26.855,17.578,89.355,0
1583510589.268,41.992,36.133,26.367,12.207,80.566,0
1583510589.272,43.457,37.109,25.879,51.270,65.430,0
1583510589.276,43.945,38.086,29.785,59.082,35.156,0
1583510589.280,42.480,34.180,29.297,25.879,-27.832,0
1583510589.284,46.875,36.133,25.391,8.301,27.832,0
1583510589.282,41.504,38.574,25.879,27.344,34.180,0
1583510589.286,38.086,37.109,27.344,48.828,26.367,0
1583510589.290,37.598,37.109,25.879,32.227,48.828,0
1583510589.294,35.645,39.062,25.391,1.465,24.902,0
1583510589.298,34.668,35.645,26.855,12.695,61.523,0
1583510589.302,28.320,34.180,28.809,36.621,72.754,0
1583510589.306,27.344,35.645,30.273,30.273,3.906,0
1583510589.309,27.344,35.156,28.809,8.301,-8.301,0
1583510589.313,23.926,35.645,32.227,13.672,6.836,0
1583510589.317,29.785,36.133,31.738,39.062,-24.414,0
1583510589.321,34.180,36.133,29.785,41.992,-26.855,0
1583510589.325,31.250,33.691,29.785,16.113,29.297,0
1583510589.322,28.809,32.715,28.320,5.371,33.203,0
1583510589.326,33.691,35.156,30.273,32.715,38.086,0
1583510589.330,38.574,35.156,35.156,46.387,32.227,0
1583510589.334,35.645,33.691,37.109,31.250,25.391,0
1583510589.338,29.785,34.668,38.086,18.066,12.207,0
1583510589.342,29.297,34.668,40.039,38.574,31.250,0
1583510589.346,29.785,34.180,37.598,55.176,76.172,0
1583510589.349,30.273,33.691,34.668,34.180,30.762,0
1583510589.353,29.297,33.691,31.738,11.230,29.785,0
1583510589.357,25.879,35.645,30.273,27.344,50.781,0
1583510589.361,26.855,35.645,31.250,56.641,23.438,0
1583510589.365,27.344,34.668,31.250,50.781,50.781,0
1583510589.361,23.926,34.180,34.180,22.949,92.285,0
1583510589.365,24.902,35.156,36.621,24.414,50.293,0
1583510589.369,25.391,36.133,33.203,48.828,19.043,0
1583510589.373,25.391,33.203,29.785,47.852,25.879,0
1583510589.377,22.461,30.762,27.832,14.648,83.008,0
1583510589.381,20.020,33.691,29.785,-2.441,46.875,0
1583510589.385,29.297,35.645,30.273,33.203,-14.648,0
1583510589.388,30.273,34.668,27.832,51.270,-31.738,0
1583510589.392,28.320,33.203,29.785,31.250,-41.016,0
1583510589.396,26.855,31.738,32.715,17.090,13.672,0
1583510589.400,33.691,32.715,27.832,33.691,42.480,0
1583510589.404,40.039,32.715,29.297,68.848,73.242,0
1583510589.401,31.250,28.809,39.062,54.688,20.996,0
1583510589.405,25.391,29.297,39.551,20.508,-49.316,0
1583510589.409,27.344,31.250,37.109,30.762,-38.086,0
1583510589.413,28.809,28.320,39.551,58.105,5.859,0
1583510589.417,32.715,30.273,36.621,57.617,28.320,0
1583510589.421,35.156,32.227,34.668,28.809,48.340,0
1583510589.425,32.715,29.297,34.668,26.367,62.500,3
1583510589.428,35.156,32.715,36.621,52.246,23.438,0
1583510589.432,40.039,37.109,38.086,59.570,28.320,0
1583510589.436,42.480,36.621,34.668,35.156,58.594,0
1583510589.440,41.016,32.227,31.738,14.648,60.059,0
1583510589.444,43.457,33.203,30.762,30.762,44.922,0
1583510589.461,43.457,36.621,28.809,48.828,73.730,0
1583510589.465,40.527,34.668,28.320,28.809,68.359,0
1583510589.469,38.086,36.133,32.227,7.812,35.645,0
1583510589.473,31.738,37.598,32.715,24.414,4.883,0
1583510589.477,32.715,36.621,33.691,49.316,-2.930,0
1583510589.481,32.227,36.133,33.691,41.504,19.043,0
1583510589.485,24.902,35.156,31.250,3.906,25.391,0
1583510589.488,24.414,34.668,30.762,14.648,25.391,0
1583510589.492,27.832,31.738,31.250,56.641,27.832,0
1583510589.496,22.949,29.297,32.715,59.570,12.207,0
1583510589.500,21.484,27.832,31.738,32.715,13.672,0
1583510589.504,24.414,27.832,33.203,27.832,42.969,0
1583510589.501,24.414,29.297,35.645,59.082,27.344,0
1583510589.505,16.113,28.320,34.668,69.336,-3.906,0
1583510589.509,11.230,27.344,32.227,45.410,-4.395,0
1583510589.513,15.625,30.273,33.203,23.438,23.438,0
1583510589.517,15.137,30.273,34.180,40.039,60.059,0
1583510589.521,15.625,30.273,31.250,55.664,11.719,0
1583510589.525,21.973,30.273,32.715,35.156,30.762,0
1583510589.528,26.855,31.738,35.645,14.648,61.523,0
1583510589.532,28.320,29.785,34.180,20.996,36.133,0
1583510589.536,29.297,26.855,33.691,34.668,12.207,0
1583510589.540,34.180,26.855,32.715,35.156,4.395,0
1583510589.544,38.574,28.809,31.738,23.926,31.738,0
1583510589.541,37.598,29.785,30.762,33.691,40.039,0
1583510589.545,37.598,31.738,31.250,57.129,60.059,0
1583510589.549,44.922,34.668,36.133,55.176,57.129,0
1583510589.553,48.340,37.109,38.086,32.715,-1.465,0
1583510589.557,43.457,36.133,35.156,26.367,38.574,0
1583510589.561,37.109,34.180,35.156,57.129,18.066,0
1583510589.565,35.156,34.668,36.621,62.012,9.766,0
1583510589.568,32.227,34.180,31.250,26.367,62.988,0
1583510589.572,28.320,33.203,31.250,12.207,59.082,0
1583510589.576,19.531,33.691,33.203,31.738,20.508,0
1583510589.580,9.277,33.203,29.297,48.828,25.391,0
1583510589.584,8.789,31.250,33.203,27.832,44.922,0
1583510589.601,13.184,32.227,37.598,0.488,36.621,0
1583510589.605,16.602,33.691,36.621,17.090,44.922,0
1583510589.609,22.461,32.227,34.668,41.504,41.504,0
1583510589.613,35.156,31.250,32.227,39.551,6.348,0
1583510589.617,41.992,34.180,30.762,2.930,27.832,0
1583510589.621,43.457,35.156,30.273,-3.906,12.695,0
1583510589.625,46.387,35.645,30.273,33.203,7.812,0
1583510589.628,51.758,36.621,29.297,34.180,27.832,0
1583510589.632,56.152,38.574,27.832,15.625,48.828,0
1583510589.636,50.781,36.133,28.809,2.441,74.219,0
1583510589.640,43.457,31.250,27.344,20.996,43.945,0
1583510589.644,44.434,32.715,27.832,48.340,39.551,0
1583510589.641,50.293,36.621,32.715,31.738,83.984,0
1583510589.645,45.898,36.621,30.273,10.254,88.867,0
1583510589.649,40.527,33.203,27.344,20.020,29.297,0
1583510589.653,39.062,31.738,30.273,37.598,14.160,0
1583510589.657,41.992,34.668,31.250,31.738,20.996,0
1583510589.661,40.039,35.156,30.273,5.859,19.531,0
1583510589.665,33.691,37.109,29.297,17.090,47.363,0
1583510589.668,33.691,36.621,28.809,37.598,68.848,0
1583510589.672,34.668,34.180,27.344,32.227,56.152,0
1583510589.676,29.785,34.180,29.297,13.184,87.891,0
1583510589.680,22.461,34.180,28.809,5.371,66.406,0
1583510589.684,20.996,32.227,29.785,39.551,-6.348,0
1583510589.681,17.090,31.250,33.203,47.363,-4.395,0
1583510589.685,11.719,33.203,33.691,21.973,11.230,0
1583510589.689,13.672,33.691,34.180,14.648,-22.461,0
1583510589.693,20.996,33.691,33.691,37.109,2.441,0
1583510589.697,25.391,35.156,32.715,54.199,12.207,0
1583510589.701,29.297,38.574,31.738,36.133,23.926,0
