timestamps,TP9,AF7,AF8,TP10,Right AUX,Marker0
1583340531.047,40.039,21.973,33.203,3.418,-31.738,0
1583340531.051,47.363,21.973,32.715,5.371,-5.371,0
1583340531.055,29.297,22.949,35.645,4.395,-6.836,0
1583340531.059,15.137,22.949,36.133,5.859,-19.531,0
1583340531.063,26.855,23.438,37.109,7.324,-17.090,0
1583340531.067,42.969,26.855,36.621,11.719,0.000,0
1583340531.071,36.133,25.879,36.621,15.625,-10.742,0
1583340531.074,19.531,24.414,40.527,13.672,-23.926,0
1583340531.078,26.855,24.414,40.527,14.648,11.230,0
1583340531.082,48.340,27.832,42.969,15.137,2.930,0
1583340531.086,40.039,27.832,43.945,8.789,-18.066,0
1583340531.090,19.043,25.879,37.598,7.812,-1.465,0
1583340531.087,21.973,29.297,40.039,11.230,-13.672,0
1583340531.091,42.969,26.367,41.504,14.648,11.230,0
1583340531.095,49.805,26.367,37.598,14.160,38.574,0
1583340531.099,31.250,32.715,40.039,12.207,38.574,0
1583340531.103,21.973,32.715,41.016,17.090,49.316,0
1583340531.107,36.133,30.762,41.992,21.973,39.062,0
1583340531.111,45.410,29.297,41.992,20.996,45.410,0
1583340531.114,33.691,33.691,42.480,15.625,41.992,0
1583340531.118,21.973,35.156,43.945,14.648,5.859,0
1583340531.122,34.180,28.809,41.992,16.113,11.719,0
1583340531.126,45.410,30.762,44.434,17.090,32.715,0
1583340531.130,33.691,31.250,42.480,13.184,18.066,0
1583340531.147,12.695,32.715,41.992,4.883,-13.184,0
1583340531.151,17.578,36.133,40.527,1.465,20.996,0
1583340531.155,43.945,33.203,33.203,7.324,47.363,0
1583340531.159,41.016,32.227,33.203,9.277,46.387,0
1583340531.163,18.066,31.250,36.621,9.766,51.758,0
1583340531.167,18.555,32.715,37.109,12.695,16.113,0
1583340531.171,35.156,30.273,30.273,11.230,24.902,0
1583340531.174,39.062,28.320,26.367,10.742,66.895,0
1583340531.178,19.043,29.297,30.762,9.766,45.898,0
1583340531.182,12.695,29.785,29.297,8.789,14.160,0
1583340531.186,27.344,31.250,30.762,9.766,39.062,0
1583340531.190,34.180,29.297,33.203,10.254,56.641,0
1583340531.207,21.973,27.832,29.297,8.301,34.668,0
1583340531.211,13.672,28.320,31.738,6.348,24.414,0
1583340531.215,28.320,30.762,38.574,10.254,37.109,0
1583340531.219,44.434,33.691,38.086,12.207,58.594,0
1583340531.223,36.133,33.203,35.645,9.277,21.973,0
1583340531.227,15.137,31.250,34.668,7.812,8.789,0
1583340531.231,19.043,30.273,31.738,6.836,14.648,0
1583340531.234,38.574,28.320,31.250,12.207,20.508,0
1583340531.238,40.039,26.855,33.203,12.695,48.340,0
1583340531.242,18.555,27.344,35.156,4.395,18.555,0
1583340531.246,12.695,24.902,32.227,1.953,-4.883,0
1583340531.250,34.180,25.879,31.250,8.301,25.879,0
1583340531.228,43.457,25.879,32.715,12.207,56.152,0
1583340531.232,25.391,25.879,35.156,8.301,41.016,0
1583340531.236,13.184,26.855,36.621,6.348,9.766,0
1583340531.240,24.902,22.461,31.250,4.883,38.086,0
1583340531.244,36.621,23.438,28.320,8.789,52.734,0
1583340531.248,23.438,25.879,30.273,10.254,9.277,0
1583340531.252,10.742,25.879,31.738,5.371,5.859,0
1583340531.255,21.973,24.902,30.273,6.348,23.926,0
1583340531.259,40.527,25.391,32.227,10.742,22.461,0
1583340531.263,36.133,24.902,34.668,9.766,18.066,0
1583340531.267,21.973,25.879,35.156,11.230,8.789,0
1583340531.271,22.461,26.367,34.668,13.672,26.855,0
1583340531.287,36.621,26.367,35.645,12.695,26.367,0
1583340531.291,38.574,28.809,36.133,10.742,20.996,0
1583340531.295,20.996,29.785,39.551,10.742,17.578,0
1583340531.299,17.090,29.785,43.457,14.648,0.488,0
1583340531.303,39.062,30.762,41.016,17.578,38.086,0
1583340531.307,45.410,30.762,42.969,18.555,10.742,0
1583340531.311,26.855,25.391,42.480,9.277,-22.949,0
1583340531.314,21.484,24.902,39.551,7.812,10.742,0
1583340531.318,35.156,28.809,41.504,12.695,11.230,0
1583340531.322,46.875,27.344,41.016,12.207,21.484,0
1583340531.326,34.180,31.250,41.992,15.137,13.184,0
1583340531.330,15.625,32.227,41.016,8.301,-8.789,0
1583340531.327,26.367,29.297,37.109,1.465,15.625,0
1583340531.331,46.875,29.785,38.086,5.859,60.547,0
1583340531.335,41.504,27.832,37.109,6.348,54.199,0
1583340531.339,24.414,29.785,37.598,8.301,-0.977,0
1583340531.343,28.809,34.180,40.527,10.254,-26.367,0
1583340531.347,47.852,33.203,40.527,13.184,10.742,0
1583340531.351,51.758,31.250,40.039,13.672,10.742,0
1583340531.354,37.598,30.273,36.133,10.254,-17.090,0
1583340531.358,32.227,36.621,37.109,15.625,-46.387,0
1583340531.362,49.316,38.574,40.039,15.625,-51.758,0
1583340531.366,60.547,32.227,38.086,16.602,-28.320,0
1583340531.370,41.992,29.785,36.621,17.090,-18.555,0
1583340531.367,27.344,31.738,41.016,17.090,-16.602,0
1583340531.371,40.527,34.180,43.457,21.484,-0.977,0
1583340531.375,52.734,31.250,42.480,18.066,-11.230,0
1583340531.379,41.504,25.879,37.598,15.625,-17.578,0
1583340531.383,24.414,32.227,40.039,17.090,-9.277,0
1583340531.387,25.879,35.645,42.480,16.602,-17.578,0
1583340531.391,41.504,30.273,37.109,18.066,-6.348,0
1583340531.394,35.156,28.809,36.621,11.719,-2.930,0
1583340531.398,13.184,29.785,35.156,0.488,-17.090,0
1583340531.402,12.695,28.320,30.762,0.977,-9.766,0
1583340531.406,30.762,26.367,32.227,7.812,23.926,0
1583340531.410,41.504,28.809,35.645,10.742,19.043,0
1583340531.427,21.973,26.367,33.691,8.301,-29.297,0
1583340531.431,16.113,22.461,35.156,9.766,-41.504,0
1583340531.435,40.039,22.949,40.039,15.625,-14.160,0
1583340531.439,51.758,23.438,39.062,17.090,-0.488,0
1583340531.443,35.645,25.879,37.598,19.043,0.977,0
1583340531.447,22.949,30.273,41.504,21.973,-7.324,0
1583340531.451,37.109,31.738,40.039,22.461,-2.441,0
1583340531.454,54.199,32.227,38.086,23.926,34.668,0
1583340531.458,47.852,36.133,44.434,25.879,35.156,0
1583340531.462,31.738,35.156,48.340,25.391,9.766,0
1583340531.466,34.668,33.203,46.387,20.020,-11.719,0
1583340531.470,53.711,32.715,43.945,19.531,-9.277,0
1583340531.467,54.199,31.250,46.387,21.973,20.020,0
1583340531.471,31.738,32.227,49.805,20.508,2.930,0
1583340531.475,24.414,29.785,47.852,17.578,4.883,0
1583340531.479,46.875,33.203,51.758,20.996,6.836,0
1583340531.483,52.246,35.645,51.758,22.461,-9.766,0
1583340531.487,30.273,33.691,45.898,19.531,34.668,0
1583340531.491,21.973,32.715,47.363,22.461,17.578,0
1583340531.494,39.062,30.762,47.363,20.996,-0.977,0
1583340531.498,50.293,34.180,51.270,20.508,5.859,0
1583340531.502,32.715,35.156,53.223,17.578,-15.137,0
1583340531.506,21.973,29.785,44.434,10.742,4.883,0
1583340531.510,32.227,30.762,43.457,10.742,29.785,0
1583340531.527,46.875,35.156,49.805,13.672,22.461,0
1583340531.531,43.457,37.109,51.758,15.625,20.020,0
1583340531.535,26.367,34.668,48.828,13.184,19.043,0
1583340531.539,24.414,29.785,43.457,7.812,32.715,0
1583340531.543,41.016,33.203,42.480,11.719,26.855,0
1583340531.547,44.922,33.203,46.875,16.113,18.066,0
1583340531.551,27.344,32.715,49.805,13.672,13.184,0
1583340531.554,17.090,35.156,46.875,6.348,-8.301,0
1583340531.558,30.762,28.320,41.504,1.465,35.645,0
1583340531.562,41.992,29.785,43.945,6.836,41.016,0
1583340531.566,27.344,33.203,41.504,9.277,22.949,0
1583340531.570,20.996,34.180,43.457,11.719,19.043,0
1583340531.567,33.691,35.645,49.805,17.090,-8.789,0
1583340531.571,46.875,34.668,47.852,17.578,10.254,0
1583340531.575,39.551,35.156,48.828,18.555,14.648,0
1583340531.579,20.020,33.691,46.875,20.020,-39.062,0
1583340531.583,28.809,34.180,46.387,21.973,-27.832,0
1583340531.587,46.387,36.133,50.293,26.367,22.949,0
1583340531.591,38.574,33.691,47.363,21.484,28.320,0
1583340531.594,23.438,33.203,45.898,19.043,-4.395,0
1583340531.598,20.508,34.180,47.852,18.066,-20.020,0
1583340531.602,38.086,30.762,49.805,20.508,23.438,0
1583340531.606,45.898,33.691,51.758,25.879,34.180,0
1583340531.610,30.762,34.668,51.270,19.531,9.766,0
1583340531.607,30.762,29.785,52.246,17.090,16.602,0
1583340531.611,52.734,33.691,49.805,22.461,11.719,0
1583340531.615,63.965,34.668,45.898,21.484,20.020,0
1583340531.619,49.316,39.062,50.293,23.438,-9.277,0
1583340531.623,38.086,41.504,48.828,20.996,-20.996,0
1583340531.627,49.805,35.156,41.016,26.367,30.762,0
1583340531.631,61.523,35.156,38.574,38.574,42.969,0
1583340531.634,48.340,35.645,39.551,34.668,21.973,0
1583340531.638,26.855,38.574,42.969,25.391,-19.043,0
1583340531.642,25.391,35.645,43.945,16.113,-8.301,0
1583340531.646,43.457,31.738,44.434,14.160,14.160,0
1583340531.650,36.621,33.203,44.922,16.113,17.090,0
1583340531.667,14.160,31.250,41.992,11.230,35.645,0
1583340531.671,14.160,33.203,44.922,13.672,31.250,0
1583340531.675,31.738,35.645,46.387,13.672,21.484,0
1583340531.679,35.156,31.738,43.945,12.695,46.875,0
1583340531.683,21.484,29.297,43.945,15.625,50.293,0
1583340531.687,17.578,29.785,44.434,14.160,20.996,0
1583340531.691,28.320,33.691,45.410,15.625,15.137,0
1583340531.694,35.645,32.715,42.480,7.324,-5.859,0
1583340531.698,22.461,26.855,37.109,0.000,-7.324,0
1583340531.702,7.324,29.785,33.691,3.418,14.160,0
1583340531.706,22.949,31.250,35.156,5.859,8.789,0
1583340531.710,40.039,28.809,42.969,12.207,16.602,0
1583340531.707,32.227,29.297,43.945,10.254,8.789,0
1583340531.711,12.695,27.344,37.598,2.930,-12.207,0
1583340531.715,17.090,26.855,37.109,6.836,14.160,0
1583340531.719,40.039,30.273,38.574,13.184,32.715,0
1583340531.723,39.551,30.273,40.039,15.625,24.414,0
1583340531.727,20.996,30.273,41.016,11.719,24.902,0
1583340531.731,19.531,31.250,39.062,8.789,35.645,0
1583340531.734,40.527,30.762,40.527,12.207,51.758,0
1583340531.738,48.340,31.738,41.992,9.766,23.438,0
1583340531.742,28.809,33.691,41.504,6.836,10.254,0
1583340531.746,16.602,37.109,45.898,4.883,0.000,0
1583340531.750,32.715,35.645,46.875,3.418,-18.555,0
1583340531.767,46.875,33.203,39.062,7.812,-3.906,0
1583340531.771,33.203,33.691,39.062,9.277,-7.324,0
1583340531.775,18.555,29.297,45.898,8.301,-3.906,0
1583340531.779,23.926,29.785,47.363,8.301,-19.043,0
1583340531.783,36.133,34.668,45.898,12.207,-12.207,0
1583340531.787,29.785,31.738,48.828,15.137,11.719,0
1583340531.791,14.648,28.809,47.852,12.695,-12.695,0
1583340531.794,17.090,31.250,44.434,12.207,-27.344,0
1583340531.798,32.715,33.203,47.363,13.184,-55.176,0
1583340531.802,35.156,30.762,47.363,10.742,-59.082,0
1583340531.806,20.996,30.273,48.828,13.184,-47.363,0
1583340531.810,18.555,29.297,47.363,14.648,-64.453,0
1583340531.788,37.109,29.297,45.898,14.648,-50.781,0
1583340531.792,42.969,32.715,47.852,10.254,-44.434,0
1583340531.796,23.438,29.785,46.387,4.883,-49.805,0
1583340531.800,16.602,28.320,43.457,5.859,-68.359,0
1583340531.804,35.156,27.832,42.969,9.277,-64.941,0
1583340531.808,48.340,25.879,44.434,14.648,-47.363,0
1583340531.812,39.062,28.809,47.363,11.719,-62.500,0
1583340531.815,27.344,28.809,44.434,4.883,-60.547,0
1583340531.819,38.086,28.809,39.551,9.277,-51.270,0
1583340531.823,60.059,31.250,39.062,17.578,-33.203,0
1583340531.827,59.082,30.273,39.551,16.113,-12.695,0
1583340531.831,39.062,32.715,40.527,16.602,-47.363,0
1583340531.847,38.574,28.809,38.574,15.137,-68.848,0
1583340531.851,57.617,26.855,37.598,15.137,-41.992,0
1583340531.855,64.941,34.180,39.551,23.926,-41.504,0
1583340531.859,48.828,36.621,38.086,24.902,-44.434,0
1583340531.863,36.621,36.621,38.086,21.973,-18.066,0
1583340531.867,49.316,38.574,44.434,20.996,-22.949,0
1583340531.871,58.105,33.203,42.480,15.625,-33.691,0
1583340531.874,45.410,28.809,41.016,14.648,-10.254,0
1583340531.878,29.297,32.227,43.457,15.137,10.742,0
1583340531.882,41.992,36.133,43.945,17.578,-12.695,0
1583340531.886,58.594,37.598,44.434,20.020,-26.855,0
1583340531.890,41.992,33.203,41.504,16.113,-3.418,0
1583340531.887,20.508,34.668,42.969,15.137,15.625,0
1583340531.891,20.508,38.086,48.340,14.648,-1.953,0
1583340531.895,35.645,35.156,48.340,12.695,20.020,0
1583340531.899,34.668,34.180,45.898,12.207,22.949,0
1583340531.903,17.090,33.203,41.016,4.395,-1.465,0
1583340531.907,14.648,30.273,36.133,0.488,0.977,0
1583340531.911,30.273,29.297,33.691,3.418,18.555,0
1583340531.914,34.668,33.691,35.156,6.836,45.898,0
1583340531.918,16.113,36.621,41.016,5.371,20.020,0
1583340531.922,6.836,32.227,40.039,1.953,0.977,0
1583340531.926,28.320,31.738,38.086,8.301,25.391,0
1583340531.930,48.828,32.227,39.551,15.137,25.391,0
1583340531.947,36.621,29.785,39.062,19.043,20.996,0
1583340531.951,14.648,29.785,36.621,16.113,19.043,0
1583340531.955,22.461,26.855,33.203,11.230,0.977,0
1583340531.959,39.551,25.391,35.645,14.160,11.719,0
1583340531.963,30.273,29.297,36.621,13.184,28.809,0
1583340531.967,13.184,32.227,34.668,9.277,-6.348,0
1583340531.971,16.113,27.832,36.133,7.812,-32.227,0
1583340531.974,37.109,26.855,32.227,11.230,-12.207,0
1583340531.978,40.039,31.738,31.250,11.230,11.230,0
1583340531.982,21.973,32.227,34.668,9.277,19.531,0
1583340531.986,22.461,30.762,36.621,15.137,24.414,0
1583340531.990,41.016,32.227,41.504,21.484,4.883,0
1583340531.987,44.434,30.762,39.551,11.719,6.348,0
1583340531.991,27.832,29.785,35.645,4.883,28.809,0
1583340531.995,17.090,31.738,39.062,7.812,19.531,0
1583340531.999,27.344,30.762,39.551,9.766,14.160,0
1583340532.003,36.133,31.250,39.551,11.230,7.324,0
1583340532.007,21.484,30.273,41.016,8.789,8.789,0
1583340532.011,4.883,31.738,37.598,6.348,16.113,0
1583340532.014,15.137,34.668,35.156,8.301,18.066,0
1583340532.018,35.156,35.156,34.668,11.230,57.617,0
1583340532.022,32.227,36.621,31.738,10.254,60.059,0
1583340532.026,11.230,37.109,35.645,3.418,-0.488,0
1583340532.030,16.113,34.180,38.086,2.930,-3.906,0
1583340532.027,37.598,31.738,37.598,11.230,51.758,0
1583340532.031,38.086,32.715,39.062,12.207,61.523,0
1583340532.035,20.508,35.156,39.551,8.301,61.523,0
1583340532.039,12.695,34.668,39.551,5.371,58.594,0
1583340532.043,28.809,32.715,38.086,8.301,24.902,0
1583340532.047,37.598,33.203,39.551,12.695,20.508,0
1583340532.051,20.508,33.203,37.598,8.789,20.996,0
1583340532.054,10.742,35.645,35.645,6.836,7.812,0
1583340532.058,26.367,33.691,38.086,9.277,13.184,0
1583340532.062,40.527,30.762,41.504,10.254,25.391,0
1583340532.066,32.227,34.180,44.922,12.695,30.273,0
1583340532.070,13.672,31.738,43.945,9.766,19.043,0
1583340532.087,20.996,30.273,42.480,13.672,-0.977,0
1583340532.091,38.574,35.645,42.480,15.137,-12.207,0
1583340532.095,35.645,33.203,41.016,11.230,8.301,0
1583340532.099,20.020,33.203,39.551,10.742,30.762,0
1583340532.103,21.484,39.551,42.480,14.648,-4.395,0
1583340532.107,39.062,35.645,45.410,16.602,-16.602,0
1583340532.111,39.551,34.180,48.340,12.207,-11.230,0
1583340532.114,24.414,34.180,46.387,7.324,-29.297,0
1583340532.118,20.508,30.273,40.039,6.348,-13.672,0
1583340532.122,37.598,31.738,40.039,12.207,1.953,0
1583340532.126,48.828,33.203,43.945,20.020,5.859,0
1583340532.130,36.133,34.668,45.410,22.949,-26.855,0
1583340532.127,24.902,35.645,44.434,21.484,-24.414,0
1583340532.131,35.156,33.203,39.062,18.555,9.766,0
1583340532.135,50.781,33.203,37.598,19.043,25.879,0
1583340532.139,40.039,32.715,43.457,17.090,52.734,0
1583340532.143,17.578,31.250,41.992,14.648,16.113,0
1583340532.147,18.066,30.273,37.598,14.648,-16.602,0
1583340532.151,35.645,28.320,39.062,16.602,40.039,0
1583340532.154,36.621,28.809,41.992,14.648,44.922,0
1583340532.158,20.996,32.227,41.992,10.254,11.719,0
1583340532.162,22.461,35.645,44.434,16.113,5.371,0
1583340532.166,40.039,33.691,44.922,17.090,-19.531,0
1583340532.170,45.410,28.809,41.992,13.672,-8.301,0
1583340532.167,28.320,28.809,42.480,16.602,27.344,0
1583340532.171,24.902,30.273,42.480,21.484,19.043,0
1583340532.175,42.480,30.273,41.016,26.855,-1.465,0
1583340532.179,51.270,32.227,40.527,28.320,8.301,0
1583340532.183,40.527,32.715,41.504,20.996,17.090,0
1583340532.187,25.391,28.809,40.527,17.578,2.930,0
1583340532.191,34.668,28.320,39.551,22.949,-23.438,0
1583340532.194,55.664,31.250,45.898,27.832,-18.555,0
1583340532.198,47.852,34.668,48.340,28.320,-21.973,0
1583340532.202,26.855,31.250,41.504,17.578,-18.555,0
1583340532.206,34.668,28.320,41.016,20.020,11.719,0
1583340532.210,56.641,33.203,42.480,29.297,12.695,0
1583340532.227,56.152,36.621,43.457,26.367,4.395,0
1583340532.231,33.203,32.227,44.922,23.926,13.672,0
1583340532.235,24.902,27.344,42.969,20.508,15.137,0
1583340532.239,40.527,28.320,41.016,20.020,25.879,0
1583340532.243,50.781,29.297,42.480,25.391,14.648,0
1583340532.247,32.715,31.250,43.457,25.391,6.348,0
1583340532.251,17.578,32.715,40.527,20.996,3.906,0
1583340532.254,31.738,31.250,37.109,17.090,-2.930,0
1583340532.258,48.340,29.785,38.574,17.090,16.602,0
1583340532.262,37.109,29.785,41.504,19.043,10.254,0
1583340532.266,19.043,29.297,39.062,16.113,-9.766,0
1583340532.270,27.344,28.809,38.574,18.066,-9.277,0
1583340532.267,43.945,24.902,41.504,20.020,20.020,0
1583340532.271,39.062,24.902,43.945,20.508,33.691,0
1583340532.275,23.438,28.320,41.992,21.484,21.973,0
1583340532.279,26.367,27.832,42.480,23.438,-0.977,0
1583340532.283,46.387,24.414,42.969,23.438,8.301,0
1583340532.287,53.711,24.902,43.457,22.461,41.992,0
1583340532.291,36.621,26.367,46.387,22.461,11.719,0
1583340532.294,27.832,25.391,45.898,20.508,-23.926,0
1583340532.298,43.457,22.461,44.434,20.020,4.395,0
1583340532.302,51.270,25.391,43.945,22.461,2.930,0
1583340532.306,36.621,30.762,41.504,17.578,3.906,0
1583340532.310,26.367,32.715,41.016,14.648,31.250,0
1583340532.327,39.062,34.180,41.504,19.531,15.625,0
1583340532.331,56.152,33.203,40.039,21.484,19.531,0
1583340532.335,42.480,34.668,42.969,21.484,28.809,0
1583340532.339,18.066,34.668,44.434,13.184,25.879,0
1583340532.343,25.879,34.180,43.945,13.184,17.578,0
1583340532.347,42.480,36.133,48.340,20.996,3.418,0
1583340532.351,32.227,32.715,45.410,17.090,1.465,0
1583340532.354,12.207,33.691,40.527,11.719,0.977,0
1583340532.358,7.324,37.598,38.574,6.836,-0.488,0
1583340532.362,21.973,32.715,36.133,6.348,14.648,0
1583340532.366,26.855,29.785,36.621,3.906,23.438,0
1583340532.370,12.207,34.668,35.156,0.488,10.254,0
1583340532.387,4.395,34.668,37.109,4.395,1.465,0
1583340532.391,20.996,29.297,38.086,6.348,-13.672,0
1583340532.395,35.645,25.879,38.086,7.324,-3.906,0
1583340532.399,23.926,23.926,36.621,5.371,8.789,0
1583340532.403,14.160,27.832,36.133,5.859,-4.395,0
1583340532.407,27.344,31.738,39.551,10.742,18.066,0
1583340532.411,46.387,32.227,40.527,8.789,38.574,0
1583340532.414,43.945,33.203,39.062,9.277,13.672,0
1583340532.418,24.902,34.180,41.504,9.766,-8.789,0
1583340532.422,24.902,31.250,40.527,8.789,-5.859,0
1583340532.426,46.387,30.762,43.457,15.137,3.418,0
1583340532.430,42.969,32.227,46.875,14.160,6.348,0
1583340532.427,20.020,30.762,41.504,7.324,16.113,0
1583340532.431,19.043,28.320,38.574,7.324,23.438,0
1583340532.435,38.086,29.785,38.086,11.719,34.668,0
1583340532.439,41.992,33.203,39.062,12.207,47.363,0
1583340532.443,22.949,33.691,39.551,7.324,19.531,0
1583340532.447,16.602,29.785,39.062,7.324,-4.395,0
1583340532.451,33.203,25.879,36.133,10.742,2.930,0
1583340532.454,45.410,28.809,37.598,13.184,14.648,0
1583340532.458,31.250,28.809,37.598,14.160,31.250,0
1583340532.462,14.160,30.762,39.062,9.766,12.695,0
1583340532.466,25.391,33.203,40.039,9.766,-5.371,0
1583340532.470,42.480,32.227,39.551,17.090,27.832,0
1583340532.447,31.738,29.785,39.551,14.160,51.270,0
1583340532.451,5.859,27.832,39.062,9.277,38.574,0
1583340532.455,5.371,30.273,41.992,12.207,-17.090,0
1583340532.459,24.414,31.738,39.062,11.230,-17.578,0
1583340532.463,24.414,26.367,35.156,8.789,31.738,0
1583340532.467,8.789,28.320,38.574,11.230,-2.441,0
1583340532.471,6.348,30.762,39.551,10.254,-8.789,0
1583340532.474,19.531,29.785,39.551,8.789,5.859,0
1583340532.478,26.367,30.273,37.109,8.301,-5.859,0
1583340532.482,11.719,28.809,34.668,6.348,8.301,0
1583340532.486,1.465,28.809,36.621,5.371,10.254,0
1583340532.490,19.043,26.367,36.133,6.348,7.812,0
1583340532.507,33.203,27.832,38.086,10.742,22.461,0
1583340532.511,20.020,29.785,38.574,8.789,18.066,0
1583340532.515,8.301,27.344,34.180,3.418,-9.277,0
1583340532.519,19.043,27.344,36.133,7.812,-17.578,0
1583340532.523,39.062,27.832,39.551,13.184,21.973,0
1583340532.527,40.039,31.250,40.527,15.137,17.578,0
1583340532.531,20.020,28.809,37.598,9.277,8.301,0
1583340532.534,18.555,25.391,35.645,6.836,7.812,0
1583340532.538,40.039,26.367,36.621,11.230,-9.766,0
1583340532.542,41.992,26.855,36.133,11.230,9.277,0
1583340532.546,21.973,28.320,38.086,9.766,-5.859,0
1583340532.550,16.602,26.367,41.016,11.230,-37.109,0
1583340532.548,35.156,26.855,37.598,11.230,-7.324,0
1583340532.552,44.922,30.273,35.156,10.254,-7.324,0
1583340532.556,30.762,32.227,37.109,11.719,-30.762,0
1583340532.560,20.020,31.250,40.039,14.160,-36.133,0
1583340532.564,36.621,33.691,43.945,18.555,-34.668,0
1583340532.568,55.176,34.668,44.434,22.949,-47.363,0
1583340532.572,46.387,33.203,45.898,21.973,-69.824,0
1583340532.575,27.344,31.250,44.922,20.020,-68.359,0
1583340532.579,31.250,31.738,42.969,20.996,-58.594,0
1583340532.583,50.781,33.203,43.945,24.414,-62.012,0
1583340532.587,50.781,31.250,43.457,21.484,-48.828,0
1583340532.591,32.715,31.250,41.504,14.648,-31.738,0
1583340532.587,32.227,30.273,40.039,12.207,-17.578,0
1583340532.591,61.035,30.273,42.969,24.414,11.230,0
1583340532.595,62.988,33.203,43.457,25.391,-18.066,0
1583340532.599,28.809,34.668,37.109,3.418,-29.297,0
1583340532.603,12.695,36.133,36.133,-3.418,-14.648,0
1583340532.607,25.391,36.621,35.156,-1.953,-16.113,0
1583340532.611,36.133,32.715,33.203,-6.836,18.066,0
1583340532.614,15.137,36.133,37.109,-16.602,2.441,0
1583340532.618,-11.230,38.574,37.109,-30.273,-36.621,0
1583340532.622,0.977,32.715,32.715,-28.320,-16.113,0
1583340532.626,19.043,34.668,31.250,-21.484,13.184,0
1583340532.630,8.301,37.109,34.180,-19.531,15.137,0
1583340532.647,-5.371,34.668,34.180,-14.160,0.000,0
1583340532.651,2.441,30.762,30.762,-11.230,23.438,0
1583340532.655,22.461,34.180,32.715,-2.441,25.879,0
1583340532.659,22.949,34.180,33.691,-0.977,8.301,0
1583340532.663,8.789,35.645,33.203,-1.465,14.160,0
1583340532.667,5.859,38.086,38.086,5.371,5.371,0
1583340532.671,20.996,31.250,38.086,4.395,7.324,0
1583340532.674,28.809,29.297,32.715,5.371,35.156,0
1583340532.678,15.137,35.156,35.645,6.348,38.574,0
1583340532.682,8.301,34.668,38.086,2.441,4.883,0
1583340532.686,23.438,34.668,37.109,8.789,5.859,0
1583340532.690,39.062,38.086,35.156,11.230,27.832,0
1583340532.687,29.297,33.691,33.203,7.324,16.602,0
1583340532.691,17.090,28.320,35.156,7.324,4.395,0
1583340532.695,30.762,31.738,40.527,12.207,18.066,0
1583340532.699,45.898,36.133,41.992,21.484,19.043,0
1583340532.703,38.086,34.668,41.016,17.578,11.230,0
1583340532.707,25.391,32.227,40.527,13.184,3.906,0
1583340532.711,26.367,35.645,39.062,14.160,-0.977,0
1583340532.714,44.434,33.203,36.621,11.230,12.695,0
1583340532.718,46.387,28.809,38.086,13.672,13.184,0
1583340532.722,19.043,30.762,44.434,9.277,-12.207,0
1583340532.726,18.066,30.273,43.457,6.348,-16.113,0
1583340532.730,40.039,32.227,41.992,10.254,-2.930,0
1583340532.727,45.410,30.273,42.969,11.230,27.832,0
1583340532.731,34.668,29.297,45.410,14.160,28.809,0
1583340532.735,20.996,33.203,43.945,13.672,7.324,0
1583340532.739,29.785,32.715,41.016,12.207,13.184,0
1583340532.743,46.387,31.250,41.504,10.742,32.715,0
1583340532.747,36.621,31.250,38.086,12.207,35.645,0
1583340532.751,16.602,32.715,36.621,13.184,31.738,0
1583340532.754,22.949,31.738,39.551,14.160,32.715,0
1583340532.758,45.898,31.738,40.039,20.508,25.391,0
1583340532.762,43.457,33.691,38.574,19.043,27.344,0
1583340532.766,24.414,34.180,40.039,19.043,33.691,0
1583340532.770,29.785,31.250,40.527,26.367,25.391,0
1583340532.787,50.781,34.668,41.992,28.320,0.977,0
1583340532.791,47.363,32.227,38.086,21.973,23.926,0
1583340532.795,32.227,26.367,37.598,18.066,35.645,0
1583340532.799,29.297,27.832,42.969,18.066,32.715,0
1583340532.803,42.480,27.344,41.992,23.926,35.645,0
1583340532.807,50.781,31.250,39.062,26.367,8.301,0
1583340532.811,33.691,29.785,36.621,21.973,12.695,0
1583340532.814,20.020,28.320,36.133,14.160,6.836,0
1583340532.818,33.691,29.785,34.668,12.695,5.371,0
1583340532.822,49.316,25.879,33.203,15.625,-0.977,0
1583340532.826,39.551,25.879,39.062,16.113,-17.578,0
1583340532.830,17.090,30.273,41.504,10.254,-27.832,0
1583340532.828,25.391,31.738,33.691,8.789,-11.719,0
1583340532.832,47.852,31.250,31.738,19.531,16.113,0
1583340532.836,45.410,32.715,35.645,18.066,-1.465,0
1583340532.840,32.715,34.180,35.156,17.578,-15.137,0
1583340532.844,46.387,38.086,29.785,29.785,-1.953,0
1583340532.848,60.059,35.645,37.109,31.738,6.836,0
1583340532.852,39.062,25.879,43.457,11.230,-6.836,0
1583340532.855,11.230,23.438,42.480,-4.395,-1.465,0
1583340532.859,-0.977,26.367,48.828,-2.441,-6.348,0
1583340532.863,7.324,24.414,51.758,-1.953,-38.574,0
1583340532.867,19.531,19.531,47.363,-8.301,-16.113,0
1583340532.871,5.371,19.043,52.246,-7.812,-10.254,0
1583340532.867,-11.719,22.949,54.199,-8.789,-19.043,0
1583340532.871,1.465,28.320,52.246,-6.836,-9.766,0
1583340532.875,20.996,28.809,48.828,-0.488,-3.418,0
1583340532.879,13.672,26.855,42.969,-0.488,24.902,0
1583340532.883,0.488,32.227,45.410,-2.441,10.254,0
1583340532.887,1.953,38.086,52.734,-4.883,-35.645,0
1583340532.891,13.672,41.016,51.758,-10.254,-2.930,0
1583340532.894,4.395,46.875,50.293,-20.020,-6.348,0
1583340532.898,-27.344,52.246,53.223,-43.945,-60.059,0
1583340532.902,-41.016,58.594,48.340,-53.223,-33.691,0
1583340532.906,-41.016,60.059,50.293,-59.570,-9.277,0
1583340532.910,-60.059,61.035,56.152,-84.961,-1.465,0
1583340532.927,-101.562,68.848,57.129,-110.352,14.648,0
1583340532.931,-131.836,69.336,62.988,-123.047,-0.977,0
1583340532.935,-126.953,69.336,62.988,-129.395,0.000,0
1583340532.939,-114.258,78.125,56.152,-134.766,16.602,0
1583340532.943,-144.043,82.520,54.199,-150.391,22.461,0
1583340532.947,-170.410,80.566,58.594,-159.668,17.578,0
1583340532.951,-152.832,83.984,55.176,-158.203,-6.348,0
1583340532.954,-129.883,83.496,50.293,-153.809,5.371,0
1583340532.958,-125.000,79.102,51.758,-144.531,21.484,0
1583340532.962,-127.441,79.102,50.781,-134.277,10.254,0
1583340532.966,-117.676,77.637,52.246,-123.047,-16.602,0
1583340532.970,-87.402,66.895,52.734,-107.910,-13.672,0
1583340532.967,-64.941,57.617,50.293,-83.496,16.602,0
1583340532.971,-60.547,56.152,49.316,-65.918,7.324,0
1583340532.975,-41.504,51.758,45.410,-52.246,5.371,0
1583340532.979,-3.906,45.898,41.992,-28.809,17.090,0
1583340532.983,13.672,40.039,35.645,-17.578,22.461,0
1583340532.987,13.184,33.203,29.785,-6.836,5.371,0
1583340532.991,18.066,31.250,29.297,9.277,-23.438,0
1583340532.994,37.109,25.391,27.344,20.020,-6.836,0
1583340532.998,65.918,22.461,29.785,38.086,10.742,0
1583340533.002,69.824,19.531,28.320,45.410,-1.953,0
1583340533.006,62.500,15.137,23.926,49.316,4.395,0
1583340533.010,76.660,14.648,23.926,62.012,18.555,0
1583340533.007,96.680,15.137,19.531,64.453,38.574,0
1583340533.011,103.027,19.043,18.555,70.312,37.598,0
1583340533.015,94.238,22.461,24.902,74.707,6.836,0
1583340533.019,90.820,16.602,26.367,69.824,12.695,0
1583340533.023,107.910,12.207,25.879,75.684,22.949,0
1583340533.027,110.840,12.695,23.438,82.520,28.809,0
1583340533.031,91.797,16.113,23.926,82.031,26.367,0
1583340533.034,81.055,19.043,23.438,73.242,-2.930,0
1583340533.038,96.191,15.137,18.555,68.848,5.371,0
1583340533.042,108.887,12.695,20.020,72.754,27.832,0
1583340533.046,93.262,13.184,25.391,71.289,33.691,0
1583340533.050,81.055,15.137,27.344,74.219,22.949,0
1583340533.067,97.656,17.090,25.879,79.102,14.160,0
1583340533.071,111.816,15.137,23.926,77.637,33.691,0
1583340533.075,97.168,15.137,21.484,74.219,36.621,0
1583340533.079,78.613,16.602,22.949,71.777,47.852,0
1583340533.083,83.496,15.137,27.832,76.660,33.203,0
1583340533.087,100.586,16.113,30.762,77.148,26.855,0
1583340533.091,94.238,14.648,33.203,73.242,50.293,0
1583340533.094,74.707,10.254,35.156,69.336,27.344,0
1583340533.098,71.289,13.672,34.180,69.336,-0.488,0
1583340533.102,83.496,13.184,34.180,69.824,31.738,0
1583340533.106,88.379,13.672,37.598,62.988,7.324,0
1583340533.110,68.848,16.602,33.691,53.223,-33.203,0
1583340533.107,58.594,16.602,26.855,51.270,-0.977,0
1583340533.111,77.637,18.066,31.738,58.105,5.859,0
1583340533.115,90.820,19.043,35.645,60.547,24.414,0
1583340533.119,72.266,17.090,35.645,52.734,20.020,0
1583340533.123,57.129,17.090,36.621,52.734,0.488,0
1583340533.127,68.848,19.043,39.062,56.641,-4.883,0
1583340533.131,83.984,18.066,35.156,51.270,-10.254,0
1583340533.134,79.102,17.578,32.227,48.340,11.719,0
1583340533.138,62.012,19.043,36.621,45.410,7.812,0
1583340533.142,62.988,20.508,38.086,40.527,-15.137,0
1583340533.146,83.984,19.043,36.133,41.504,20.020,0
1583340533.150,83.984,19.043,38.086,41.504,42.969,0
1583340533.147,59.570,18.555,41.016,38.574,19.531,0
1583340533.151,50.293,20.996,41.992,40.039,-8.301,0
1583340533.155,63.965,22.949,38.086,40.039,2.441,0
1583340533.159,67.383,19.043,34.668,36.621,29.785,0
1583340533.163,48.340,16.602,38.574,36.133,11.230,0
1583340533.167,39.551,20.996,41.504,37.109,1.953,0
1583340533.171,57.129,23.926,41.504,43.457,-2.441,0
1583340533.174,68.359,23.926,41.992,41.992,-18.066,0
1583340533.178,53.711,23.438,42.480,37.598,-23.438,0
1583340533.182,41.504,22.461,41.016,39.062,3.906,0
1583340533.186,51.270,22.949,39.062,34.180,8.789,0
1583340533.190,63.477,22.949,40.039,33.203,2.441,0
1583340533.207,54.199,25.391,41.992,37.598,15.625,0
1583340533.211,37.598,22.461,43.457,32.715,35.156,0
1583340533.215,37.598,20.996,44.434,31.250,23.926,0
1583340533.219,52.734,23.438,42.480,34.668,20.996,0
1583340533.223,52.734,20.996,41.504,33.203,37.598,0
1583340533.227,34.668,20.996,41.016,27.344,24.902,0
1583340533.231,29.785,21.973,37.109,22.461,18.555,0
1583340533.234,47.363,25.391,36.621,26.367,18.555,0
1583340533.238,54.688,25.391,37.109,29.785,22.949,0
1583340533.242,36.621,24.902,39.551,25.879,14.648,0
1583340533.246,23.926,27.344,39.062,23.926,-23.438,0
1583340533.250,33.203,25.879,33.203,20.508,8.301,0
1583340533.247,49.805,24.902,33.691,20.020,52.734,0
1583340533.251,40.527,27.344,35.645,19.043,12.207,0
1583340533.255,20.996,28.320,36.133,22.461,7.812,0
1583340533.259,26.367,25.879,39.062,24.902,4.883,0
1583340533.263,44.434,25.391,39.551,22.461,7.324,0
1583340533.267,43.945,28.320,39.551,29.297,12.207,0
1583340533.271,29.785,29.297,41.992,28.809,-0.977,0
1583340533.274,31.250,29.785,40.039,26.367,9.277,0
1583340533.278,47.363,33.203,40.039,27.832,-8.301,0
1583340533.282,54.199,33.691,40.039,24.902,-19.043,0
1583340533.286,38.574,29.297,39.551,24.902,-2.441,0
1583340533.290,32.227,28.320,41.992,26.367,-2.930,0
1583340533.307,52.734,30.762,41.992,32.227,2.930,0
1583340533.311,61.523,30.273,44.434,34.668,-4.395,0
1583340533.315,41.992,29.785,44.434,27.344,-6.348,0
1583340533.319,29.297,28.320,42.480,21.484,-7.324,0
1583340533.323,42.969,26.855,45.410,20.996,-38.574,0
1583340533.327,55.176,29.297,46.387,21.484,-63.965,0
1583340533.331,45.410,32.227,42.969,20.996,-65.430,0
1583340533.334,29.785,32.715,42.480,15.137,-66.406,0
1583340533.338,36.621,28.320,41.992,13.184,-46.387,0
1583340533.342,53.223,27.344,38.574,15.625,-12.695,0
1583340533.346,52.734,31.250,39.551,19.043,-5.371,0
1583340533.350,34.668,32.715,41.992,23.438,-36.621,0
1583340533.347,29.785,29.297,38.574,18.555,-57.129,0
1583340533.351,48.828,27.344,36.133,16.602,-34.668,0
1583340533.355,54.199,28.809,37.598,17.578,-6.348,0
1583340533.359,38.086,26.855,38.574,14.160,-16.602,0
1583340533.363,30.762,28.320,39.062,16.113,-15.625,0
1583340533.367,44.922,29.785,37.109,19.531,-7.812,0
1583340533.371,57.129,28.809,37.598,20.996,-7.324,0
1583340533.374,46.875,32.227,37.598,19.043,-0.488,0
1583340533.378,38.574,32.227,36.621,19.531,-11.719,0
1583340533.382,51.758,30.762,41.504,26.855,-37.109,0
1583340533.386,69.336,28.320,45.898,28.809,-41.504,0
1583340533.390,62.500,27.344,43.457,25.391,-16.113,0
1583340533.387,41.504,29.785,42.480,28.320,-18.066,0
1583340533.391,41.016,28.809,41.992,30.273,-15.137,0
1583340533.395,57.617,28.809,41.016,28.809,1.465,0
1583340533.399,54.199,29.297,42.480,25.391,7.324,0
1583340533.403,29.785,26.367,41.992,18.066,10.254,0
1583340533.407,22.949,28.809,43.945,16.602,-5.859,0
1583340533.411,42.969,28.320,41.504,20.508,-12.207,0
1583340533.414,51.270,24.902,39.551,23.438,5.371,0
1583340533.418,30.273,27.344,42.969,17.578,-18.555,0
1583340533.422,13.184,23.926,42.480,8.301,-21.973,0
1583340533.426,26.367,22.461,37.598,9.766,-11.719,0
1583340533.430,38.574,23.926,33.203,11.719,6.348,0
1583340533.447,25.391,26.855,33.203,11.230,20.508,0
1583340533.451,8.789,31.250,33.203,9.277,-16.602,0
1583340533.455,18.555,29.785,34.180,7.812,12.695,0
1583340533.459,34.668,29.785,39.062,11.230,17.090,0
1583340533.463,24.902,30.273,39.062,8.301,9.277,0
1583340533.467,10.742,30.762,36.621,4.395,15.625,0
1583340533.471,16.113,31.250,39.062,9.277,16.113,0
1583340533.474,34.668,31.250,39.062,8.301,-15.137,0
1583340533.478,33.691,31.738,38.574,6.836,-1.465,0
1583340533.482,15.625,30.762,42.969,6.836,-10.254,0
1583340533.486,11.230,28.809,41.504,5.859,-20.508,0
1583340533.490,29.785,32.227,40.039,11.719,13.184,0
1583340533.487,39.551,33.203,39.062,12.207,19.043,0
1583340533.491,22.461,30.762,37.109,7.324,22.949,0
1583340533.495,13.672,32.715,39.551,8.301,-5.859,0
1583340533.499,26.855,34.180,41.504,11.230,-20.996,0
1583340533.503,41.992,34.668,44.922,21.973,1.465,0
1583340533.507,37.598,33.203,48.340,24.414,-7.812,0
1583340533.511,24.902,32.227,43.945,18.066,-14.160,0
1583340533.514,29.785,29.297,41.504,20.508,17.578,0
1583340533.518,41.504,23.926,41.504,20.996,33.691,0
1583340533.522,39.062,30.762,39.062,19.043,34.668,0
1583340533.526,19.531,36.133,39.551,11.230,-9.766,0
1583340533.530,16.602,32.227,35.156,8.301,-12.207,0
1583340533.527,36.621,29.785,33.691,16.602,30.762,0
1583340533.531,41.504,31.738,38.086,17.578,46.875,0
1583340533.535,23.926,33.691,39.062,16.602,53.223,0
1583340533.539,13.672,36.133,39.551,17.090,21.973,0
1583340533.543,29.785,35.156,40.527,16.113,28.809,0
1583340533.547,40.527,35.156,41.504,16.113,47.363,0
1583340533.551,21.973,32.227,41.016,9.277,10.254,0
1583340533.554,12.695,34.180,39.551,5.859,10.742,0
1583340533.558,27.832,38.086,38.086,8.789,19.043,0
1583340533.562,38.574,34.180,37.598,7.324,3.906,0
1583340533.566,31.250,34.180,38.574,9.766,14.648,0
1583340533.570,17.578,35.156,36.133,9.766,4.395,0
1583340533.587,19.531,31.738,35.645,10.742,22.949,0
1583340533.591,34.180,32.227,37.598,10.742,-0.488,0
1583340533.595,34.180,31.738,37.109,8.789,-11.719,0
1583340533.599,18.555,31.250,37.598,9.766,31.250,0
1583340533.603,19.043,31.738,39.551,12.207,23.438,0
1583340533.607,38.086,30.762,38.574,18.066,-1.465,0
1583340533.611,41.016,31.738,38.086,17.578,-15.625,0
1583340533.614,23.926,30.273,37.598,14.160,-14.160,0
1583340533.618,21.484,28.809,39.551,17.578,0.000,0
1583340533.622,40.039,32.715,44.922,18.066,0.000,0
1583340533.626,52.246,32.715,40.527,18.066,27.832,0
1583340533.630,39.062,32.715,43.945,16.602,25.391,0
1583340533.627,23.438,31.738,42.969,11.230,2.930,0
1583340533.631,32.227,29.297,37.598,13.672,28.320,0
1583340533.635,50.781,31.738,42.480,19.531,13.184,0
1583340533.639,41.016,30.273,39.551,16.602,3.906,0
1583340533.643,18.066,28.320,42.969,13.184,-11.230,0
1583340533.647,20.508,30.273,48.828,13.184,-41.016,0
1583340533.651,36.621,27.832,44.922,13.672,-21.973,0
1583340533.654,35.645,26.367,40.527,11.230,9.766,0
1583340533.658,23.926,27.344,38.574,8.301,23.438,0
1583340533.662,20.508,30.762,38.574,9.766,14.160,0
1583340533.666,33.691,28.809,39.062,8.789,2.930,0
1583340533.670,44.434,28.809,36.621,8.789,19.043,0
1583340533.667,31.250,35.156,38.086,10.254,11.719,0
1583340533.671,17.578,34.668,39.551,9.277,5.859,0
1583340533.675,27.832,33.691,42.480,13.672,12.695,0
1583340533.679,45.898,31.250,45.410,20.996,20.020,0
1583340533.683,43.945,30.762,40.039,26.367,14.160,0
1583340533.687,31.738,32.227,39.062,31.250,1.953,0
1583340533.691,24.902,25.391,45.898,21.484,-3.418,0
1583340533.694,29.297,22.461,45.898,3.418,12.695,0
1583340533.698,27.344,23.438,47.363,0.000,43.945,0
1583340533.702,8.301,24.414,52.246,3.418,20.996,0
1583340533.706,-2.441,23.438,53.711,-2.441,-5.371,0
1583340533.710,9.766,20.996,54.199,-7.812,2.930,0
1583340533.727,17.578,20.996,50.781,-8.301,37.109,0
1583340533.731,2.930,20.020,50.781,-6.836,25.391,0
1583340533.735,-2.441,18.066,46.875,-4.395,4.883,0
1583340533.739,20.508,22.949,41.504,3.418,20.508,0
1583340533.743,37.109,27.344,43.945,14.160,32.227,0
1583340533.747,26.367,26.855,46.387,18.555,9.277,0
1583340533.751,13.672,28.809,47.852,13.672,-16.602,0
1583340533.754,24.902,28.809,45.410,10.254,-14.160,0
1583340533.758,40.039,23.438,42.480,13.184,39.062,0
1583340533.762,34.180,24.414,41.504,16.113,71.289,0
1583340533.766,19.531,28.320,40.527,17.090,24.414,0
1583340533.770,21.973,26.855,39.551,15.137,2.930,0
1583340533.787,39.551,27.344,38.574,16.602,45.410,0
1583340533.791,39.062,28.809,41.016,19.531,57.129,0
1583340533.795,24.414,27.344,43.457,20.020,37.598,0
1583340533.799,23.438,27.832,43.457,19.043,28.320,0
1583340533.803,40.039,27.832,41.016,20.996,14.648,0
1583340533.807,44.434,28.320,41.504,20.996,22.949,0
1583340533.811,27.344,27.344,40.527,12.207,16.602,0
1583340533.814,18.555,28.320,39.062,11.230,9.766,0
1583340533.818,31.738,28.809,39.551,7.324,29.297,0
1583340533.822,42.969,29.785,41.992,5.371,25.879,0
1583340533.826,32.227,28.809,38.086,8.789,14.648,0
1583340533.830,16.113,25.879,37.598,2.930,19.531,0
1583340533.808,26.367,27.344,43.457,8.301,0.977,0
1583340533.812,45.410,26.855,40.039,15.137,20.020,0
1583340533.816,38.574,28.320,39.551,13.184,16.113,0
1583340533.820,21.973,29.785,38.086,12.207,-2.441,0
1583340533.824,30.762,26.855,37.109,13.672,48.828,0
1583340533.828,46.387,25.879,41.504,16.602,30.762,0
1583340533.832,41.992,27.344,39.551,12.207,30.762,0
1583340533.835,26.367,32.715,42.480,13.672,18.066,0
1583340533.839,24.902,34.180,43.945,18.066,-3.418,0
1583340533.843,42.480,28.809,39.551,19.043,28.320,0
1583340533.847,48.828,29.297,36.621,22.461,35.156,0
1583340533.851,36.133,32.227,39.551,20.508,17.578,0
1583340533.867,26.367,32.715,42.969,22.461,-7.324,0
1583340533.871,35.645,32.227,40.527,18.555,-13.672,0
1583340533.875,45.410,28.809,38.086,11.719,-0.977,0
1583340533.879,35.156,25.391,39.062,15.137,5.371,0
1583340533.883,23.438,28.320,43.945,14.648,-15.625,0
1583340533.887,33.203,31.250,47.363,21.973,-16.602,0
1583340533.891,49.805,31.250,45.898,25.391,-11.719,0
1583340533.894,45.898,29.785,45.410,20.020,-5.859,0
1583340533.898,25.391,29.297,44.922,20.996,1.465,0
1583340533.902,24.902,27.832,42.969,20.020,12.695,0
1583340533.906,41.992,26.367,42.969,21.484,29.785,0
1583340533.910,38.086,27.344,44.434,19.043,5.859,0
1583340533.907,16.602,27.344,44.434,14.160,-1.953,0
1583340533.911,15.137,29.297,42.969,13.184,26.367,0
1583340533.915,31.738,27.832,42.480,9.766,43.457,0
1583340533.919,35.645,29.785,41.992,6.348,12.695,0
1583340533.923,21.484,34.180,42.969,6.836,-1.465,0
1583340533.927,18.555,30.273,42.480,15.625,0.488,0
1583340533.931,35.645,31.250,41.992,20.508,-2.441,0
1583340533.934,39.062,40.039,37.598,3.906,27.832,0
1583340533.938,22.949,39.551,32.227,-12.207,44.434,0
1583340533.942,20.508,35.645,32.715,-0.488,12.695,0
1583340533.946,40.039,35.645,29.785,10.254,31.250,0
1583340533.950,57.129,37.598,24.414,4.395,40.039,0
1583340533.948,49.316,40.527,26.367,-0.488,9.766,0
1583340533.952,32.715,41.504,27.832,3.418,28.320,0
1583340533.956,37.109,44.922,29.785,8.789,-8.789,0
1583340533.960,49.805,39.551,31.738,9.277,-22.461,0
1583340533.964,47.852,33.691,28.320,6.836,19.043,0
1583340533.968,29.785,37.598,30.762,7.324,5.371,0
1583340533.972,20.508,33.691,31.738,9.766,11.719,0
1583340533.975,37.598,31.250,35.645,14.160,10.742,0
1583340533.979,50.781,31.250,39.551,15.625,14.648,0
1583340533.983,38.574,29.785,35.156,16.602,21.973,0
1583340533.987,25.879,33.203,32.715,16.602,1.953,0
1583340533.991,39.062,34.180,33.203,20.020,23.926,0
1583340534.007,54.199,33.203,36.133,25.879,8.789,0
1583340534.011,42.480,34.180,38.086,19.531,-11.230,0
1583340534.015,30.273,33.203,37.598,18.555,18.066,0
1583340534.019,38.086,32.227,36.621,24.902,17.090,0
1583340534.023,53.711,34.180,38.574,25.391,20.020,0
1583340534.027,49.805,36.133,40.527,28.320,3.906,0
1583340534.031,26.367,32.227,40.527,23.438,-24.902,0
1583340534.034,21.973,28.320,39.551,18.555,17.578,0
1583340534.038,44.434,32.227,41.504,26.367,7.812,0
1583340534.042,48.340,30.762,41.992,23.926,7.812,0
1583340534.046,29.785,27.832,40.039,20.508,28.320,0
1583340534.050,23.926,27.344,43.457,22.949,2.441,0
1583340534.048,43.945,23.926,43.945,23.926,25.391,0
1583340534.052,55.664,25.879,42.969,25.879,25.391,0
1583340534.056,39.551,30.273,41.016,25.391,-1.953,0
1583340534.060,25.391,30.273,42.480,24.902,7.324,0
1583340534.064,34.180,28.809,40.527,23.438,15.625,0
1583340534.068,50.781,29.785,40.039,24.902,32.227,0
1583340534.072,44.922,35.645,43.457,25.879,25.879,0
1583340534.075,24.902,36.133,43.457,21.973,-23.926,0
1583340534.079,26.855,32.227,44.434,24.414,-15.625,0
1583340534.083,43.945,35.645,49.805,25.879,-2.441,0
1583340534.087,43.945,36.133,46.875,19.531,1.953,0
1583340534.091,29.785,31.250,43.457,20.020,-4.395,0
1583340534.088,25.391,32.227,46.875,21.973,-21.973,0
1583340534.092,52.734,34.180,45.410,29.297,-7.324,0
1583340534.096,74.707,38.574,42.480,41.992,-10.254,0
1583340534.100,51.758,34.180,46.387,39.062,-26.855,0
1583340534.104,23.438,28.320,48.340,21.484,-41.504,0
1583340534.108,27.344,25.391,51.270,13.672,-34.668,0
1583340534.112,42.969,20.508,55.176,18.555,-19.043,0
1583340534.115,35.645,21.484,58.105,16.602,-48.340,0
1583340534.119,18.555,22.461,58.105,8.789,-37.598,0
1583340534.123,26.855,23.926,56.641,11.719,-27.832,0
1583340534.127,42.969,22.949,58.105,14.648,-30.273,0
1583340534.131,35.645,20.996,53.711,13.672,-19.531,0
1583340534.148,20.508,23.438,50.781,17.578,-68.359,0
1583340534.152,22.461,23.438,48.340,15.625,-77.637,0
1583340534.156,37.109,24.902,45.898,14.160,-53.223,0
1583340534.160,38.574,25.879,46.387,14.648,-43.457,0
1583340534.164,21.973,25.391,44.922,12.207,-40.039,0
1583340534.168,19.043,28.320,48.828,16.602,-58.594,0
1583340534.172,38.086,29.785,49.316,14.648,-55.176,0
1583340534.175,48.340,27.344,42.969,11.719,-22.461,0
1583340534.179,38.574,30.273,43.945,15.625,13.184,0
1583340534.183,28.809,32.715,45.898,13.184,-5.859,0
1583340534.187,33.691,31.738,42.969,14.648,-8.789,0
1583340534.191,46.875,29.785,40.039,18.066,14.160,0
1583340534.188,41.992,25.879,39.062,13.672,13.184,0
1583340534.192,24.414,26.855,38.086,15.625,-17.578,0
1583340534.196,30.762,26.855,37.598,19.531,-25.879,0
1583340534.200,51.758,28.809,41.504,23.926,8.789,0
1583340534.204,45.410,30.762,44.434,24.414,14.160,0
1583340534.208,24.902,26.367,39.551,17.090,-6.348,0
1583340534.212,20.508,22.949,37.598,18.066,-11.230,0
1583340534.215,41.504,23.926,41.016,24.902,-9.277,0
1583340534.219,56.641,28.320,42.969,27.344,5.371,0
1583340534.223,36.621,32.715,44.434,21.484,1.953,0
1583340534.227,24.414,32.227,41.992,19.043,-26.855,0
1583340534.231,41.016,31.250,41.016,24.902,-0.488,0
1583340534.227,51.758,30.762,41.992,27.344,20.020,0
1583340534.231,35.645,33.691,41.992,25.391,15.137,0
1583340534.235,20.020,36.621,41.016,20.508,-7.324,0
1583340534.239,31.250,32.227,37.598,16.113,-14.648,0
1583340534.243,46.387,30.762,41.992,21.484,9.766,0
1583340534.247,36.133,33.691,45.410,20.996,-14.648,0
1583340534.251,17.578,35.156,39.551,19.531,-13.184,0
1583340534.254,21.973,35.156,40.527,17.578,-23.926,0
1583340534.258,37.598,33.203,42.969,17.578,-32.227,0
1583340534.262,34.668,32.715,42.969,16.602,9.766,0
1583340534.266,18.066,32.715,44.434,12.207,-1.953,0
1583340534.270,16.113,32.227,41.992,15.625,7.812,0
1583340534.287,31.250,32.715,41.504,10.742,16.113,0
1583340534.291,38.086,30.762,45.898,9.766,9.766,0
1583340534.295,29.297,34.668,47.852,18.555,2.930,0
1583340534.299,19.043,35.156,44.434,14.648,9.277,0
1583340534.303,29.785,32.715,41.016,13.184,32.227,0
1583340534.307,43.945,34.668,42.969,16.602,13.672,0
1583340534.311,30.762,31.250,45.410,9.277,0.977,0
1583340534.314,16.602,24.902,45.898,8.301,12.695,0
1583340534.318,31.738,25.879,41.016,12.695,9.277,0
1583340534.322,50.781,26.367,40.039,15.625,70.312,0
1583340534.326,45.898,30.273,47.852,20.996,58.105,0
1583340534.330,26.855,36.133,46.875,17.090,-2.930,0
1583340534.327,33.203,31.250,40.039,18.066,15.625,0
1583340534.331,65.430,30.273,39.551,34.180,27.832,0
1583340534.335,53.223,24.414,44.434,29.297,31.250,0
1583340534.339,15.137,20.508,49.316,10.254,28.320,0
1583340534.343,16.602,25.391,51.270,13.672,8.301,0
1583340534.347,34.180,23.926,49.805,18.555,19.531,0
1583340534.351,38.574,25.391,47.363,15.137,58.105,0
1583340534.354,21.484,25.391,46.387,11.230,49.805,0
1583340534.358,9.766,24.902,41.992,6.836,18.066,0
1583340534.362,29.297,27.832,43.457,7.812,-7.812,0
1583340534.366,47.852,22.949,45.898,10.254,16.602,0
1583340534.370,38.086,23.438,44.434,12.695,45.410,0
1583340534.367,23.438,26.855,46.875,15.137,20.996,0
1583340534.371,30.762,28.320,48.828,17.090,15.137,0
1583340534.375,45.898,31.250,47.363,19.043,34.180,0
1583340534.379,43.457,32.227,44.922,17.578,23.926,0
1583340534.383,27.832,32.715,42.480,16.113,17.578,0
1583340534.387,27.832,29.785,40.527,17.578,19.043,0
1583340534.391,42.969,25.879,39.551,18.066,20.996,0
1583340534.394,42.969,25.879,42.969,15.137,14.648,0
1583340534.398,25.879,26.367,43.945,10.742,-26.855,0
1583340534.402,20.508,25.879,43.945,8.789,-7.812,0
1583340534.406,39.062,30.273,44.922,14.160,12.207,0
1583340534.410,47.363,33.691,43.945,16.602,31.250,0
1583340534.427,27.832,28.320,44.434,11.719,13.184,0
1583340534.431,17.578,23.926,43.457,12.695,-8.789,0
1583340534.435,33.691,26.855,41.504,16.113,9.277,0
1583340534.439,51.270,29.785,41.504,16.602,36.133,0
1583340534.443,42.480,35.645,40.527,15.625,34.180,0
1583340534.447,24.902,38.086,41.016,16.602,-24.902,0
1583340534.451,29.297,34.180,39.062,15.625,-38.086,0
1583340534.454,49.316,31.738,38.086,20.996,7.324,0
1583340534.458,45.410,30.273,40.039,24.902,22.461,0
1583340534.462,23.926,31.738,37.598,19.043,24.414,0
1583340534.466,23.438,35.645,41.504,21.484,-0.977,0
1583340534.470,41.504,33.691,44.434,22.949,-20.020,0
1583340534.466,45.898,29.297,40.039,17.578,29.785,0
1583340534.470,25.879,28.809,39.062,17.090,55.664,0
1583340534.474,16.113,29.297,39.062,13.184,16.113,0
1583340534.478,29.297,29.785,41.992,12.207,-2.930,0
1583340534.482,41.016,29.785,46.875,16.113,18.066,0
1583340534.486,23.438,29.297,48.340,14.160,4.883,0
1583340534.490,6.348,28.320,43.945,11.230,6.348,0
1583340534.493,20.020,29.785,41.992,11.719,15.625,0
1583340534.497,31.738,28.809,44.434,11.230,6.348,0
1583340534.501,23.926,29.785,44.922,7.324,-9.766,0
1583340534.505,10.742,28.809,41.992,2.930,13.672,0
1583340534.509,13.184,26.367,41.504,6.348,29.297,0
1583340534.507,33.203,27.344,39.551,8.789,36.133,0
1583340534.511,32.715,30.273,40.527,13.184,34.180,0
1583340534.515,15.625,33.203,41.992,10.742,2.441,0
1583340534.519,14.648,32.227,41.016,4.395,-36.133,0
1583340534.523,32.227,29.785,41.016,10.254,-21.973,0
1583340534.527,41.504,29.785,36.133,15.137,2.441,0
1583340534.531,25.391,32.227,34.180,11.230,-7.324,0
1583340534.534,19.043,32.227,40.527,9.766,-12.695,0
1583340534.538,34.668,31.250,42.480,12.695,-4.883,0
1583340534.542,48.340,35.156,42.480,15.625,6.836,0
1583340534.546,35.645,36.133,41.504,14.160,8.301,0
1583340534.550,16.113,33.691,41.504,17.090,15.137,0
1583340534.567,22.461,33.691,40.527,16.113,0.000,0
1583340534.571,40.527,30.762,37.598,11.230,-2.441,0
1583340534.575,36.133,28.809,39.551,16.113,23.926,0
1583340534.579,17.578,29.785,39.062,17.578,18.066,0
1583340534.583,21.973,29.297,38.086,15.625,13.672,0
1583340534.587,37.598,30.762,42.969,13.672,2.930,0
1583340534.591,35.156,30.273,41.016,9.766,8.789,0
1583340534.594,21.973,25.391,39.551,9.277,43.457,0
1583340534.598,22.949,24.414,39.551,11.719,18.066,0
1583340534.602,47.363,28.320,35.645,18.555,5.371,0
1583340534.606,50.781,31.250,37.109,15.137,-1.953,0
1583340534.610,20.020,30.762,37.109,-0.488,-27.832,0
1583340534.627,7.324,31.250,37.109,-3.906,-13.672,0
1583340534.631,19.043,34.668,39.551,-0.977,-1.465,0
1583340534.635,28.809,32.715,39.551,-1.953,25.879,0
1583340534.639,23.926,32.227,41.992,1.465,5.859,0
1583340534.643,10.742,32.715,41.016,3.906,-7.812,0
1583340534.647,17.578,31.738,39.062,3.906,15.625,0
1583340534.651,35.645,32.715,38.086,6.348,11.719,0
1583340534.654,29.785,30.273,37.598,5.371,34.180,0
1583340534.658,11.719,30.762,43.457,4.883,0.977,0
1583340534.662,16.602,29.785,42.969,7.812,-5.371,0
1583340534.666,38.086,24.414,36.133,8.789,34.180,0
1583340534.670,41.992,28.809,39.062,13.184,0.488,0
1583340534.667,25.391,30.762,41.504,16.602,-10.742,0
1583340534.671,18.555,28.320,41.016,15.137,8.789,0
1583340534.675,35.645,32.227,42.480,15.137,13.672,0
1583340534.679,50.781,32.227,46.387,19.531,12.207,0
1583340534.683,35.645,32.715,47.363,21.484,-18.555,0
1583340534.687,20.996,32.227,42.969,18.066,-10.254,0
1583340534.691,34.180,32.227,43.945,20.996,10.742,0
1583340534.694,46.387,32.715,45.410,19.043,12.695,0
1583340534.698,41.504,31.738,41.992,11.719,4.395,0
1583340534.702,24.902,33.203,41.504,11.719,-22.461,0
1583340534.706,26.367,32.715,40.039,15.625,-8.301,0
1583340534.710,43.945,28.320,38.086,20.020,14.160,0
1583340534.707,40.527,31.250,39.062,17.578,-7.812,0
1583340534.711,23.926,30.273,39.062,10.742,-1.953,0
1583340534.715,23.438,24.902,40.039,11.719,-0.977,0
1583340534.719,36.621,26.855,41.016,17.090,-4.395,0
1583340534.723,43.457,33.203,42.969,21.484,29.297,0
1583340534.727,25.879,36.133,45.410,19.043,15.625,0
1583340534.731,12.695,30.273,40.039,13.184,5.859,0
1583340534.734,32.715,27.344,37.598,14.648,23.438,0
1583340534.738,47.852,28.320,41.992,17.090,20.508,0
1583340534.742,34.180,31.738,42.480,15.625,25.879,0
1583340534.746,20.996,34.668,37.598,11.230,13.184,0
1583340534.750,34.180,35.645,36.133,11.719,27.832,0
1583340534.747,53.711,37.598,39.062,14.648,48.828,0
1583340534.751,45.898,37.598,38.574,11.230,26.367,0
1583340534.755,28.809,36.621,36.133,8.789,23.926,0
1583340534.759,35.645,35.645,37.598,7.324,-7.812,0
1583340534.763,55.664,31.250,34.180,1.465,-1.465,0
1583340534.767,55.664,33.691,36.133,8.301,42.480,0
1583340534.771,32.227,36.133,41.992,15.625,29.297,0
1583340534.774,22.949,32.227,39.062,12.695,19.531,0
1583340534.778,37.109,36.621,40.039,16.113,-12.207,0
1583340534.782,41.016,32.227,42.480,15.137,2.930,0
1583340534.786,23.926,29.297,41.992,12.695,22.461,0
1583340534.790,17.090,32.227,41.504,17.090,-6.836,0
1583340534.827,46.387,30.273,39.551,31.250,-10.254,0
1583340534.831,60.059,29.297,43.945,40.039,8.789,0
1583340534.835,26.855,23.438,52.246,21.484,5.371,0
1583340534.839,-1.953,20.508,53.223,9.277,4.395,0
1583340534.843,6.836,19.531,53.711,10.742,-4.395,0
1583340534.847,28.320,18.555,54.199,15.625,-13.184,0
1583340534.851,23.926,19.531,54.199,18.066,-3.418,0
1583340534.854,-10.742,16.113,56.641,-4.883,-32.227,0
1583340534.858,-14.160,10.742,52.734,-7.812,-25.879,0
1583340534.862,13.184,10.254,52.246,9.277,16.113,0
1583340534.866,16.113,14.648,54.688,10.254,44.922,0
1583340534.870,4.395,18.555,49.805,9.277,18.555,0
1583340534.848,7.324,21.973,43.945,12.695,-10.742,0
1583340534.852,26.367,21.973,46.387,19.531,-0.977,0
1583340534.856,34.180,21.484,45.898,24.902,32.227,0
1583340534.860,21.973,23.438,45.410,21.484,31.250,0
1583340534.864,15.625,24.414,48.340,22.949,2.930,0
1583340534.868,34.668,26.367,47.852,27.832,-1.953,0
1583340534.872,46.875,26.367,44.922,25.879,21.973,0
1583340534.875,33.691,27.344,44.922,23.438,41.016,0
1583340534.879,17.090,27.344,44.434,16.113,13.672,0
1583340534.883,21.484,27.344,45.410,11.719,8.789,0
1583340534.887,36.133,28.809,45.410,10.742,26.855,0
1583340534.891,31.250,26.855,42.480,6.348,16.602,0
1583340534.888,13.672,27.832,43.457,7.324,0.977,0
1583340534.892,18.066,30.273,44.922,12.207,20.508,0
1583340534.896,37.598,28.320,42.969,18.066,19.531,0
1583340534.900,35.156,26.855,41.016,16.602,-6.348,0
1583340534.904,21.484,27.344,40.527,11.230,-28.809,0
1583340534.908,20.508,29.297,41.016,13.672,-2.930,0
1583340534.912,37.598,30.762,40.527,18.066,0.488,0
1583340534.915,50.293,27.832,39.062,21.484,0.977,0
1583340534.919,37.109,30.762,42.969,19.531,-16.113,0
1583340534.923,27.344,35.645,47.852,13.184,-45.410,0
1583340534.927,42.969,31.250,44.922,18.066,-38.574,0
1583340534.931,57.617,27.832,42.969,26.855,-18.066,0
1583340534.947,44.922,28.809,43.945,25.391,-9.277,0
1583340534.951,27.344,29.297,46.875,20.508,-39.551,0
1583340534.955,31.250,30.762,45.898,20.020,-59.570,0
1583340534.959,48.828,28.809,40.527,18.555,-18.066,0
1583340534.963,48.340,26.367,41.016,19.531,-14.160,0
1583340534.967,29.297,30.762,42.969,21.973,-24.902,0
1583340534.971,27.344,30.762,42.480,19.531,-22.949,0
1583340534.974,42.969,27.832,41.992,14.648,-48.340,0
1583340534.978,46.387,25.391,34.668,12.695,-18.555,0
1583340534.982,31.250,26.367,35.156,14.648,19.043,0
1583340534.986,24.414,28.809,41.016,12.695,3.418,0
1583340534.990,36.621,30.273,44.434,14.160,0.488,0
1583340534.987,41.504,29.297,45.410,14.648,18.555,0
1583340534.991,27.344,28.320,42.969,12.207,20.996,0
1583340534.995,16.113,28.809,40.039,12.695,-10.742,0
1583340534.999,36.621,28.320,38.574,23.438,-4.883,0
1583340535.003,65.918,36.133,39.062,35.645,17.090,0
1583340535.007,52.246,45.410,35.645,23.438,-13.184,0
1583340535.011,24.414,42.480,29.297,2.930,-19.531,0
1583340535.014,30.762,38.574,27.344,3.418,8.301,0
1583340535.018,44.434,41.504,30.273,5.859,41.016,0
1583340535.022,36.621,47.363,33.691,4.395,6.348,0
1583340535.026,20.020,46.875,32.715,0.488,-45.898,0
1583340535.030,16.602,42.480,27.832,-3.418,-37.109,0
1583340535.027,30.273,40.039,27.344,0.977,-29.785,0
1583340535.031,36.133,39.062,24.902,0.977,-0.488,0
1583340535.035,21.973,41.504,24.902,3.906,4.883,0
1583340535.039,8.789,40.039,30.762,4.395,-36.621,0
1583340535.043,20.996,35.156,31.738,1.465,-37.109,0
1583340535.047,35.645,35.645,35.156,8.789,-20.508,0
1583340535.051,26.855,38.086,38.574,11.230,14.160,0
1583340535.054,16.113,39.062,34.180,12.695,28.809,0
1583340535.058,25.391,37.598,31.738,13.672,3.906,0
1583340535.062,43.457,36.133,36.133,15.625,10.254,0
1583340535.066,41.504,34.668,35.156,17.090,47.852,0
1583340535.070,23.926,36.133,31.250,11.719,31.250,0
1583340535.087,22.461,35.645,32.715,10.742,12.695,0
1583340535.091,35.645,35.156,33.691,10.254,19.531,0
1583340535.095,41.016,36.621,32.715,7.812,6.348,0
1583340535.099,28.809,35.156,32.227,8.789,11.230,0
1583340535.103,18.066,32.715,35.645,9.277,20.020,0
1583340535.107,36.621,33.691,40.039,14.648,25.391,0
1583340535.111,47.852,34.668,40.527,16.602,11.719,0
1583340535.114,27.344,31.738,37.598,5.371,-7.812,0
1583340535.118,15.625,29.297,33.203,4.395,2.441,0
1583340535.122,32.227,31.250,38.086,12.207,20.996,0
1583340535.126,45.898,32.227,40.039,12.207,42.969,0
1583340535.130,35.645,36.133,37.598,11.719,38.574,0
1583340535.147,18.555,36.133,37.598,6.836,0.977,0
1583340535.151,24.902,35.156,35.645,6.836,-13.672,0
1583340535.155,47.852,36.621,37.109,12.695,37.109,0
1583340535.159,45.898,36.133,40.527,13.184,75.684,0
1583340535.163,23.438,35.645,44.922,14.160,14.160,0
1583340535.167,26.855,35.645,45.410,17.090,-20.508,0
1583340535.171,48.340,34.180,40.527,20.020,13.184,0
1583340535.174,49.805,32.715,38.086,20.996,24.902,0
1583340535.178,34.180,33.203,41.992,20.508,10.742,0
1583340535.182,28.809,34.668,42.969,22.461,15.625,0
1583340535.186,44.922,35.645,41.016,21.484,3.906,0
1583340535.190,54.688,30.273,37.109,16.113,0.000,0
1583340535.188,39.551,29.785,39.062,16.602,10.254,0
1583340535.192,25.879,29.297,41.992,17.578,1.465,0
1583340535.196,35.156,27.832,42.480,19.531,0.488,0
1583340535.200,50.293,30.762,44.922,21.973,31.738,0
1583340535.204,40.039,31.738,41.992,19.531,32.227,0
1583340535.208,21.484,31.250,41.992,17.578,-7.812,0
1583340535.212,29.785,30.762,44.434,17.578,-11.230,0
1583340535.215,58.594,33.691,41.992,26.855,0.000,0
1583340535.219,62.988,33.691,41.504,31.250,-10.254,0
1583340535.223,33.203,26.855,44.434,20.020,-15.625,0
1583340535.227,17.090,25.391,48.828,9.766,-2.441,0
1583340535.231,22.461,25.879,50.781,1.953,17.578,0
1583340535.229,27.344,22.949,54.688,7.324,8.789,0
1583340535.233,21.484,23.438,53.223,14.648,-3.906,0
1583340535.237,15.137,26.855,48.340,9.766,3.418,0
1583340535.241,20.020,25.391,49.805,4.395,12.207,0
1583340535.245,27.832,26.855,52.734,3.906,4.395,0
1583340535.249,18.066,28.809,53.711,7.324,-24.414,0
1583340535.253,5.859,25.879,50.781,4.395,-41.504,0
1583340535.256,17.090,24.414,49.316,3.906,-24.902,0
1583340535.260,35.156,26.367,49.316,10.742,-21.484,0
1583340535.264,31.250,29.297,49.805,12.695,0.000,0
1583340535.268,15.137,29.785,49.316,12.695,-7.324,0
1583340535.272,20.996,31.738,44.922,14.160,-37.598,0
1583340535.267,38.086,30.273,41.992,13.672,-15.625,0
1583340535.271,37.598,30.762,43.945,13.184,0.000,0
1583340535.275,21.484,34.180,48.340,15.137,10.742,0
1583340535.279,18.555,32.715,49.805,18.066,-0.488,0
1583340535.283,37.598,31.738,46.387,21.973,-8.789,0
1583340535.287,44.922,31.738,44.922,22.949,20.020,0
1583340535.291,29.785,33.691,45.410,17.578,-10.254,0
1583340535.294,23.926,33.203,42.969,16.113,-40.527,0
1583340535.298,38.086,32.227,41.992,21.484,-12.207,0
1583340535.302,48.340,34.180,42.480,23.438,7.812,0
1583340535.306,36.621,33.203,41.504,14.648,4.395,0
1583340535.310,25.391,30.762,44.434,9.766,6.836,0
1583340535.307,34.180,31.250,46.387,16.602,1.465,0
1583340535.311,49.316,30.273,42.969,23.438,36.621,0
1583340535.315,40.527,29.785,45.898,23.438,38.574,0
1583340535.319,21.973,32.227,45.898,19.531,-28.809,0
1583340535.323,25.879,31.738,43.457,17.578,-36.621,0
1583340535.327,41.016,31.250,45.410,21.973,-28.809,0
1583340535.331,45.410,31.250,43.457,22.461,-4.395,0
1583340535.334,30.762,33.203,43.945,21.484,-4.883,0
1583340535.338,20.020,35.156,45.410,17.578,-24.902,0
1583340535.342,39.551,33.203,40.039,12.207,24.414,0
1583340535.346,51.758,31.738,39.062,18.066,25.879,0
1583340535.350,34.180,32.227,40.527,20.020,7.812,0
1583340535.366,22.461,34.668,41.504,19.531,-1.465,0
1583340535.370,32.715,35.645,47.852,21.484,-18.555,0
1583340535.374,45.410,35.156,47.852,17.578,22.461,0
1583340535.378,32.715,35.156,40.039,12.695,28.320,0
1583340535.382,12.695,31.250,40.527,11.719,5.371,0
1583340535.386,19.531,33.203,43.945,14.648,19.531,0
1583340535.390,35.156,35.645,43.457,17.090,37.109,0
1583340535.393,33.203,30.273,42.969,12.695,38.574,0
1583340535.397,17.090,27.344,39.062,11.230,30.273,0
1583340535.401,15.137,29.297,37.598,18.555,29.297,0
1583340535.405,34.668,29.785,40.039,20.996,46.387,0
1583340535.409,36.621,30.762,42.480,14.160,50.781,0
1583340535.406,19.043,30.273,38.574,8.789,4.395,0
1583340535.410,17.578,28.809,39.062,15.625,-5.859,0
1583340535.414,34.668,27.344,41.992,18.555,20.508,0
1583340535.418,41.016,28.320,38.574,14.648,26.855,0
1583340535.422,27.832,32.227,37.598,12.695,18.555,0
1583340535.426,17.090,31.250,38.574,9.277,26.367,0
1583340535.430,25.391,28.809,36.621,9.277,31.250,0
1583340535.433,38.086,28.320,36.621,12.207,18.066,0
1583340535.437,30.762,24.902,34.668,10.742,18.555,0
1583340535.441,18.555,28.320,37.109,10.742,-12.695,0
1583340535.445,21.973,30.762,38.574,3.906,-20.020,0
1583340535.449,34.668,27.832,28.809,2.441,15.625,0
1583340535.447,36.621,28.809,28.320,10.254,8.301,0
1583340535.451,20.020,25.391,32.715,10.742,-8.301,0
1583340535.455,17.578,25.879,35.645,11.230,-3.906,0
1583340535.459,38.574,29.297,33.691,12.695,21.973,0
1583340535.463,42.480,27.344,36.621,12.207,21.484,0
1583340535.467,21.973,30.762,39.062,10.742,13.184,0
1583340535.471,12.207,33.203,31.738,10.742,4.883,0
1583340535.474,29.297,27.344,31.738,19.531,9.277,0
1583340535.478,48.828,26.367,38.574,27.344,27.344,0
1583340535.482,47.363,33.691,35.645,22.949,23.926,0
1583340535.486,23.438,38.574,33.691,8.301,12.695,0
1583340535.490,16.602,35.156,35.156,-2.930,2.441,0
1583340535.507,32.227,33.203,35.645,0.000,12.695,0
1583340535.511,27.344,30.762,34.180,0.977,27.344,0
1583340535.515,12.207,28.809,32.715,0.977,6.348,0
1583340535.519,16.113,31.250,37.598,7.812,-18.555,0
1583340535.523,33.691,30.273,41.016,9.766,18.066,0
1583340535.527,31.250,31.738,42.480,12.695,29.785,0
1583340535.531,13.672,34.668,47.363,8.789,3.418,0
1583340535.534,18.555,33.691,48.340,6.836,-0.977,0
1583340535.538,43.945,31.738,43.945,20.020,25.391,0
1583340535.542,51.758,32.227,40.039,22.949,24.902,0
1583340535.546,35.645,32.715,38.086,15.625,2.441,0
1583340535.550,30.762,35.645,39.062,15.625,14.160,0
1583340535.547,48.828,36.621,39.062,19.531,12.207,0
1583340535.551,60.547,32.715,34.668,19.531,32.227,0
1583340535.555,54.199,33.203,34.180,17.090,62.988,0
1583340535.559,45.410,38.086,41.016,17.090,24.902,0
1583340535.563,46.875,38.574,47.363,20.508,0.488,0
1583340535.567,60.059,38.574,47.852,25.391,13.184,0
1583340535.571,51.270,38.086,43.945,21.484,16.602,0
1583340535.574,27.832,34.180,41.504,12.207,5.859,0
1583340535.578,24.902,30.762,43.457,13.672,3.906,0
1583340535.582,39.062,32.227,43.457,14.648,15.137,0
1583340535.586,36.621,31.250,38.574,6.836,27.344,0
1583340535.590,18.555,27.832,37.598,5.371,46.387,0
1583340535.587,14.160,28.809,39.551,7.812,40.039,0
1583340535.591,26.367,28.809,40.039,11.719,48.828,0
1583340535.595,37.109,29.785,44.434,13.672,36.133,0
1583340535.599,25.879,25.879,42.969,9.766,12.207,0
1583340535.603,16.113,24.902,43.457,7.324,-1.465,0
1583340535.607,27.344,26.855,42.969,11.230,-5.859,0
1583340535.611,41.504,25.879,36.621,13.184,25.391,0
1583340535.614,30.273,26.855,38.086,8.789,21.484,0
1583340535.618,14.160,29.297,40.039,3.418,-16.602,0
1583340535.622,21.484,27.344,39.062,6.836,-4.883,0
1583340535.626,40.527,25.879,41.992,14.648,19.531,0
1583340535.630,40.527,26.855,44.434,17.090,14.648,0
1583340535.647,25.391,30.762,44.922,19.043,3.906,0
1583340535.651,22.461,29.785,44.922,22.461,-4.395,0
1583340535.655,37.109,27.344,42.969,23.926,14.648,0
1583340535.659,44.434,29.785,42.969,23.926,19.043,0
1583340535.663,33.203,31.738,42.480,23.438,18.066,0
1583340535.667,37.109,33.203,45.410,33.203,-13.184,0
1583340535.671,55.176,35.156,47.363,39.062,-38.086,0
1583340535.674,50.293,27.344,47.363,25.879,16.113,0
1583340535.678,26.367,23.926,53.711,13.184,19.043,0
1583340535.682,9.277,23.926,56.152,11.230,-11.230,0
1583340535.686,19.043,23.926,53.223,13.184,-29.297,0
1583340535.690,34.180,24.414,52.734,11.230,-9.277,0
1583340535.687,24.902,21.973,54.199,6.836,17.090,0
1583340535.691,7.812,21.973,58.105,7.324,4.883,0
1583340535.695,10.254,24.902,58.105,7.324,-3.906,0
1583340535.699,30.273,26.367,54.688,8.789,1.465,0
1583340535.703,30.762,25.879,53.711,10.742,-1.465,0
1583340535.707,16.113,26.367,48.828,9.277,-19.043,0
1583340535.711,20.996,27.344,44.922,13.672,-51.758,0
1583340535.714,35.156,26.367,47.852,15.625,-53.223,0
1583340535.718,37.598,26.367,47.852,15.137,-36.621,0
1583340535.722,27.344,29.785,47.852,16.113,-66.406,0
1583340535.726,20.020,29.297,48.340,13.672,-54.688,0
1583340535.730,37.598,29.297,45.410,17.090,-25.391,0
1583340535.727,52.734,26.855,44.434,19.531,-40.039,0
1583340535.731,39.062,27.344,46.387,17.578,-55.176,0
1583340535.735,24.902,37.598,47.363,18.066,-58.594,0
1583340535.739,35.645,36.133,48.340,18.555,-42.969,0
1583340535.743,49.805,29.297,46.387,20.020,-15.137,0
1583340535.747,41.504,29.785,44.922,20.508,-34.180,0
1583340535.751,27.344,30.762,46.387,20.020,-49.805,0
1583340535.754,30.273,33.203,46.875,20.020,-58.594,0
1583340535.758,45.898,33.691,45.410,18.555,-43.457,0
1583340535.762,47.852,29.297,41.016,20.508,-19.531,0
1583340535.766,33.203,28.809,41.504,19.531,-28.809,0
1583340535.770,30.762,29.785,44.922,20.996,-21.484,0
1583340535.787,46.875,28.809,48.828,26.367,-19.531,0
1583340535.791,56.152,29.297,44.922,24.414,-1.953,0
1583340535.795,43.945,30.273,40.527,20.508,24.902,0
1583340535.799,29.297,31.250,41.504,18.066,12.695,0
1583340535.803,40.039,30.273,41.504,18.066,15.137,0
1583340535.807,53.711,28.809,41.992,27.832,13.672,0
1583340535.811,49.805,30.273,40.039,35.156,-5.859,0
1583340535.814,40.039,34.668,35.645,29.785,-7.324,0
1583340535.818,38.086,38.086,32.715,16.113,-3.906,0
1583340535.822,41.504,39.551,22.461,4.395,19.043,0
1583340535.826,30.762,46.387,19.043,4.395,-1.953,0
1583340535.830,4.883,49.316,18.066,-11.719,-29.297,0
1583340535.858,6.836,48.828,7.812,-18.555,-13.184,0
1583340535.862,34.180,50.293,5.371,-11.719,-1.465,0
1583340535.866,29.297,47.363,5.371,-19.043,23.926,0
1583340535.870,5.371,48.340,0.488,-23.926,30.273,0
1583340535.874,-3.418,47.363,2.930,-25.391,-15.625,0
1583340535.878,14.648,41.992,10.254,-16.602,-7.324,0
1583340535.882,27.344,41.504,11.719,-14.160,21.484,0
1583340535.885,15.625,45.410,13.184,-13.672,41.992,0
1583340535.889,12.695,47.363,17.090,-2.930,17.578,0
1583340535.893,26.367,46.387,21.973,-0.977,-25.391,0
1583340535.897,40.039,42.480,19.531,-3.906,5.859,0
1583340535.901,31.738,38.574,12.695,-4.395,43.457,0
1583340535.897,16.113,39.551,14.160,-3.418,9.766,0
1583340535.901,25.879,40.527,17.578,4.395,-1.953,0
1583340535.905,42.969,39.551,19.531,8.301,-1.465,0
1583340535.909,38.574,35.156,19.531,6.348,11.719,0
1583340535.913,18.066,34.180,19.531,1.465,13.184,0
1583340535.917,13.672,34.180,20.508,1.465,-8.789,0
1583340535.921,32.715,30.762,19.531,6.836,12.695,0
1583340535.924,35.645,32.715,20.996,6.836,-17.578,0
1583340535.928,18.066,34.668,20.996,1.953,-37.109,0
1583340535.932,18.555,30.762,18.066,0.000,11.230,0
1583340535.936,36.133,32.227,20.508,2.930,43.457,0
1583340535.940,45.410,34.180,21.973,4.395,20.996,0
1583340535.929,30.762,30.762,20.996,1.953,1.465,0
1583340535.933,13.184,28.809,18.555,-3.906,21.973,0
1583340535.937,28.809,32.715,22.461,2.441,42.969,0
1583340535.941,45.410,32.715,25.391,8.789,53.223,0
1583340535.945,34.180,32.715,23.926,8.789,47.852,0
1583340535.949,17.090,36.133,26.855,10.742,24.902,0
1583340535.953,20.508,33.691,28.809,11.230,4.883,0
1583340535.956,39.551,28.809,27.832,8.301,27.832,0
1583340535.960,42.969,31.250,27.344,8.789,41.992,0
1583340535.964,26.855,33.203,25.879,9.277,26.367,0
1583340535.968,19.531,31.738,25.391,8.301,14.160,0
1583340535.972,36.133,28.320,26.855,9.277,17.578,0
1583340535.970,42.969,25.879,27.832,9.766,52.246,0
1583340535.974,26.367,27.832,29.785,9.277,53.223,0
1583340535.978,16.113,25.879,31.738,12.207,19.043,0
1583340535.982,30.273,26.367,33.203,16.113,-9.277,0
1583340535.986,46.387,32.227,31.250,17.090,-8.301,0
1583340535.990,36.133,30.273,31.738,13.184,19.531,0
1583340535.994,21.484,28.320,35.156,9.277,11.230,0
1583340535.997,25.879,28.809,31.738,7.324,-15.137,0
1583340536.001,39.551,28.320,31.250,7.812,-9.766,0
1583340536.005,35.645,30.273,35.156,3.906,-2.930,0
1583340536.009,20.020,28.809,31.738,-0.977,10.254,0
1583340536.013,23.438,28.320,31.738,5.859,-12.207,0
1583340536.007,39.551,27.832,32.715,9.766,-3.418,0
1583340536.011,40.039,29.785,34.668,13.672,25.391,0
1583340536.015,19.531,31.738,37.598,8.789,-20.996,0
1583340536.019,20.020,30.762,33.203,4.883,-36.621,0
1583340536.023,43.457,34.180,35.645,15.137,-3.906,0
1583340536.027,50.293,36.133,39.551,20.020,-12.695,0
1583340536.031,31.250,31.738,41.016,18.066,-7.812,0
1583340536.034,16.113,34.180,41.504,8.789,-27.344,0
1583340536.038,28.320,33.203,32.227,3.418,-40.039,0
1583340536.042,48.828,29.785,29.297,11.719,15.625,0
1583340536.046,38.086,34.668,36.621,13.672,34.668,0
1583340536.050,17.578,32.715,37.598,7.812,6.348,0
1583340536.067,24.902,28.320,33.691,7.324,12.695,0
1583340536.071,42.480,28.809,33.691,8.789,18.066,0
1583340536.075,42.969,27.832,35.156,8.301,-2.441,0
1583340536.079,26.855,28.809,32.227,8.301,-1.953,0
1583340536.083,23.926,31.738,33.203,11.230,-10.254,0
1583340536.087,41.016,31.250,35.156,13.184,-15.625,0
1583340536.091,43.945,29.297,31.738,12.695,14.160,0
1583340536.094,27.832,29.297,33.203,10.742,15.137,0
1583340536.098,21.484,28.320,34.180,13.184,0.000,0
1583340536.102,35.156,25.879,30.762,14.648,18.066,0
1583340536.106,45.410,29.785,31.738,13.672,32.715,0
1583340536.110,34.180,35.156,33.691,14.648,-5.859,0
1583340536.107,23.438,33.691,37.109,14.648,-14.160,0
1583340536.111,32.227,32.715,37.109,11.719,8.301,0
1583340536.115,47.852,34.668,36.621,13.672,11.719,0
1583340536.119,40.039,36.133,41.992,15.625,9.277,0
1583340536.123,20.020,33.691,40.527,11.719,-25.391,0
1583340536.127,21.484,28.809,36.133,12.207,-21.973,0
1583340536.131,35.156,26.367,37.109,11.230,15.137,0
1583340536.134,33.691,24.414,33.203,5.371,43.945,0
1583340536.138,15.137,26.367,35.645,3.906,26.367,0
1583340536.142,14.648,25.391,37.109,5.371,-35.156,0
1583340536.146,35.156,22.949,32.715,9.277,-21.973,0
1583340536.150,41.016,26.367,36.621,12.695,8.789,0
1583340536.148,24.902,26.855,41.016,10.254,21.973,0
1583340536.152,14.160,28.320,41.504,12.695,25.879,0
1583340536.156,27.344,30.273,41.016,16.113,11.230,0
1583340536.160,41.992,28.809,38.086,14.160,1.953,0
1583340536.164,41.016,26.855,31.738,15.137,-5.371,0
1583340536.168,30.273,26.367,35.645,21.973,-18.555,0
1583340536.172,22.949,26.367,43.945,16.113,-5.371,0
1583340536.175,26.855,24.902,47.852,5.371,10.254,0
1583340536.179,20.508,21.973,52.246,4.883,7.324,0
1583340536.183,10.254,24.902,50.293,7.324,-7.324,0
1583340536.187,15.625,26.367,46.875,6.836,2.930,0
1583340536.191,28.809,22.949,46.875,13.184,28.320,0
1583340536.207,32.715,22.949,48.340,14.160,14.648,0
1583340536.211,18.555,22.949,47.363,8.301,12.695,0
1583340536.215,16.602,22.461,48.828,13.184,23.926,0
1583340536.219,36.133,24.902,48.340,20.508,1.953,0
1583340536.223,44.922,25.879,46.387,22.949,26.855,0
1583340536.227,28.809,27.344,47.363,23.438,26.855,0
1583340536.231,20.020,27.344,43.945,19.531,10.742,0
1583340536.234,38.086,26.855,41.504,16.602,31.250,0
1583340536.238,48.340,28.809,44.434,19.043,14.160,0
1583340536.242,32.715,29.785,44.434,18.555,15.625,0
1583340536.246,17.090,29.297,45.410,14.648,2.930,0
1583340536.250,27.344,23.926,45.410,13.672,-12.695,0
1583340536.247,43.457,24.902,41.992,16.602,20.996,0
1583340536.251,34.668,30.762,41.504,14.648,37.109,0
1583340536.255,18.066,31.738,40.527,15.137,30.273,0
1583340536.259,23.926,33.203,39.551,18.555,16.602,0
1583340536.263,42.969,35.156,41.992,20.508,-4.883,0
1583340536.267,44.922,33.203,44.434,22.461,-2.441,0
1583340536.271,26.855,28.320,43.945,20.996,28.320,0
1583340536.274,21.484,27.344,44.922,19.043,14.648,0
1583340536.278,44.434,34.180,48.340,25.391,-13.672,0
1583340536.282,53.223,37.598,45.898,23.438,-3.418,0
1583340536.286,33.691,33.691,42.480,15.137,13.672,0
1583340536.290,21.484,31.738,41.016,17.090,0.488,0
1583340536.287,38.086,30.762,40.039,20.508,28.809,0
1583340536.291,58.594,35.156,44.434,25.879,38.574,0
1583340536.295,46.875,35.645,46.875,27.832,1.953,0
1583340536.299,26.367,31.738,42.969,23.926,0.977,0
1583340536.303,31.738,35.645,43.945,30.273,9.277,0
1583340536.307,48.340,33.203,45.410,31.738,21.973,0
1583340536.311,39.551,29.297,43.457,20.996,14.648,0
1583340536.314,18.066,29.297,42.480,16.113,5.371,0
1583340536.318,19.531,27.344,37.109,13.184,44.434,0
1583340536.322,38.574,30.273,38.574,15.625,48.340,0
1583340536.326,39.062,30.762,43.945,15.137,23.438,0
1583340536.330,18.555,30.273,44.922,9.766,18.555,0
1583340536.347,9.766,29.297,44.434,5.859,24.902,0
1583340536.351,28.809,28.809,39.551,7.324,35.645,0
1583340536.355,41.016,31.738,36.621,14.160,48.828,0
1583340536.359,25.879,29.785,40.039,11.230,40.527,0
1583340536.363,20.508,32.715,38.086,15.625,28.320,0
1583340536.367,39.062,38.574,36.133,21.484,10.254,0
1583340536.371,52.734,33.203,36.133,14.160,19.043,0
1583340536.374,48.828,28.320,36.133,12.207,31.250,0
1583340536.378,38.574,31.250,40.527,15.625,12.695,0
1583340536.382,42.480,32.715,44.434,17.578,9.766,0
1583340536.386,50.781,31.738,42.969,18.066,-6.836,0
1583340536.390,41.016,30.273,37.598,17.090,8.301,0
1583340536.387,18.066,29.297,35.645,11.230,18.066,0
1583340536.391,12.695,27.832,37.598,6.348,0.488,0
1583340536.395,32.715,27.832,40.527,13.184,23.926,0
1583340536.399,38.574,31.250,41.504,11.230,2.930,0
1583340536.403,15.137,25.879,35.156,0.488,4.883,0
1583340536.407,0.977,21.484,33.691,2.441,10.742,0
1583340536.411,12.695,22.461,37.109,3.418,5.371,0
1583340536.414,22.461,22.461,39.062,3.418,25.879,0
1583340536.418,12.207,23.926,39.551,6.836,-2.441,0
1583340536.422,1.465,27.344,36.621,8.789,-34.180,0
1583340536.426,14.160,25.879,34.668,11.719,-19.531,0
1583340536.430,34.668,24.902,37.109,11.719,26.367,0
1583340536.447,31.250,28.809,40.527,9.766,36.133,0
1583340536.451,13.672,29.297,42.969,10.742,-4.883,0
1583340536.455,17.578,31.738,42.480,9.766,-18.066,0
1583340536.459,44.922,33.203,37.109,12.695,21.484,0
1583340536.463,47.852,32.227,36.133,12.695,48.828,0
1583340536.467,24.414,32.715,37.598,11.719,14.648,0
1583340536.471,19.043,29.785,37.109,14.648,-37.109,0
1583340536.474,33.691,28.320,36.133,10.742,-13.672,0
1583340536.478,42.480,27.344,33.203,10.742,32.227,0
1583340536.482,26.855,27.832,34.180,13.184,19.043,0
1583340536.486,13.184,30.273,29.785,14.648,-16.602,0
1583340536.490,28.809,32.715,30.273,18.555,-8.301,0
1583340536.527,43.457,31.738,34.668,17.090,13.672,0
1583340536.531,34.180,30.762,34.180,14.160,-5.371,0
1583340536.535,16.602,33.203,33.203,16.113,-32.227,0
1583340536.539,24.414,33.203,33.203,20.508,-19.043,0
1583340536.543,43.945,32.227,36.621,23.926,19.531,0
1583340536.547,35.645,33.691,41.992,20.996,4.883,0
1583340536.551,16.602,33.203,43.457,17.090,-26.855,0
1583340536.554,19.531,29.785,43.457,17.578,-6.348,0
1583340536.558,40.527,29.297,41.992,19.531,10.254,0
1583340536.562,41.504,30.273,42.969,22.949,-2.441,0
1583340536.566,22.949,32.227,42.969,18.555,-30.273,0
1583340536.570,18.066,29.297,41.992,14.648,-30.273,0
1583340536.530,37.109,29.297,41.016,19.531,-6.348,0
1583340536.534,47.363,31.250,38.574,20.508,-15.625,0
1583340536.538,30.273,27.832,38.574,15.625,-40.039,0
1583340536.542,18.066,28.809,39.062,10.742,-80.078,0
1583340536.546,35.645,30.273,35.156,13.184,-79.102,0
1583340536.550,49.316,29.785,36.133,14.648,-55.176,0
1583340536.554,33.203,29.297,36.621,8.789,-36.133,0
1583340536.557,16.602,28.320,36.133,5.859,-48.828,0
1583340536.561,23.926,29.785,37.598,10.254,-62.012,0
1583340536.565,45.410,30.762,39.551,19.043,-29.785,0
1583340536.569,46.875,30.273,38.086,20.020,-20.508,0
1583340536.573,30.273,30.762,37.598,16.602,-34.668,0
1583340536.587,33.691,31.738,39.062,18.066,-41.504,0
1583340536.591,53.711,32.715,36.133,22.461,-18.555,0
1583340536.595,54.199,35.156,36.133,20.996,13.672,0
1583340536.599,37.109,35.156,39.062,18.555,-9.766,0
1583340536.603,30.273,34.180,40.039,16.113,-35.645,0
1583340536.607,41.992,32.715,38.086,15.137,-0.488,0
1583340536.611,49.805,35.645,37.598,17.578,9.277,0
1583340536.614,27.832,39.062,38.574,5.859,-11.230,0
1583340536.618,9.766,32.715,35.156,-5.859,24.414,0
1583340536.622,26.855,32.227,34.668,3.418,10.742,0
1583340536.626,39.062,30.762,37.109,7.812,0.488,0
1583340536.630,25.879,28.320,39.551,7.812,11.230,0
1583340536.627,11.230,30.762,38.086,7.324,-7.812,0
1583340536.631,20.996,31.250,36.133,9.277,-3.906,0
1583340536.635,43.945,30.273,40.527,19.531,14.648,0
1583340536.639,45.410,33.691,42.969,21.484,41.016,0
1583340536.643,25.879,35.645,40.527,18.555,29.297,0
1583340536.647,21.973,34.668,42.480,20.996,15.625,0
1583340536.651,44.434,33.691,43.945,26.367,16.602,0
1583340536.654,51.758,34.180,41.016,26.855,-4.395,0
1583340536.658,33.691,30.273,42.480,22.949,7.324,0
1583340536.662,23.926,31.250,47.363,22.461,16.602,0
1583340536.666,38.574,36.133,49.805,20.508,-4.883,0
1583340536.670,47.363,35.645,47.363,18.066,34.180,0
1583340536.667,32.227,36.133,48.340,19.043,52.734,0
1583340536.671,15.137,31.738,46.875,16.113,33.691,0
1583340536.675,24.414,32.227,42.969,16.602,22.949,0
1583340536.679,41.504,36.133,43.945,16.602,9.277,0
1583340536.683,35.645,33.203,42.969,12.207,3.418,0
1583340536.687,20.508,32.227,48.828,13.672,-0.977,0
1583340536.691,20.996,33.691,49.316,13.672,19.531,0
1583340536.694,37.109,32.715,43.945,14.160,52.734,0
1583340536.698,38.086,34.668,45.898,13.672,7.324,0
1583340536.702,16.113,36.133,45.410,6.348,-46.387,0
1583340536.706,13.672,30.273,43.457,9.766,-22.461,0
1583340536.710,36.621,25.391,44.434,17.090,8.301,0
1583340536.727,41.992,27.344,43.457,14.160,14.160,0
1583340536.731,24.414,30.273,43.945,9.277,23.438,0
1583340536.735,17.578,31.250,44.434,7.812,29.785,0
1583340536.739,31.738,32.227,43.945,10.254,43.457,0
1583340536.743,44.434,31.250,43.945,13.672,48.828,0
1583340536.747,30.762,30.762,40.039,10.254,48.340,0
1583340536.751,11.719,34.180,42.480,2.441,10.742,0
1583340536.754,19.531,33.203,44.922,-3.906,4.395,0
1583340536.758,36.621,29.297,39.551,0.000,41.016,0
1583340536.762,32.227,31.738,38.086,3.906,50.293,0
1583340536.766,16.113,34.180,36.133,1.953,53.223,0
1583340536.770,18.066,34.180,38.574,4.883,35.156,0
1583340536.767,38.086,37.598,37.598,6.836,12.207,0
1583340536.771,41.992,36.133,37.109,7.812,-9.277,0
1583340536.775,24.414,31.738,39.551,10.742,10.254,0
1583340536.779,26.855,33.691,40.039,13.184,35.645,0
1583340536.783,45.898,39.551,41.504,20.996,24.414,0
1583340536.787,54.199,38.086,43.457,29.297,18.066,0
1583340536.791,40.527,33.691,43.945,30.762,25.879,0
1583340536.794,24.902,32.227,45.410,28.809,9.766,0
1583340536.798,37.598,32.227,46.387,26.855,-8.789,0
1583340536.802,53.711,36.133,49.316,29.785,-14.160,0
1583340536.806,41.504,37.109,50.781,23.438,-25.879,0
1583340536.810,27.344,39.062,45.410,19.043,-1.465,0
1583340536.807,35.645,40.527,43.457,24.414,0.000,0
1583340536.811,48.828,38.086,41.016,25.391,4.395,0
1583340536.815,44.434,39.062,41.992,25.879,26.367,0
1583340536.819,30.762,39.062,45.410,22.461,2.930,0
1583340536.823,31.250,37.598,42.969,21.973,-32.227,0
1583340536.827,47.852,40.039,45.410,26.367,-50.293,0
1583340536.831,49.805,34.180,42.969,20.996,-6.348,0
1583340536.834,33.203,33.691,43.945,16.113,13.672,0
1583340536.838,21.484,35.156,45.898,13.184,-32.227,0
1583340536.842,35.645,30.762,41.992,12.695,-25.391,0
1583340536.846,51.270,29.785,42.480,17.578,19.531,0
1583340536.850,34.668,27.344,43.945,14.160,26.855,0
1583340536.866,17.090,29.785,46.387,11.230,-14.648,0
1583340536.870,26.367,32.227,43.457,10.742,-16.602,0
1583340536.874,40.527,27.832,39.062,10.254,11.230,0
1583340536.878,35.156,28.320,43.945,10.254,32.715,0
1583340536.882,24.414,33.691,43.457,9.277,18.066,0
1583340536.886,25.879,32.715,38.574,9.766,6.348,0
1583340536.890,38.086,31.738,43.945,8.789,-1.465,0
1583340536.893,41.016,36.133,41.504,5.371,-2.930,0
1583340536.897,23.438,33.691,38.574,0.977,22.949,0
1583340536.901,14.648,29.297,40.039,0.000,32.715,0
1583340536.905,31.250,31.250,39.062,5.859,35.156,0
1583340536.909,36.133,33.203,40.527,9.766,15.137,0
1583340536.907,19.043,32.227,39.062,6.836,-16.602,0
1583340536.911,10.742,34.180,35.156,1.465,-8.789,0
1583340536.915,26.367,35.645,35.156,9.766,1.465,0
1583340536.919,41.992,30.273,34.180,14.160,14.648,0
1583340536.923,34.180,30.762,31.738,14.160,25.391,0
1583340536.927,21.973,35.645,30.762,17.090,-7.324,0
1583340536.931,28.320,34.180,30.762,17.090,-25.391,0
1583340536.934,42.969,32.715,33.203,17.090,-4.883,0
1583340536.938,37.598,33.203,35.156,14.160,25.391,0
1583340536.942,19.531,36.621,43.945,10.742,2.441,0
1583340536.946,20.996,33.203,45.410,8.789,-17.578,0
1583340536.950,39.062,28.320,35.156,8.789,2.930,0
1583340536.967,39.062,28.809,35.156,10.254,10.254,0
1583340536.971,17.578,27.832,41.016,9.766,7.324,0
1583340536.975,15.625,28.320,40.039,8.789,12.207,0
1583340536.979,39.551,32.715,37.109,10.742,13.672,0
1583340536.983,46.387,35.156,41.016,13.184,20.508,0
1583340536.987,28.809,36.133,45.410,15.137,20.508,0
1583340536.991,20.996,36.133,43.945,11.719,21.484,0
1583340536.994,30.273,35.645,41.016,9.766,3.906,0
1583340536.998,40.039,36.621,39.551,9.277,18.555,0
1583340537.002,30.762,39.551,42.480,5.371,43.457,0
1583340537.006,14.160,38.086,45.898,4.883,-1.953,0
1583340537.010,21.484,33.691,44.434,5.859,10.742,0
1583340537.007,39.551,35.645,44.434,9.766,37.109,0
1583340537.011,34.180,38.574,44.922,6.348,-4.395,0
1583340537.015,15.137,35.645,41.992,1.953,-12.695,0
1583340537.019,18.066,32.227,39.062,9.277,0.000,0
1583340537.023,42.969,35.156,39.551,15.137,39.551,0
1583340537.027,47.852,36.133,42.480,19.043,35.645,0
1583340537.031,29.297,36.621,42.969,16.602,9.277,0
1583340537.034,24.902,36.621,41.504,14.160,8.301,0
1583340537.038,40.039,34.668,46.875,21.973,-2.930,0
1583340537.042,47.363,33.691,51.270,26.367,8.301,0
1583340537.046,32.227,33.691,49.316,24.414,26.367,0
1583340537.050,19.531,35.156,46.875,18.555,10.742,0
1583340537.047,30.273,31.738,43.457,14.160,17.090,0
1583340537.051,41.992,29.785,45.410,17.578,29.297,0
1583340537.055,29.297,31.738,47.363,17.578,50.293,0
1583340537.059,15.137,31.738,43.945,15.625,21.973,0
1583340537.063,23.438,34.668,43.945,15.625,-12.207,0
1583340537.067,41.016,38.574,46.387,18.555,7.324,0
1583340537.071,40.039,35.156,44.434,21.484,17.090,0
1583340537.074,26.855,32.715,42.480,15.625,20.020,0
1583340537.078,28.320,31.738,41.992,19.043,25.879,0
1583340537.082,43.945,35.645,45.898,25.879,4.395,0
1583340537.086,45.898,36.621,46.875,19.043,-16.113,0
1583340537.090,30.762,34.180,43.457,13.672,0.977,0
1583340537.087,25.879,34.180,45.410,14.160,-3.906,0
1583340537.091,35.645,35.645,42.969,14.648,16.602,0
1583340537.095,44.922,40.527,41.016,16.113,29.297,0
1583340537.099,32.715,34.668,41.016,14.648,16.602,0
1583340537.103,19.531,30.762,39.551,13.184,32.715,0
1583340537.107,33.203,35.156,44.434,16.113,26.367,0
1583340537.111,45.898,33.691,47.852,16.602,25.879,0
1583340537.114,33.203,35.645,47.363,13.184,22.949,0
1583340537.118,15.625,38.574,43.457,7.812,-35.645,0
1583340537.122,21.484,34.668,37.109,7.812,-27.832,0
1583340537.126,41.504,34.180,38.086,15.625,19.043,0
1583340537.130,41.016,33.691,39.062,20.996,18.555,0
1583340537.147,20.508,31.738,38.574,19.043,0.000,0
1583340537.151,20.508,29.297,41.016,18.066,7.812,0
1583340537.155,38.574,29.297,42.480,18.555,50.293,0
1583340537.159,44.434,28.809,43.457,16.602,66.406,0
1583340537.163,29.785,27.832,45.898,18.066,52.246,0
1583340537.167,20.996,31.250,43.945,20.996,9.766,0
1583340537.171,34.668,30.762,41.504,19.043,4.395,0
1583340537.174,47.363,29.297,38.086,15.625,46.875,0
1583340537.178,38.574,34.668,39.551,18.555,32.715,0
1583340537.182,23.438,31.250,41.992,16.113,1.953,0
1583340537.186,31.250,28.809,43.457,15.137,2.441,0
1583340537.190,45.410,32.715,43.945,16.113,-2.930,0
1583340537.187,38.574,30.762,40.527,10.742,8.301,0
1583340537.191,23.926,30.273,43.457,14.648,6.836,0
1583340537.195,27.344,32.227,44.922,16.602,8.301,0
1583340537.199,43.945,32.715,45.410,16.602,23.926,0
1583340537.203,44.434,35.156,43.457,17.090,17.578,0
1583340537.207,21.484,31.738,41.016,13.672,9.766,0
1583340537.211,14.160,31.738,39.062,13.184,7.324,0
1583340537.214,28.809,33.203,35.645,11.719,21.973,0
1583340537.218,35.156,29.785,30.762,8.301,53.223,0
1583340537.222,25.391,31.738,34.668,4.395,23.926,0
1583340537.226,19.531,32.715,36.621,-2.930,-27.832,0
1583340537.230,32.715,32.227,32.715,1.953,3.906,0
1583340537.247,45.898,33.203,35.645,6.836,29.785,0
1583340537.251,38.086,33.691,39.062,2.441,4.395,0
1583340537.255,23.926,31.250,38.086,0.000,-21.973,0
1583340537.259,29.785,27.832,36.621,4.395,4.883,0
1583340537.263,45.410,29.297,41.016,12.207,12.695,0
1583340537.267,37.109,31.250,41.992,13.672,3.418,0
1583340537.271,17.578,32.227,40.039,11.719,6.348,0
1583340537.274,14.160,34.668,39.551,11.719,-0.488,0
1583340537.278,27.832,33.691,37.109,9.766,-9.277,0
1583340537.282,36.621,32.715,37.598,12.695,1.465,0
1583340537.286,22.461,35.156,38.574,12.695,28.809,0
1583340537.290,18.066,37.109,34.180,10.742,16.113,0
1583340537.286,35.156,39.551,33.691,15.137,-12.207,0
1583340537.290,44.434,35.156,31.250,15.625,15.625,0
1583340537.294,33.691,33.203,24.902,11.230,26.855,0
1583340537.298,17.090,34.668,20.508,6.348,20.996,0
1583340537.302,28.809,33.691,19.043,9.277,20.508,0
1583340537.306,45.410,34.180,24.414,14.648,9.277,0
1583340537.310,29.297,32.715,25.391,11.230,3.418,0
1583340537.313,11.230,33.203,20.508,8.301,-6.348,0
1583340537.317,17.090,33.203,19.043,11.719,-12.207,0
1583340537.321,34.668,27.832,19.531,12.695,32.227,0
1583340537.325,35.645,30.273,21.973,12.695,40.527,0
1583340537.329,19.043,32.227,21.973,8.301,-9.277,0
1583340537.327,18.555,27.344,19.043,7.324,-13.672,0
1583340537.331,34.180,27.344,19.531,15.625,14.160,0
1583340537.335,38.086,24.902,19.531,13.672,25.391,0
1583340537.339,22.461,26.367,20.996,12.695,1.465,0
1583340537.343,13.672,27.832,22.949,12.695,-14.648,0
1583340537.347,35.156,30.762,22.949,16.113,2.930,0
1583340537.351,50.293,35.156,27.344,21.484,0.488,0
1583340537.354,36.133,32.715,27.832,17.090,-21.484,0
1583340537.358,20.020,32.715,25.879,12.695,-32.227,0
1583340537.362,25.391,32.227,30.762,13.184,-30.762,0
1583340537.366,41.504,29.297,31.250,14.648,-10.742,0
1583340537.370,35.645,28.320,27.832,12.695,16.113,0
1583340537.367,21.484,27.344,26.855,12.207,3.906,0
1583340537.371,24.902,25.879,27.344,14.648,-3.418,0
1583340537.375,39.551,27.344,28.809,12.207,14.648,0
1583340537.379,35.645,27.832,30.273,9.277,9.277,0
1583340537.383,20.996,30.273,32.715,13.672,-28.809,0
1583340537.387,21.484,32.227,34.668,18.555,-45.410,0
1583340537.391,33.691,27.344,31.738,18.555,-25.879,0
1583340537.394,38.086,28.320,32.227,15.137,-30.273,0
1583340537.398,22.461,32.227,32.715,10.254,-43.457,0
1583340537.402,20.020,30.273,32.227,15.137,-41.992,0
1583340537.406,40.527,29.297,35.645,20.020,-52.734,0
1583340537.410,52.246,30.762,31.738,21.484,-33.691,0
1583340537.427,42.480,29.785,31.738,19.531,-13.672,0
1583340537.431,28.320,30.273,34.668,16.113,-47.363,0
1583340537.435,32.715,29.297,37.598,18.555,-72.754,0
1583340537.439,47.852,25.879,36.621,22.949,-43.945,0
1583340537.443,47.363,26.855,35.645,24.902,-44.434,0
1583340537.447,27.832,32.227,40.527,19.531,-52.734,0
1583340537.451,24.902,32.227,38.574,13.672,-55.176,0
1583340537.454,46.875,31.738,35.645,20.508,-40.527,0
1583340537.458,48.828,31.738,38.574,26.367,-36.621,0
1583340537.462,29.297,28.809,38.574,25.391,-19.531,0
1583340537.466,23.926,33.691,38.574,23.438,-34.180,0
1583340537.470,40.527,32.715,40.527,22.461,-33.691,0
1583340537.507,48.828,27.832,39.551,25.391,-1.953,0
1583340537.511,31.250,26.367,35.645,22.461,-11.230,0
1583340537.515,18.066,25.879,35.645,17.090,-0.977,0
1583340537.519,30.762,27.344,40.039,18.066,6.348,0
1583340537.523,43.945,28.809,41.504,19.043,1.465,0
1583340537.527,34.668,31.738,38.574,20.020,-2.441,0
1583340537.531,20.508,31.250,38.086,19.043,-1.953,0
1583340537.534,25.879,31.738,39.551,17.578,-0.977,0
1583340537.538,41.016,35.645,40.039,18.066,9.277,0
1583340537.542,39.062,33.203,39.062,16.113,0.977,0
1583340537.546,23.926,27.344,35.156,14.160,11.719,0
1583340537.550,21.973,26.367,34.668,14.160,19.043,0
1583340537.511,40.039,28.809,36.133,17.578,22.461,0
1583340537.515,41.992,32.715,40.039,19.531,35.156,0
1583340537.519,21.973,34.180,41.992,18.555,21.973,0
1583340537.523,16.113,32.715,38.086,18.555,7.324,0
1583340537.527,30.762,28.809,37.109,17.090,6.836,0
1583340537.531,35.645,29.297,38.086,18.555,-1.465,0
1583340537.535,20.508,32.227,38.086,20.508,16.113,0
1583340537.538,6.348,30.273,40.039,15.625,29.297,0
1583340537.542,18.066,26.855,40.039,14.160,16.113,0
1583340537.546,33.691,26.855,39.062,17.090,21.973,0
1583340537.550,26.855,30.762,41.016,18.066,40.039,0
1583340537.554,10.742,30.273,41.016,15.625,57.617,0
1583340537.567,11.230,31.250,38.574,14.160,8.301,0
1583340537.571,33.691,29.785,37.598,19.531,10.254,0
1583340537.575,36.133,28.320,39.062,18.555,60.059,0
1583340537.579,17.578,30.762,40.527,10.254,27.832,0
1583340537.583,17.578,32.227,41.504,13.184,15.625,0
1583340537.587,36.133,35.156,45.410,20.508,13.672,0
1583340537.591,41.992,35.645,47.852,15.625,-15.625,0
1583340537.594,25.391,29.297,42.969,6.836,-22.949,0
1583340537.598,15.137,25.391,35.156,7.324,19.043,0
1583340537.602,29.297,28.320,38.574,13.672,11.230,0
1583340537.606,41.992,31.738,41.992,16.602,1.465,0
1583340537.610,28.809,32.227,40.527,16.602,46.387,0
1583340537.607,10.254,32.715,38.086,13.672,30.762,0
1583340537.611,20.996,31.738,36.133,11.230,2.441,0
1583340537.615,40.527,28.320,38.086,10.254,10.742,0
1583340537.619,31.250,29.297,41.504,11.230,29.785,0
1583340537.623,14.160,30.273,41.016,10.254,16.602,0
1583340537.627,18.066,29.785,40.527,12.695,7.324,0
1583340537.631,31.738,28.320,40.039,12.207,33.203,0
1583340537.634,36.621,25.879,37.598,9.766,31.738,0
1583340537.638,21.973,28.809,40.527,8.789,-5.859,0
1583340537.642,9.277,28.809,39.551,0.000,-11.230,0
1583340537.646,25.391,23.926,35.645,0.977,5.859,0
1583340537.650,38.086,25.391,35.645,7.324,23.926,0
1583340537.647,24.414,31.250,33.203,4.883,32.227,0
1583340537.651,14.648,30.273,33.691,5.859,3.906,0
1583340537.655,27.832,28.809,35.645,11.719,-7.324,0
1583340537.659,37.598,31.250,32.715,6.836,27.344,0
1583340537.663,25.879,30.762,36.133,0.977,17.578,0
1583340537.667,13.672,32.227,41.016,2.930,-33.203,0
1583340537.671,20.508,32.227,38.086,4.395,-8.789,0
1583340537.674,34.668,30.762,39.551,4.395,2.441,0
1583340537.678,27.344,32.715,43.945,3.906,-12.207,0
1583340537.682,12.207,32.715,43.945,4.883,5.371,0
1583340537.686,17.578,34.668,41.016,7.324,-22.461,0
1583340537.690,37.109,33.691,41.504,12.207,-40.039,0
1583340537.706,39.062,32.227,41.992,13.184,-22.461,0
1583340537.710,16.113,30.762,37.598,8.301,4.883,0
1583340537.714,15.625,29.297,39.551,11.719,-3.418,0
1583340537.718,38.086,28.320,42.969,17.578,-10.254,0
1583340537.722,46.875,26.855,40.039,18.066,31.250,0
1583340537.726,37.109,31.250,44.922,18.555,27.832,0
1583340537.730,29.297,34.180,48.340,18.555,8.301,0
1583340537.733,42.480,29.297,44.434,18.066,23.438,0
1583340537.737,53.711,27.832,43.457,21.973,17.578,0
1583340537.741,43.945,28.809,42.480,25.391,-4.395,0
1583340537.745,25.391,31.738,42.969,20.508,-16.113,0
1583340537.749,28.320,30.273,39.551,12.695,-20.508,0
1583340537.746,43.457,24.414,37.109,16.602,-11.230,0
1583340537.750,41.016,26.855,38.086,16.602,-9.277,0
1583340537.754,22.949,31.250,37.598,11.230,-17.090,0
1583340537.758,20.996,33.203,41.016,15.625,-13.184,0
1583340537.762,37.598,33.691,40.039,20.996,16.113,0
1583340537.766,40.039,34.668,35.156,19.531,17.578,0
1583340537.770,20.508,33.691,36.133,12.207,20.996,0
1583340537.773,13.672,31.250,38.574,6.836,39.062,0
1583340537.777,28.809,34.668,39.062,12.695,10.254,0
1583340537.781,38.574,34.668,40.039,10.742,-8.301,0
1583340537.785,27.344,28.809,37.598,7.812,25.391,0
1583340537.789,15.137,27.832,36.133,9.766,4.883,0
1583340537.806,24.902,28.320,35.645,12.695,13.184,0
1583340537.810,41.504,30.762,36.133,18.066,35.156,0
1583340537.814,30.762,31.738,33.691,15.625,25.879,0
1583340537.818,13.184,31.250,35.156,10.742,11.230,0
1583340537.822,20.508,31.738,39.062,12.207,-11.719,0
1583340537.826,40.527,30.273,36.621,16.602,-20.020,0
1583340537.830,41.016,33.203,32.715,15.137,-19.043,0
1583340537.833,20.020,32.715,34.180,8.301,-7.324,0
1583340537.837,13.672,28.320,34.668,2.930,14.160,0
1583340537.841,26.855,29.297,36.621,4.883,30.273,0
1583340537.845,33.691,29.785,37.109,6.348,52.246,0
1583340537.849,18.555,29.785,38.086,6.348,34.180,0
1583340537.847,7.324,29.297,40.039,5.371,8.789,0
1583340537.851,20.020,24.414,34.180,0.977,33.691,0
1583340537.855,34.180,24.414,35.645,2.930,66.895,0
1583340537.859,27.344,26.367,40.527,8.301,39.551,0
1583340537.863,15.137,28.809,39.062,12.207,18.555,0
1583340537.867,25.879,32.227,36.133,12.695,0.977,0
1583340537.871,45.898,32.715,31.250,12.695,19.531,0
1583340537.874,46.875,31.738,33.203,20.020,42.969,0
1583340537.878,25.391,27.832,41.016,21.484,18.555,0
1583340537.882,15.625,21.484,46.387,16.602,13.184,0
1583340537.886,34.668,21.973,45.898,16.602,8.301,0
1583340537.890,41.992,22.949,41.016,11.719,7.324,0
1583340537.887,19.531,22.461,38.574,4.395,12.207,0
1583340537.891,12.207,27.344,40.527,4.883,15.137,0
1583340537.895,30.762,27.344,42.969,12.207,12.207,0
1583340537.899,41.504,24.902,45.898,20.996,22.461,0
1583340537.903,31.738,26.855,44.434,20.020,34.180,0
1583340537.907,21.484,26.855,45.410,19.043,1.953,0
1583340537.911,35.156,22.461,42.480,22.949,-7.324,0
1583340537.914,47.852,22.949,36.621,20.508,21.484,0
1583340537.918,29.297,26.367,42.969,14.648,-12.207,0
1583340537.922,12.695,26.367,45.898,9.277,-20.996,0
1583340537.926,22.949,24.902,39.551,13.184,16.602,0
1583340537.930,39.551,26.855,39.062,19.531,27.832,0
1583340537.947,37.109,27.344,42.480,18.555,39.551,0
1583340537.951,19.531,28.320,45.410,18.066,1.953,0
1583340537.955,19.531,29.785,45.898,17.578,-0.977,0
1583340537.959,41.016,30.273,41.504,17.578,13.184,0
1583340537.963,48.340,31.250,41.504,20.996,-4.395,0
1583340537.967,28.809,35.156,44.434,21.973,-6.348,0
1583340537.971,25.391,36.621,41.992,23.438,1.953,0
1583340537.974,43.457,33.203,40.039,19.531,7.324,0
1583340537.978,49.316,31.250,40.039,21.484,20.508,0
1583340537.982,41.016,32.227,39.062,26.855,8.301,0
1583340537.986,31.250,31.738,37.598,20.996,3.906,0
1583340537.990,39.551,35.645,39.551,24.414,5.371,0
1583340537.987,55.176,34.668,39.062,25.879,10.254,0
1583340537.991,43.945,28.809,36.621,19.043,0.488,0
1583340537.995,24.414,29.297,34.668,15.625,7.324,0
1583340537.999,31.250,30.762,34.668,16.602,23.438,0
1583340538.003,46.875,30.762,37.109,20.020,0.977,0
1583340538.007,38.086,29.297,35.645,14.648,-9.277,0
1583340538.011,18.066,28.809,31.738,5.371,6.348,0
1583340538.014,20.020,30.273,36.133,8.789,31.250,0
1583340538.018,37.598,28.320,40.527,12.207,11.230,0
1583340538.022,40.039,29.297,42.480,14.648,6.836,0
1583340538.026,20.020,32.715,43.457,11.230,-10.742,0
1583340538.030,9.277,27.832,40.527,4.395,-15.137,0
1583340538.027,26.367,24.902,39.551,9.766,21.973,0
1583340538.031,34.668,26.855,42.969,10.254,36.621,0
1583340538.035,22.949,26.855,45.898,10.742,22.461,0
1583340538.039,14.648,26.855,44.434,11.230,-1.465,0
1583340538.043,20.508,27.344,41.992,10.254,30.762,0
1583340538.047,36.133,29.785,44.922,16.602,33.203,0
1583340538.051,33.203,31.250,45.410,16.113,8.301,0
1583340538.054,16.602,28.809,38.574,12.207,20.020,0
1583340538.058,19.531,30.273,39.551,11.719,-6.348,0
1583340538.062,37.109,29.297,42.480,11.230,-11.230,0
1583340538.066,38.574,26.855,41.992,13.672,26.855,0
1583340538.070,24.414,28.809,43.457,10.254,16.602,0
1583340538.087,26.855,26.855,46.387,7.812,2.441,0
1583340538.091,50.293,29.785,51.270,9.766,2.930,0
1583340538.095,56.152,34.180,50.293,11.230,-1.953,0
1583340538.099,37.109,32.227,46.875,10.742,-9.277,0
1583340538.103,25.391,30.273,44.922,11.230,-9.277,0
1583340538.107,35.645,32.715,45.898,18.066,13.184,0
1583340538.111,47.363,32.715,49.316,20.996,22.461,0
1583340538.114,34.668,28.320,44.922,13.184,9.277,0
1583340538.118,15.137,26.855,39.551,11.230,1.465,0
1583340538.122,23.926,28.320,39.551,15.137,-20.996,0
1583340538.126,43.945,30.762,43.457,17.578,5.371,0
1583340538.130,39.062,33.691,48.828,17.578,7.324,0
1583340538.127,18.555,31.738,45.410,11.719,-13.184,0
1583340538.131,20.996,25.391,36.621,9.766,19.531,0
1583340538.135,41.016,23.438,38.574,17.090,41.016,0
1583340538.139,41.016,23.926,44.922,18.066,34.668,0
1583340538.143,22.949,27.344,45.898,14.648,18.066,0
1583340538.147,18.555,30.273,49.805,19.043,0.000,0
1583340538.151,34.180,28.809,48.828,20.996,5.859,0
1583340538.154,39.062,31.738,43.457,18.555,29.785,0
1583340538.158,21.484,31.738,45.410,18.555,30.762,0
1583340538.162,11.719,27.344,46.387,21.973,10.254,0
1583340538.166,31.738,31.738,41.504,23.926,18.066,0
1583340538.170,44.922,33.203,37.598,14.648,23.926,0
1583340538.168,27.344,31.250,37.109,5.371,52.734,0
1583340538.172,8.789,31.738,37.598,1.953,47.852,0
1583340538.176,14.160,30.273,40.527,3.906,6.836,0
1583340538.180,28.809,26.855,42.969,1.953,16.113,0
1583340538.184,23.926,28.809,41.504,0.000,14.160,0
1583340538.188,12.207,35.645,41.504,6.836,-12.207,0
1583340538.192,16.113,35.156,38.574,6.836,4.883,0
1583340538.195,35.156,30.762,36.621,6.348,21.484,0
1583340538.199,35.645,29.785,35.645,10.254,15.137,0
1583340538.203,19.531,28.809,33.691,6.348,6.836,0
1583340538.207,14.648,27.344,33.203,3.418,-0.488,0
1583340538.211,29.297,26.855,29.297,5.859,2.930,0
1583340538.227,40.039,25.391,33.203,8.789,4.883,0
1583340538.231,27.832,24.414,40.039,12.207,0.000,0
1583340538.235,21.484,23.438,40.527,13.184,-1.465,0
1583340538.239,30.762,24.902,39.551,14.160,3.418,0
1583340538.243,43.457,21.973,38.086,15.625,3.418,0
1583340538.247,37.598,18.555,38.086,12.695,-5.371,0
1583340538.251,18.555,21.973,40.039,8.301,-17.090,0
1583340538.254,21.484,22.949,37.598,3.418,-46.875,0
1583340538.258,40.527,20.996,35.156,6.348,-42.480,0
1583340538.262,39.551,23.438,40.527,14.648,-13.672,0
1583340538.266,25.391,25.879,39.062,15.137,-24.902,0
1583340538.270,23.438,27.344,37.598,11.719,-44.922,0
1583340538.267,36.133,26.367,42.480,11.230,-25.879,0
1583340538.271,43.945,24.902,44.434,14.160,5.859,0
1583340538.275,28.809,23.926,38.574,10.254,9.277,0
1583340538.279,18.066,22.949,36.621,4.395,-18.555,0
1583340538.283,32.715,23.926,40.527,8.789,-34.180,0
1583340538.287,43.457,25.879,41.992,11.230,-30.273,0
1583340538.291,25.391,24.414,38.574,4.883,-33.203,0
1583340538.294,9.766,22.461,34.668,0.977,-20.996,0
1583340538.298,23.926,24.414,34.668,1.465,-16.602,0
1583340538.302,39.062,26.367,40.039,6.348,-23.926,0
1583340538.306,31.250,27.832,41.016,4.883,-50.781,0
1583340538.310,19.531,25.879,35.156,0.000,-28.809,0
1583340538.309,25.391,28.320,34.180,4.395,7.812,0
1583340538.313,41.992,28.809,33.691,6.836,-3.906,0
1583340538.317,47.363,28.320,37.109,7.812,3.418,0
1583340538.321,29.297,34.180,37.598,5.371,-0.977,0
1583340538.325,21.973,38.086,35.156,4.883,-12.695,0
1583340538.329,33.203,36.621,35.645,7.324,3.906,0
1583340538.333,37.109,37.598,33.203,9.766,19.531,0
1583340538.336,26.855,37.598,33.203,12.207,13.184,0
1583340538.340,17.090,32.715,35.156,8.789,-2.441,0
1583340538.344,30.762,30.273,34.668,9.277,1.953,0
1583340538.348,46.387,33.691,36.621,15.137,8.789,0
1583340538.352,32.715,35.645,41.016,14.648,2.930,0
1583340538.367,18.066,37.598,41.992,14.160,-12.207,0
1583340538.371,25.879,36.621,41.016,15.625,1.465,0
1583340538.375,39.551,32.715,37.598,14.160,16.113,0
1583340538.379,36.621,31.738,35.645,13.184,12.695,0
1583340538.383,20.020,31.250,36.621,14.648,12.695,0
1583340538.387,20.508,31.738,36.133,20.996,-6.836,0
1583340538.391,36.133,32.227,38.086,19.043,-14.160,0
1583340538.394,40.039,34.180,40.527,8.301,-22.461,0
1583340538.398,22.949,30.273,38.086,6.836,2.930,0
1583340538.402,14.160,29.297,32.715,9.277,6.348,0
1583340538.406,28.320,32.715,31.250,9.766,-10.742,0
1583340538.410,37.109,30.762,33.691,10.254,0.488,0
1583340538.406,20.020,25.879,33.203,8.301,11.230,0
1583340538.410,8.789,25.391,31.738,7.812,31.738,0
1583340538.414,24.902,28.320,31.250,12.695,20.996,0
1583340538.418,38.574,29.785,32.227,14.648,12.695,0
1583340538.422,29.297,30.273,34.180,12.695,25.879,0
1583340538.426,12.695,28.809,36.133,13.672,6.348,0
1583340538.430,20.508,30.762,35.645,13.672,13.184,0
1583340538.433,42.969,31.738,34.668,13.672,18.555,0
1583340538.437,40.039,25.391,33.691,10.254,16.602,0
1583340538.441,16.602,24.414,36.621,7.324,34.180,0
1583340538.445,16.113,26.855,38.086,3.418,24.902,0
1583340538.449,36.621,26.367,33.691,4.883,15.625,0
1583340538.446,41.504,24.414,32.715,8.789,37.109,0
1583340538.450,27.344,22.949,35.156,8.301,34.668,0
1583340538.454,22.949,28.320,35.156,12.207,0.488,0
1583340538.458,39.062,30.762,37.598,13.184,4.883,0
1583340538.462,49.805,26.855,38.086,14.648,39.062,0
1583340538.466,31.738,26.855,38.574,20.508,39.551,0
1583340538.470,17.090,28.320,38.086,21.484,8.301,0
1583340538.473,32.715,31.738,37.109,20.020,6.348,0
1583340538.477,48.828,35.645,37.109,18.066,-16.113,0
1583340538.481,42.480,32.227,34.180,15.137,-3.906,0
1583340538.485,27.344,32.227,36.133,16.113,26.855,0
1583340538.489,32.715,32.715,39.551,17.090,-4.395,0
1583340538.514,49.805,34.180,42.969,19.043,21.484,0
1583340538.518,47.363,35.156,41.992,18.066,11.719,0
1583340538.522,30.762,32.227,33.203,13.184,2.441,0
1583340538.526,25.391,34.668,30.273,14.648,8.789,0
1583340538.530,39.062,35.645,32.715,17.578,26.367,0
1583340538.534,44.922,34.180,34.668,19.531,42.969,0
1583340538.538,28.809,34.668,34.180,12.695,10.254,0
1583340538.541,21.484,30.762,32.227,4.395,-1.953,0
1583340538.545,33.203,24.902,34.180,10.742,8.301,0
1583340538.549,42.480,28.320,37.598,17.578,17.578,0
1583340538.553,31.250,32.715,36.621,19.043,20.020,0
1583340538.557,16.602,30.273,38.574,17.090,7.324,0
1583340538.548,25.391,32.715,37.598,14.648,8.301,0
1583340538.552,42.969,35.156,36.621,17.090,20.996,0
1583340538.556,37.109,33.203,37.598,19.043,2.441,0
1583340538.560,20.996,34.180,40.039,15.625,2.930,0
1583340538.564,24.902,34.668,39.551,17.090,-8.301,0
1583340538.568,45.410,37.109,36.621,21.484,5.371,0
1583340538.572,48.828,38.574,38.086,22.949,16.602,0
1583340538.575,31.738,35.156,39.551,22.461,-26.367,1
1583340538.579,29.785,32.227,39.062,18.555,5.371,0
1583340538.583,44.434,31.250,39.551,18.555,5.859,0
1583340538.587,51.758,29.785,36.133,19.531,13.672,0
1583340538.591,37.598,29.785,31.250,15.625,39.062,0
1583340538.586,24.414,29.785,33.203,18.066,3.906,0
1583340538.590,41.016,30.273,36.133,22.461,0.000,0
1583340538.594,53.223,36.621,39.551,23.926,-16.113,0
1583340538.598,35.156,35.156,41.992,15.137,-0.488,0
1583340538.602,18.066,27.832,38.086,7.324,10.254,0
1583340538.606,29.785,30.273,38.086,18.066,-8.789,0
1583340538.610,49.316,29.785,38.086,21.973,15.137,0
1583340538.613,39.062,30.762,36.621,16.602,26.855,0
1583340538.617,18.066,34.180,39.062,7.812,-8.301,0
1583340538.621,22.461,31.738,39.062,9.277,-6.836,0
1583340538.625,41.016,29.297,37.598,19.043,35.645,0
1583340538.629,39.551,28.809,40.527,20.996,14.160,0
1583340538.646,24.414,28.809,41.016,19.043,-5.371,0
1583340538.650,20.508,29.297,37.109,16.113,-10.254,0
1583340538.654,34.668,28.320,36.621,16.602,-9.766,0
1583340538.658,41.504,27.832,39.551,15.625,23.438,0
1583340538.662,24.902,29.785,38.086,10.742,26.367,0
1583340538.666,16.113,33.203,36.621,14.160,4.883,0
1583340538.670,25.879,32.715,41.016,10.742,-15.625,0
1583340538.673,37.109,29.785,39.551,7.812,11.230,0
1583340538.677,29.785,28.809,37.598,12.207,27.832,0
1583340538.681,14.160,29.297,38.574,10.742,23.926,0
1583340538.685,17.090,29.785,39.062,11.719,16.113,0
1583340538.689,31.738,29.297,40.039,13.672,-3.906,0
1583340538.687,30.273,30.762,39.062,11.719,-2.441,0
1583340538.691,13.672,27.832,37.598,8.789,-11.719,0
1583340538.695,13.672,24.414,36.621,10.254,16.602,0
1583340538.699,33.691,25.391,37.109,15.625,44.922,0
1583340538.703,40.039,25.879,37.598,14.648,29.297,0
1583340538.707,24.414,27.344,34.668,12.695,-6.836,0
1583340538.711,14.648,31.250,36.621,15.625,-17.090,0
1583340538.714,28.320,27.832,38.086,13.672,-2.930,0
1583340538.718,39.062,23.438,35.156,15.137,22.949,0
1583340538.722,25.879,26.855,37.109,15.625,-10.742,0
1583340538.726,15.137,28.320,36.621,11.719,-25.391,0
1583340538.730,29.785,27.832,36.133,15.137,10.742,0
1583340538.747,44.922,29.297,39.062,18.555,13.672,0
1583340538.751,37.109,29.297,40.039,21.484,18.066,0
1583340538.755,18.555,31.738,40.527,16.602,5.859,0
1583340538.759,25.879,33.203,41.992,14.160,-9.766,0
1583340538.763,52.734,33.691,41.016,22.461,16.602,0
1583340538.767,49.316,34.180,37.109,25.879,11.719,0
1583340538.771,25.879,31.250,36.133,20.020,-1.953,0
1583340538.774,22.949,27.832,38.574,16.602,-5.859,0
1583340538.778,43.457,25.391,35.156,19.043,0.000,0
1583340538.782,45.410,23.926,35.156,18.555,20.508,0
1583340538.786,28.809,23.926,38.574,19.531,21.973,0
1583340538.790,22.949,24.902,38.086,19.043,12.207,0
1583340538.787,30.762,24.902,40.527,16.113,-2.930,0
1583340538.791,38.574,24.414,38.574,15.625,0.488,0
1583340538.795,21.484,23.438,33.691,10.742,16.113,0
1583340538.799,4.883,24.902,33.691,2.441,6.836,0
1583340538.803,13.672,24.902,37.598,2.930,10.254,0
1583340538.807,24.902,27.832,39.062,7.812,-5.859,0
1583340538.811,18.555,29.785,35.156,4.883,-20.996,0
1583340538.814,5.371,26.367,36.133,3.418,10.254,0
1583340538.818,11.719,28.320,38.086,4.883,-2.930,0
1583340538.822,28.320,27.832,36.621,5.371,15.625,0
1583340538.826,26.855,25.879,39.062,8.301,28.320,0
1583340538.830,11.230,24.902,37.598,6.836,-8.789,0
1583340538.848,9.766,26.855,34.668,2.930,9.766,0
1583340538.852,30.273,32.715,36.133,6.836,19.043,0
1583340538.856,41.016,33.691,35.156,9.277,21.973,0
1583340538.860,24.902,30.762,37.109,10.254,27.344,0
1583340538.864,13.184,30.273,40.039,9.277,-12.695,0
1583340538.868,29.297,28.320,39.551,10.742,20.508,0
1583340538.872,44.434,29.297,37.109,17.090,51.758,0
1583340538.875,33.203,32.227,34.668,14.160,16.113,0
1583340538.879,17.090,31.738,37.598,13.672,-3.418,0
1583340538.883,18.066,28.809,37.598,16.602,-25.391,0
1583340538.887,38.574,27.832,34.668,17.090,15.625,0
1583340538.891,41.992,29.785,37.598,16.602,41.992,0
1583340538.888,24.414,31.250,40.039,12.207,17.578,0
1583340538.892,27.832,30.273,37.598,16.113,31.250,0
1583340538.896,45.898,30.762,36.621,19.531,24.902,0
1583340538.900,44.922,28.320,36.133,14.160,11.230,0
1583340538.904,25.391,29.297,37.598,10.254,15.137,0
1583340538.908,20.996,32.715,40.039,9.766,10.254,0
1583340538.912,37.598,32.715,38.086,11.719,16.113,0
1583340538.915,42.969,35.156,38.086,12.695,24.902,0
1583340538.919,28.809,34.668,39.062,8.301,8.301,0
1583340538.923,17.090,30.762,37.598,6.836,-9.766,0
1583340538.927,26.367,27.832,36.621,7.812,28.320,0
1583340538.931,42.480,26.855,39.062,12.695,38.574,0
1583340538.947,39.551,30.273,40.039,10.742,-3.906,0
1583340538.951,27.832,29.785,38.574,5.371,-19.531,0
1583340538.955,33.203,26.855,39.062,8.301,-2.441,0
1583340538.959,47.852,28.809,39.551,10.742,37.109,0
1583340538.963,47.852,30.762,39.062,13.672,34.668,0
1583340538.967,22.949,29.785,41.016,17.578,8.301,0
1583340538.971,14.160,30.273,38.086,14.160,16.602,0
1583340538.974,32.227,27.344,36.621,14.160,44.922,0
1583340538.978,32.227,22.461,39.551,13.672,44.922,0
1583340538.982,16.602,20.508,39.062,8.301,25.879,0
1583340538.986,12.207,25.879,43.945,11.719,13.184,0
1583340538.990,24.902,29.297,44.434,10.254,-21.484,0
1583340538.988,32.715,26.367,38.574,7.324,30.273,0
1583340538.992,21.484,27.344,41.016,10.254,55.176,0
1583340538.996,8.789,28.320,42.480,11.719,3.906,0
1583340539.000,15.625,27.344,43.945,13.672,0.488,0
1583340539.004,29.785,27.344,44.922,12.207,7.324,0
1583340539.008,25.879,25.879,45.410,12.207,7.812,0
1583340539.012,7.812,23.438,48.340,11.230,12.695,0
1583340539.015,11.230,23.926,48.340,8.789,11.230,0
1583340539.019,33.203,28.320,51.758,17.578,28.809,0
1583340539.023,37.598,30.273,50.781,20.508,31.738,0
1583340539.027,20.020,30.273,42.969,15.137,14.160,0
1583340539.031,17.090,30.762,41.504,13.184,27.832,0
1583340539.028,36.133,30.762,42.480,13.184,32.227,0
1583340539.032,40.039,30.762,42.480,17.090,11.230,0
1583340539.036,21.484,32.227,41.992,14.648,-8.301,0
1583340539.040,13.184,29.785,41.016,9.277,-20.020,0
1583340539.044,35.156,27.344,44.434,16.602,7.324,0
1583340539.048,48.828,29.297,43.945,20.996,16.113,0
1583340539.052,35.156,30.273,42.480,20.508,14.160,0
1583340539.055,24.414,35.156,44.434,19.531,7.324,0
1583340539.059,33.691,36.133,44.434,18.555,-7.812,0
1583340539.063,52.734,32.715,42.969,20.508,7.324,0
1583340539.067,45.410,35.645,40.527,20.020,15.137,0
1583340539.071,24.902,38.086,38.574,18.555,0.977,0
1583340539.127,23.438,38.574,41.016,15.625,-38.086,0
1583340539.131,37.598,33.691,37.598,13.184,-28.809,0
1583340539.135,48.340,30.273,33.203,13.184,20.996,0
1583340539.139,43.457,31.250,36.133,23.926,9.766,0
1583340539.143,32.227,31.250,39.551,28.320,-6.836,0
1583340539.147,30.762,35.645,42.969,14.160,-4.395,0
1583340539.151,35.645,37.598,43.945,8.789,12.207,0
1583340539.154,21.484,35.645,45.898,6.836,-4.883,0
1583340539.158,7.812,38.086,48.340,4.883,-29.297,0
1583340539.162,22.461,37.598,41.992,7.812,-37.109,0
1583340539.166,36.133,34.668,42.969,10.254,-57.129,0
1583340539.170,26.367,35.645,45.410,10.742,-40.527,0
1583340539.167,19.043,33.691,44.434,13.672,-29.785,0
1583340539.171,30.273,32.715,44.922,17.090,-38.574,0
1583340539.175,45.898,31.738,39.551,15.625,-41.504,0
1583340539.179,42.480,33.691,39.062,14.648,-55.664,0
1583340539.183,30.273,35.156,39.551,14.648,-71.289,0
1583340539.187,28.809,31.250,39.551,12.695,-56.152,0
1583340539.191,44.434,29.297,41.504,12.207,-19.043,0
1583340539.194,49.805,30.762,42.480,12.207,-21.484,0
1583340539.198,28.809,28.809,41.016,9.277,-26.855,0
1583340539.202,17.578,27.344,40.527,7.812,-27.344,0
1583340539.206,34.180,30.273,41.992,10.254,-33.203,0
1583340539.210,45.898,31.250,46.387,14.648,-29.785,0
1583340539.187,31.250,26.855,48.340,13.184,-4.395,0
1583340539.191,20.996,30.273,44.922,13.672,-0.488,0
1583340539.195,31.250,32.227,46.387,20.020,-1.953,0
1583340539.199,43.945,27.832,43.457,16.113,-1.465,0
1583340539.203,36.133,29.785,41.504,13.672,-13.672,0
1583340539.207,19.043,29.297,41.992,13.184,-0.488,0
1583340539.211,26.855,28.809,41.992,18.066,2.441,0
1583340539.214,45.898,28.809,41.992,19.531,19.531,0
1583340539.218,45.410,29.297,41.016,14.160,20.996,0
1583340539.222,28.809,30.273,41.992,12.695,20.508,0
1583340539.226,29.785,28.320,40.039,14.648,7.324,0
1583340539.230,49.805,30.762,38.086,18.555,5.859,0
1583340539.210,49.316,36.133,40.527,14.648,0.488,0
1583340539.214,28.320,34.668,37.598,9.766,-34.668,0
1583340539.218,20.020,28.809,31.738,10.742,-8.789,0
1583340539.222,32.715,26.855,31.738,11.719,16.602,0
1583340539.226,45.898,26.855,35.156,15.137,26.855,0
1583340539.230,32.227,28.320,39.062,17.090,13.184,0
1583340539.234,14.160,27.832,37.598,14.648,-21.973,0
1583340539.237,21.973,27.344,34.180,12.695,-10.742,0
1583340539.241,34.668,26.855,32.715,9.277,8.301,0
1583340539.245,26.855,23.926,33.691,6.836,24.414,0
1583340539.249,8.301,26.367,36.621,4.883,-9.766,0
1583340539.253,9.766,27.832,37.109,0.977,-25.391,0
1583340539.247,31.250,25.879,35.156,4.883,7.812,0
1583340539.251,33.691,28.809,37.109,6.836,28.809,0
1583340539.255,15.137,27.344,40.039,6.348,28.320,0
1583340539.259,10.742,28.809,41.016,9.277,1.953,0
1583340539.263,27.344,33.203,41.016,10.742,9.277,0
1583340539.267,33.203,30.273,39.551,11.719,39.062,0
1583340539.271,15.625,25.879,36.133,6.348,46.875,0
1583340539.274,6.836,26.855,35.156,7.324,37.109,0
1583340539.278,23.926,29.297,39.062,14.160,26.855,0
1583340539.282,38.086,33.691,42.969,10.254,-4.395,0
1583340539.286,25.391,31.738,38.574,1.953,3.906,0
1583340539.290,14.160,30.273,35.645,2.930,35.645,0
1583340539.307,26.855,31.250,37.598,13.184,31.738,0
1583340539.311,41.992,30.762,36.621,17.090,39.062,0
1583340539.315,36.621,32.715,33.203,13.672,38.574,0
1583340539.319,19.043,34.180,34.180,9.277,22.461,0
1583340539.323,15.137,32.227,38.574,7.324,2.930,0
1583340539.327,33.691,31.738,34.180,12.207,18.066,0
1583340539.331,36.621,33.203,29.785,14.160,38.574,0
1583340539.334,18.066,36.621,34.668,10.254,-2.441,0
1583340539.338,13.184,35.156,36.133,10.254,5.371,0
1583340539.342,32.227,32.227,37.109,14.160,19.531,0
1583340539.346,41.504,31.738,37.598,15.137,8.301,0
1583340539.350,23.438,33.203,40.039,12.695,22.461,0
1583340539.349,10.742,32.715,44.922,9.277,18.066,0
1583340539.353,24.414,28.320,42.969,11.719,32.227,0
1583340539.357,35.645,27.832,37.598,11.719,52.246,0
1583340539.361,26.855,28.809,35.156,9.766,23.926,0
1583340539.365,17.578,32.227,37.598,10.254,-1.465,0
1583340539.369,21.973,31.250,38.086,13.184,17.578,0
1583340539.373,34.180,26.855,33.203,16.602,22.461,0
1583340539.376,30.273,28.320,33.203,12.207,8.301,0
1583340539.380,15.625,26.855,37.598,6.348,19.531,0
1583340539.384,18.555,26.855,41.504,11.719,8.301,0
1583340539.388,32.227,31.250,41.992,17.090,-7.324,0
1583340539.392,35.645,29.297,39.062,19.531,-1.465,0
1583340539.387,20.996,29.785,34.668,16.113,10.254,0
1583340539.391,15.137,33.203,34.180,11.230,-6.836,0
1583340539.395,30.762,33.203,36.133,15.625,1.465,0
1583340539.399,40.527,32.715,38.574,15.625,-2.441,0
1583340539.403,29.297,31.738,36.133,9.766,-23.438,0
1583340539.407,19.531,31.250,35.645,15.137,-26.855,0
1583340539.411,28.809,31.738,41.016,21.973,-36.133,0
1583340539.414,41.016,27.344,40.039,18.555,-2.441,0
1583340539.418,32.715,29.297,42.480,15.625,-8.301,0
1583340539.422,19.531,30.762,40.527,10.742,-30.762,0
1583340539.426,23.438,27.344,35.645,8.301,-12.207,0
1583340539.430,38.574,26.855,38.574,13.184,-17.090,0
1583340539.427,38.574,24.902,37.109,12.695,10.254,0
1583340539.431,21.484,25.391,37.109,12.207,18.555,0
1583340539.435,17.090,24.414,36.621,6.836,-12.695,0
1583340539.439,34.180,25.879,36.133,5.371,-6.348,0
1583340539.443,39.062,29.785,35.645,8.789,1.953,0
1583340539.447,17.578,29.297,38.086,8.789,6.836,0
1583340539.451,9.766,27.344,37.598,9.766,-10.254,0
1583340539.454,29.297,26.367,34.668,12.695,-20.508,0
1583340539.458,43.945,28.320,37.109,16.602,7.812,0
1583340539.462,34.668,27.832,36.621,19.043,-1.465,0
1583340539.466,22.461,26.855,33.691,16.602,-9.277,0
1583340539.470,28.809,27.344,34.180,17.578,5.859,0
1583340539.486,44.922,27.344,33.691,19.043,-12.695,0
1583340539.490,40.039,26.855,32.715,15.137,0.000,0
1583340539.494,20.508,25.391,34.180,11.719,27.832,0
1583340539.498,26.855,28.320,37.109,11.719,21.484,0
1583340539.502,45.410,32.227,36.133,15.625,14.160,0
1583340539.506,41.504,30.273,35.645,15.625,16.113,0
1583340539.510,21.973,24.902,36.621,8.301,15.625,0
1583340539.513,22.461,27.832,32.715,8.301,7.324,0
1583340539.517,45.410,33.203,29.297,13.184,9.766,0
1583340539.521,52.734,33.691,27.832,16.113,20.508,0
1583340539.525,33.691,35.156,29.785,14.648,9.766,0
1583340539.529,20.020,34.180,31.250,14.648,16.602,0
1583340539.527,30.762,31.738,30.762,20.996,20.508,0
1583340539.531,46.387,34.180,34.668,22.461,48.340,0
1583340539.535,39.062,36.621,34.180,22.949,53.711,0
1583340539.539,21.973,34.180,30.762,16.113,-2.930,0
1583340539.543,30.762,29.297,31.738,8.789,-13.672,0
1583340539.547,44.434,28.809,29.297,15.137,9.766,0
1583340539.551,35.645,31.250,31.250,13.184,24.414,0
1583340539.554,23.438,32.227,36.621,9.277,34.180,0
1583340539.558,23.438,33.203,39.551,9.277,1.953,0
1583340539.562,38.086,31.738,37.598,8.301,1.953,0
1583340539.566,41.992,34.668,35.156,11.719,11.230,0
1583340539.570,29.785,39.551,37.109,11.719,-5.859,0
1583340539.587,25.391,36.621,40.039,19.531,-6.836,0
1583340539.591,39.062,32.715,38.574,21.484,-4.395,0
1583340539.595,47.852,31.250,35.645,15.625,9.277,0
1583340539.599,30.273,30.273,34.668,13.184,16.113,0
1583340539.603,17.578,30.273,34.180,7.324,21.484,0
1583340539.607,30.762,28.320,37.598,12.207,-4.883,0
1583340539.611,41.504,28.320,42.480,19.043,-12.207,0
1583340539.614,29.785,27.344,41.016,15.137,5.859,0
1583340539.618,15.137,26.367,40.039,12.695,0.488,0
1583340539.622,21.484,29.785,40.039,13.672,3.906,0
1583340539.626,37.109,29.785,37.598,16.602,19.531,0
1583340539.630,33.203,27.832,40.039,18.066,3.906,3
1583340539.627,14.648,28.320,41.504,12.695,-7.324,0
1583340539.631,9.766,29.785,41.504,8.789,-2.930,0
1583340539.635,25.879,32.227,41.016,7.812,10.742,0
1583340539.639,30.273,30.273,40.039,5.371,18.555,0
1583340539.643,12.207,29.297,41.016,6.836,4.395,0
1583340539.647,6.348,31.738,39.551,7.812,-3.906,0
1583340539.651,23.438,31.250,35.156,5.859,28.320,0
1583340539.654,33.691,29.785,33.691,5.371,46.387,0
1583340539.658,21.973,28.809,35.645,3.418,29.297,0
1583340539.662,10.742,30.273,33.691,6.348,23.438,0
1583340539.666,23.926,35.645,37.598,7.812,-11.719,0
1583340539.670,41.992,33.691,41.016,7.324,1.465,0
1583340539.666,34.180,32.715,38.086,9.766,27.344,0
1583340539.670,15.625,34.180,37.109,10.742,6.836,0
1583340539.674,24.902,33.691,39.062,14.648,21.973,0
1583340539.678,44.434,32.715,40.527,18.555,31.738,0
1583340539.682,40.039,32.715,42.480,16.602,33.691,0
1583340539.686,25.879,34.668,46.875,15.137,22.461,0
1583340539.690,25.391,31.738,48.340,17.090,6.348,0
1583340539.693,41.992,30.762,46.387,21.973,17.578,0
1583340539.697,47.363,34.180,45.410,22.949,22.949,0
1583340539.701,29.297,32.227,40.527,16.602,30.762,0
1583340539.705,22.949,29.297,38.574,16.602,7.324,0
1583340539.709,35.156,31.738,41.016,19.531,0.000,0
1583340539.727,45.898,32.715,39.551,22.461,25.391,0
1583340539.731,36.621,36.621,41.504,18.555,15.625,0
1583340539.735,23.926,36.621,41.016,12.207,13.672,0
1583340539.739,32.715,33.691,38.574,17.090,17.578,0
1583340539.743,46.387,32.715,44.434,18.066,8.301,0
1583340539.747,41.992,31.738,44.922,15.137,24.902,0
1583340539.751,23.926,35.156,42.480,16.602,21.484,0
1583340539.754,26.367,31.738,40.527,13.184,10.742,0
1583340539.758,47.852,31.250,38.086,16.602,35.156,0
1583340539.762,49.316,34.180,40.527,22.949,27.344,0
1583340539.766,31.250,33.203,42.480,20.508,18.555,0
1583340539.770,23.438,31.250,44.922,14.160,9.766,0
1583340539.766,37.598,28.809,44.434,14.648,22.461,0
1583340539.770,46.875,26.367,36.621,15.137,56.152,0
1583340539.774,36.133,30.273,37.598,15.137,22.949,0
1583340539.778,25.879,30.762,40.039,16.602,15.625,0
1583340539.782,39.551,29.297,45.410,20.020,23.438,0
1583340539.786,54.199,30.762,49.316,24.902,21.484,0
1583340539.790,39.551,31.250,49.316,22.949,34.180,0
1583340539.793,20.996,30.762,47.363,20.508,16.113,0
1583340539.797,32.715,29.785,42.969,22.461,9.766,0
1583340539.801,53.223,32.715,42.480,23.438,14.648,0
1583340539.805,46.875,33.203,41.504,15.625,-14.648,0
1583340539.809,31.738,26.855,37.109,9.277,-15.137,0
1583340539.807,37.109,27.344,36.133,16.602,-4.883,0
1583340539.811,55.664,32.715,35.645,20.996,22.949,0
1583340539.815,51.270,35.156,41.016,22.949,34.180,0
1583340539.819,30.273,31.250,43.945,20.508,15.625,0
1583340539.823,23.438,31.738,36.133,14.160,20.020,0
1583340539.827,31.738,34.180,39.062,15.137,2.930,0
1583340539.831,32.227,25.879,41.016,12.207,19.043,0
1583340539.834,18.066,25.879,39.062,8.301,43.945,0
1583340539.838,1.953,31.250,43.457,0.000,6.348,0
1583340539.842,9.277,26.367,42.480,-4.883,2.441,0
1583340539.846,27.344,23.926,38.574,3.418,16.602,0
1583340539.850,18.555,25.391,40.527,5.371,14.648,0
1583340539.867,2.930,25.391,44.922,6.836,4.883,0
1583340539.871,8.789,23.926,41.992,8.789,9.766,0
1583340539.875,28.320,23.438,40.527,9.277,5.859,0
1583340539.879,28.320,25.391,44.434,11.719,-2.930,0
1583340539.883,13.672,26.367,47.852,14.160,10.254,0
1583340539.887,10.742,25.391,46.387,19.043,-17.090,0
1583340539.891,27.344,26.855,44.922,15.137,-25.879,0
1583340539.894,35.156,23.926,41.016,6.348,-1.465,0
1583340539.898,22.461,24.414,36.133,9.277,20.996,0
1583340539.902,16.113,29.297,38.086,12.207,16.602,0
1583340539.906,31.250,27.832,39.062,14.160,23.438,0
1583340539.910,46.875,27.832,37.598,19.043,53.711,0
1583340539.908,34.668,32.227,34.180,18.555,55.664,0
1583340539.912,22.949,31.250,33.691,17.578,16.113,0
1583340539.916,31.738,26.367,36.133,17.578,10.742,0
1583340539.920,42.480,25.391,36.621,17.578,41.016,0
