timestamps,TP9,AF7,AF8,TP10,Right AUX,Marker0
1583510332.241,23.926,36.621,39.551,78.125,40.039,0
1583510332.245,25.879,33.203,41.504,44.434,22.461,0
1583510332.249,25.391,30.273,37.598,2.930,32.715,0
1583510332.253,20.508,32.227,36.621,20.020,45.410,0
1583510332.257,22.461,33.203,37.109,62.500,56.641,0
1583510332.261,20.020,32.715,35.156,35.645,46.387,0
1583510332.265,20.508,37.598,34.668,-0.977,37.109,0
1583510332.268,27.832,35.645,34.180,12.207,68.848,0
1583510332.272,29.785,33.691,36.133,46.875,29.785,0
1583510332.276,36.621,41.016,38.086,65.430,-1.465,0
1583510332.280,41.016,44.922,40.527,32.715,48.340,0
1583510332.284,35.156,44.922,41.992,24.414,44.922,0
1583510332.281,35.645,45.898,41.016,57.129,52.246,0
1583510332.285,33.691,44.434,41.504,63.965,43.945,0
1583510332.289,31.250,43.457,41.992,35.645,37.598,0
1583510332.293,29.785,42.480,42.480,11.230,5.859,0
1583510332.297,23.438,39.551,43.457,50.293,-14.160,0
1583510332.301,24.414,40.039,39.551,62.988,5.859,0
1583510332.305,27.832,40.039,37.598,23.926,35.645,0
1583510332.308,26.855,40.039,39.551,0.000,8.301,0
1583510332.312,23.926,39.062,39.062,26.367,5.859,0
1583510332.316,26.367,39.551,37.109,62.988,45.898,0
1583510332.320,29.297,41.504,39.062,35.645,48.828,0
1583510332.324,27.832,41.016,39.551,-2.930,20.996,0
1583510332.323,29.297,41.016,39.551,21.484,-8.789,0
1583510332.327,29.785,40.039,39.062,63.965,11.230,0
1583510332.331,30.273,38.086,38.086,62.500,51.758,0
1583510332.335,33.691,37.109,40.527,6.348,30.273,0
1583510332.339,33.691,37.109,40.527,-5.859,-43.457,0
1583510332.343,33.203,37.109,38.574,51.758,33.203,0
1583510332.347,33.691,37.109,36.133,64.453,103.027,0
1583510332.350,31.738,37.109,33.691,29.297,79.590,0
1583510332.354,32.227,37.598,33.691,-0.977,88.379,0
1583510332.358,30.762,38.086,34.180,23.438,1.953,0
1583510332.362,27.832,37.109,34.180,59.570,10.254,0
1583510332.366,28.809,35.156,32.715,31.738,105.469,0
1583510332.381,26.367,35.156,32.227,-8.301,51.270,0
1583510332.385,27.344,37.598,32.715,1.953,16.602,0
1583510332.389,34.180,38.574,33.203,37.109,34.180,0
1583510332.393,37.598,39.062,30.273,36.621,64.941,0
1583510332.397,34.668,40.039,30.762,-6.348,74.707,0
1583510332.401,31.250,39.062,32.227,-0.488,47.363,0
1583510332.405,30.273,37.109,30.273,34.668,64.453,0
1583510332.408,30.762,37.109,31.738,33.691,58.594,0
1583510332.412,27.344,38.574,31.250,5.371,-0.977,0
1583510332.416,22.461,35.156,30.273,-8.301,-31.738,0
1583510332.420,23.438,32.715,35.645,38.086,3.418,0
1583510332.424,28.320,33.691,37.598,51.758,-1.465,0
1583510332.421,27.832,34.668,34.668,12.695,-45.410,0
1583510332.425,23.926,33.691,36.621,-0.488,19.531,0
1583510332.429,24.414,31.738,36.133,22.949,35.645,0
1583510332.433,25.879,33.203,32.715,48.828,39.062,0
1583510332.437,28.809,34.180,33.691,14.648,55.176,0
1583510332.441,30.762,34.180,33.691,-15.625,46.387,0
1583510332.445,28.809,35.156,31.738,11.719,86.914,0
1583510332.448,32.227,36.133,34.668,44.922,34.668,0
1583510332.452,40.527,39.062,35.645,43.457,-2.441,0
1583510332.456,41.504,39.062,33.203,-7.324,64.941,0
1583510332.460,45.410,41.016,34.180,0.000,80.078,0
1583510332.464,52.246,42.480,34.180,58.105,67.383,0
1583510332.462,49.805,40.527,31.738,60.059,22.949,0
1583510332.466,46.387,42.969,31.250,22.949,-16.602,0
1583510332.470,47.852,43.945,32.227,4.395,7.324,0
1583510332.474,52.734,44.922,30.762,48.828,59.082,0
1583510332.478,56.152,45.410,29.297,76.172,32.227,0
1583510332.482,50.781,44.434,29.297,39.062,-42.480,0
1583510332.486,42.480,40.527,32.715,15.625,19.043,0
1583510332.489,39.551,39.062,35.156,30.273,24.902,0
1583510332.493,36.621,40.527,33.691,58.594,-8.789,0
1583510332.497,36.621,39.062,33.203,54.199,67.871,0
1583510332.501,39.062,37.598,34.180,21.484,100.098,0
1583510332.505,34.668,38.086,33.203,30.762,58.594,0
1583510332.521,28.320,36.621,33.203,54.199,48.828,0
1583510332.525,33.203,33.691,36.621,48.828,30.273,0
1583510332.529,37.109,34.180,37.109,15.625,25.879,0
1583510332.533,36.621,35.645,35.156,7.812,26.367,0
1583510332.537,33.691,34.668,33.691,45.410,58.105,0
1583510332.541,30.273,33.203,33.203,41.504,49.805,0
1583510332.545,33.691,32.227,33.203,3.418,23.926,0
1583510332.548,39.062,32.227,33.691,-5.371,28.809,0
1583510332.552,42.480,34.668,35.645,32.715,-14.160,0
1583510332.556,41.992,34.668,37.109,57.617,21.973,0
1583510332.560,36.621,35.156,37.109,20.996,24.414,0
1583510332.564,28.809,35.156,37.598,-4.395,51.270,0
1583510332.562,29.785,36.621,36.621,29.297,92.285,0
1583510332.566,31.738,37.109,35.156,66.895,87.891,0
1583510332.570,31.738,34.668,37.109,53.223,108.398,0
1583510332.574,32.715,34.668,37.598,4.395,89.844,0
1583510332.578,31.738,36.621,37.598,11.719,16.602,0
1583510332.582,32.227,36.621,40.039,62.988,29.785,0
1583510332.586,33.691,36.133,40.039,63.965,39.551,0
1583510332.589,34.180,35.156,38.574,23.438,11.719,0
1583510332.593,31.738,35.645,35.645,11.719,13.184,0
1583510332.597,30.762,36.133,37.109,53.711,-26.367,0
1583510332.601,30.762,36.133,38.086,75.195,-19.043,0
1583510332.605,32.227,39.062,35.156,44.434,24.902,0
1583510332.601,36.133,39.062,35.156,23.438,42.480,0
1583510332.605,35.645,37.598,37.109,45.410,10.742,0
1583510332.609,36.133,39.551,35.645,70.312,8.789,0
1583510332.613,30.273,37.598,32.715,44.434,38.574,0
1583510332.617,16.113,33.691,33.203,0.000,30.762,0
1583510332.621,10.254,31.738,31.738,9.277,-1.465,0
1583510332.625,6.348,33.691,32.227,47.363,66.895,0
1583510332.628,3.418,36.621,35.645,32.227,121.582,0
1583510332.632,5.371,36.621,34.180,-13.184,61.523,0
1583510332.636,4.883,34.180,32.715,-7.812,18.555,0
1583510332.640,11.230,34.668,32.227,30.762,18.066,0
1583510332.644,19.043,37.109,34.180,27.344,-16.602,0
1583510332.662,18.555,37.598,33.203,-7.324,-30.762,0
1583510332.666,16.602,37.598,33.203,-13.672,16.113,0
1583510332.670,20.020,37.109,34.668,21.973,-24.902,0
1583510332.674,22.949,36.621,33.691,46.387,-9.766,0
1583510332.678,20.996,35.156,33.203,17.578,78.613,0
1583510332.682,24.414,33.691,32.227,-6.836,48.340,0
1583510332.686,28.320,33.203,33.203,33.691,62.012,0
1583510332.689,25.879,32.715,31.738,65.918,34.180,0
1583510332.693,32.227,32.715,28.320,49.316,1.953,0
1583510332.697,34.668,28.809,29.785,19.531,23.926,0
1583510332.701,23.438,26.855,31.250,36.621,36.133,0
1583510332.705,26.855,29.785,31.250,76.172,85.449,0
1583510332.703,31.738,31.738,34.668,62.988,51.758,0
1583510332.707,35.156,31.738,38.086,19.531,38.086,0
1583510332.711,39.062,28.809,34.668,16.602,60.547,0
1583510332.715,41.016,31.250,34.668,56.152,20.508,0
1583510332.719,41.016,33.203,34.668,60.059,26.367,0
1583510332.723,35.645,31.250,33.691,23.926,56.152,0
1583510332.727,35.156,30.273,35.156,0.977,53.223,0
1583510332.730,40.039,33.203,33.691,28.809,93.750,0
1583510332.734,37.598,35.645,32.715,51.758,75.195,0
1583510332.738,36.621,37.598,31.738,16.113,42.480,0
1583510332.742,43.945,40.527,32.227,-14.648,17.578,0
1583510332.746,41.992,41.992,32.227,7.324,19.531,0
1583510332.761,40.039,38.086,30.762,32.715,67.383,0
1583510332.765,39.062,36.133,32.715,21.973,5.859,0
1583510332.769,29.297,38.086,33.203,-16.602,-40.527,0
1583510332.773,31.250,36.621,34.668,1.465,21.484,0
1583510332.777,36.621,33.691,37.109,39.062,13.672,0
1583510332.781,36.133,33.691,38.574,25.879,-6.836,0
1583510332.785,38.086,32.715,37.598,4.395,31.738,0
1583510332.788,33.203,32.715,34.180,-2.930,21.484,0
1583510332.792,34.180,36.621,32.227,35.645,5.859,0
1583510332.796,35.645,38.574,31.738,47.852,-0.488,0
1583510332.800,31.250,40.039,34.180,11.719,-3.906,0
1583510332.804,25.391,39.062,33.691,6.836,54.199,0
1583510332.801,20.508,35.645,31.250,32.715,69.336,0
1583510332.805,22.461,33.691,30.762,51.270,69.336,0
1583510332.809,23.926,35.645,28.809,14.160,85.938,0
1583510332.813,22.461,36.133,29.297,-21.484,57.129,0
1583510332.817,16.602,33.691,29.297,12.695,22.949,0
1583510332.821,12.207,32.227,31.250,44.434,16.113,0
1583510332.825,15.625,32.715,33.691,38.574,68.848,0
1583510332.828,18.555,33.203,30.273,-6.836,96.680,0
1583510332.832,18.066,31.738,28.809,-6.348,40.039,0
1583510332.836,15.625,31.250,30.273,52.246,8.789,0
1583510332.840,11.719,31.738,30.762,52.246,15.625,0
1583510332.844,15.137,32.227,31.250,17.090,35.645,0
1583510332.841,22.461,34.668,32.227,1.465,63.477,0
1583510332.845,20.996,36.133,29.297,32.715,20.508,0
1583510332.849,18.555,33.203,26.367,63.965,37.109,0
1583510332.853,19.531,31.250,28.320,26.855,56.152,0
1583510332.857,21.484,31.738,29.785,3.418,37.109,0
1583510332.861,23.926,32.715,33.691,30.762,39.551,0
1583510332.865,20.508,33.203,33.203,54.199,44.434,0
1583510332.868,16.113,34.180,29.785,46.875,75.684,0
1583510332.872,19.043,30.762,33.203,9.277,52.734,0
1583510332.876,16.113,30.762,32.715,20.996,18.555,0
1583510332.880,15.137,33.203,29.297,53.711,0.000,0
1583510332.884,22.461,30.273,29.297,45.898,-3.906,0
1583510332.902,22.461,31.250,31.250,19.043,43.945,0
1583510332.906,16.602,34.668,30.762,12.207,42.969,0
1583510332.910,18.555,36.133,28.320,52.734,49.316,0
1583510332.914,24.902,36.621,28.320,48.828,88.867,0
1583510332.918,29.785,35.645,31.738,-2.441,14.160,0
1583510332.922,29.785,34.668,31.250,-3.418,-18.066,0
1583510332.926,23.926,32.227,31.250,33.203,34.180,0
1583510332.929,27.344,30.273,33.691,46.387,-4.883,0
1583510332.933,36.133,34.668,31.250,14.648,10.742,0
1583510332.937,35.645,35.645,30.273,-10.254,51.758,0
1583510332.941,35.645,37.109,31.738,28.320,23.438,0
1583510332.945,35.156,38.574,28.320,57.129,21.973,0
1583510332.941,36.621,36.133,28.809,36.133,37.598,0
1583510332.945,38.574,35.156,31.250,-5.371,28.320,0
1583510332.949,34.668,36.621,32.715,4.883,11.230,0
1583510332.953,31.738,39.062,34.668,54.688,55.176,0
1583510332.957,31.738,40.039,34.180,42.969,-4.883,0
1583510332.961,31.250,40.527,35.156,0.977,5.859,0
1583510332.965,32.227,39.551,36.621,-11.719,59.570,0
1583510332.968,30.762,38.086,34.668,30.273,34.668,0
1583510332.972,29.297,37.598,36.621,45.898,39.062,0
1583510332.976,32.227,37.109,35.156,6.836,29.785,0
1583510332.980,24.414,36.621,35.156,-10.742,15.625,0
1583510332.984,21.973,37.598,34.668,14.160,14.648,0
1583510332.981,25.879,35.156,33.203,41.016,-11.230,0
1583510332.985,22.461,34.668,31.738,22.461,0.000,0
1583510332.989,25.879,36.133,30.273,-1.953,3.418,0
1583510332.993,28.320,35.645,32.715,27.832,12.207,0
1583510332.997,31.738,38.574,34.180,51.758,45.410,0
1583510333.001,38.086,40.527,33.203,40.039,44.434,0
1583510333.005,33.691,40.527,31.738,11.230,36.133,0
1583510333.008,28.320,39.551,32.715,22.461,10.742,0
1583510333.012,27.832,37.109,34.668,64.453,52.734,0
1583510333.016,32.715,37.598,36.621,51.758,70.801,0
1583510333.020,33.691,37.109,34.180,20.508,69.824,0
1583510333.024,34.668,37.109,32.715,25.391,83.984,0
1583510333.041,40.527,38.574,35.156,67.383,70.312,0
1583510333.045,39.551,40.527,36.133,79.102,26.855,0
1583510333.049,36.621,40.527,34.180,35.645,20.508,0
1583510333.053,31.738,37.109,33.691,21.973,105.469,0
1583510333.057,32.227,33.203,35.645,57.129,124.512,0
1583510333.061,31.250,32.227,35.645,71.289,32.227,0
1583510333.065,31.738,33.691,33.691,42.969,11.230,0
1583510333.068,36.133,34.180,35.156,3.418,22.461,0
1583510333.072,41.016,34.668,36.133,30.273,-25.391,0
1583510333.076,43.457,35.156,36.621,70.312,-53.223,0
1583510333.080,37.598,36.133,36.133,52.734,9.766,0
1583510333.084,31.250,38.086,32.715,8.789,56.152,0
1583510333.081,30.273,38.574,31.738,2.930,32.715,0
1583510333.085,35.645,38.086,32.227,42.480,-10.742,0
1583510333.089,41.504,37.598,34.668,51.270,18.555,0
1583510333.093,41.504,36.621,37.109,14.648,96.680,0
1583510333.097,38.086,37.598,33.203,0.977,58.105,0
1583510333.101,37.598,37.109,34.180,29.785,-6.836,0
1583510333.105,37.598,33.691,35.645,46.875,-5.859,0
1583510333.108,35.645,31.250,31.738,19.531,25.879,0
1583510333.112,39.551,32.715,30.762,-3.418,21.973,0
1583510333.116,42.969,34.668,33.203,27.344,-19.531,0
1583510333.120,39.062,34.668,33.691,41.504,21.484,0
1583510333.124,41.016,33.203,30.273,18.555,79.102,0
1583510333.121,44.922,34.668,30.762,-8.301,25.391,0
1583510333.125,42.480,34.668,32.715,7.324,-3.906,0
1583510333.129,37.109,32.715,36.621,49.805,4.883,0
1583510333.133,31.738,32.715,36.621,37.598,6.836,0
1583510333.137,26.367,31.738,35.156,1.953,37.109,0
1583510333.141,21.973,30.762,38.086,10.254,-0.977,0
1583510333.145,23.926,33.203,37.598,47.852,-34.180,0
1583510333.148,27.344,32.715,35.156,54.688,48.340,0
1583510333.152,23.926,29.785,35.156,3.906,20.508,0
1583510333.156,21.484,32.227,35.156,-11.230,0.000,0
1583510333.160,25.391,32.227,34.180,29.297,32.715,0
1583510333.164,29.297,32.227,33.203,46.387,4.395,0
1583510333.182,30.273,33.203,32.227,18.555,8.789,0
1583510333.186,28.320,32.715,30.273,-12.695,20.020,0
1583510333.190,34.180,34.180,29.297,22.949,24.902,0
1583510333.194,36.621,36.133,31.738,62.988,51.270,0
1583510333.198,37.109,36.133,34.668,42.969,63.965,0
1583510333.202,34.668,36.133,35.156,9.277,42.969,0
1583510333.206,26.367,36.133,35.645,15.625,36.133,0
1583510333.209,28.809,35.645,34.180,56.152,63.477,0
1583510333.213,27.344,34.668,32.715,54.199,66.895,0
1583510333.217,20.020,35.645,33.691,11.719,75.195,0
1583510333.221,20.020,37.109,32.227,10.742,84.961,0
1583510333.225,14.648,34.668,32.715,40.039,-8.789,0
1583510333.221,11.719,36.133,34.180,49.805,-13.672,0
1583510333.225,16.113,38.086,35.645,22.949,82.520,0
1583510333.229,17.090,36.133,32.227,-2.441,60.547,0
1583510333.233,20.996,32.715,28.809,29.297,30.273,0
1583510333.237,17.578,30.762,29.785,47.852,36.621,0
1583510333.241,15.625,31.738,29.785,22.461,-2.930,0
1583510333.245,20.508,32.227,33.691,-3.906,20.508,0
1583510333.248,21.973,34.668,33.203,19.531,29.785,0
1583510333.252,22.949,33.691,31.738,51.270,0.977,0
1583510333.256,22.461,35.156,32.715,33.203,6.348,0
1583510333.260,22.949,39.062,32.227,2.441,-7.324,0
1583510333.264,28.809,38.574,31.738,16.113,-16.113,0
1583510333.261,30.762,36.621,32.227,67.871,28.809,0
1583510333.265,30.762,38.574,34.180,62.988,-21.973,0
1583510333.269,36.133,41.016,34.180,20.508,-0.977,0
1583510333.273,37.109,40.527,33.203,24.414,38.574,0
1583510333.277,37.598,38.574,32.227,62.500,2.930,0
1583510333.281,37.598,37.598,31.250,80.078,25.391,0
1583510333.285,35.645,38.574,32.227,35.156,54.688,0
1583510333.288,31.250,35.156,35.156,-0.488,67.383,0
1583510333.292,33.203,33.691,34.180,41.016,31.738,0
1583510333.296,31.250,34.180,34.668,64.941,-9.766,0
1583510333.300,23.438,33.203,37.598,40.039,8.301,0
1583510333.304,20.508,33.691,35.645,-2.930,34.180,0
1583510333.321,20.508,32.227,34.180,9.277,4.883,0
1583510333.325,20.020,34.180,35.156,56.641,-27.832,0
1583510333.329,22.461,36.133,33.691,43.457,46.875,0
1583510333.333,29.297,34.668,33.691,4.395,62.500,0
1583510333.337,32.227,36.133,33.691,3.418,15.137,0
1583510333.341,27.344,35.645,32.227,32.715,1.465,0
1583510333.345,20.996,35.645,34.668,36.621,29.297,0
1583510333.348,22.461,39.062,32.227,-5.859,99.609,0
1583510333.352,30.273,39.551,28.809,-9.766,100.098,0
1583510333.356,34.180,40.039,30.762,23.926,70.801,0
1583510333.360,35.645,41.992,32.227,39.062,91.309,0
1583510333.364,31.250,40.527,32.227,19.043,75.195,0
1583510333.364,25.391,37.598,35.645,-7.324,29.297,0
1583510333.368,23.926,39.551,35.156,31.250,26.855,0
1583510333.372,25.391,38.574,33.203,51.270,26.855,0
1583510333.376,29.297,36.133,32.715,25.879,-20.020,0
1583510333.380,29.297,36.621,35.156,10.742,-17.578,0
1583510333.384,24.414,36.621,38.086,22.461,33.691,0
1583510333.388,25.879,36.621,37.598,55.176,9.277,0
1583510333.391,27.832,37.109,37.598,36.133,-13.184,0
1583510333.395,27.344,38.086,35.645,-11.719,-2.930,0
1583510333.399,22.949,37.598,34.180,1.465,31.738,0
1583510333.403,21.484,36.133,34.180,40.527,83.984,0
1583510333.407,25.879,35.645,33.203,54.688,55.176,0
1583510333.402,18.555,36.133,31.250,12.207,33.203,0
1583510333.406,12.207,34.180,31.738,-11.719,60.547,0
1583510333.410,12.207,35.156,30.273,35.645,39.551,0
1583510333.414,18.066,36.133,27.344,56.641,-5.371,0
1583510333.418,23.926,32.715,29.297,24.902,23.438,0
1583510333.422,24.414,33.203,33.203,-18.066,29.785,0
1583510333.426,18.066,33.691,35.645,-12.207,-18.066,0
1583510333.429,20.996,31.250,34.668,32.227,-17.090,0
1583510333.433,32.715,30.273,31.738,30.273,34.180,0
1583510333.437,34.180,28.809,34.180,-6.836,72.266,0
1583510333.441,36.621,28.809,36.133,6.836,57.129,0
1583510333.445,44.922,30.273,37.109,56.641,55.664,0
1583510333.463,51.758,33.203,37.109,71.289,45.410,0
1583510333.467,51.758,34.668,37.109,37.598,49.316,0
1583510333.471,50.781,31.738,37.109,38.086,42.969,0
1583510333.475,50.781,31.250,37.598,78.613,36.621,0
1583510333.479,50.293,32.227,39.551,87.402,64.941,0
1583510333.483,49.805,33.691,38.574,57.617,48.828,0
1583510333.487,46.875,35.156,39.062,32.227,48.828,0
1583510333.490,47.363,34.180,41.504,63.965,43.945,0
1583510333.494,50.781,35.156,40.527,82.520,36.621,0
1583510333.498,53.223,35.156,41.016,45.410,23.926,0
1583510333.502,55.176,34.180,40.527,19.043,19.043,0
1583510333.506,56.641,37.109,38.086,43.945,74.219,0
1583510333.501,56.641,36.133,37.109,73.730,69.824,0
1583510333.505,49.805,35.156,35.156,41.992,61.035,0
1583510333.509,45.898,37.598,36.621,0.000,55.664,0
1583510333.513,49.316,39.062,35.645,16.602,44.434,0
1583510333.517,43.457,38.086,33.691,49.805,17.090,0
1583510333.521,35.645,37.598,33.691,38.574,-20.020,0
1583510333.525,36.621,37.109,32.715,-13.672,-51.758,0
1583510333.528,39.551,34.668,31.250,-11.719,21.484,0
1583510333.532,41.016,34.668,31.250,37.598,69.824,0
1583510333.536,34.668,35.156,33.691,40.039,-13.184,0
1583510333.540,29.785,35.156,34.180,10.254,43.945,0
1583510333.544,31.738,36.133,34.180,-17.090,87.891,0
1583510333.542,31.738,36.621,38.086,16.602,34.180,0
1583510333.546,33.691,36.133,37.109,55.664,87.891,0
1583510333.550,34.668,33.203,33.691,24.902,63.477,0
1583510333.554,35.156,32.715,33.203,-10.254,7.812,0
1583510333.558,35.645,34.668,30.273,4.883,8.301,0
1583510333.562,33.691,34.180,28.809,46.387,-13.672,0
1583510333.566,36.133,36.621,31.738,46.387,-43.945,0
1583510333.569,39.062,39.551,33.203,11.719,-11.230,0
1583510333.573,33.203,41.504,32.715,14.160,68.848,0
1583510333.577,30.762,41.016,33.691,45.898,50.293,0
1583510333.581,30.273,36.133,33.203,48.828,-16.113,0
1583510333.585,27.344,35.156,32.715,16.602,19.043,0
1583510333.601,28.320,34.668,36.133,3.906,9.766,0
1583510333.605,25.879,35.645,38.574,39.062,-20.020,0
1583510333.609,21.484,36.133,37.109,51.758,-2.441,0
1583510333.613,25.391,34.180,35.156,27.344,30.762,0
1583510333.617,26.855,35.156,36.621,13.672,90.820,0
1583510333.621,20.020,36.133,36.621,40.527,62.500,0
1583510333.625,20.508,36.133,36.133,69.336,78.613,0
1583510333.628,26.855,37.109,37.109,45.410,62.988,0
1583510333.632,21.973,32.715,37.598,17.090,33.691,0
1583510333.636,18.555,29.297,37.109,41.992,90.820,0
1583510333.640,19.043,29.297,34.180,78.613,57.129,0
1583510333.644,20.996,30.273,34.668,69.336,19.531,0
1583510333.641,24.902,31.738,35.156,29.297,-11.719,0
1583510333.645,24.414,32.715,34.180,27.344,32.715,0
1583510333.649,26.367,35.645,31.250,60.547,61.523,0
1583510333.653,24.414,34.668,28.320,59.570,31.250,0
1583510333.657,20.508,36.621,29.785,16.113,31.738,0
1583510333.661,22.461,37.109,26.855,-3.418,20.996,0
1583510333.665,25.879,38.086,25.391,40.527,34.668,0
1583510333.668,30.273,37.109,27.344,70.801,15.625,0
1583510333.672,33.691,33.691,29.785,46.387,-8.301,0
1583510333.676,33.691,35.645,32.227,15.625,8.789,0
1583510333.680,38.086,35.156,33.691,38.086,30.762,0
1583510333.684,47.852,34.180,35.645,81.055,6.836,0
1583510333.681,52.246,36.133,36.133,68.359,-29.297,0
1583510333.685,50.781,35.645,37.598,34.180,38.574,0
1583510333.689,44.922,35.156,38.574,35.156,35.156,0
1583510333.693,45.410,35.645,36.621,58.594,-27.832,0
1583510333.697,45.898,37.598,35.156,57.617,-9.277,0
1583510333.701,43.945,35.645,37.109,16.113,42.480,0
1583510333.705,41.992,33.691,35.156,-2.930,-7.324,0
1583510333.708,38.574,36.133,33.203,33.691,-9.766,0
1583510333.712,38.574,36.133,33.203,37.598,2.441,0
1583510333.716,35.645,34.668,30.273,2.441,-7.812,0
1583510333.720,33.691,35.645,33.203,-12.695,57.617,0
1583510333.724,36.621,35.156,37.109,22.461,56.152,0
1583510333.741,35.645,36.133,34.668,50.781,43.945,0
1583510333.745,34.180,38.574,32.227,20.508,50.781,0
1583510333.749,31.250,37.598,30.273,-5.371,59.082,0
1583510333.753,28.320,36.621,28.809,19.531,81.543,0
1583510333.757,28.809,35.156,31.738,47.852,39.551,0
1583510333.761,24.414,34.180,30.762,26.367,35.645,0
1583510333.765,17.578,37.109,29.297,-27.832,72.266,0
1583510333.768,17.090,37.598,32.715,-18.555,29.297,0
1583510333.772,16.602,35.645,31.250,23.438,3.906,0
1583510333.776,16.113,36.621,32.227,26.367,-1.465,0
1583510333.780,19.531,37.598,32.715,-5.371,9.766,0
1583510333.784,18.555,35.645,32.227,-15.625,46.387,0
1583510333.781,15.137,32.227,35.156,40.527,51.758,0
1583510333.785,13.184,31.250,33.691,65.430,76.172,0
1583510333.789,12.695,30.762,34.180,31.250,27.832,0
1583510333.793,7.324,28.809,37.109,6.836,-13.184,0
1583510333.797,0.977,30.273,36.621,37.109,76.172,0
1583510333.801,4.395,30.273,36.621,75.195,83.008,0
1583510333.805,9.766,29.785,38.574,52.246,24.414,0
1583510333.808,11.230,28.809,38.086,20.996,62.988,0
1583510333.812,12.695,28.320,37.598,37.598,90.332,0
1583510333.816,12.695,29.297,37.109,61.035,-17.578,0
1583510333.820,17.090,30.273,35.645,59.570,-37.109,0
1583510333.824,19.043,30.273,36.621,19.531,0.488,0
1583510333.823,23.438,32.227,35.156,19.531,1.465,0
1583510333.827,33.203,35.645,31.250,53.711,37.598,0
1583510333.831,32.715,34.180,29.297,47.852,30.762,0
1583510333.835,30.273,34.180,28.320,14.648,30.273,0
1583510333.839,26.855,36.621,29.297,-2.441,16.602,0
1583510333.843,23.438,35.156,30.762,34.180,15.625,0
1583510333.847,23.926,36.133,27.344,37.109,38.086,0
1583510333.850,21.484,38.086,27.832,-9.277,34.668,0
1583510333.854,13.184,35.645,30.273,-28.809,52.246,0
1583510333.858,15.137,34.668,30.762,2.441,84.961,0
1583510333.862,22.461,34.180,31.250,37.598,69.824,0
1583510333.866,21.973,34.668,35.645,6.836,66.406,0
1583510333.881,22.949,35.156,37.109,-32.227,20.508,0
1583510333.885,26.367,34.668,35.645,6.836,21.973,0
1583510333.889,30.762,37.109,34.668,54.199,75.195,0
1583510333.893,38.086,37.598,33.691,51.270,48.340,0
1583510333.897,41.016,39.062,34.668,4.395,10.742,0
1583510333.901,34.668,40.039,34.668,-0.488,31.738,0
1583510333.905,31.250,37.598,36.133,56.152,42.969,0
1583510333.908,39.062,38.086,37.109,69.824,13.672,0
1583510333.912,44.922,36.621,36.621,35.156,-19.531,0
1583510333.916,43.945,33.691,36.133,13.184,31.738,0
1583510333.920,38.086,33.691,37.109,40.039,46.875,0
1583510333.924,40.039,34.180,36.133,66.406,-5.859,0
1583510333.921,39.551,30.762,37.598,34.668,30.762,0
1583510333.925,31.250,29.785,38.574,1.465,51.758,0
1583510333.929,37.598,34.180,36.133,17.090,58.594,0
1583510333.933,41.504,36.133,36.133,43.457,67.871,0
1583510333.937,44.922,37.598,37.109,34.668,60.547,0
1583510333.941,47.852,38.574,34.180,-5.859,53.711,0
1583510333.945,44.434,37.109,33.691,5.371,65.918,0
1583510333.948,49.316,38.086,34.668,37.598,49.316,0
1583510333.952,49.805,39.062,37.109,32.227,1.465,0
1583510333.956,49.316,38.574,36.621,4.395,28.809,0
1583510333.960,51.270,37.109,35.645,0.000,15.137,0
1583510333.964,48.340,36.133,37.109,45.410,16.602,0
1583510333.962,44.922,38.574,35.645,47.363,64.453,0
1583510333.966,41.992,38.086,35.156,4.395,64.453,0
1583510333.970,38.574,38.086,36.133,-8.301,0.000,0
1583510333.974,35.156,40.527,35.645,21.484,-29.785,0
1583510333.978,38.574,37.598,30.762,48.340,33.691,0
1583510333.982,43.945,35.645,30.273,20.996,98.633,0
1583510333.986,40.527,35.645,33.203,-18.555,117.188,0
1583510333.989,37.109,36.133,34.180,7.812,49.805,0
1583510333.993,38.086,39.062,34.668,46.387,12.695,0
1583510333.997,40.039,38.574,35.156,37.109,31.250,0
1583510334.001,39.062,37.109,35.156,-15.137,53.223,0
1583510334.005,36.133,36.621,35.156,-4.883,25.879,0
1583510334.021,32.715,36.621,35.156,55.176,23.926,0
1583510334.025,31.738,36.133,34.180,51.270,45.410,0
1583510334.029,31.250,36.133,35.156,14.160,27.344,0
1583510334.033,28.809,38.086,35.645,2.441,67.871,0
1583510334.037,25.391,37.598,35.156,43.457,57.129,0
1583510334.041,23.438,34.180,37.109,62.988,-39.062,0
1583510334.045,26.855,36.133,37.109,29.785,-36.621,0
1583510334.048,25.879,38.574,36.133,12.207,20.508,0
1583510334.052,22.949,37.109,38.574,35.156,34.668,0
1583510334.056,28.320,40.039,38.086,66.406,21.973,0
1583510334.060,31.250,40.527,34.668,46.387,20.020,0
1583510334.064,27.832,36.621,35.645,7.324,35.156,0
1583510334.061,32.227,35.645,37.598,22.461,73.242,0
1583510334.065,26.855,36.621,38.086,46.875,35.645,0
1583510334.069,20.996,38.086,38.086,40.039,12.695,0
1583510334.073,25.391,37.598,37.598,13.672,68.359,0
1583510334.077,19.531,35.645,37.598,6.348,7.812,0
1583510334.081,11.719,33.203,34.668,38.574,-16.113,0
1583510334.085,10.254,32.715,35.156,34.668,42.480,0
1583510334.088,15.137,33.691,35.645,-5.371,30.762,0
1583510334.092,17.578,36.133,34.180,-11.719,21.484,0
1583510334.096,19.043,35.156,36.133,19.043,30.762,0
1583510334.100,20.020,35.156,38.086,39.062,29.785,0
1583510334.104,18.066,38.574,35.156,4.395,13.672,0
1583510334.102,25.391,40.527,32.715,-23.926,-3.906,0
1583510334.106,29.297,39.062,34.668,13.672,73.242,0
1583510334.110,24.902,36.133,35.645,35.645,41.992,0
1583510334.114,31.250,37.109,34.668,16.113,5.371,0
1583510334.118,34.668,39.062,34.180,-22.461,31.738,0
1583510334.122,29.785,36.621,34.180,-15.137,4.883,0
1583510334.126,32.227,35.645,34.180,26.367,-7.812,0
1583510334.129,34.180,35.645,35.156,22.949,-9.277,0
1583510334.133,35.645,36.133,36.133,-10.254,33.203,0
1583510334.137,31.250,35.645,35.156,-19.043,36.621,0
1583510334.141,28.809,36.133,34.668,19.531,-24.902,0
1583510334.145,24.902,37.109,36.133,38.086,-9.277,0
1583510334.163,14.160,32.715,36.621,-0.488,40.039,0
1583510334.167,9.277,30.762,37.109,-17.578,37.598,0
1583510334.171,6.348,32.227,39.062,18.066,48.340,0
1583510334.175,8.789,34.180,40.039,43.457,40.527,0
1583510334.179,9.766,33.203,39.062,20.996,16.113,0
1583510334.183,5.371,30.762,35.645,-9.277,14.160,0
1583510334.187,9.277,32.227,34.668,15.625,52.734,0
1583510334.190,13.184,33.203,35.156,42.480,18.066,0
1583510334.194,17.090,32.715,36.621,27.832,-17.090,0
1583510334.198,20.508,33.691,38.086,-5.371,0.488,0
1583510334.202,13.184,34.668,37.598,-2.930,26.855,0
1583510334.206,14.160,35.156,36.133,35.645,18.555,0
1583510334.202,17.090,35.156,36.133,35.156,63.477,0
1583510334.206,20.020,33.691,37.598,0.488,89.844,0
1583510334.210,21.973,35.156,35.645,0.000,68.359,0
1583510334.214,19.531,40.527,40.039,39.062,58.105,0
1583510334.218,26.855,41.992,43.457,51.758,34.668,0
1583510334.222,36.621,44.434,42.969,21.484,78.613,0
1583510334.226,34.180,49.316,47.852,1.953,14.648,0
1583510334.229,36.133,50.781,49.316,37.109,-3.418,0
1583510334.233,36.621,49.316,47.363,63.477,72.754,0
1583510334.237,35.645,50.293,48.340,35.645,70.801,0
1583510334.241,32.715,51.270,47.363,4.883,26.367,0
1583510334.245,28.320,53.223,45.898,38.574,61.523,0
1583510334.261,37.598,53.223,49.316,83.496,45.898,0
1583510334.265,43.457,51.270,51.270,76.172,-15.137,0
1583510334.269,41.504,53.711,49.805,42.480,11.230,0
1583510334.273,43.457,54.688,47.852,46.387,-5.371,0
1583510334.277,42.480,51.270,46.387,87.402,13.672,0
1583510334.281,33.691,48.828,46.387,81.543,7.324,0
1583510334.285,34.668,49.316,48.340,44.434,4.883,0
1583510334.288,35.156,47.363,45.410,25.879,41.504,0
1583510334.292,33.691,45.410,41.504,48.828,31.250,0
1583510334.296,35.156,43.945,39.062,77.637,49.805,0
1583510334.300,35.156,46.387,41.016,43.945,43.457,0
1583510334.304,37.109,48.340,41.504,15.625,31.738,0
1583510334.301,37.109,47.852,41.504,43.945,78.613,0
1583510334.305,37.109,49.316,44.434,64.941,41.504,0
1583510334.309,39.551,49.316,46.875,47.363,-22.949,0
1583510334.313,33.203,48.828,47.852,10.742,51.758,0
1583510334.317,31.250,50.293,45.898,25.879,138.672,0
1583510334.321,35.156,50.293,44.922,46.875,36.133,0
1583510334.325,35.156,50.781,47.363,19.043,-59.570,0
1583510334.328,37.109,49.805,44.922,-10.742,-1.953,0
1583510334.332,43.457,48.828,39.551,-9.277,42.969,0
1583510334.336,40.039,49.316,39.062,26.367,37.598,0
1583510334.340,35.645,50.293,38.086,25.391,8.301,0
1583510334.344,39.062,49.805,40.039,-13.672,39.551,0
1583510334.341,37.598,48.828,42.480,-12.207,102.539,0
1583510334.345,42.969,47.852,41.992,27.344,40.039,0
1583510334.349,47.852,49.316,42.969,58.105,-11.230,0
1583510334.353,44.434,47.363,42.969,23.438,39.551,0
1583510334.357,44.922,44.922,42.480,-12.207,66.895,0
1583510334.361,45.410,46.875,41.992,25.879,-8.301,0
1583510334.365,44.922,48.828,42.969,60.547,23.438,0
1583510334.368,58.105,48.340,43.945,58.105,72.754,0
1583510334.372,57.129,52.246,40.527,11.230,27.832,0
1583510334.376,25.391,53.223,40.527,-10.742,20.508,0
1583510334.380,19.043,48.340,41.504,41.504,-3.418,0
1583510334.384,25.391,46.875,36.621,53.223,59.082,0
1583510334.401,19.531,44.434,40.039,13.672,109.375,0
1583510334.405,20.020,44.922,41.016,-0.977,84.473,0
1583510334.409,22.461,47.852,37.598,34.668,72.266,0
1583510334.413,29.297,49.316,38.574,63.477,51.758,0
1583510334.417,31.250,45.410,38.086,26.855,23.926,0
1583510334.421,22.949,41.992,34.668,3.906,24.902,0
1583510334.425,20.020,42.480,31.250,23.926,2.930,0
1583510334.428,28.809,43.945,34.180,45.898,14.648,0
1583510334.432,34.668,44.922,32.715,40.039,15.625,0
1583510334.436,31.738,43.457,29.785,14.648,35.156,0
1583510334.440,36.133,42.480,31.738,45.898,30.273,0
1583510334.444,36.133,44.922,33.691,71.289,16.113,0
1583510334.442,34.668,42.969,35.156,47.363,58.594,0
1583510334.446,35.645,41.504,34.668,22.949,56.641,0
1583510334.450,33.691,43.945,32.227,23.926,41.992,0
1583510334.454,34.180,41.016,34.668,62.500,0.488,0
1583510334.458,33.203,39.062,36.621,54.199,0.977,0
1583510334.462,31.738,41.016,35.156,6.836,26.367,0
1583510334.466,31.250,42.969,32.715,11.230,62.988,0
1583510334.469,30.762,41.504,31.738,43.945,90.820,0
1583510334.473,37.109,39.551,32.227,54.199,49.316,0
1583510334.477,34.668,38.086,33.203,8.301,16.602,0
1583510334.481,26.855,37.598,33.203,-26.855,40.527,0
1583510334.485,27.344,39.551,33.691,10.742,48.340,0
1583510334.481,26.855,39.551,34.668,37.598,24.902,0
1583510334.485,27.832,38.574,34.180,13.672,13.184,0
1583510334.489,29.297,39.062,33.691,-24.902,7.324,0
1583510334.493,25.391,40.039,35.645,-6.348,20.020,0
1583510334.497,24.902,39.062,37.109,50.781,36.133,0
1583510334.501,24.902,39.062,36.621,41.992,-41.504,0
1583510334.505,27.344,40.039,35.645,10.254,-61.035,0
1583510334.508,22.949,39.062,32.715,13.672,6.348,0
1583510334.512,20.508,38.086,33.691,43.457,14.160,0
1583510334.516,26.855,40.039,31.250,55.664,4.883,0
1583510334.520,29.785,39.551,28.809,18.066,19.043,0
1583510334.524,33.691,38.574,28.809,8.301,-6.348,0
1583510334.541,38.086,39.062,31.250,45.410,24.414,0
1583510334.545,28.809,38.574,34.668,66.895,42.480,0
1583510334.549,25.391,38.086,31.738,46.875,44.434,0
1583510334.553,28.809,37.598,30.273,23.438,37.598,0
1583510334.557,20.020,35.156,32.715,50.293,20.020,0
1583510334.561,16.113,34.180,30.762,70.312,44.434,0
1583510334.565,19.531,34.668,29.297,54.688,32.227,0
1583510334.568,19.531,34.668,29.297,26.367,8.301,0
1583510334.572,16.602,35.156,30.762,40.527,19.531,0
1583510334.576,14.160,28.809,32.715,79.102,32.715,0
1583510334.580,16.602,26.367,31.738,60.547,26.855,0
1583510334.584,16.602,31.250,32.227,24.414,27.344,0
1583510334.582,18.066,32.715,34.668,27.344,-21.973,0
1583510334.586,20.508,29.785,34.668,63.477,-23.926,0
1583510334.590,18.066,27.832,33.203,73.242,21.973,0
1583510334.594,17.090,29.785,34.180,28.809,43.457,0
1583510334.598,18.066,33.203,32.715,9.277,37.109,0
1583510334.602,15.625,32.227,32.715,48.340,19.043,0
1583510334.606,13.184,30.273,33.203,66.895,37.109,0
1583510334.609,15.137,31.738,32.715,40.039,37.109,0
1583510334.613,18.066,33.203,30.762,5.859,29.297,0
1583510334.617,21.973,32.227,29.297,30.762,23.926,0
1583510334.621,23.438,31.250,30.273,64.941,23.438,0
1583510334.625,28.809,30.762,30.762,46.387,31.738,0
1583510334.621,28.809,29.297,29.785,11.719,6.836,0
1583510334.625,26.855,28.809,31.250,13.184,-29.297,0
1583510334.629,30.762,31.738,34.180,56.641,20.996,0
1583510334.633,30.762,34.180,32.227,54.688,18.555,0
1583510334.637,32.227,33.691,30.762,14.160,22.949,0
1583510334.641,30.273,33.691,32.227,10.254,-0.977,0
1583510334.645,26.367,33.203,32.715,41.992,-8.301,0
1583510334.648,29.297,31.250,29.785,51.758,43.945,0
1583510334.652,29.297,33.203,30.273,7.324,13.184,0
1583510334.656,31.250,34.668,31.738,-16.113,-25.391,0
1583510334.660,49.316,33.691,28.320,36.133,58.105,0
1583510334.664,48.828,33.691,27.344,49.316,96.191,0
1583510334.681,34.180,34.668,28.320,-0.488,52.734,0
1583510334.685,25.391,36.621,26.367,-39.062,24.902,0
1583510334.689,28.320,36.621,22.461,-7.324,41.504,0
1583510334.693,34.668,35.156,23.926,40.527,47.363,0
1583510334.697,35.645,32.715,26.855,22.461,21.484,0
1583510334.701,38.086,32.227,27.344,-14.160,26.367,0
1583510334.705,33.203,34.668,29.297,-3.418,11.719,0
1583510334.708,34.180,40.039,30.762,45.898,37.598,0
1583510334.712,42.480,42.480,34.180,52.734,84.961,0
1583510334.716,44.434,42.969,36.133,6.836,57.617,0
1583510334.720,41.016,42.969,36.133,0.488,1.465,0
1583510334.724,32.227,42.480,38.086,37.598,14.160,0
1583510334.721,31.250,41.504,40.039,50.781,46.387,0
1583510334.725,36.621,40.527,36.133,18.555,53.223,0
1583510334.729,37.109,40.527,32.715,-10.254,56.641,0
1583510334.733,34.668,38.574,31.250,25.391,46.875,0
1583510334.737,34.180,35.156,29.785,55.176,33.203,0
1583510334.741,30.762,33.691,30.762,30.273,47.363,0
1583510334.745,28.809,35.156,30.273,1.953,68.848,0
1583510334.748,27.832,36.133,31.738,16.113,48.340,0
1583510334.752,23.926,32.227,33.203,52.246,13.184,0
1583510334.756,22.949,33.691,31.738,43.945,-47.852,0
1583510334.760,22.461,37.598,30.762,-0.488,-20.020,0
1583510334.764,27.832,36.621,34.180,8.789,70.312,0
1583510334.768,29.297,37.598,33.203,46.875,62.500,0
1583510334.772,29.785,38.086,33.691,51.270,36.133,0
1583510334.776,36.133,38.574,36.133,16.113,-37.109,0
1583510334.780,32.227,40.527,35.156,1.465,-26.855,0
1583510334.784,29.297,39.551,36.133,40.527,59.570,0
1583510334.788,35.645,39.062,37.109,58.594,71.777,0
1583510334.792,37.109,40.527,36.621,30.762,68.359,0
1583510334.795,34.668,41.504,37.109,4.395,65.430,0
1583510334.799,33.691,42.480,38.574,27.832,84.473,0
1583510334.803,40.527,45.898,39.551,59.570,77.637,0
1583510334.807,39.551,44.922,38.574,42.969,63.477,0
1583510334.811,32.227,42.480,38.086,13.672,65.918,0
1583510334.821,33.691,41.016,39.551,34.668,79.590,0
1583510334.825,36.621,40.527,38.086,74.707,89.844,0
1583510334.829,31.738,41.992,35.645,58.594,32.715,0
1583510334.833,24.414,41.016,37.109,13.672,-2.930,0
1583510334.837,23.438,41.504,40.039,20.996,18.555,0
1583510334.841,24.902,39.551,39.551,59.570,26.367,0
1583510334.845,27.832,37.598,37.598,64.941,29.297,0
1583510334.848,32.227,40.039,39.062,24.414,69.824,0
1583510334.852,34.668,41.504,39.551,1.953,53.223,0
1583510334.856,34.668,42.480,39.551,49.316,53.711,0
1583510334.860,35.645,41.504,40.039,74.219,69.824,0
1583510334.864,31.250,40.039,37.109,41.992,11.719,0
1583510334.861,31.738,40.527,36.621,11.230,67.871,0
1583510334.865,39.551,39.062,38.086,40.039,77.637,0
1583510334.869,40.039,37.109,39.551,85.449,33.691,0
1583510334.873,45.410,38.574,40.527,71.289,52.734,0
1583510334.877,48.828,39.551,38.574,29.785,6.348,0
1583510334.881,42.969,36.621,38.574,27.832,-47.363,0
1583510334.885,41.992,33.203,36.621,61.035,-12.695,0
1583510334.888,34.668,34.668,34.180,64.453,11.230,0
1583510334.892,28.320,34.180,36.133,23.926,-17.578,0
1583510334.896,24.414,32.715,35.645,12.695,21.484,0
1583510334.900,24.902,34.668,33.203,32.227,10.742,0
1583510334.904,32.227,36.133,35.156,44.922,19.043,0
1583510334.902,33.691,36.621,38.574,30.762,54.199,0
1583510334.906,25.391,37.598,35.645,7.324,14.648,0
1583510334.910,19.043,37.109,33.691,41.504,54.199,0
1583510334.914,20.508,32.715,36.133,50.293,37.598,0
1583510334.918,22.461,31.738,37.109,17.578,-13.184,0
1583510334.922,20.020,33.203,37.598,3.906,-4.883,0
1583510334.926,25.879,35.156,36.133,26.855,19.531,0
1583510334.929,33.203,37.598,34.180,71.777,96.191,0
1583510334.933,32.715,36.621,35.645,38.574,52.734,0
1583510334.937,37.109,37.109,33.691,-7.812,-11.230,0
1583510334.941,41.504,37.109,33.203,26.367,91.309,0
1583510334.945,42.480,36.133,34.180,68.848,118.164,0
1583510334.961,41.504,37.109,34.180,65.918,56.152,0
1583510334.965,38.086,35.645,34.668,8.789,27.832,0
1583510334.969,33.203,33.691,35.156,-3.418,38.086,0
1583510334.973,29.297,33.691,36.133,49.316,14.648,0
1583510334.977,31.250,35.645,36.133,56.152,-36.621,0
1583510334.981,32.227,37.109,39.551,25.879,5.859,0
1583510334.985,30.273,37.598,41.016,-10.742,71.289,0
1583510334.988,37.109,37.598,36.621,5.371,47.363,0
1583510334.992,44.434,39.062,34.180,53.223,40.039,0
1583510334.996,37.598,39.062,35.156,33.691,60.547,0
1583510335.000,33.203,38.574,34.180,3.906,42.969,0
1583510335.004,37.109,40.039,32.227,18.555,62.500,0
1583510335.001,38.574,41.504,30.762,48.828,14.648,0
1583510335.005,38.574,41.504,32.227,55.664,3.906,0
1583510335.009,40.527,41.992,35.156,21.973,78.125,0
1583510335.013,39.551,41.992,35.156,23.926,25.391,0
1583510335.017,31.738,39.551,34.668,55.176,21.484,0
1583510335.021,29.297,37.598,32.715,54.199,52.734,0
1583510335.025,29.785,37.109,30.762,25.879,-23.438,0
1583510335.028,33.691,41.016,30.762,9.766,19.043,0
1583510335.032,38.086,42.969,31.250,42.480,55.664,0
1583510335.036,38.086,41.016,32.715,48.340,41.016,0
1583510335.040,36.133,40.039,32.715,7.812,50.293,0
1583510335.044,36.133,39.062,34.180,-1.953,63.477,0
1583510335.067,41.016,37.109,32.227,24.414,4.395,0
1583510335.071,39.551,36.133,29.297,56.152,-61.035,0
1583510335.075,37.109,35.156,31.738,33.203,0.488,0
1583510335.079,38.086,37.598,32.715,-12.207,0.488,0
1583510335.083,38.086,39.062,34.180,9.766,-37.109,0
1583510335.087,40.039,37.598,35.645,48.340,-13.184,0
1583510335.091,40.527,40.039,35.156,36.621,70.801,0
1583510335.094,39.062,40.527,36.621,-26.367,21.484,0
1583510335.098,38.086,40.039,37.598,-33.203,-71.289,0
1583510335.102,41.016,38.574,36.133,21.484,39.551,0
1583510335.106,42.480,36.621,37.109,28.809,77.148,0
1583510335.110,41.504,37.109,36.621,-10.742,5.859,0
1583510335.102,38.086,40.527,34.180,-39.551,15.625,0
1583510335.106,40.039,42.969,36.133,-5.859,51.270,0
1583510335.110,43.457,43.457,34.668,25.879,48.340,0
1583510335.114,41.504,42.480,32.227,0.000,46.875,0
1583510335.118,39.062,39.551,33.691,-29.297,47.363,0
1583510335.122,34.180,38.086,34.668,-16.113,39.551,0
1583510335.126,37.598,38.574,33.691,23.926,49.805,0
1583510335.129,39.551,40.039,32.715,23.438,40.039,0
1583510335.133,36.133,41.992,33.691,-12.695,41.992,0
1583510335.137,39.551,40.039,31.738,1.953,54.688,0
1583510335.141,42.480,39.551,29.297,38.574,20.020,0
1583510335.145,39.062,41.992,28.809,43.945,15.137,0
1583510335.141,35.645,40.039,27.344,17.090,31.738,0
1583510335.145,29.785,39.062,28.809,8.789,-6.836,0
1583510335.149,32.227,38.086,31.250,52.246,-11.230,0
1583510335.153,31.738,37.109,30.762,73.730,22.949,0
1583510335.157,24.902,35.156,28.320,50.781,41.504,0
1583510335.161,24.902,34.180,27.344,32.227,24.414,0
1583510335.165,26.367,35.156,32.715,67.871,23.438,0
1583510335.168,35.156,33.203,32.715,101.562,-1.465,0
1583510335.172,34.668,32.227,27.832,70.801,-1.953,0
1583510335.176,25.879,33.691,28.320,38.574,19.531,0
1583510335.180,30.273,35.156,28.809,63.965,-36.621,0
1583510335.184,32.715,35.156,26.367,106.445,-10.742,0
1583510335.181,33.203,34.668,26.855,98.145,22.461,0
1583510335.185,32.715,34.180,26.367,51.270,-3.418,0
1583510335.189,27.832,34.668,26.367,55.664,49.316,0
1583510335.193,31.250,34.180,26.855,97.656,57.129,0
1583510335.197,35.645,33.691,28.320,93.750,35.645,0
1583510335.201,37.109,36.621,32.227,47.852,60.547,0
1583510335.205,40.039,36.621,30.762,27.344,74.707,0
1583510335.208,40.527,35.645,29.297,61.523,51.270,0
1583510335.212,39.551,35.156,30.273,73.730,13.184,0
1583510335.216,44.434,36.133,27.344,41.504,76.660,0
1583510335.220,41.992,37.109,25.391,11.230,101.562,0
1583510335.224,33.203,32.227,26.367,27.344,40.039,0
1583510335.241,29.785,29.297,25.879,59.570,47.363,0
1583510335.245,28.809,32.227,26.855,37.109,53.223,0
1583510335.249,27.344,32.715,27.832,-5.859,84.961,0
1583510335.253,22.461,31.250,29.297,3.906,55.176,0
1583510335.257,18.555,32.715,32.227,39.551,39.551,0
1583510335.261,14.648,32.227,32.227,32.227,63.477,0
1583510335.265,11.719,32.227,30.273,-14.160,30.762,0
1583510335.268,17.090,34.668,31.738,-13.184,-9.277,0
1583510335.272,22.949,34.668,32.227,31.738,7.812,0
1583510335.276,23.926,33.691,29.785,27.832,52.246,0
1583510335.280,26.367,33.691,29.785,-4.395,31.250,0
1583510335.284,26.855,34.180,30.762,-11.230,1.465,0
1583510335.283,21.973,35.156,30.762,20.996,-12.695,0
1583510335.287,19.043,35.156,30.762,44.922,-27.832,0
1583510335.291,16.113,37.109,30.762,18.555,27.832,0
1583510335.295,10.742,36.621,28.809,-11.719,16.602,0
1583510335.299,14.160,33.691,27.832,9.277,-49.316,0
1583510335.303,17.090,36.133,28.809,45.410,-4.883,0
1583510335.307,20.508,37.598,29.297,37.598,61.523,0
1583510335.310,26.367,40.039,29.297,5.859,105.957,0
1583510335.314,30.273,42.969,30.273,18.066,58.105,0
1583510335.318,28.809,41.016,30.273,53.223,16.113,0
1583510335.322,25.879,38.574,30.762,55.664,53.711,0
1583510335.326,25.879,37.109,30.762,18.555,70.801,0
1583510335.322,24.902,35.156,31.738,12.695,96.191,0
1583510335.326,24.414,35.645,33.691,60.059,26.367,0
1583510335.330,23.438,34.180,34.668,72.266,23.926,0
1583510335.334,23.438,32.715,34.180,40.039,57.617,0
1583510335.338,25.879,32.227,35.156,23.926,26.855,0
1583510335.342,21.973,29.297,36.133,53.223,34.180,0
1583510335.346,18.066,27.832,36.133,84.473,-16.602,0
1583510335.349,18.555,28.809,37.598,60.547,-2.930,0
1583510335.353,18.555,31.250,35.645,26.855,76.660,0
1583510335.357,25.391,31.738,35.156,41.992,30.762,0
1583510335.361,32.227,31.738,38.574,69.824,-23.926,0
1583510335.365,37.598,30.762,36.133,62.500,-6.348,0
1583510335.382,40.039,32.227,31.250,23.438,-23.438,0
1583510335.386,37.598,33.691,32.227,28.809,-12.207,0
1583510335.390,35.645,32.227,33.691,55.176,29.785,0
1583510335.394,38.574,33.203,31.250,44.922,61.523,0
1583510335.398,41.504,35.156,28.809,16.602,44.434,0
1583510335.402,39.062,36.621,30.762,-0.977,-10.742,0
1583510335.406,38.086,36.621,29.785,35.645,20.508,0
1583510335.409,41.992,38.086,27.832,49.316,64.453,0
1583510335.413,43.945,38.086,30.762,6.836,25.391,0
1583510335.417,45.898,36.621,30.273,-3.906,23.438,0
1583510335.421,44.922,36.621,29.785,23.926,13.184,0
1583510335.425,40.527,37.598,31.738,46.387,26.855,0
1583510335.421,43.457,37.598,30.762,14.648,104.004,0
1583510335.425,39.062,35.645,30.273,-27.344,92.285,0
1583510335.429,38.574,34.180,30.273,6.348,41.992,0
1583510335.433,42.969,34.180,30.273,44.434,42.480,0
1583510335.437,46.387,35.645,31.738,40.527,74.219,0
1583510335.441,49.805,35.645,31.738,-4.395,57.617,0
1583510335.445,47.363,37.598,31.250,-6.836,66.895,0
1583510335.448,45.898,38.574,31.250,54.199,25.391,0
1583510335.452,46.875,36.621,30.762,65.430,30.762,0
1583510335.456,49.805,35.645,34.180,32.715,55.664,0
1583510335.460,49.805,34.180,37.109,9.277,-5.371,0
1583510335.464,56.641,32.715,34.668,40.039,0.488,0
1583510335.465,60.059,32.715,34.668,76.172,10.254,0
1583510335.469,50.781,34.668,36.133,42.969,20.508,0
1583510335.473,48.340,36.133,35.156,13.184,-18.066,0
1583510335.477,52.734,36.621,34.180,31.250,-7.812,0
1583510335.481,53.223,37.598,32.715,59.570,26.367,0
1583510335.485,54.199,39.062,33.691,54.199,27.344,0
1583510335.489,54.199,40.039,36.133,16.602,72.754,0
1583510335.492,47.852,41.992,34.668,29.785,105.957,0
1583510335.496,45.410,41.992,32.227,47.852,63.477,0
1583510335.500,46.875,39.551,31.738,31.250,15.625,0
1583510335.504,45.898,37.109,29.785,7.324,-5.371,0
1583510335.508,38.086,36.133,31.738,3.906,-30.273,0
1583510335.521,35.156,35.156,34.180,46.387,-28.809,0
1583510335.525,41.992,35.156,33.203,49.316,0.488,0
1583510335.529,37.109,35.156,32.227,6.348,34.180,0
1583510335.533,32.227,36.133,30.273,1.953,18.066,0
1583510335.537,32.715,36.133,29.785,37.598,-0.977,0
1583510335.541,24.902,34.180,31.250,56.152,-3.906,0
1583510335.545,24.414,34.180,30.762,21.484,51.270,0
1583510335.548,26.855,33.203,31.738,-5.371,76.660,0
1583510335.552,27.832,33.203,32.227,37.109,62.500,0
1583510335.556,36.621,34.668,28.320,75.684,67.871,0
1583510335.560,45.898,32.715,26.855,63.965,13.672,0
1583510335.564,33.691,31.738,33.691,10.742,9.766,0
1583510335.561,12.695,34.180,39.062,-4.883,3.906,0
1583510335.565,24.414,36.133,38.086,55.664,-12.207,0
1583510335.569,42.480,35.645,37.598,70.801,97.656,0
1583510335.573,31.250,33.691,39.062,13.184,73.242,0
1583510335.577,19.043,32.227,37.598,-15.137,-34.180,0
1583510335.581,21.973,30.273,35.645,34.668,-37.109,0
1583510335.585,33.691,30.762,36.621,65.918,14.648,0
1583510335.588,38.086,31.738,36.133,24.414,66.406,0
1583510335.592,32.715,31.738,36.133,0.488,41.992,0
1583510335.596,34.180,34.668,38.086,19.043,-10.742,0
1583510335.600,41.992,35.156,35.156,51.758,-4.395,0
1583510335.604,43.457,34.180,30.273,41.504,38.574,0
1583510335.602,38.574,32.715,30.762,3.418,47.852,0
1583510335.606,34.180,31.250,31.738,31.250,40.527,0
1583510335.610,33.691,32.227,29.297,60.547,53.711,0
1583510335.614,36.133,33.203,29.297,49.316,41.016,0
1583510335.618,34.668,31.738,31.250,21.484,43.457,0
1583510335.622,34.180,31.250,31.250,22.461,61.523,0
1583510335.626,35.645,30.273,32.227,66.895,76.172,0
1583510335.629,32.715,29.785,33.203,60.059,77.148,0
1583510335.633,35.156,30.762,35.156,21.973,56.641,0
1583510335.637,35.156,31.738,36.621,29.785,-12.695,0
1583510335.641,30.273,31.738,37.109,72.754,22.949,0
1583510335.645,28.809,31.250,37.598,85.938,41.504,0
1583510335.662,32.227,28.320,37.109,44.434,19.531,0
1583510335.666,32.715,26.855,38.574,31.250,27.344,0
1583510335.670,26.367,28.320,38.574,72.266,1.953,0
1583510335.674,30.273,30.762,36.621,93.262,-29.785,0
1583510335.678,35.645,32.227,37.109,70.801,43.945,0
1583510335.682,35.156,33.203,37.109,17.090,84.473,0
1583510335.686,37.598,36.621,36.133,33.203,40.527,0
1583510335.689,34.668,34.180,33.203,80.566,77.637,0
1583510335.693,30.273,35.156,31.250,57.129,55.664,0
1583510335.697,32.227,37.598,32.227,11.230,40.039,0
1583510335.701,29.297,35.156,28.809,-7.812,38.086,0
1583510335.705,23.926,36.621,23.926,19.043,30.762,0
1583510335.701,21.973,38.574,24.902,28.809,43.457,0
1583510335.705,20.996,38.086,26.855,-20.020,-17.578,0
1583510335.709,20.508,36.621,27.344,-38.574,-24.902,0
1583510335.713,17.578,34.180,27.832,-4.395,-16.113,0
1583510335.717,15.625,37.109,28.320,13.672,3.906,0
1583510335.721,16.602,38.086,29.785,-20.996,34.668,0
1583510335.725,18.555,32.715,30.762,-55.176,32.715,0
1583510335.728,20.508,33.691,30.273,-32.715,42.480,0
1583510335.732,16.113,35.645,29.297,-10.254,77.148,0
1583510335.736,15.137,35.156,27.832,-35.156,71.777,0
1583510335.740,32.227,37.598,29.297,-56.641,32.715,0
1583510335.744,42.969,39.551,28.320,-20.996,39.551,0
1583510335.772,22.949,41.992,29.297,3.418,71.289,0
1583510335.776,14.648,40.039,31.250,-11.230,22.461,0
1583510335.780,23.438,42.969,24.414,-24.902,-17.090,0
1583510335.784,17.090,44.922,26.367,-14.648,24.902,0
1583510335.788,22.949,42.969,29.297,34.668,54.688,0
1583510335.792,31.250,41.992,27.832,58.594,49.316,0
1583510335.796,32.227,40.039,29.785,23.438,81.055,0
1583510335.799,32.227,40.039,31.738,3.418,40.039,0
1583510335.803,30.762,39.062,30.762,51.270,38.086,0
1583510335.807,28.320,37.598,29.785,76.172,29.785,0
1583510335.811,30.273,39.551,31.738,42.969,-25.391,0
1583510335.815,30.273,41.992,32.715,14.648,7.812,0
1583510335.802,30.273,40.039,35.156,39.551,37.109,0
1583510335.806,30.762,40.039,35.645,77.637,56.641,0
1583510335.810,36.621,41.016,33.203,65.430,52.246,0
1583510335.814,38.086,41.016,34.180,26.855,20.508,0
1583510335.818,29.297,39.551,33.691,27.832,-11.230,0
1583510335.822,29.785,38.574,31.250,71.289,11.719,0
1583510335.826,32.227,38.574,31.738,71.289,55.664,0
1583510335.829,29.297,35.645,33.691,24.902,28.320,0
1583510335.833,30.273,36.133,30.273,15.137,0.977,0
1583510335.837,31.738,35.645,28.320,48.340,12.207,0
1583510335.841,28.320,35.645,33.203,60.547,38.574,0
1583510335.845,29.785,36.621,35.645,28.320,50.293,0
1583510335.842,39.062,35.645,34.668,11.719,-14.160,0
1583510335.846,38.086,37.598,36.133,47.852,-60.059,0
1583510335.850,30.762,38.086,36.621,73.730,33.691,0
1583510335.854,29.785,36.133,33.203,52.246,50.781,0
1583510335.858,30.273,37.109,32.227,18.066,10.254,0
1583510335.862,30.762,38.086,31.738,35.645,16.113,0
1583510335.866,32.227,36.621,30.762,60.547,13.672,0
1583510335.869,33.691,35.156,31.738,40.039,4.395,0
1583510335.873,30.273,38.086,32.227,10.254,9.766,0
1583510335.877,26.855,38.086,33.203,9.277,7.812,0
1583510335.881,28.320,34.668,32.715,48.340,-28.320,0
1583510335.885,26.367,36.133,30.762,52.734,-1.465,0
1583510335.901,23.926,37.598,34.180,10.254,-8.301,0
1583510335.905,18.555,36.621,33.691,13.184,1.953,0
1583510335.909,16.113,34.180,32.715,57.129,32.715,0
1583510335.913,19.043,34.668,33.691,76.172,24.414,0
1583510335.917,23.926,36.621,34.180,41.992,63.965,0
1583510335.921,24.414,33.691,36.621,11.230,84.961,0
1583510335.925,22.949,32.715,37.109,46.387,37.109,0
1583510335.928,20.996,34.668,36.133,66.895,1.465,0
1583510335.932,23.438,34.668,35.645,45.898,2.930,0
1583510335.936,22.461,33.691,34.180,7.812,26.367,0
1583510335.940,16.602,32.715,35.645,13.184,42.969,0
1583510335.944,21.484,33.691,33.203,64.941,41.992,0
1583510335.941,26.367,36.133,30.762,56.152,83.496,0
1583510335.945,23.438,36.133,30.273,7.812,84.473,0
1583510335.949,23.438,34.668,29.297,-5.859,35.156,0
1583510335.953,26.855,34.180,31.738,26.855,7.324,0
1583510335.957,26.367,34.668,31.738,43.457,-23.926,0
1583510335.961,21.973,35.156,31.738,4.883,-7.812,0
1583510335.965,14.648,35.156,31.738,-7.324,-4.883,0
1583510335.968,16.602,37.109,30.273,20.508,49.805,0
1583510335.972,21.973,39.062,29.297,35.156,56.152,0
1583510335.976,28.809,37.598,30.273,13.672,-0.977,0
1583510335.980,28.809,36.621,30.273,-25.391,59.082,0
1583510335.984,29.297,36.621,29.785,-7.324,86.426,0
1583510335.981,30.762,36.133,29.297,18.555,64.941,0
1583510335.985,29.297,36.621,30.273,-2.441,30.273,0
1583510335.989,32.715,36.133,30.762,-22.461,19.043,0
1583510335.993,34.668,36.621,28.320,-9.766,21.973,0
1583510335.997,36.621,35.156,28.809,32.227,15.137,0
1583510336.001,37.109,36.133,32.227,27.344,1.953,0
1583510336.005,41.504,39.062,35.156,-6.348,56.152,0
1583510336.008,42.969,37.598,33.691,4.395,71.777,0
1583510336.012,35.645,35.156,33.691,41.992,40.039,0
1583510336.016,39.062,37.598,33.691,55.176,22.461,0
1583510336.020,42.480,38.574,35.645,19.531,47.852,0
1583510336.024,37.598,39.551,36.621,0.488,32.227,0
1583510336.041,34.668,38.574,37.598,48.340,11.719,0
1583510336.045,29.785,36.621,39.062,70.801,83.984,0
1583510336.049,29.785,35.645,36.621,44.434,118.164,0
1583510336.053,30.273,36.133,34.668,5.859,122.559,0
1583510336.057,24.414,38.086,37.109,20.508,63.965,0
1583510336.061,25.879,36.621,35.645,72.754,50.781,0
1583510336.065,26.855,35.156,36.621,54.199,65.430,0
1583510336.068,21.973,34.180,39.062,15.625,-9.277,0
1583510336.072,24.902,32.715,37.598,25.879,0.977,0
1583510336.076,23.926,31.738,37.109,58.105,31.738,0
1583510336.080,24.414,33.691,37.109,67.871,-5.371,0
1583510336.084,20.508,32.715,35.645,26.855,27.344,0
1583510336.081,12.695,30.762,33.203,10.254,39.551,0
1583510336.085,13.672,32.227,32.715,39.551,-6.348,0
1583510336.089,19.043,36.133,33.203,55.176,35.645,0
1583510336.093,26.855,36.621,33.203,32.227,45.410,0
1583510336.097,25.879,37.109,34.668,8.789,7.812,0
1583510336.101,28.809,37.598,35.645,43.945,38.086,0
1583510336.105,42.969,35.156,32.227,68.848,66.406,0
1583510336.108,44.434,35.645,33.203,45.898,59.082,0
1583510336.112,20.020,38.086,38.086,-1.953,74.219,0
1583510336.116,7.812,41.992,32.715,0.977,87.402,0
1583510336.120,29.785,45.410,27.832,49.316,104.004,0
1583510336.124,43.945,46.875,28.320,35.645,87.402,0
1583510336.121,41.992,43.945,26.855,1.953,35.645,0
1583510336.125,40.527,44.434,27.344,21.973,62.012,0
1583510336.129,37.598,42.969,30.273,60.059,17.578,0
1583510336.133,34.668,41.016,28.320,60.059,-26.855,0
1583510336.137,37.109,43.457,28.320,16.602,22.461,0
1583510336.141,35.645,41.992,28.809,12.207,64.453,0
1583510336.145,31.250,39.551,27.832,58.594,89.355,0
1583510336.148,35.645,38.086,27.832,73.730,48.828,0
1583510336.152,41.016,37.598,29.297,39.551,4.395,0
1583510336.156,39.551,37.598,31.250,10.254,58.105,0
1583510336.160,36.133,38.086,29.297,43.945,45.410,0
1583510336.164,36.621,39.062,29.785,74.707,-28.320,0
1583510336.181,37.109,37.109,33.203,49.805,-6.348,0
1583510336.185,33.691,35.645,32.715,13.184,2.930,0
1583510336.189,36.621,34.180,33.203,21.973,21.484,0
1583510336.193,39.062,33.691,33.691,59.082,69.336,0
1583510336.197,40.527,36.133,34.180,55.664,31.738,0
1583510336.201,40.039,36.133,37.109,15.625,-30.273,0
1583510336.205,34.180,37.109,38.574,11.230,3.906,0
1583510336.208,33.203,39.062,34.668,39.062,10.254,0
1583510336.212,41.992,38.574,34.180,50.293,25.879,0
1583510336.216,44.434,38.086,33.691,19.043,49.316,0
1583510336.220,40.527,36.133,33.691,0.977,56.641,0
1583510336.224,38.574,37.109,33.203,30.762,35.645,0
1583510336.221,37.598,41.504,33.203,39.551,-10.742,0
1583510336.225,41.992,41.504,31.738,12.207,23.926,0
1583510336.229,41.016,37.598,31.738,-13.672,22.949,0
1583510336.233,35.156,38.574,30.273,7.324,-5.371,0
1583510336.237,29.785,36.621,28.809,42.480,-12.207,0
1583510336.241,30.273,34.668,30.762,22.461,0.000,0
1583510336.245,33.691,37.109,34.668,-15.137,37.598,0
1583510336.248,33.203,37.109,36.133,1.465,16.113,0
1583510336.252,36.133,35.156,34.180,43.945,-29.297,0
1583510336.256,31.250,31.738,35.156,40.527,-6.836,0
1583510336.260,29.297,29.297,36.133,-5.371,44.922,0
1583510336.264,39.062,32.227,35.156,-7.812,-2.930,0
1583510336.261,35.645,32.227,37.109,38.086,6.348,0
1583510336.265,38.086,32.227,39.062,52.246,74.219,0
1583510336.269,39.551,33.691,36.133,15.625,80.566,0
1583510336.273,31.250,34.180,34.180,-16.113,34.180,0
1583510336.277,31.738,34.668,35.156,24.902,44.922,0
1583510336.281,39.551,37.598,33.203,61.035,56.641,0
1583510336.285,59.082,40.039,31.250,48.340,36.621,0
1583510336.288,43.457,36.621,35.645,7.812,38.086,0
1583510336.292,9.277,34.668,38.574,-1.953,57.617,0
1583510336.296,25.391,32.227,40.039,52.246,63.965,0
1583510336.300,29.785,31.738,40.039,52.734,30.762,0
1583510336.304,21.973,30.273,36.133,9.766,20.020,0
1583510336.321,25.879,22.949,40.527,24.902,40.039,0
1583510336.325,15.625,22.461,43.457,55.176,54.199,0
1583510336.329,20.020,23.438,43.457,62.500,40.527,0
1583510336.333,26.367,20.996,43.457,35.645,36.133,0
1583510336.337,20.508,21.484,39.551,18.066,10.742,0
1583510336.341,14.648,20.508,39.551,53.223,-27.832,0
1583510336.345,14.160,18.555,39.062,63.477,8.301,0
1583510336.348,23.438,21.484,40.039,35.156,45.898,0
1583510336.352,26.367,21.973,42.969,23.438,44.922,0
1583510336.356,24.902,22.949,41.016,54.199,26.367,0
1583510336.360,23.926,23.438,40.527,88.867,44.434,0
1583510336.364,24.414,21.484,40.527,60.547,97.656,0
1583510336.361,20.020,22.461,39.062,16.602,56.152,0
1583510336.365,23.926,25.391,37.598,34.180,-17.578,0
1583510336.369,25.879,26.855,36.621,69.336,14.160,0
1583510336.373,22.949,29.785,37.598,50.781,29.297,0
1583510336.377,23.438,32.227,37.109,3.906,19.043,0
1583510336.381,24.414,31.738,36.621,12.695,31.738,0
1583510336.385,26.367,32.227,36.621,52.734,31.738,0
1583510336.388,25.391,31.250,35.156,56.641,45.410,0
1583510336.392,25.879,31.250,36.621,16.113,25.391,0
1583510336.396,22.461,31.250,40.527,-3.906,41.016,0
1583510336.400,24.902,29.785,39.551,38.086,16.602,0
1583510336.404,29.785,31.738,35.645,55.664,-18.555,0
1583510336.401,28.320,29.785,35.156,29.785,3.906,0
1583510336.405,28.809,28.809,36.621,1.465,19.531,0
1583510336.409,24.414,34.180,32.227,21.973,28.320,0
1583510336.413,28.320,34.180,32.715,66.895,36.621,0
1583510336.417,33.203,32.227,32.715,46.875,27.832,0
1583510336.421,28.809,33.691,31.250,8.301,31.250,0
1583510336.425,33.203,32.715,34.180,18.555,36.133,0
1583510336.428,35.156,33.691,32.715,53.223,-0.977,0
1583510336.432,30.273,35.645,29.785,59.082,28.320,0
1583510336.436,32.227,35.156,31.738,15.625,-2.441,0
1583510336.440,34.668,34.180,35.645,17.578,-67.871,0
1583510336.444,33.691,37.109,35.645,59.570,5.859,0
1583510336.461,30.273,38.086,34.668,61.035,31.738,0
1583510336.465,30.762,38.574,35.156,38.086,42.480,0
1583510336.469,33.203,41.504,34.180,27.344,73.242,0
1583510336.473,31.738,41.016,34.668,65.430,48.828,0
1583510336.477,33.203,41.992,33.691,84.961,21.484,0
1583510336.481,37.109,41.992,33.203,50.781,21.484,0
1583510336.485,36.621,39.062,32.715,31.250,40.039,0
1583510336.488,34.180,40.039,33.203,58.105,50.781,0
1583510336.492,31.250,39.062,35.156,91.309,32.227,0
1583510336.496,28.809,36.133,35.645,65.430,84.473,0
1583510336.500,33.691,35.645,33.691,20.996,91.797,0
1583510336.504,40.039,39.062,28.809,41.504,72.266,0
1583510336.501,38.574,40.527,28.320,79.590,76.660,0
1583510336.505,31.250,39.062,30.762,75.684,51.270,0
1583510336.509,19.531,34.668,33.691,19.531,52.246,0
1583510336.513,5.371,31.250,36.621,-2.441,46.387,0
1583510336.517,4.395,28.809,36.133,46.387,64.453,0
1583510336.521,16.602,26.367,36.621,54.199,-8.301,0
1583510336.525,19.531,24.414,37.598,17.090,-13.672,0
1583510336.528,17.578,24.414,39.062,-14.160,55.176,0
1583510336.532,21.484,24.414,39.062,14.160,51.270,0
1583510336.536,24.902,21.484,38.086,54.688,84.961,0
1583510336.540,27.832,21.973,37.109,19.043,55.664,0
1583510336.544,32.227,25.391,36.621,-8.789,33.203,0
1583510336.541,33.691,25.391,35.156,11.719,61.523,0
1583510336.545,33.203,24.902,35.645,46.875,18.066,0
1583510336.549,34.180,26.367,32.715,55.176,-2.441,0
1583510336.553,32.715,27.344,29.785,25.879,58.105,0
1583510336.557,29.297,27.832,33.203,33.203,61.035,0
1583510336.561,26.855,28.320,35.156,70.801,72.266,0
1583510336.565,31.738,26.367,36.621,67.871,59.082,0
1583510336.568,36.133,25.391,37.598,29.785,20.996,0
1583510336.572,38.086,27.344,38.086,10.742,18.555,0
1583510336.576,44.922,28.809,36.621,55.176,5.859,0
1583510336.580,50.781,29.785,35.645,71.289,0.488,0
1583510336.584,47.852,28.320,36.133,33.203,42.480,0
1583510336.602,39.551,26.855,36.133,20.020,65.918,0
1583510336.606,38.086,28.809,38.574,47.852,47.852,0
1583510336.610,45.898,31.250,38.574,83.984,53.711,0
1583510336.614,42.480,31.250,39.551,50.293,41.992,0
1583510336.618,37.109,29.297,37.598,4.883,-27.832,0
1583510336.622,37.109,31.250,33.203,36.133,12.695,0
1583510336.626,34.668,32.227,35.645,68.359,41.504,0
1583510336.629,37.109,31.250,37.598,53.223,-33.203,0
1583510336.633,39.551,32.715,35.645,8.789,15.137,0
1583510336.637,36.133,34.180,35.156,14.160,73.242,0
1583510336.641,38.086,33.203,33.691,60.547,18.555,0
1583510336.645,37.109,34.180,36.133,63.477,14.648,0
1583510336.641,35.645,33.203,36.133,27.344,-17.578,0
1583510336.645,32.227,31.738,32.227,3.906,-8.301,0
1583510336.649,30.273,33.691,34.180,42.480,26.367,0
1583510336.653,33.203,35.156,35.645,70.801,34.668,0
1583510336.657,35.645,36.621,33.691,32.227,-5.859,0
1583510336.661,33.203,36.133,33.203,4.395,21.484,0
1583510336.665,30.762,34.180,33.203,21.484,34.668,0
1583510336.668,29.785,36.133,32.715,52.246,9.766,0
1583510336.672,30.273,36.621,33.203,42.969,82.031,0
1583510336.676,24.414,35.645,32.715,-2.441,84.961,0
1583510336.680,18.555,36.621,34.180,8.789,21.484,0
1583510336.684,23.926,38.086,36.621,49.805,12.207,0
1583510336.681,23.438,37.598,34.668,47.363,7.324,0
1583510336.685,19.531,37.598,33.691,15.137,6.348,0
1583510336.689,17.578,36.133,34.668,13.184,2.441,0
1583510336.693,21.973,34.180,34.668,52.246,22.949,0
1583510336.697,23.926,35.156,35.645,55.176,41.504,0
1583510336.701,24.902,35.645,36.133,21.973,27.832,0
1583510336.705,33.691,35.156,32.715,17.090,9.766,0
1583510336.708,37.109,36.133,33.691,56.152,45.898,0
1583510336.712,26.367,37.598,37.109,65.918,22.461,0
1583510336.716,19.531,35.156,37.109,29.785,16.602,0
1583510336.720,13.184,32.227,40.039,0.488,9.766,0
1583510336.724,12.695,29.785,41.016,35.156,0.000,0
1583510336.741,16.113,26.367,41.016,79.590,40.039,0
1583510336.745,19.043,26.855,41.992,58.594,57.129,0
1583510336.749,23.926,26.367,40.527,10.742,20.508,0
1583510336.753,25.391,27.832,39.551,26.367,51.270,0
1583510336.757,33.691,29.297,41.016,73.730,39.551,0
1583510336.761,39.062,28.809,41.504,67.871,-9.277,0
1583510336.765,36.621,30.762,40.039,24.414,-28.809,0
1583510336.768,38.574,33.203,38.086,15.625,-10.254,0
1583510336.772,33.691,32.715,38.086,59.082,16.113,0
1583510336.776,26.367,31.250,39.062,76.660,32.715,0
1583510336.780,28.320,31.250,35.645,34.180,35.156,0
1583510336.784,31.738,31.738,33.691,6.836,41.992,0
1583510336.781,34.180,31.250,35.156,37.598,44.434,0
1583510336.785,37.109,32.227,37.109,63.965,56.152,0
1583510336.789,40.039,34.180,37.109,28.320,29.297,0
1583510336.793,39.551,35.645,35.645,-15.625,-7.812,0
1583510336.797,35.156,34.668,32.227,2.441,-14.648,0
1583510336.801,29.297,33.691,31.738,36.621,28.320,0
1583510336.805,29.785,33.203,31.738,24.414,85.449,0
1583510336.808,33.691,31.250,31.250,-12.207,39.062,0
1583510336.812,32.227,33.691,31.738,-0.488,59.570,0
1583510336.816,31.250,34.668,34.180,41.992,111.816,0
1583510336.820,32.715,32.715,37.598,34.668,20.996,0
1583510336.824,33.691,35.156,34.180,3.418,-42.969,0
1583510336.821,33.203,35.645,31.738,0.000,-32.227,0
1583510336.825,34.180,35.156,32.227,41.016,-5.371,0
1583510336.829,29.785,35.645,33.691,59.570,53.711,0
1583510336.833,27.344,35.156,33.203,24.902,104.980,0
1583510336.837,27.344,34.180,31.738,1.953,114.746,0
1583510336.841,23.926,34.668,33.203,32.227,52.734,0
1583510336.845,24.414,33.691,34.180,62.500,26.367,0
1583510336.848,25.391,33.691,34.180,40.527,29.785,0
1583510336.852,27.344,35.645,32.227,8.301,59.570,0
1583510336.856,25.391,37.109,32.715,25.391,19.043,0
1583510336.860,28.809,38.086,33.203,64.941,-7.812,0
1583510336.864,30.762,38.574,33.203,63.477,42.969,0
1583510336.881,23.438,39.062,34.668,17.090,6.348,0
1583510336.885,22.461,38.574,34.180,7.324,2.441,0
1583510336.889,23.926,36.133,32.227,49.805,20.996,0
1583510336.893,30.273,37.109,33.203,58.105,-9.766,0
1583510336.897,32.227,36.133,35.156,20.508,18.066,0
1583510336.901,29.297,36.621,33.691,3.418,12.695,0
1583510336.905,24.414,40.039,32.715,31.738,34.668,0
1583510336.908,34.180,34.180,34.180,76.660,58.594,0
1583510336.912,55.664,35.645,30.762,67.871,-2.441,0
1583510336.916,33.691,45.410,28.809,11.719,3.418,0
1583510336.920,15.625,44.434,31.738,13.184,18.555,0
1583510336.924,24.414,50.781,25.391,40.527,37.109,0
1583510336.921,27.832,59.570,22.461,21.484,48.340,0
1583510336.925,33.691,59.082,23.438,-12.695,2.930,0
1583510336.929,37.109,62.988,16.602,0.977,4.883,0
1583510336.933,31.738,69.824,14.160,24.902,79.102,0
1583510336.937,27.832,71.777,15.137,5.371,97.656,0
1583510336.941,35.156,71.289,13.672,-22.949,59.082,0
1583510336.945,37.109,70.801,12.695,-22.949,28.320,0
1583510336.948,38.086,70.312,13.184,21.973,20.020,0
1583510336.952,42.969,68.359,15.137,32.227,36.133,0
1583510336.956,41.016,67.383,16.602,-12.207,-0.488,0
1583510336.960,45.898,65.918,16.602,-13.184,1.465,0
1583510336.964,51.270,64.941,19.043,25.879,52.734,0
1583510336.961,51.758,64.453,18.066,41.992,20.996,0
1583510336.965,55.664,61.035,19.043,5.859,1.465,0
1583510336.969,53.711,60.547,23.438,-27.832,19.043,0
1583510336.973,53.223,59.082,24.414,10.254,32.715,0
1583510336.977,52.734,56.641,24.414,49.316,36.133,0
1583510336.981,48.828,54.199,25.879,36.621,41.992,0
1583510336.985,49.316,53.711,26.367,-9.766,25.391,0
1583510336.988,48.340,53.223,26.367,-3.418,53.711,0
1583510336.992,50.293,52.734,26.855,49.805,44.922,0
1583510336.996,54.199,51.270,27.832,45.898,30.762,0
1583510337.000,54.688,50.293,27.832,7.812,26.855,0
1583510337.004,55.664,49.805,27.832,-11.230,-1.953,0
1583510337.021,56.641,49.805,26.367,23.438,1.953,0
1583510337.025,55.664,50.293,25.879,59.082,33.203,0
1583510337.029,56.152,49.316,27.344,25.391,52.734,0
1583510337.033,51.758,47.363,29.297,0.977,22.949,0
1583510337.037,47.852,45.898,30.762,28.320,32.715,0
1583510337.041,45.898,47.852,28.320,51.758,76.172,0
1583510337.045,45.410,49.805,27.344,37.598,71.289,0
1583510337.048,48.340,47.363,27.832,7.812,59.082,0
1583510337.052,49.316,45.898,26.855,32.227,33.691,0
1583510337.056,48.828,45.410,28.320,53.711,11.230,0
1583510337.060,42.969,43.457,29.785,30.762,-8.789,0
1583510337.064,38.086,43.457,28.809,3.906,-0.977,0
1583510337.061,39.551,42.480,31.738,5.371,-16.602,0
1583510337.065,37.598,41.992,32.227,47.852,-16.602,0
1583510337.069,34.668,41.992,27.832,41.504,16.602,0
1583510337.073,35.645,42.969,28.809,-1.953,75.684,0
1583510337.077,31.250,43.457,30.762,-3.418,96.191,0
1583510337.081,31.250,40.039,28.320,30.273,48.828,0
1583510337.085,36.621,38.574,31.250,55.176,62.988,0
1583510337.088,38.086,40.527,34.180,13.184,-6.836,0
1583510337.092,33.691,42.969,34.180,-16.113,-9.766,0
1583510337.096,31.738,43.457,33.203,26.367,11.719,0
1583510337.100,34.180,41.992,32.715,56.641,-17.090,0
1583510337.104,37.109,39.551,35.156,51.270,57.129,0
1583510337.101,30.762,39.551,35.645,8.301,62.500,0
1583510337.105,22.461,39.062,35.645,12.695,24.902,0
1583510337.109,28.809,38.574,35.645,60.547,32.227,0
1583510337.113,32.715,37.109,35.645,48.828,15.137,0
1583510337.117,30.762,38.086,36.621,16.113,38.086,0
1583510337.121,30.273,39.062,37.109,14.160,67.383,0
1583510337.125,29.785,40.039,36.133,44.434,40.527,0
1583510337.128,27.832,41.504,34.668,49.805,1.465,0
1583510337.132,25.391,40.039,35.156,11.230,15.625,0
1583510337.136,25.391,39.062,33.691,0.000,67.383,0
1583510337.140,24.902,40.527,34.180,26.367,85.938,0
1583510337.144,27.832,40.527,38.086,52.734,96.191,0
1583510337.161,31.738,39.062,39.062,32.715,74.219,0
1583510337.165,24.902,38.574,35.645,-3.906,-12.695,0
1583510337.169,22.461,40.527,33.203,24.902,-15.137,0
1583510337.173,25.879,40.039,33.203,51.758,44.922,0
1583510337.177,25.879,39.062,34.180,34.668,32.715,0
1583510337.181,23.926,40.039,35.156,4.883,25.391,0
1583510337.185,26.367,38.574,35.645,8.301,15.625,0
1583510337.188,30.273,37.109,38.086,50.781,70.312,0
1583510337.192,27.344,35.645,38.574,41.504,92.773,0
1583510337.196,26.367,37.109,35.645,2.441,70.312,0
1583510337.200,29.297,36.133,37.109,3.418,72.754,0
1583510337.204,25.391,35.645,38.086,37.598,29.297,0
1583510337.201,27.832,38.574,37.109,45.898,-13.672,0
1583510337.205,26.855,36.621,38.086,3.906,5.859,0
1583510337.209,21.484,38.086,36.621,-6.836,53.711,0
1583510337.213,22.949,37.109,35.645,28.320,60.059,0
1583510337.217,23.926,35.645,32.227,47.363,20.996,0
1583510337.221,25.391,36.621,34.180,27.344,-21.973,0
1583510337.225,23.926,34.668,35.645,-5.859,0.488,0
1583510337.228,26.367,34.668,34.180,22.461,46.875,0
1583510337.232,29.785,35.645,34.668,59.082,35.156,0
1583510337.236,32.715,37.598,35.156,34.180,20.020,0
1583510337.240,37.598,38.574,32.715,3.418,69.336,0
1583510337.244,36.621,39.062,32.715,12.207,67.383,0
1583510337.261,33.203,40.039,34.180,48.828,3.906,0
1583510337.265,32.715,41.016,34.180,52.246,34.180,0
1583510337.269,31.738,41.016,33.691,6.836,26.367,0
1583510337.273,30.273,42.480,32.715,1.953,49.805,0
1583510337.277,27.344,42.969,33.691,39.062,55.664,0
1583510337.281,20.508,41.504,33.691,49.805,-45.898,0
1583510337.285,19.531,38.574,32.715,22.461,-28.809,0
1583510337.288,18.066,36.133,32.715,-0.977,36.133,0
1583510337.292,20.508,35.645,32.715,32.227,35.645,0
1583510337.296,31.250,36.133,33.203,63.477,6.348,0
1583510337.300,34.668,36.621,33.203,42.480,-3.418,0
1583510337.304,27.344,34.668,35.156,7.324,-5.371,0
1583510337.301,27.832,34.180,35.156,26.367,32.227,0
1583510337.305,31.738,33.203,32.227,64.941,69.336,0
1583510337.309,30.762,33.691,34.668,44.922,-4.883,0
1583510337.313,32.715,34.668,35.156,4.395,-95.703,0
1583510337.317,31.738,37.109,31.250,23.438,12.207,0
1583510337.321,36.621,38.086,26.367,79.102,70.312,0
1583510337.325,23.926,33.203,35.156,70.801,-9.766,0
1583510337.328,3.906,32.715,38.086,10.254,38.086,0
1583510337.332,20.996,32.715,34.668,11.719,82.520,0
1583510337.336,37.109,26.855,38.086,61.035,59.570,0
1583510337.340,24.414,25.391,37.109,60.059,43.457,0
1583510337.344,20.996,25.391,35.156,20.996,60.547,0
1583510337.341,25.391,22.949,38.574,-9.277,40.527,0
1583510337.345,22.949,22.949,37.598,15.625,-40.039,0
1583510337.349,31.738,25.391,36.133,58.105,-18.066,0
1583510337.353,34.668,26.367,39.062,49.316,102.539,0
1583510337.357,28.809,26.855,40.039,12.695,84.473,0
1583510337.361,24.414,26.367,40.527,28.320,54.688,0
1583510337.365,24.902,26.367,39.062,77.637,59.570,0
1583510337.368,29.297,28.809,37.598,77.148,18.066,0
1583510337.372,30.273,27.832,37.598,37.598,27.832,0
1583510337.376,35.645,26.855,37.109,40.039,84.961,0
1583510337.380,44.922,29.297,38.086,86.426,93.750,0
1583510337.384,49.316,31.738,35.645,94.727,40.039,0
1583510337.401,53.223,34.668,31.250,55.176,28.320,0
1583510337.405,55.664,36.621,31.738,36.133,4.883,0
1583510337.409,54.199,35.156,32.227,69.824,-8.789,0
1583510337.413,53.223,35.645,31.250,84.961,-9.277,0
1583510337.417,55.664,36.621,31.250,59.082,11.230,0
1583510337.421,49.805,34.668,33.203,30.762,40.039,0
1583510337.425,45.410,32.715,36.621,49.316,41.992,0
1583510337.428,46.875,31.738,38.574,75.684,22.949,0
1583510337.432,46.387,32.715,39.551,54.688,40.527,0
1583510337.436,42.969,33.691,41.504,23.438,57.617,0
1583510337.440,40.527,34.180,36.133,28.320,52.734,0
1583510337.444,41.504,33.691,34.668,61.523,51.270,0
1583510337.441,41.016,33.203,38.086,49.805,38.086,0
1583510337.445,42.480,34.180,36.133,2.930,23.926,0
1583510337.449,41.016,34.668,33.203,8.789,74.219,0
1583510337.453,43.945,34.180,33.691,43.945,43.457,0
1583510337.457,47.363,36.621,33.691,55.664,8.789,0
1583510337.461,39.551,38.086,33.203,16.113,58.594,0
1583510337.465,32.715,36.621,33.203,-15.625,69.336,0
1583510337.468,34.668,35.645,33.203,33.691,62.988,0
1583510337.472,36.133,33.691,33.691,57.617,21.484,0
1583510337.476,31.738,30.762,34.180,27.344,-6.348,0
1583510337.480,24.414,30.762,33.691,-11.230,25.879,0
1583510337.484,24.902,32.715,34.668,0.977,11.230,0
1583510337.481,34.668,35.645,37.598,53.223,0.000,0
1583510337.485,37.598,37.598,38.574,43.457,17.090,0
1583510337.489,36.133,37.109,34.668,5.371,-3.418,0
1583510337.493,34.180,37.598,32.227,4.883,41.992,0
1583510337.497,31.738,38.086,32.227,32.715,39.551,0
1583510337.501,27.344,36.133,31.738,42.969,18.555,0
1583510337.505,24.902,38.086,32.715,4.883,16.602,0
1583510337.508,23.438,39.551,33.203,-1.465,59.082,0
1583510337.512,17.578,39.062,33.203,24.902,105.957,0
1583510337.516,17.578,39.062,32.715,26.367,-4.883,0
1583510337.520,19.043,37.598,32.715,9.766,-53.711,0
1583510337.524,13.184,34.668,31.250,-7.812,41.504,0
1583510337.541,11.230,34.180,32.227,25.391,19.531,0
1583510337.545,12.695,36.133,33.203,46.387,25.391,0
1583510337.549,14.160,32.715,34.180,14.160,4.395,0
1583510337.553,18.555,31.738,35.156,2.441,-44.434,0
1583510337.557,20.020,32.715,34.668,28.809,28.320,0
1583510337.561,23.926,32.227,35.156,71.289,54.199,0
1583510337.565,31.738,32.227,34.668,56.641,43.945,0
1583510337.568,38.086,32.227,36.133,13.184,-27.344,0
1583510337.572,34.668,33.203,39.062,34.180,-15.137,0
1583510337.576,34.180,35.156,39.062,74.219,12.695,0
1583510337.580,39.551,34.668,38.086,81.055,37.109,0
1583510337.584,35.156,33.691,37.109,36.133,80.566,0
1583510337.581,30.762,35.645,36.621,9.766,20.508,0
1583510337.585,35.156,35.156,37.598,56.641,22.461,0
1583510337.589,33.691,33.691,35.156,68.359,2.930,0
1583510337.593,30.273,36.133,33.203,31.738,54.688,0
1583510337.597,30.762,36.621,34.668,-10.742,92.285,0
1583510337.601,29.297,35.156,36.621,7.324,39.551,0
1583510337.605,28.320,37.109,37.109,48.828,21.973,0
1583510337.608,31.250,40.039,38.086,25.879,0.977,0
1583510337.612,37.598,40.039,38.086,-9.277,36.621,0
1583510337.616,36.621,38.574,35.645,-3.906,6.348,0
1583510337.620,40.039,40.527,30.762,41.016,30.762,0
1583510337.624,47.363,39.551,32.715,60.547,46.387,0
1583510337.621,35.156,37.598,40.039,20.020,0.000,0
1583510337.625,19.531,36.133,40.527,13.672,28.809,0
1583510337.629,25.391,31.738,38.574,53.711,8.301,0
1583510337.633,18.555,27.832,41.016,55.664,-28.809,0
1583510337.637,4.395,25.391,41.016,23.926,12.207,0
1583510337.641,13.184,25.879,39.062,8.789,28.809,0
1583510337.645,16.113,26.367,39.062,43.457,1.465,0
1583510337.648,14.648,25.879,37.109,60.059,32.227,0
1583510337.652,15.137,28.320,35.645,22.461,45.410,0
1583510337.656,11.230,29.297,36.621,-4.883,18.066,0
1583510337.660,14.648,32.715,34.180,27.344,26.855,0
1583510337.664,22.461,34.668,33.203,71.777,28.320,0
1583510337.681,25.391,31.738,34.180,50.293,78.125,0
1583510337.685,23.926,31.738,36.133,16.602,84.961,0
1583510337.689,18.555,32.715,36.621,33.203,31.738,0
1583510337.693,15.137,32.227,37.109,67.383,0.488,0
1583510337.697,19.531,30.273,37.598,69.824,-8.301,0
1583510337.701,17.578,28.809,37.109,20.996,40.039,0
1583510337.705,13.672,30.762,37.598,8.301,55.176,0
1583510337.708,23.438,30.273,39.062,54.688,13.672,0
1583510337.712,29.785,29.297,38.086,67.871,20.508,0
1583510337.716,27.832,33.691,36.621,33.691,62.988,0
1583510337.720,27.344,36.133,37.598,-0.977,68.359,0
1583510337.724,23.438,35.156,36.133,32.715,31.738,0
1583510337.721,19.531,35.156,34.668,61.035,17.578,0
1583510337.725,19.043,35.645,36.133,26.367,-20.508,0
1583510337.729,21.484,36.621,36.621,-0.488,24.902,0
1583510337.733,16.113,35.645,33.203,11.230,24.902,0
1583510337.737,14.160,33.203,35.156,46.875,6.836,0
1583510337.741,24.902,37.109,36.621,39.551,31.250,0
1583510337.745,30.273,36.621,34.668,-6.836,-30.273,0
1583510337.748,34.180,35.156,35.156,-0.488,-5.371,0
1583510337.752,35.645,35.156,36.133,33.203,52.246,0
1583510337.756,29.297,34.668,33.691,30.273,40.039,0
1583510337.760,28.809,35.645,31.738,-10.742,56.641,0
1583510337.764,32.227,34.180,34.180,-22.461,25.879,0
1583510337.762,32.227,33.691,34.668,19.531,23.926,0
1583510337.766,37.598,33.691,32.227,36.133,63.965,0
1583510337.770,39.551,34.668,31.738,5.371,27.832,0
1583510337.774,37.598,36.621,32.227,-21.973,29.785,0
1583510337.778,39.062,34.668,31.250,3.906,3.418,0
1583510337.782,37.109,35.156,30.762,36.133,17.578,0
1583510337.786,34.180,36.621,30.762,8.301,37.109,0
1583510337.789,32.227,37.109,33.203,-25.391,-3.418,0
1583510337.793,37.109,38.574,32.715,1.465,48.340,0
1583510337.797,41.016,37.109,30.273,39.551,101.562,0
1583510337.801,38.086,32.715,32.715,27.344,57.617,0
1583510337.805,41.992,31.738,34.668,-11.719,43.945,0
1583510337.821,43.945,34.180,35.645,-3.906,59.082,0
1583510337.825,41.016,34.180,37.598,30.273,40.039,0
1583510337.829,43.945,34.668,37.109,33.691,42.969,0
1583510337.833,42.480,36.133,34.180,-2.930,53.223,0
1583510337.837,39.551,36.621,34.180,-25.879,53.223,0
1583510337.841,38.574,37.109,34.668,19.531,66.895,0
1583510337.845,37.109,37.598,35.156,38.574,46.387,0
1583510337.848,41.016,37.598,33.691,-1.465,5.859,0
1583510337.852,43.945,36.133,30.762,-26.367,0.977,0
1583510337.856,41.504,36.621,32.715,0.000,33.203,0
1583510337.860,44.434,37.598,34.668,39.062,43.457,0
1583510337.864,49.805,36.621,32.715,27.832,56.152,0
1583510337.861,50.293,36.621,33.203,-7.324,102.539,0
1583510337.865,52.246,37.598,32.227,4.883,82.520,0
1583510337.869,49.316,36.621,31.250,41.016,38.086,0
1583510337.873,43.945,37.109,31.250,43.945,60.059,0
1583510337.877,38.086,39.062,30.273,10.254,84.961,0
1583510337.881,30.273,37.109,29.297,5.371,130.859,0
1583510337.885,32.715,36.621,26.855,39.551,107.910,0
1583510337.888,32.715,37.598,27.832,45.898,60.547,0
1583510337.892,27.344,38.086,27.832,13.672,57.617,0
1583510337.896,23.926,38.086,27.832,0.977,81.543,0
1583510337.900,21.973,35.645,31.738,28.320,41.016,0
1583510337.904,25.391,35.645,33.691,48.340,-6.836,0
1583510337.901,25.391,36.621,35.156,28.320,38.574,0
1583510337.905,17.578,36.133,35.156,2.441,68.359,0
1583510337.909,16.602,36.621,33.203,26.367,39.062,0
1583510337.913,18.066,35.645,34.668,61.523,48.340,0
1583510337.917,16.602,34.668,36.133,46.875,62.988,0
1583510337.921,18.555,37.109,32.715,5.371,29.297,0
1583510337.925,20.508,38.086,31.738,12.695,7.812,0
1583510337.928,19.043,35.156,37.598,50.781,-10.254,0
1583510337.932,17.090,34.180,38.574,45.898,26.855,0
1583510337.936,14.648,35.156,36.621,9.766,99.609,0
1583510337.940,11.230,34.180,38.574,0.000,67.871,0
1583510337.944,10.254,34.180,38.574,45.898,-22.461,0
1583510337.961,9.766,35.156,37.598,64.941,-0.488,0
1583510337.965,12.207,33.203,35.645,27.344,52.734,0
1583510337.969,14.160,33.203,32.715,0.488,60.059,0
1583510337.973,11.719,35.156,34.180,27.832,41.504,0
1583510337.977,16.113,36.621,34.668,66.895,83.984,0
1583510337.981,21.484,33.691,34.668,49.316,62.500,0
1583510337.985,26.855,31.250,34.180,26.367,40.527,0
1583510337.988,20.996,39.062,32.227,33.691,60.547,0
1583510337.992,-7.324,42.480,38.574,39.062,36.621,0
1583510337.996,2.441,37.598,38.574,47.852,39.551,0
1583510338.000,20.020,42.969,32.227,23.926,39.062,0
1583510338.004,8.789,43.457,33.691,22.461,75.684,0
1583510338.001,11.230,41.016,35.156,55.176,31.738,0
1583510338.005,18.555,45.898,33.691,50.781,-54.688,0
1583510338.009,25.391,46.387,33.691,29.297,16.602,0
1583510338.013,27.832,47.852,33.691,24.414,62.500,0
1583510338.017,23.438,47.852,29.785,61.035,-19.043,0
1583510338.021,21.973,46.875,30.273,71.289,-19.043,0
1583510338.025,24.902,45.410,31.738,35.645,36.621,0
1583510338.028,28.809,44.922,27.344,18.066,36.133,0
1583510338.032,31.738,46.387,27.344,50.781,45.410,0
1583510338.036,33.203,43.945,30.273,83.984,53.711,0
1583510338.040,36.133,44.434,27.832,45.898,31.738,0
1583510338.044,40.039,43.945,27.344,10.254,33.203,0
1583510338.041,40.527,42.969,30.762,42.969,54.199,0
1583510338.045,43.945,44.922,30.762,78.125,31.738,0
1583510338.049,43.945,43.945,34.668,70.312,11.230,0
1583510338.053,39.062,42.480,36.133,20.996,28.809,0
1583510338.057,39.062,40.527,34.180,19.043,49.316,0
1583510338.061,39.551,40.527,32.715,68.359,48.340,0
1583510338.065,37.598,40.527,32.227,65.430,69.824,0
1583510338.068,34.668,38.086,34.180,24.414,46.875,0
1583510338.072,35.156,39.062,34.180,-8.301,18.555,0
1583510338.076,41.504,40.039,31.250,22.461,51.270,0
1583510338.080,44.922,39.551,32.715,61.035,63.965,0
1583510338.084,45.410,42.480,34.180,30.273,12.695,0
1583510338.101,39.551,41.016,36.621,3.418,-0.488,0
1583510338.105,25.879,37.109,36.621,16.602,54.199,0
1583510338.109,21.484,36.133,32.715,42.480,73.242,0
1583510338.113,24.902,38.086,33.203,35.645,34.668,0
1583510338.117,23.438,37.109,35.645,-7.812,-25.879,0
1583510338.121,19.531,37.109,36.133,9.766,-9.277,0
1583510338.125,20.996,37.109,35.156,39.551,29.297,0
1583510338.128,27.832,37.109,34.180,29.785,14.160,0
1583510338.132,33.203,38.574,32.227,8.789,57.617,0
1583510338.136,33.203,40.039,31.250,-3.906,16.602,0
1583510338.140,31.250,39.062,29.785,36.621,3.418,0
1583510338.144,26.367,37.109,34.180,46.387,-2.441,0
1583510338.141,27.344,38.086,35.156,5.859,-14.160,0
1583510338.145,28.320,40.039,33.203,-0.488,42.969,0
1583510338.149,22.949,39.062,34.668,32.227,16.602,0
1583510338.153,22.949,38.086,34.180,55.176,39.551,0
1583510338.157,26.367,40.039,34.180,18.555,42.969,0
1583510338.161,22.461,41.504,33.203,-20.508,6.836,0
1583510338.165,17.090,40.527,31.250,6.836,-19.531,0
1583510338.168,21.973,39.551,33.691,40.527,-8.789,0
1583510338.172,27.832,38.574,37.109,34.668,72.266,0
1583510338.176,28.320,37.598,39.551,-13.672,79.102,0
1583510338.180,25.879,35.156,39.062,-18.066,24.902,0
1583510338.184,32.715,34.180,39.551,41.504,22.949,0
1583510338.181,38.574,33.203,38.086,50.293,6.348,0
1583510338.185,33.691,37.109,34.180,19.043,-16.602,0
1583510338.189,28.809,38.574,34.180,6.348,-3.906,0
1583510338.193,29.785,37.109,38.086,54.688,-23.926,0
1583510338.197,28.809,38.574,40.039,87.891,34.668,0
1583510338.201,26.855,37.109,37.598,54.199,98.633,0
1583510338.205,30.762,37.109,34.668,35.645,126.465,0
1583510338.208,29.785,36.621,36.621,48.828,87.402,0
1583510338.212,34.668,38.086,39.062,70.801,16.602,0
1583510338.216,43.457,40.527,36.621,59.570,27.344,0
1583510338.220,41.016,38.574,36.621,20.508,-2.930,0
1583510338.224,41.016,37.109,36.621,41.016,-1.465,0
1583510338.241,37.109,35.156,36.621,64.941,11.719,0
1583510338.245,35.645,36.621,35.156,50.293,-27.344,0
1583510338.249,38.574,38.574,33.691,29.297,73.730,0
1583510338.253,35.645,38.574,33.203,24.414,69.824,0
1583510338.257,38.574,38.086,33.203,60.547,44.922,0
1583510338.261,38.086,38.086,33.691,58.594,63.477,0
1583510338.265,34.180,38.086,31.738,18.066,40.039,0
1583510338.268,38.086,36.621,32.715,9.766,31.738,0
1583510338.272,40.039,34.180,34.668,46.387,16.113,0
1583510338.276,39.551,33.691,34.668,68.848,34.668,0
1583510338.280,41.016,34.180,37.109,32.715,70.312,0
1583510338.284,41.504,37.109,37.109,2.441,69.824,0
1583510338.282,42.969,37.598,34.180,31.738,22.949,0
1583510338.286,39.062,35.645,36.133,60.547,28.320,0
1583510338.290,42.480,39.551,35.156,37.598,33.203,0
1583510338.294,42.480,40.527,34.668,0.000,6.836,0
1583510338.298,32.715,37.109,36.621,13.672,-25.391,0
1583510338.302,33.691,36.621,37.109,57.129,-30.762,0
1583510338.306,38.086,34.668,39.062,53.711,-12.207,0
1583510338.309,36.621,33.203,38.574,13.184,20.508,0
1583510338.313,29.297,32.715,38.086,0.000,10.254,0
1583510338.317,21.484,32.227,41.504,41.016,11.719,0
1583510338.321,26.367,33.691,41.504,56.641,70.801,0
1583510338.325,32.227,34.668,35.645,19.531,123.535,0
1583510338.322,26.855,35.645,34.180,0.488,65.918,0
1583510338.326,23.438,37.598,37.109,32.227,40.039,0
1583510338.330,27.344,37.598,36.621,56.152,41.016,0
1583510338.334,32.715,36.133,40.039,34.668,1.953,0
1583510338.338,28.809,38.086,38.574,11.230,18.066,0
1583510338.342,25.391,39.551,36.133,37.109,69.336,0
1583510338.346,22.949,36.133,36.621,63.477,31.250,0
1583510338.349,13.184,33.203,36.621,43.945,-21.973,0
1583510338.353,17.578,34.180,35.156,15.625,41.992,0
1583510338.357,18.555,34.180,33.691,25.879,73.242,0
1583510338.361,7.812,38.574,32.715,48.340,22.949,0
1583510338.365,3.418,41.016,32.715,32.715,38.574,0
1583510338.381,11.230,41.016,30.762,-2.930,62.988,0
1583510338.385,22.949,41.992,30.762,0.000,79.102,0
1583510338.389,25.879,40.039,31.250,44.434,62.012,0
1583510338.393,20.508,39.062,27.344,62.988,57.617,0
1583510338.397,21.973,38.574,27.832,25.391,-23.438,0
1583510338.401,24.902,38.086,30.273,9.277,-25.391,0
1583510338.405,20.996,37.598,30.273,43.457,38.574,0
1583510338.408,22.949,37.598,30.762,68.359,27.344,0
1583510338.412,24.902,38.086,33.203,41.992,58.105,0
1583510338.416,26.367,39.062,33.203,6.348,83.984,0
1583510338.420,27.832,37.598,33.203,32.227,89.844,0
1583510338.424,32.715,37.598,35.645,62.988,44.434,0
1583510338.421,37.598,41.016,33.691,49.805,40.527,0
1583510338.425,36.133,41.016,31.738,13.672,91.309,0
1583510338.429,32.227,39.551,34.180,10.254,84.961,0
1583510338.433,32.715,40.527,32.227,42.480,20.996,0
1583510338.437,37.109,40.527,32.227,43.945,17.090,0
1583510338.441,36.621,37.598,35.645,9.766,63.477,0
1583510338.445,32.715,36.133,35.645,0.488,71.777,0
1583510338.448,32.227,37.109,33.203,39.062,17.090,0
1583510338.452,36.133,38.086,30.273,61.523,18.066,0
1583510338.456,36.621,36.133,32.715,33.691,46.387,0
1583510338.460,31.738,35.645,32.715,13.672,28.320,0
1583510338.464,29.297,37.598,34.180,44.434,25.391,0
1583510338.462,31.738,37.109,35.645,65.430,24.902,0
1583510338.466,32.227,37.109,34.180,48.340,20.996,0
1583510338.470,30.273,38.086,35.156,12.207,-7.324,0
1583510338.474,31.250,36.621,34.180,26.855,10.742,0
1583510338.478,25.391,36.133,34.668,62.012,49.805,0
1583510338.482,21.973,38.086,35.645,46.875,19.043,0
1583510338.486,28.809,39.551,33.203,16.113,46.875,0
1583510338.489,26.367,40.039,31.738,11.719,41.504,0
1583510338.493,29.297,40.527,31.250,55.176,3.906,0
1583510338.497,33.203,40.039,31.250,65.430,38.574,0
1583510338.501,30.273,39.062,30.273,20.508,23.926,0
1583510338.505,29.297,39.551,28.809,12.207,-12.695,0
1583510338.541,25.391,39.551,31.250,46.875,21.973,0
1583510338.545,22.949,35.156,32.227,69.824,41.504,0
1583510338.549,20.996,34.668,30.762,31.250,30.273,0
1583510338.553,19.531,36.133,33.203,0.488,19.531,0
1583510338.557,20.508,34.180,36.621,49.805,37.109,0
1583510338.561,19.043,34.180,38.086,79.102,59.570,0
1583510338.565,26.367,34.668,36.133,55.664,70.312,0
1583510338.568,31.738,34.668,36.621,15.625,56.152,0
1583510338.572,26.367,31.250,38.086,23.926,19.043,0
1583510338.576,27.344,30.273,35.156,73.242,14.648,0
1583510338.580,23.438,34.668,33.691,65.430,1.465,0
1583510338.584,26.367,35.156,33.203,26.367,64.941,0
1583510338.563,30.762,33.691,33.691,10.254,25.391,0
1583510338.567,28.809,35.156,34.180,46.387,-13.184,0
1583510338.571,29.785,36.133,34.180,69.824,53.223,0
1583510338.575,32.715,34.668,38.574,27.344,6.348,0
1583510338.579,29.785,35.156,40.527,12.695,14.160,0
1583510338.583,25.879,33.691,36.621,41.992,11.230,0
1583510338.587,28.320,31.738,36.621,56.152,-0.488,0
1583510338.590,38.086,34.668,35.156,43.945,51.270,0
1583510338.594,54.688,39.551,31.738,22.949,20.996,0
1583510338.598,49.316,37.598,34.668,45.898,-7.812,0
1583510338.602,24.414,35.156,36.621,51.270,24.414,0
1583510338.606,24.414,34.180,35.156,25.391,46.875,0
1583510338.601,41.016,33.691,34.180,12.207,0.488,0
1583510338.605,40.527,32.227,36.133,23.438,7.812,0
1583510338.609,39.062,30.762,38.086,64.453,78.613,0
1583510338.613,42.480,32.227,36.621,50.293,64.941,0
1583510338.617,39.062,34.668,36.133,1.953,-1.953,0
1583510338.621,37.598,32.715,36.621,12.207,-34.180,0
1583510338.625,41.016,27.344,36.133,54.688,-20.020,0
1583510338.628,41.992,29.785,37.598,62.500,33.691,0
1583510338.632,42.969,31.250,38.574,15.137,71.289,0
1583510338.636,41.016,26.855,37.109,-6.348,43.945,0
1583510338.640,40.039,25.391,36.133,43.457,60.059,0
1583510338.644,46.387,29.297,37.598,68.359,51.758,0
1583510338.662,51.270,32.227,36.621,42.480,-3.906,0
1583510338.666,49.805,32.715,36.133,8.301,65.430,0
1583510338.670,42.969,32.227,37.598,23.926,73.242,0
1583510338.674,44.922,33.691,37.598,72.266,17.578,0
1583510338.678,51.270,33.203,37.598,64.941,48.340,0
1583510338.682,55.176,33.691,38.574,25.879,71.289,0
1583510338.686,52.246,34.180,38.086,19.531,58.105,0
1583510338.689,47.363,36.133,34.668,50.293,57.617,0
1583510338.693,53.223,38.574,35.156,59.570,69.824,0
1583510338.697,52.246,38.086,34.668,17.090,19.043,0
1583510338.701,35.156,36.133,33.203,2.441,-11.719,0
1583510338.705,29.297,34.180,37.598,35.156,7.812,0
1583510338.701,36.621,35.645,38.574,54.199,18.066,0
1583510338.705,33.203,35.156,36.621,34.668,5.859,0
1583510338.709,26.855,35.156,34.668,11.719,32.715,0
1583510338.713,26.855,35.645,31.250,41.992,80.078,0
1583510338.717,26.367,34.180,34.668,59.082,35.156,0
1583510338.721,24.902,32.715,37.598,39.062,24.902,0
1583510338.725,16.602,31.738,36.621,8.301,35.645,0
1583510338.728,10.742,33.203,38.086,20.996,40.039,0
1583510338.732,12.207,30.273,37.109,64.453,38.574,0
1583510338.736,13.184,30.273,37.598,42.480,-3.906,0
1583510338.740,17.090,33.691,37.598,1.465,-30.273,0
1583510338.744,20.508,34.668,37.109,10.254,-18.066,0
1583510338.742,29.785,36.133,36.621,47.363,11.719,0
1583510338.746,34.180,36.621,37.598,55.664,30.762,0
1583510338.750,30.273,38.086,36.621,10.254,31.250,0
1583510338.754,31.738,37.598,35.156,3.418,25.391,0
1583510338.758,31.250,35.156,35.645,51.270,32.715,0
1583510338.762,26.855,35.645,36.133,61.523,3.906,0
1583510338.766,31.738,37.598,35.156,30.273,-45.898,0
1583510338.769,31.250,37.109,36.133,-1.953,34.180,0
1583510338.773,26.367,36.133,35.156,25.391,92.773,0
1583510338.777,26.855,36.621,34.180,66.895,64.941,0
1583510338.781,27.832,37.109,39.062,49.805,75.684,0
1583510338.785,25.879,36.133,40.039,14.648,49.805,0
1583510338.801,19.531,35.645,38.086,21.484,70.801,0
1583510338.805,22.949,35.645,38.086,59.570,55.176,0
1583510338.809,29.785,34.180,37.598,65.430,67.871,0
1583510338.813,26.367,33.691,38.574,20.508,55.664,0
1583510338.817,24.414,35.156,38.086,10.742,-0.977,0
1583510338.821,27.344,34.668,38.574,44.434,7.324,0
1583510338.825,25.879,33.691,39.062,56.641,-20.996,0
1583510338.828,23.926,31.738,36.133,26.367,-27.344,0
1583510338.832,24.414,30.762,38.086,7.324,3.906,0
1583510338.836,27.344,34.180,38.086,42.480,-17.578,0
1583510338.840,23.438,34.180,37.598,65.918,28.809,0
1583510338.844,21.973,38.086,36.621,35.156,20.996,0
1583510338.841,31.250,39.551,33.691,5.859,-14.160,0
1583510338.845,35.645,33.203,33.691,31.250,66.895,0
1583510338.849,42.969,34.668,29.297,62.012,69.824,0
1583510338.853,47.852,38.574,27.832,37.598,41.016,0
1583510338.857,46.875,37.598,30.273,-4.395,23.926,0
1583510338.861,45.410,37.109,31.738,3.418,18.555,0
1583510338.865,46.387,38.086,33.691,41.016,8.789,0
1583510338.868,41.504,36.133,34.180,45.898,6.836,0
1583510338.872,33.691,36.621,37.109,-0.977,6.348,0
1583510338.876,27.832,35.645,40.527,-15.625,-46.387,0
1583510338.880,30.762,34.668,36.133,31.738,-55.176,0
1583510338.884,36.133,33.691,36.133,56.152,-1.465,0
1583510338.901,37.598,32.227,36.621,30.273,47.852,0
1583510338.905,28.809,34.668,34.668,2.441,81.055,0
1583510338.909,21.973,36.133,36.621,34.180,84.961,0
1583510338.913,25.879,34.180,37.109,64.453,96.191,0
1583510338.917,26.855,33.691,36.621,33.203,83.984,0
1583510338.921,28.320,34.180,38.086,-0.977,78.125,0
1583510338.925,26.367,32.715,37.598,14.648,31.250,0
1583510338.928,25.879,31.250,37.598,50.781,-13.672,0
1583510338.932,28.320,30.273,37.598,39.062,13.672,0
1583510338.936,29.297,33.691,36.133,1.953,69.824,0
1583510338.940,30.762,35.156,35.645,6.836,53.711,0
1583510338.944,29.297,34.668,34.668,37.109,11.719,0
1583510338.941,34.668,35.645,34.180,39.062,-3.418,0
1583510338.945,39.551,37.109,33.691,7.812,32.227,0
1583510338.949,31.250,39.062,37.598,-5.859,10.742,0
1583510338.953,33.691,41.504,38.574,30.762,1.953,0
1583510338.957,44.922,40.527,35.156,41.016,25.879,0
1583510338.961,41.992,41.992,35.156,4.395,8.789,0
1583510338.965,35.645,41.992,37.109,-21.484,24.902,0
1583510338.968,34.668,40.039,39.062,2.930,16.602,0
1583510338.972,38.574,41.504,38.086,34.668,49.805,0
1583510338.976,41.504,40.039,41.016,11.719,63.477,0
1583510338.980,38.086,39.062,40.039,-23.438,14.648,0
1583510338.984,41.504,39.062,36.133,2.930,34.180,0
1583510338.981,43.945,38.086,39.062,52.246,62.988,0
1583510338.985,41.016,38.086,39.062,47.852,36.621,0
1583510338.989,40.039,36.621,36.621,10.254,71.289,0
1583510338.993,38.086,34.668,34.668,14.648,66.895,0
1583510338.997,34.668,34.668,34.668,55.664,-12.695,0
1583510339.001,34.180,34.180,38.086,63.477,-43.945,0
1583510339.005,35.156,32.227,39.062,17.578,21.973,0
1583510339.008,35.156,33.203,37.109,-4.883,65.918,0
1583510339.012,37.598,33.691,36.133,38.086,66.406,0
1583510339.016,45.898,35.645,37.598,48.340,4.883,0
1583510339.020,53.711,38.574,38.574,24.414,-23.438,0
1583510339.024,51.758,37.598,36.621,-0.488,17.578,0
1583510339.041,49.316,36.133,35.156,15.137,30.273,0
1583510339.045,48.828,38.574,34.668,53.711,62.012,0
1583510339.049,54.688,38.574,33.691,33.691,62.988,0
1583510339.053,56.641,37.109,31.250,-4.395,42.969,0
1583510339.057,53.223,38.574,31.250,-3.418,46.875,0
1583510339.061,58.105,38.086,32.715,26.855,12.207,0
1583510339.065,54.688,39.551,33.203,34.180,64.453,0
1583510339.068,52.246,41.016,33.203,-11.230,82.520,0
1583510339.072,60.059,39.551,31.250,-14.160,65.430,0
1583510339.076,60.547,38.086,31.250,22.461,112.305,0
1583510339.080,55.664,38.574,32.715,21.973,69.336,0
1583510339.084,50.293,38.574,34.180,-1.953,5.859,0
1583510339.081,49.805,39.551,31.250,-20.996,30.762,0
1583510339.085,50.293,39.551,29.297,13.672,62.988,0
1583510339.089,48.828,38.086,34.180,33.691,65.918,0
1583510339.093,46.875,38.574,35.156,6.836,49.316,0
1583510339.097,37.598,37.109,33.691,-6.836,27.344,0
1583510339.101,34.668,36.133,33.203,19.043,65.918,0
1583510339.105,35.156,37.109,35.645,59.082,52.734,0
1583510339.108,36.621,35.156,38.086,37.109,15.625,0
1583510339.112,37.109,31.738,36.621,-2.930,33.203,0
1583510339.116,34.668,32.227,35.645,17.578,3.906,0
1583510339.120,35.156,35.156,36.621,53.711,-14.648,0
1583510339.124,41.504,35.156,35.156,61.523,47.852,0
1583510339.121,39.551,37.109,33.203,18.066,61.523,0
1583510339.125,35.645,40.527,36.621,8.301,-2.930,0
1583510339.129,39.551,38.086,37.109,72.266,31.738,0
1583510339.133,38.086,36.621,35.645,81.055,80.566,0
1583510339.137,36.133,36.621,33.691,37.109,10.254,0
1583510339.141,33.203,37.598,32.715,9.277,6.348,0
1583510339.145,28.320,39.062,33.691,35.156,30.273,0
1583510339.148,30.273,37.598,33.691,79.590,75.195,0
1583510339.152,27.344,39.062,36.133,54.199,52.734,0
1583510339.156,21.973,39.062,38.574,18.066,-20.508,0
1583510339.160,22.461,36.621,34.668,40.039,7.812,0
1583510339.164,23.926,37.109,31.738,76.172,34.180,0
1583510339.181,24.902,36.621,34.180,73.242,11.230,0
1583510339.185,23.926,36.621,35.645,29.785,-29.297,0
1583510339.189,24.902,35.156,36.133,35.156,-35.156,0
1583510339.193,31.738,34.668,37.109,67.383,10.742,0
1583510339.197,38.574,36.133,36.621,68.848,62.012,0
1583510339.201,33.691,38.086,36.621,42.480,34.180,0
1583510339.205,22.461,39.551,37.109,22.949,52.246,0
1583510339.208,25.391,40.527,35.156,55.664,52.246,0
1583510339.212,35.645,41.016,37.109,65.918,-5.859,0
1583510339.216,38.574,40.527,36.621,28.320,-11.719,0
1583510339.220,40.039,40.527,35.156,12.695,33.203,0
1583510339.224,39.551,41.016,38.086,36.133,52.246,0
1583510339.221,37.598,41.504,36.621,63.477,-4.883,0
1583510339.225,37.109,38.574,34.180,34.668,5.371,0
1583510339.229,34.180,40.527,35.156,-5.859,41.992,0
1583510339.233,32.715,43.457,37.109,19.531,55.176,0
1583510339.237,33.691,43.945,40.527,59.570,59.082,0
1583510339.241,40.039,46.387,43.457,58.105,27.832,0
1583510339.245,47.363,48.828,47.363,13.672,23.926,0
1583510339.248,49.316,50.781,49.316,20.508,61.523,0
1583510339.252,49.805,52.246,51.758,76.660,50.293,0
1583510339.256,45.898,53.223,52.246,87.402,41.504,0
1583510339.260,42.480,52.246,52.246,47.363,59.570,0
1583510339.264,42.480,53.711,53.223,19.531,58.105,0
1583510339.261,43.457,55.664,50.293,57.617,51.270,0
1583510339.265,41.016,52.734,46.875,82.031,18.066,0
1583510339.269,37.598,51.758,44.922,49.316,-1.953,0
1583510339.273,38.574,49.316,43.945,23.926,15.625,0
1583510339.277,37.109,46.387,45.898,44.434,25.391,0
1583510339.281,33.203,43.457,42.969,80.566,9.277,0
1583510339.285,36.621,42.969,39.551,74.219,0.488,0
1583510339.288,33.691,43.945,40.039,38.086,18.066,0
1583510339.292,26.855,42.480,38.086,39.062,62.012,0
1583510339.296,28.809,41.504,35.645,64.453,25.391,0
1583510339.300,32.227,40.527,35.645,63.477,-7.812,0
1583510339.304,35.645,40.527,37.598,25.391,21.484,0
1583510339.321,36.621,41.992,38.574,16.113,56.152,0
1583510339.325,32.227,40.039,38.086,49.805,65.430,0
1583510339.329,41.504,36.621,34.668,62.988,-19.531,0
1583510339.333,43.457,39.551,33.691,36.621,2.930,0
1583510339.337,22.949,43.457,39.062,-2.930,37.109,0
1583510339.341,22.461,44.434,36.621,24.902,40.039,0
1583510339.345,32.715,47.852,33.691,63.965,89.355,0
1583510339.348,34.668,50.781,38.086,23.926,24.414,0
1583510339.352,36.621,49.316,37.598,-8.301,-12.695,0
1583510339.356,37.598,50.781,39.551,17.578,-14.648,0
1583510339.360,38.574,49.805,43.457,51.270,-10.742,0
1583510339.364,36.133,46.875,45.410,36.133,29.297,0
1583510339.361,26.855,47.363,47.852,-15.137,5.371,0
1583510339.365,27.832,46.387,47.363,-1.465,30.762,0
1583510339.369,35.156,50.293,44.434,49.316,126.465,0
1583510339.373,37.598,51.758,44.922,41.504,100.586,0
1583510339.377,39.062,48.340,44.922,-6.836,42.969,0
1583510339.381,40.527,48.828,41.992,-21.484,54.688,0
1583510339.385,42.969,49.316,44.922,14.160,7.812,0
1583510339.388,47.852,50.293,45.410,32.715,-32.227,0
1583510339.392,51.270,51.270,43.457,3.418,-3.906,0
1583510339.396,47.852,51.270,43.457,-24.902,14.160,0
1583510339.400,42.969,48.828,41.016,-0.977,73.730,0
1583510339.404,46.875,49.805,41.504,32.715,98.633,0
1583510339.401,57.617,50.293,42.969,14.648,20.508,0
1583510339.405,58.105,47.363,41.992,-18.555,12.207,0
1583510339.409,51.270,46.387,43.945,4.395,71.289,0
1583510339.413,49.316,46.875,44.922,41.992,67.871,0
1583510339.417,50.293,46.875,41.992,31.738,3.906,0
1583510339.421,46.875,44.922,41.992,-0.977,21.973,0
1583510339.425,41.504,43.945,41.016,0.977,62.500,0
1583510339.428,42.480,43.457,40.039,39.551,27.832,0
1583510339.432,45.898,45.410,41.992,40.039,10.742,0
1583510339.436,47.852,45.410,41.504,-0.977,7.812,0
1583510339.440,43.945,41.992,41.992,-16.113,-49.805,0
1583510339.444,40.039,41.016,41.016,20.020,-33.691,0
1583510339.461,31.738,38.086,37.598,35.645,9.277,0
1583510339.465,24.414,34.668,34.668,-4.883,-29.297,0
1583510339.469,26.367,35.156,33.203,-22.949,14.648,0
1583510339.473,25.391,35.156,34.180,11.719,64.941,0
1583510339.477,26.855,33.203,31.250,41.504,65.918,0
1583510339.481,31.250,34.668,31.250,21.973,51.758,0
1583510339.485,23.438,34.180,32.715,-20.996,61.523,0
1583510339.488,21.484,35.645,26.855,-8.789,21.973,0
1583510339.492,26.367,35.645,26.367,39.062,5.859,0
1583510339.496,21.484,33.203,29.297,39.551,58.594,0
1583510339.500,23.926,31.250,32.715,2.930,61.523,0
1583510339.504,24.902,31.738,33.691,-3.906,56.152,0
1583510339.501,19.043,31.738,33.203,37.598,6.836,0
1583510339.505,18.066,30.762,34.180,48.340,-3.906,0
1583510339.509,22.949,30.273,31.738,4.395,-31.738,0
1583510339.513,26.855,30.273,30.762,-9.766,-7.324,0
1583510339.517,24.414,32.715,30.273,26.367,90.332,0
1583510339.521,26.855,36.133,30.273,48.340,-17.090,0
1583510339.525,34.180,39.551,31.738,25.391,-39.062,0
1583510339.528,34.668,42.969,32.227,-2.441,48.340,0
1583510339.532,36.133,44.922,33.203,19.531,41.992,0
1583510339.536,37.598,44.434,36.133,51.270,84.473,0
1583510339.540,31.738,42.969,34.180,34.180,45.410,0
1583510339.544,32.227,43.457,30.273,0.977,-2.441,0
1583510339.541,33.203,42.969,35.156,17.578,53.711,0
1583510339.545,29.297,44.434,35.156,49.805,12.207,0
1583510339.549,26.367,44.434,32.715,45.898,40.527,0
1583510339.553,22.949,42.480,34.668,20.020,120.117,0
1583510339.557,25.879,40.039,32.715,12.695,125.000,0
1583510339.561,38.574,41.016,27.344,61.523,51.758,0
1583510339.565,36.621,39.062,35.156,77.637,15.625,0
1583510339.568,4.883,35.156,43.945,20.020,89.844,0
1583510339.572,0.488,34.180,43.457,11.719,69.824,0
1583510339.576,16.113,30.762,44.434,65.918,-19.531,0
1583510339.580,14.648,28.809,46.387,93.262,-36.621,0
1583510339.584,16.113,29.785,45.410,61.035,8.789,0
1583510339.601,17.578,28.320,41.504,27.344,44.922,0
1583510339.605,16.113,30.762,40.039,57.617,22.949,0
1583510339.609,17.578,35.156,38.086,92.773,28.809,0
1583510339.613,20.508,32.715,38.574,80.566,13.184,0
1583510339.617,17.090,31.250,41.504,38.574,14.160,0
1583510339.621,12.207,33.203,44.434,41.016,48.340,0
1583510339.625,14.648,32.227,44.434,82.031,11.719,0
1583510339.628,22.949,32.227,41.016,82.520,30.273,0
1583510339.632,26.367,31.250,40.527,48.828,38.574,0
1583510339.636,22.461,28.320,39.062,26.855,39.551,0
1583510339.640,19.043,28.809,38.086,59.082,47.363,0
1583510339.644,20.508,32.715,37.109,87.891,-13.672,0
1583510339.641,24.902,32.227,34.668,55.176,-22.461,0
1583510339.645,25.391,30.762,32.227,32.715,-5.859,0
1583510339.649,21.484,32.715,30.762,51.758,-7.324,0
1583510339.653,21.973,36.133,29.785,77.637,64.941,0
1583510339.657,25.391,36.621,29.297,68.848,98.145,0
1583510339.661,26.367,34.180,28.809,28.320,51.758,0
1583510339.665,28.320,36.133,27.832,44.434,43.457,0
1583510339.668,32.715,39.551,27.832,74.707,72.266,0
1583510339.672,34.668,39.551,28.320,62.500,42.969,0
1583510339.676,30.273,37.598,30.273,32.715,12.695,0
1583510339.680,25.391,36.133,29.785,26.367,36.621,0
1583510339.684,27.344,33.203,29.785,64.453,52.734,0
1583510339.681,25.879,31.250,29.785,55.664,46.875,0
1583510339.685,20.020,33.203,27.344,12.695,59.570,0
1583510339.689,17.090,33.203,27.832,7.812,16.602,0
1583510339.693,13.672,33.691,27.344,44.434,-9.766,0
1583510339.697,16.113,35.645,24.902,77.148,68.848,0
1583510339.701,15.137,36.133,24.902,44.922,100.586,0
1583510339.705,11.719,35.156,27.344,10.742,41.992,0
1583510339.708,14.648,33.203,29.785,49.805,37.109,0
1583510339.712,13.672,33.203,28.320,76.172,60.059,0
1583510339.716,17.578,33.691,23.438,58.594,14.160,0
1583510339.720,18.555,33.203,25.391,21.973,22.949,0
1583510339.724,16.602,35.645,28.809,35.645,79.102,0
1583510339.741,16.602,36.133,27.832,85.449,69.336,0
1583510339.745,14.648,34.668,29.297,71.777,43.945,0
1583510339.749,16.602,32.715,31.250,24.414,26.855,0
1583510339.753,16.602,30.273,33.203,9.277,13.184,0
1583510339.757,20.020,33.203,33.691,43.945,59.082,0
1583510339.761,26.855,34.668,32.715,57.129,92.285,0
1583510339.765,24.902,32.715,34.180,0.488,75.684,0
1583510339.768,26.855,33.691,34.180,-24.414,102.539,0
1583510339.772,31.738,34.180,33.691,4.395,94.727,0
1583510339.776,29.785,31.738,35.156,19.043,27.832,0
1583510339.780,32.227,33.691,36.133,-4.883,26.855,0
1583510339.784,35.156,36.621,35.156,-36.621,12.695,0
1583510339.781,32.715,36.133,33.691,-9.277,16.602,0
1583510339.785,35.645,36.621,35.156,17.578,27.344,0
1583510339.789,36.621,38.574,37.109,9.277,-3.906,0
1583510339.793,29.785,41.504,36.621,-15.625,-7.324,0
1583510339.797,27.344,41.992,37.598,-7.324,35.645,0
1583510339.801,26.367,39.551,41.992,33.203,33.203,0
1583510339.805,30.273,38.574,44.434,22.949,21.973,0
1583510339.808,34.180,40.039,40.527,-13.184,34.668,0
1583510339.812,32.227,40.039,42.480,-11.230,41.992,0
1583510339.816,32.227,41.992,45.410,24.902,62.500,0
1583510339.820,39.062,43.945,43.945,34.668,48.340,0
1583510339.824,45.898,41.504,42.480,-3.906,31.738,0
1583510339.821,49.316,41.016,40.039,-16.113,43.457,0
1583510339.825,53.711,42.480,41.992,32.715,49.316,0
1583510339.829,55.176,43.457,42.969,58.105,47.363,0
1583510339.833,54.199,42.480,42.969,32.715,64.453,0
1583510339.837,58.105,42.480,43.945,-0.488,71.289,0
1583510339.841,58.594,45.410,42.969,26.367,72.754,0
1583510339.845,56.152,46.875,41.504,68.359,48.340,0
1583510339.848,52.246,44.434,43.945,50.781,26.855,0
1583510339.852,47.363,43.945,43.945,5.859,24.414,0
1583510339.856,49.316,43.457,37.598,5.859,29.297,0
1583510339.860,51.758,40.527,40.039,56.152,71.777,0
1583510339.864,49.805,41.016,43.945,58.594,20.020,0
1583510339.881,50.293,43.457,41.016,11.719,13.672,0
1583510339.885,48.828,42.969,39.062,1.465,44.922,0
1583510339.889,40.527,41.016,39.062,35.645,2.441,0
1583510339.893,38.574,40.039,40.039,56.152,7.324,0
1583510339.897,43.945,41.992,41.504,37.109,78.125,0
1583510339.901,40.527,41.992,42.969,9.766,113.281,0
1583510339.905,37.109,41.016,42.480,28.809,83.496,0
1583510339.908,41.504,40.039,41.016,54.199,51.758,0
1583510339.912,39.551,39.062,41.992,37.109,1.465,0
1583510339.916,33.203,37.109,40.039,0.977,-30.762,0
1583510339.920,28.809,35.645,38.574,14.160,-3.418,0
1583510339.924,29.297,38.574,39.551,52.246,22.461,0
1583510339.921,32.227,40.527,42.480,34.180,43.945,0
1583510339.925,31.250,40.039,42.969,-9.277,32.715,0
1583510339.929,25.879,38.574,40.527,-12.207,1.953,0
1583510339.933,25.879,37.109,41.504,25.879,-5.371,0
1583510339.937,31.250,38.086,38.574,38.086,50.781,0
1583510339.941,34.668,37.598,34.180,-3.906,38.574,0
1583510339.945,29.785,38.574,37.109,-17.578,-57.617,0
1583510339.948,27.344,40.039,37.598,25.391,-48.828,0
1583510339.952,30.273,38.574,34.668,51.270,17.578,0
1583510339.956,29.297,37.598,34.668,22.949,38.574,0
1583510339.960,26.855,38.574,33.203,-12.207,24.414,0
1583510339.964,27.832,40.039,30.762,20.508,48.340,0
1583510339.965,32.715,41.504,30.273,57.617,18.066,0
1583510339.969,33.203,38.086,27.832,37.109,3.906,0
1583510339.973,27.344,37.598,29.785,1.465,25.879,0
1583510339.977,23.438,38.574,30.273,17.578,6.836,0
1583510339.981,18.066,35.645,28.809,61.523,-6.348,0
1583510339.985,16.602,33.203,29.785,64.453,47.852,0
1583510339.989,22.949,34.668,27.832,30.762,51.270,0
1583510339.992,20.020,37.598,27.344,32.227,5.859,0
1583510339.996,13.184,35.645,27.344,69.824,18.066,0
1583510340.000,17.578,33.203,26.367,87.891,11.230,0
1583510340.004,22.461,32.227,26.367,61.035,-13.672,0
1583510340.008,17.578,32.715,25.391,42.969,-0.977,0
1583510340.021,18.066,32.715,26.367,84.473,60.547,0
1583510340.025,25.391,36.133,31.250,105.957,54.199,0
1583510340.029,31.250,38.086,31.738,74.219,-0.488,0
1583510340.033,34.668,39.062,30.762,46.387,-4.883,0
1583510340.037,35.645,38.574,34.180,67.871,0.977,0
1583510340.041,38.574,39.062,34.180,92.773,6.836,0
1583510340.045,40.527,39.551,32.715,69.824,12.207,0
1583510340.048,39.551,38.574,31.738,41.504,-1.465,0
1583510340.052,41.016,38.086,31.250,56.641,43.945,0
1583510340.056,42.969,38.086,30.762,94.238,54.688,0
1583510340.060,38.574,37.598,29.785,85.449,20.020,0
1583510340.064,32.715,38.086,30.762,35.645,30.762,0
1583510340.081,30.273,39.551,28.809,30.762,26.855,0
1583510340.085,29.785,39.551,29.297,69.336,73.242,0
1583510340.089,34.180,37.598,28.809,77.148,67.383,0
1583510340.093,30.762,35.645,28.320,32.227,76.660,0
1583510340.097,25.879,35.645,29.297,-0.977,72.754,0
1583510340.101,23.438,35.645,28.320,38.574,75.684,0
1583510340.105,28.320,34.668,31.250,67.871,106.934,0
1583510340.108,38.574,34.668,33.691,42.480,23.438,0
1583510340.112,33.203,31.738,33.691,7.324,17.578,0
1583510340.116,27.344,28.320,33.203,19.531,48.340,0
1583510340.120,33.203,30.273,33.203,69.336,19.531,0
1583510340.124,39.062,30.273,33.691,63.477,25.391,0
1583510340.121,39.062,31.250,34.180,23.926,49.805,0
1583510340.125,42.969,33.203,31.250,27.344,73.730,0
1583510340.129,35.645,35.156,30.273,50.293,10.742,0
1583510340.133,13.672,35.645,32.227,38.574,-12.695,0
1583510340.137,13.184,34.668,29.785,-4.883,19.531,0
1583510340.141,16.602,35.645,27.832,-15.137,21.973,0
1583510340.145,14.648,35.156,30.273,12.695,52.734,0
1583510340.148,17.578,36.621,29.785,24.902,45.898,0
1583510340.152,19.043,39.062,26.855,3.418,34.668,0
1583510340.156,20.020,37.598,25.879,-21.973,41.504,0
1583510340.160,19.043,37.109,25.391,14.160,51.758,0
1583510340.164,17.578,35.156,26.367,37.109,26.855,0
1583510340.161,11.719,32.227,26.855,8.789,-23.926,0
1583510340.165,11.230,33.203,25.391,-12.207,-38.086,0
1583510340.169,17.578,34.180,26.855,13.184,28.320,0
1583510340.173,20.020,33.203,29.297,54.688,65.430,0
1583510340.177,22.461,34.180,29.297,38.086,70.312,0
1583510340.181,29.785,33.691,27.832,-5.371,64.941,0
1583510340.185,35.156,34.180,28.320,10.742,62.012,0
1583510340.188,33.203,36.133,28.320,54.199,62.988,0
1583510340.192,32.227,37.109,28.320,60.547,-16.602,0
1583510340.196,33.203,34.668,29.785,24.902,31.250,0
1583510340.200,35.645,33.203,30.762,4.395,91.797,0
1583510340.204,35.645,34.180,29.785,38.086,-35.645,0
1583510340.201,38.574,35.156,29.297,67.383,-40.527,0
1583510340.205,43.457,34.668,31.738,53.223,80.078,0
1583510340.209,40.527,33.691,32.227,7.812,58.594,0
1583510340.213,26.855,35.156,33.691,20.508,-8.301,0
1583510340.217,28.320,36.621,34.668,68.359,-14.648,0
1583510340.221,35.156,36.621,31.250,48.340,15.137,0
1583510340.225,32.227,35.156,31.738,7.812,22.461,0
1583510340.228,34.180,34.668,33.691,7.812,36.133,0
1583510340.232,33.203,34.180,33.203,41.016,52.734,0
1583510340.236,34.180,34.180,34.180,44.434,67.383,0
1583510340.240,36.621,34.668,35.645,0.977,42.969,0
1583510340.244,31.250,32.227,34.668,-0.977,26.855,0
1583510340.241,28.320,30.762,34.180,27.344,-3.906,0
1583510340.245,28.320,32.227,33.203,33.691,8.301,0
1583510340.249,32.227,30.762,30.273,13.184,54.688,0
1583510340.253,39.551,29.297,31.250,-6.836,26.367,0
1583510340.257,41.504,31.250,34.668,25.879,-13.672,0
1583510340.261,41.992,32.227,31.738,51.758,25.391,0
1583510340.265,41.992,34.180,30.273,18.066,46.387,0
1583510340.268,38.574,35.156,30.762,-11.719,37.598,0
1583510340.272,41.016,33.691,30.762,18.066,23.438,0
1583510340.276,42.480,30.762,29.297,56.641,13.672,0
1583510340.280,37.109,32.227,26.367,27.832,-0.977,0
1583510340.284,35.645,32.715,30.273,-5.371,-13.184,0
1583510340.301,37.109,35.156,33.691,12.695,-13.672,0
1583510340.305,47.852,40.039,28.320,58.105,-11.230,0
1583510340.309,62.500,40.039,30.273,74.219,38.086,0
1583510340.313,46.387,41.992,39.062,14.648,83.984,0
1583510340.317,32.715,41.016,41.992,-2.930,67.383,0
1583510340.321,34.180,39.062,43.457,50.781,25.391,0
1583510340.325,30.273,41.992,44.434,62.012,4.395,0
1583510340.328,34.668,41.016,41.992,28.320,24.414,0
1583510340.332,37.109,39.062,42.969,5.371,56.641,0
1583510340.336,42.480,41.504,42.480,43.945,42.969,0
1583510340.340,41.992,43.457,41.016,73.242,24.902,0
1583510340.344,39.062,43.945,42.969,44.922,42.480,0
1583510340.341,41.992,42.480,45.410,13.184,20.020,0
1583510340.345,41.504,44.922,45.410,24.414,-13.672,0
1583510340.349,39.551,45.898,42.480,64.453,0.977,0
1583510340.353,38.086,42.480,41.992,58.594,10.254,0
1583510340.357,37.598,42.480,43.457,13.672,-5.859,0
1583510340.361,34.180,41.992,42.480,16.113,34.668,0
1583510340.365,32.715,43.457,40.527,47.852,106.934,0
1583510340.368,37.598,44.434,41.504,51.270,76.172,0
1583510340.372,33.691,42.480,41.992,11.230,2.441,0
1583510340.376,25.391,42.480,41.504,-8.301,27.344,0
1583510340.380,25.879,38.574,39.062,29.785,63.477,0
1583510340.384,26.367,35.645,35.645,40.527,57.617,0
1583510340.401,24.902,35.645,35.645,8.789,25.879,0
1583510340.405,22.949,36.133,36.621,-16.113,24.414,0
1583510340.409,24.414,38.574,38.574,9.766,50.293,0
1583510340.413,22.461,33.691,40.527,39.062,20.996,0
1583510340.417,23.438,30.762,38.574,10.742,16.113,0
1583510340.421,30.273,32.227,37.109,-24.414,5.371,0
1583510340.425,27.832,31.738,36.621,-3.906,83.984,0
1583510340.428,23.438,30.273,34.668,27.832,70.312,0
1583510340.432,27.344,32.227,32.715,17.578,5.371,0
1583510340.436,28.320,32.715,31.738,-25.879,19.531,0
1583510340.440,25.391,31.250,35.156,-25.879,65.918,0
1583510340.444,28.809,32.715,35.645,16.113,69.824,0
1583510340.441,33.203,32.227,37.109,19.531,45.410,0
1583510340.445,36.621,31.738,37.598,-17.578,42.480,0
1583510340.449,38.574,34.180,33.691,-41.016,22.461,0
1583510340.453,37.598,34.180,34.180,-7.812,37.598,0
1583510340.457,36.133,31.250,32.715,20.020,29.785,0
1583510340.461,36.621,33.203,30.273,-10.254,25.391,0
1583510340.465,33.203,34.668,30.273,-40.527,22.949,0
1583510340.468,32.227,35.156,30.762,-16.113,27.344,0
1583510340.472,32.715,36.621,32.227,21.484,74.707,0
1583510340.476,33.691,36.621,32.227,9.277,78.613,0
1583510340.480,36.133,37.598,31.250,-36.133,-20.508,0
1583510340.484,36.133,36.621,31.738,-27.832,-7.324,0
1583510340.481,40.527,40.039,31.250,14.160,32.715,0
1583510340.485,43.457,42.480,34.668,17.578,23.926,0
1583510340.489,39.551,39.551,35.645,-20.996,-27.344,0
1583510340.493,33.691,39.062,34.668,-27.832,-62.500,0
1583510340.497,33.203,41.016,36.133,20.508,12.695,0
1583510340.501,32.715,39.062,37.109,33.691,34.180,0
1583510340.505,33.203,38.086,37.598,-2.930,-14.160,0
1583510340.508,34.180,39.062,38.086,-13.672,-1.465,0
1583510340.512,29.297,37.109,38.086,19.043,75.684,0
1583510340.516,29.297,33.691,39.062,41.016,14.648,0
1583510340.520,32.227,35.156,38.086,20.996,5.859,0
1583510340.524,21.973,36.621,35.645,-6.836,22.949,0
1583510340.541,14.648,34.668,36.133,20.508,7.812,0
1583510340.545,21.484,34.668,37.109,56.152,29.297,0
1583510340.549,29.297,36.133,34.668,40.527,62.500,0
1583510340.553,28.809,35.645,33.203,5.371,90.332,0
1583510340.557,24.414,35.645,35.156,16.602,83.496,0
1583510340.561,28.320,33.203,35.645,60.547,45.410,0
1583510340.565,26.855,33.203,36.621,63.477,47.852,0
1583510340.568,19.531,36.133,37.109,11.719,-7.812,0
1583510340.572,17.578,36.621,36.621,0.000,0.977,0
1583510340.576,19.531,35.156,36.621,53.223,47.852,0
1583510340.580,25.391,36.133,33.691,64.453,25.879,0
1583510340.584,27.344,36.621,34.668,26.855,38.086,0
1583510340.581,29.297,35.156,34.668,-7.324,-8.789,0
1583510340.585,31.250,35.156,30.273,17.578,-9.277,0
1583510340.589,32.227,33.691,30.273,53.711,-0.977,0
1583510340.593,38.086,33.203,31.738,27.832,10.742,0
1583510340.597,39.062,34.668,32.227,-6.836,66.895,0
1583510340.601,31.738,34.668,29.785,0.000,106.934,0
1583510340.605,33.203,35.645,30.762,26.367,48.828,0
1583510340.608,36.133,35.156,33.691,27.832,-1.465,0
1583510340.612,34.180,33.203,32.227,-6.348,26.367,0
1583510340.616,35.156,33.691,31.250,7.324,32.715,0
1583510340.620,35.156,33.691,34.668,51.758,87.891,0
1583510340.624,33.691,34.668,34.668,50.293,89.844,0
1583510340.621,34.180,35.645,33.691,22.461,54.199,0
1583510340.625,29.785,35.156,31.738,3.418,-12.207,0
1583510340.629,28.809,34.668,33.691,42.480,7.812,0
1583510340.633,32.715,32.715,35.645,53.711,22.461,0
1583510340.637,37.109,32.227,35.156,16.602,4.395,0
1583510340.641,37.109,35.156,35.156,1.953,25.391,0
1583510340.645,36.621,36.133,35.156,25.391,32.715,0
1583510340.648,40.527,36.621,33.203,61.523,40.039,0
1583510340.652,37.598,37.598,31.250,35.645,75.195,0
1583510340.656,34.180,37.598,29.297,-10.254,31.738,0
1583510340.660,26.855,36.621,27.344,23.926,43.945,0
1583510340.664,23.438,36.133,28.809,48.340,46.875,0
1583510340.681,30.762,36.621,27.344,35.645,25.391,0
1583510340.685,30.762,38.574,26.855,4.883,44.434,0
1583510340.689,27.344,37.109,31.250,-1.953,69.336,0
1583510340.693,34.180,38.574,31.738,51.758,43.945,0
1583510340.697,37.598,40.039,32.227,64.453,13.184,0
1583510340.701,34.180,39.062,31.738,36.621,49.316,0
1583510340.705,27.832,39.551,29.297,10.742,95.703,0
1583510340.708,23.926,38.086,31.738,37.598,60.059,0
1583510340.712,28.809,36.621,31.250,78.125,26.855,0
1583510340.716,29.785,36.621,30.762,45.898,-16.602,0
1583510340.720,27.832,35.156,31.738,16.602,-6.836,0
1583510340.724,25.879,33.691,30.762,34.668,35.645,0
1583510340.721,21.484,33.203,30.762,61.523,52.734,0
1583510340.725,20.020,32.715,31.250,57.129,12.695,0
1583510340.729,20.508,30.273,30.762,18.555,9.277,0
1583510340.733,17.578,29.297,30.762,20.020,9.766,0
1583510340.737,17.090,29.785,32.715,50.293,-30.273,0
1583510340.741,20.020,31.738,34.180,46.387,17.090,0
1583510340.745,23.438,34.668,34.180,13.184,57.617,0
1583510340.748,21.973,30.273,35.156,4.395,54.199,0
1583510340.752,23.438,28.809,33.203,46.875,11.230,0
1583510340.756,22.949,34.180,31.250,55.176,39.551,0
1583510340.760,19.043,33.203,34.668,19.043,62.988,0
1583510340.764,22.461,32.227,34.668,9.277,72.754,0
1583510340.762,25.879,32.715,34.180,38.574,40.039,0
1583510340.766,28.320,32.227,34.180,70.801,29.297,0
1583510340.770,31.250,33.203,33.691,45.410,52.246,0
1583510340.774,34.668,34.668,35.645,7.324,82.520,0
1583510340.778,36.621,36.133,33.691,43.457,86.914,0
1583510340.782,32.715,33.691,34.668,80.566,-3.906,0
1583510340.786,28.320,34.180,33.691,63.965,-18.066,0
1583510340.789,28.809,36.133,33.203,20.996,0.977,0
1583510340.793,22.949,37.109,38.086,16.602,-19.043,0
1583510340.797,19.531,39.062,37.109,67.871,16.602,0
1583510340.801,25.879,37.598,32.227,77.148,10.254,0
1583510340.805,29.297,34.180,33.691,38.574,8.789,0
1583510340.821,22.949,32.715,35.156,13.672,67.383,0
1583510340.825,22.949,33.203,35.645,49.316,49.805,0
1583510340.829,34.668,36.133,38.574,71.777,-0.488,0
1583510340.833,38.574,41.992,37.598,39.551,-1.953,0
1583510340.837,34.668,41.504,36.133,20.508,-26.855,0
1583510340.841,33.203,38.086,37.598,41.504,4.883,0
1583510340.845,30.273,35.645,39.062,69.824,20.996,0
1583510340.848,30.762,33.691,37.598,54.199,-12.695,0
1583510340.852,37.109,36.621,32.715,15.137,-8.301,0
1583510340.856,32.715,35.645,33.203,25.391,32.715,0
1583510340.860,31.250,35.156,37.109,48.828,56.152,0
1583510340.864,38.574,36.621,38.574,44.922,23.438,0
1583510340.861,43.945,34.180,38.574,11.230,29.785,0
1583510340.865,41.992,34.180,38.086,0.000,36.621,0
1583510340.869,41.016,36.621,37.109,41.992,24.902,0
1583510340.873,46.387,36.133,37.109,48.828,55.664,0
1583510340.877,46.875,35.156,39.062,20.508,79.590,0
1583510340.881,45.410,33.203,38.086,9.277,44.434,0
1583510340.885,42.480,33.691,35.156,42.480,25.391,0
1583510340.888,39.062,34.668,36.133,69.336,58.594,0
1583510340.892,41.016,34.668,35.156,33.203,16.113,0
1583510340.896,39.062,36.133,34.668,4.395,-5.371,0
1583510340.900,31.738,35.156,34.668,31.250,-13.672,0
1583510340.904,31.738,36.133,33.203,61.523,-25.391,0
1583510340.901,35.156,36.621,35.156,47.363,25.879,0
1583510340.905,35.156,34.668,36.621,4.883,35.645,1
1583510340.909,32.227,34.668,36.621,17.090,-3.418,0
1583510340.913,29.785,36.133,37.109,65.918,33.203,0
1583510340.917,28.320,36.133,35.645,62.500,89.844,0
1583510340.921,24.902,34.668,35.156,18.555,101.074,0
1583510340.925,22.461,34.668,33.203,2.441,75.195,0
1583510340.928,22.461,34.668,31.250,45.898,76.172,0
1583510340.932,20.508,37.598,33.691,61.523,105.957,0
1583510340.936,24.414,41.016,32.227,18.555,29.297,0
1583510340.940,27.344,36.621,31.738,1.953,-40.527,0
1583510340.944,34.668,33.691,32.227,44.434,12.207,0
1583510340.961,49.805,35.645,30.273,83.984,47.363,0
1583510340.965,39.062,39.062,33.203,52.246,56.152,0
1583510340.969,22.461,41.504,35.645,1.465,23.438,0
1583510340.973,19.531,40.039,36.621,17.578,-36.621,0
1583510340.977,25.391,42.480,33.203,59.570,16.602,0
1583510340.981,36.133,40.039,33.691,63.965,42.480,0
1583510340.985,30.273,37.109,38.574,19.531,-41.016,0
1583510340.988,30.762,38.086,37.598,20.996,-15.137,0
1583510340.992,40.527,35.645,37.598,74.707,23.926,0
1583510340.996,44.434,37.598,37.598,73.242,33.691,0
1583510341.000,42.480,41.016,39.551,32.715,23.438,0
1583510341.004,39.551,42.969,43.457,28.809,4.883,0
1583510341.001,42.480,42.480,47.363,72.754,35.645,0
1583510341.005,48.828,43.457,48.828,91.797,95.215,0
1583510341.009,50.781,44.434,47.852,52.246,73.730,0
1583510341.013,49.316,42.969,47.852,33.203,45.898,0
1583510341.017,49.805,42.969,48.340,69.336,87.891,0
1583510341.021,48.828,41.992,49.316,89.355,27.832,0
1583510341.025,49.316,43.457,48.828,70.801,62.500,0
1583510341.028,50.781,43.457,47.852,33.691,83.496,0
1583510341.032,48.340,40.039,45.410,47.852,45.410,0
1583510341.036,47.852,40.527,41.992,84.473,24.902,0
1583510341.040,47.363,40.039,41.016,62.500,-21.484,0
1583510341.044,45.898,38.574,41.016,21.973,33.203,0
1583510341.042,40.039,40.039,37.109,22.461,23.438,0
1583510341.046,36.133,39.551,32.715,61.035,25.391,0
1583510341.050,35.645,38.086,33.203,66.895,52.734,0
1583510341.054,36.621,37.109,31.738,28.320,61.523,0
1583510341.058,33.203,35.645,30.273,14.160,69.824,0
1583510341.062,30.273,35.156,34.180,49.316,89.844,0
1583510341.066,37.109,34.180,36.133,66.406,65.430,0
1583510341.069,42.969,34.668,34.668,33.203,-30.762,0
