timestamps,TP9,AF7,AF8,TP10,Right AUX,Marker0
1583343991.869,40.527,39.551,37.598,35.645,46.875,0
1583343991.873,41.504,37.109,37.598,37.598,27.832,0
1583343991.877,40.527,38.086,37.598,30.273,9.277,0
1583343991.881,34.180,35.645,37.109,21.484,60.059,0
1583343991.885,36.621,34.180,37.109,20.020,87.891,0
1583343991.889,37.109,35.156,36.621,22.461,14.160,0
1583343991.893,27.832,34.180,37.598,22.949,17.578,0
1583343991.896,21.973,31.250,35.645,18.555,76.660,0
1583343991.900,27.344,31.738,33.691,20.020,42.969,0
1583343991.904,32.227,33.203,35.645,28.809,-5.859,0
1583343991.908,34.180,34.668,35.156,25.879,-0.488,0
1583343991.912,35.645,34.668,34.180,27.832,35.645,0
1583343991.909,35.645,30.762,33.691,35.645,41.504,0
1583343991.913,37.109,29.785,32.715,35.645,18.066,0
1583343991.917,39.551,29.785,30.273,37.109,29.785,0
1583343991.921,40.527,30.762,29.785,38.574,53.223,0
1583343991.925,39.062,30.273,30.762,37.598,89.355,0
1583343991.929,41.016,30.762,28.320,40.527,38.574,0
1583343991.933,39.551,35.156,29.785,42.969,26.855,0
1583343991.936,34.668,35.645,36.133,40.039,68.359,0
1583343991.940,32.227,35.645,33.691,28.320,51.270,0
1583343991.944,29.297,35.645,27.344,24.414,31.738,0
1583343991.948,26.855,36.621,28.809,27.832,24.414,0
1583343991.952,21.973,33.203,29.297,19.531,1.953,0
1583343991.969,15.625,30.762,29.297,15.625,-3.418,0
1583343991.973,14.160,34.668,28.809,18.066,-8.301,0
1583343991.977,19.531,36.621,25.391,18.555,63.965,0
1583343991.981,23.926,35.156,25.879,21.973,82.031,0
1583343991.985,25.879,34.668,23.438,24.414,0.000,0
1583343991.989,28.809,35.645,20.508,28.809,-15.625,0
1583343991.993,29.785,35.156,20.508,26.855,-2.930,0
1583343991.996,29.297,36.621,21.973,23.926,2.930,0
1583343992.000,29.785,33.691,24.414,26.367,8.301,0
1583343992.004,30.273,30.762,25.879,29.297,12.207,0
1583343992.008,32.227,32.227,27.344,29.785,21.484,0
1583343992.012,36.621,30.762,27.344,29.785,42.480,0
1583343992.009,35.156,27.344,27.832,28.809,37.598,0
1583343992.013,34.180,25.391,27.344,27.832,54.199,0
1583343992.017,40.527,28.809,27.832,29.785,42.480,0
1583343992.021,41.504,28.320,28.320,28.809,53.223,0
1583343992.025,38.086,26.367,29.297,27.832,106.445,0
1583343992.029,32.715,28.809,30.273,31.250,25.391,0
1583343992.033,30.273,30.762,32.715,33.203,9.277,0
1583343992.036,31.250,29.785,34.668,30.762,65.430,0
1583343992.040,26.367,28.809,30.273,24.414,20.996,0
1583343992.044,24.902,31.250,26.855,18.066,19.531,0
1583343992.048,22.461,31.738,29.297,18.066,55.176,0
1583343992.052,21.973,32.227,31.250,23.926,60.059,0
1583343992.049,24.902,35.156,31.250,30.762,81.543,0
1583343992.053,22.461,34.180,30.762,27.832,70.312,0
1583343992.057,19.043,32.715,30.273,24.902,18.066,0
1583343992.061,22.949,33.691,34.180,27.832,9.277,0
1583343992.065,25.879,34.180,37.598,30.762,50.781,0
1583343992.069,24.414,34.180,38.574,30.762,99.609,0
1583343992.073,28.320,34.668,38.086,32.715,52.246,0
1583343992.076,30.273,36.621,37.598,29.785,23.926,0
1583343992.080,27.832,38.086,36.133,18.066,14.648,0
1583343992.084,27.832,37.109,33.203,14.160,25.391,0
1583343992.088,28.809,39.062,33.691,18.555,63.477,0
1583343992.092,31.738,39.551,38.086,20.020,-0.977,0
1583343992.109,36.133,38.086,37.598,21.973,-36.133,0
1583343992.113,35.645,38.574,38.086,22.949,21.484,0
1583343992.117,32.227,39.551,39.062,24.414,55.176,0
1583343992.121,34.668,38.574,36.133,28.320,14.648,0
1583343992.125,41.504,37.109,35.156,30.762,-17.578,0
1583343992.129,39.062,36.133,36.621,31.738,-45.410,0
1583343992.133,26.367,34.180,35.645,21.484,-13.184,0
1583343992.136,22.949,34.180,36.621,16.113,4.883,0
1583343992.140,30.273,36.133,38.086,21.484,22.461,0
1583343992.144,27.344,37.598,34.180,21.973,8.301,0
1583343992.148,21.973,38.574,33.691,20.020,-9.766,0
1583343992.152,20.020,35.156,36.621,20.508,-0.488,0
1583343992.149,21.484,35.645,37.109,21.973,52.734,0
1583343992.153,24.902,37.598,37.598,19.043,91.309,0
1583343992.157,22.949,37.598,37.109,19.531,48.828,0
1583343992.161,17.578,37.109,33.691,20.996,44.434,0
1583343992.165,18.555,39.062,30.273,20.020,39.062,0
1583343992.169,26.855,38.574,28.809,19.043,3.906,0
1583343992.173,25.879,38.086,26.367,17.090,29.785,0
1583343992.176,21.484,39.551,24.902,17.578,33.203,0
1583343992.180,25.879,35.156,28.809,20.996,24.414,0
1583343992.184,28.809,34.668,30.762,18.555,52.246,0
1583343992.188,32.227,39.062,30.762,17.578,75.195,0
1583343992.192,30.273,40.039,28.320,24.414,15.137,0
1583343992.189,23.438,39.062,28.809,24.414,-20.020,0
1583343992.193,27.344,39.551,32.227,21.973,11.719,0
1583343992.197,32.715,40.039,33.691,21.484,40.039,0
1583343992.201,31.250,36.621,32.715,18.555,43.457,0
1583343992.205,32.227,36.621,33.203,17.578,35.645,0
1583343992.209,33.203,37.598,34.668,21.484,59.082,0
1583343992.213,35.156,37.109,33.203,27.832,43.945,0
1583343992.216,31.738,39.062,31.738,26.855,55.176,0
1583343992.220,29.297,39.062,32.715,16.602,109.375,0
1583343992.224,35.156,37.598,33.203,18.066,76.172,0
1583343992.228,35.645,37.598,31.738,20.996,40.039,0
1583343992.232,33.691,34.180,32.715,24.414,45.410,0
1583343992.249,29.297,33.203,35.156,28.320,53.711,0
1583343992.253,22.949,34.180,36.133,25.879,14.160,0
1583343992.257,25.879,33.203,36.133,24.414,16.602,0
1583343992.261,29.785,35.156,37.598,29.785,46.387,0
1583343992.265,23.438,35.645,37.598,29.785,104.980,0
1583343992.269,20.996,33.691,36.621,31.250,83.496,0
1583343992.273,25.879,34.668,36.621,26.367,9.277,0
1583343992.276,29.785,34.180,33.691,20.996,11.719,0
1583343992.280,30.273,32.715,34.668,26.367,21.973,0
1583343992.284,26.367,34.668,34.180,25.391,12.695,0
1583343992.288,29.297,34.668,30.762,26.367,0.977,0
1583343992.292,32.227,34.180,30.273,28.809,60.547,0
1583343992.289,30.273,33.203,30.762,25.391,86.914,0
1583343992.293,26.855,32.227,32.227,24.414,45.410,0
1583343992.297,25.879,33.691,33.203,25.391,11.719,0
1583343992.301,30.762,33.691,35.156,28.809,20.508,0
1583343992.305,35.645,33.691,38.574,30.273,70.801,0
1583343992.309,31.738,31.250,40.527,32.715,79.590,0
1583343992.313,31.250,31.250,39.062,35.156,46.875,0
1583343992.316,39.551,36.621,37.598,36.133,39.062,0
1583343992.320,40.039,37.598,40.039,37.109,84.961,0
1583343992.324,35.156,35.645,41.504,36.621,37.598,0
1583343992.328,37.598,36.621,38.574,36.133,33.203,0
1583343992.332,43.457,35.645,35.156,40.039,66.895,0
1583343992.329,38.574,34.180,35.156,37.109,32.227,0
1583343992.333,37.598,36.133,37.598,32.715,16.113,0
1583343992.337,38.086,38.574,39.062,32.715,-0.977,0
1583343992.341,38.086,38.574,37.109,31.250,6.348,0
1583343992.345,43.457,39.062,36.133,35.645,29.297,0
1583343992.349,40.527,41.016,37.109,38.086,-49.805,0
1583343992.353,30.762,38.574,38.574,36.133,5.371,0
1583343992.356,32.715,39.062,37.598,33.203,32.227,0
1583343992.360,40.039,39.551,36.621,28.809,52.246,0
1583343992.364,38.086,36.133,37.598,35.156,116.211,0
1583343992.368,32.715,35.156,39.551,36.133,34.668,0
1583343992.372,31.250,34.668,39.062,31.250,14.160,0
1583343992.388,38.574,33.203,37.598,35.156,19.531,0
1583343992.392,43.457,34.180,34.668,38.086,-31.738,0
1583343992.396,37.109,33.203,30.762,28.320,-22.949,0
1583343992.400,33.691,31.738,31.738,29.785,17.578,0
1583343992.404,38.574,34.668,29.785,32.715,9.766,0
1583343992.408,42.480,37.109,28.809,30.762,20.020,0
1583343992.412,41.504,39.062,32.715,34.668,48.828,0
1583343992.415,40.039,39.062,33.203,34.668,87.891,0
1583343992.419,41.504,37.598,34.668,36.621,43.457,0
1583343992.423,43.457,35.156,39.062,40.039,-36.621,0
1583343992.427,38.574,34.668,37.598,36.621,27.344,0
1583343992.431,32.715,36.133,34.180,36.621,62.500,0
1583343992.429,33.203,36.133,35.645,39.551,-17.090,0
1583343992.433,34.668,34.668,38.086,40.039,49.805,0
1583343992.437,32.227,34.180,41.016,39.551,118.164,0
1583343992.441,28.320,35.156,40.039,39.062,1.953,0
1583343992.445,24.902,36.133,35.645,34.668,-41.016,0
1583343992.449,27.832,35.645,34.668,32.227,-18.555,0
1583343992.453,32.715,34.180,32.227,31.250,-6.348,0
1583343992.456,33.203,34.668,30.762,27.344,35.645,0
1583343992.460,31.738,37.109,36.133,26.367,31.250,0
1583343992.464,27.832,37.109,38.086,23.438,45.410,0
1583343992.468,25.391,34.668,36.133,19.043,76.172,0
1583343992.472,31.738,36.133,34.668,23.438,109.375,0
1583343992.469,30.762,34.668,33.691,24.414,153.320,0
1583343992.473,25.391,31.250,33.203,24.414,113.281,0
1583343992.477,39.062,34.668,31.738,37.109,71.777,0
1583343992.481,41.992,34.180,35.156,41.504,41.504,0
1583343992.485,25.879,26.367,40.527,31.250,16.602,0
1583343992.489,19.531,27.832,44.434,29.785,2.930,0
1583343992.493,16.113,27.344,46.875,23.926,53.711,0
1583343992.496,25.391,22.461,48.340,25.879,100.098,0
1583343992.500,24.414,20.508,48.828,22.949,71.289,0
1583343992.504,13.184,17.578,48.828,17.090,13.184,0
1583343992.508,22.949,18.066,53.223,28.809,3.906,0
1583343992.512,22.949,18.555,53.711,22.461,44.434,0
1583343992.529,16.602,16.602,52.734,13.184,46.875,0
1583343992.533,9.766,13.184,56.641,14.160,51.758,0
1583343992.537,7.324,13.672,53.223,14.648,41.992,0
1583343992.541,18.555,19.043,48.828,20.020,46.875,0
1583343992.545,20.508,18.555,51.270,22.461,17.090,0
1583343992.549,11.719,18.555,49.805,23.438,14.160,0
1583343992.553,19.043,23.926,46.387,27.344,31.250,0
1583343992.556,23.438,23.438,43.945,25.879,-0.977,0
1583343992.560,20.996,23.926,45.410,27.344,28.809,0
1583343992.564,20.508,26.367,45.410,30.273,-4.395,0
1583343992.568,19.531,28.320,43.457,31.738,10.742,0
1583343992.572,27.344,27.344,41.504,29.297,40.527,0
1583343992.569,30.762,26.855,41.016,30.762,-28.320,0
1583343992.573,28.809,29.297,41.016,33.203,-45.898,0
1583343992.577,28.320,23.926,42.480,32.227,33.691,0
1583343992.581,30.273,23.926,41.992,36.133,61.035,0
1583343992.585,33.203,26.855,41.016,34.668,64.453,0
1583343992.589,30.762,27.832,42.969,31.250,22.461,0
1583343992.593,28.320,28.320,41.016,31.250,62.012,0
1583343992.596,26.855,24.902,38.574,26.855,100.098,0
1583343992.600,25.879,24.902,39.062,28.320,48.828,0
1583343992.604,25.391,25.391,39.551,21.973,27.832,0
1583343992.608,23.438,24.902,40.039,16.113,20.996,0
1583343992.612,22.461,25.391,38.574,20.508,10.742,0
1583343992.609,29.297,27.832,33.691,20.996,37.109,0
1583343992.613,28.320,28.809,32.715,23.926,55.664,0
1583343992.617,23.438,27.344,36.133,27.344,0.000,0
1583343992.621,24.414,29.785,35.645,27.344,0.000,0
1583343992.625,29.785,35.645,33.691,28.809,51.758,0
1583343992.629,30.273,35.645,35.645,29.297,85.938,0
1583343992.633,31.250,34.668,34.668,28.809,49.316,0
1583343992.636,32.227,34.180,32.715,27.832,29.785,0
1583343992.640,33.203,34.668,33.691,25.879,20.996,0
1583343992.644,39.062,35.645,34.180,29.785,39.062,0
1583343992.648,39.062,37.598,32.227,34.180,12.207,0
1583343992.652,39.062,37.598,30.762,30.762,-35.645,0
1583343992.669,37.598,36.621,32.715,30.762,-33.691,0
1583343992.673,33.691,33.203,31.250,34.180,-52.246,0
1583343992.677,31.250,33.203,30.273,30.762,-42.969,0
1583343992.681,29.297,36.133,32.715,26.367,26.367,0
1583343992.685,28.809,36.621,35.156,28.320,50.293,0
1583343992.689,30.762,34.668,36.133,28.320,42.969,0
1583343992.693,29.297,34.180,34.668,25.879,59.082,0
1583343992.696,24.902,34.668,33.203,25.391,16.113,0
1583343992.700,20.996,32.715,33.203,18.066,9.277,0
1583343992.704,21.973,33.691,33.691,22.461,61.035,0
1583343992.708,26.367,32.227,35.645,24.414,58.594,0
1583343992.712,22.949,29.785,33.691,17.578,83.496,0
1583343992.709,18.555,28.809,29.785,17.090,63.477,0
1583343992.713,21.484,28.320,30.273,20.020,31.738,0
1583343992.717,27.832,30.762,33.691,24.414,41.504,0
1583343992.721,29.297,31.250,35.156,24.414,57.129,0
1583343992.725,31.250,32.227,34.668,24.902,45.898,0
1583343992.729,35.156,35.156,36.133,26.855,15.137,0
1583343992.733,36.133,35.156,33.691,24.414,18.555,0
1583343992.736,39.551,35.645,32.227,27.832,-0.488,0
1583343992.740,39.062,37.109,37.109,30.762,26.367,0
1583343992.744,37.109,38.086,37.109,21.973,75.684,0
1583343992.748,44.922,40.527,34.668,26.855,33.203,0
1583343992.752,48.828,41.504,37.109,35.156,34.180,0
1583343992.749,40.527,37.598,37.109,33.203,78.125,0
1583343992.753,37.598,36.133,35.156,33.203,69.336,0
1583343992.757,42.480,36.133,36.133,33.203,55.664,0
1583343992.761,38.086,35.645,35.156,27.832,60.547,0
1583343992.765,40.039,36.621,36.133,28.320,17.090,0
1583343992.769,41.016,38.574,36.621,31.738,-19.043,0
1583343992.773,32.715,38.086,36.621,26.855,39.551,0
1583343992.776,40.527,37.109,34.180,24.902,14.648,0
1583343992.780,40.527,36.621,31.738,24.414,-45.898,0
1583343992.784,29.297,36.133,36.133,27.344,-11.230,0
1583343992.788,28.320,37.598,40.039,33.203,-4.395,0
1583343992.792,33.691,35.645,37.598,29.785,21.484,0
1583343992.809,36.133,36.621,34.668,31.738,53.223,0
1583343992.813,30.273,36.621,35.645,30.273,43.457,0
1583343992.817,28.809,36.133,39.062,29.297,33.203,0
1583343992.821,35.645,37.109,38.086,34.180,43.457,0
1583343992.825,38.086,36.621,34.180,32.715,30.762,0
1583343992.829,34.668,34.180,33.203,28.809,45.410,0
1583343992.833,30.273,31.250,36.133,25.391,62.500,0
1583343992.836,26.855,32.715,40.039,29.785,24.414,0
1583343992.840,32.227,31.250,41.504,35.156,29.785,0
1583343992.844,41.016,33.203,42.480,46.875,28.320,0
1583343992.848,37.109,40.527,38.574,38.086,33.691,0
1583343992.852,26.367,41.992,31.738,13.672,33.203,0
1583343992.849,30.273,43.457,27.344,18.066,55.664,0
1583343992.853,38.574,47.363,21.973,26.855,55.176,0
1583343992.857,38.086,47.852,16.113,25.879,16.113,0
1583343992.861,36.621,48.340,13.672,24.902,70.801,0
1583343992.865,37.598,50.293,9.277,17.578,72.266,0
1583343992.869,42.480,51.270,11.719,17.578,10.254,0
1583343992.873,41.016,51.270,13.672,18.066,15.137,0
1583343992.876,35.156,47.852,10.742,17.090,28.809,0
1583343992.880,33.691,43.457,16.113,21.484,20.508,0
1583343992.884,36.621,41.504,17.090,21.484,85.938,0
1583343992.888,37.109,41.992,13.184,23.926,124.023,0
1583343992.892,36.621,43.457,16.602,25.879,103.027,0
1583343992.909,37.109,41.504,21.484,28.320,73.242,0
1583343992.913,39.062,40.527,20.508,28.809,76.172,0
1583343992.917,41.992,42.480,20.996,26.855,58.594,0
1583343992.921,39.551,42.480,23.438,28.320,9.277,0
1583343992.925,36.621,39.551,23.926,26.855,28.809,0
1583343992.929,39.551,39.062,22.949,29.785,82.520,0
1583343992.933,40.527,41.016,23.926,31.250,51.758,0
1583343992.936,37.109,41.016,26.367,23.438,-20.508,0
1583343992.940,39.062,40.039,27.832,24.902,-62.500,0
1583343992.944,40.039,39.551,28.809,28.809,-56.641,0
1583343992.948,37.109,38.574,29.297,31.738,-1.465,0
1583343992.952,31.250,38.086,30.273,30.762,41.504,0
1583343992.949,29.785,38.086,30.762,30.273,33.203,0
1583343992.953,36.133,38.574,30.273,34.180,2.930,0
1583343992.957,43.457,42.969,30.273,36.133,-11.719,0
1583343992.961,41.504,42.480,32.227,33.203,-29.785,0
1583343992.965,34.180,41.016,32.227,26.855,5.859,0
1583343992.969,37.109,40.039,31.250,31.250,9.766,0
1583343992.973,40.039,38.086,32.715,39.062,46.875,0
1583343992.976,39.062,38.574,33.203,36.133,46.875,0
1583343992.980,37.598,36.133,35.645,34.668,31.250,0
1583343992.984,35.156,34.668,35.156,34.180,72.754,0
1583343992.988,37.109,37.598,33.203,29.297,64.941,0
1583343992.992,40.527,38.086,35.645,23.926,46.875,0
1583343992.989,36.621,36.621,36.621,24.414,6.348,0
1583343992.993,33.691,35.156,35.645,25.879,-34.180,0
1583343992.997,36.621,33.203,36.621,28.320,-3.906,0
1583343993.001,42.480,33.691,36.133,33.203,30.273,0
1583343993.005,35.156,35.156,36.621,35.156,36.621,0
1583343993.009,26.367,34.668,37.109,34.668,9.277,0
1583343993.013,34.180,34.668,36.133,37.109,15.625,0
1583343993.016,39.062,36.621,37.109,36.621,73.242,0
1583343993.020,35.645,36.621,37.109,27.832,28.809,0
1583343993.024,33.203,37.598,34.668,22.461,14.648,0
1583343993.028,30.273,36.621,32.715,30.273,33.691,0
1583343993.032,31.250,33.203,30.762,32.715,45.410,0
1583343993.048,35.156,33.691,31.250,27.344,46.875,0
1583343993.052,29.297,35.645,34.180,27.832,15.137,0
1583343993.056,28.320,37.598,34.180,28.320,-21.973,0
1583343993.060,34.180,38.086,34.668,31.738,18.066,0
1583343993.064,35.156,36.133,31.250,31.250,39.062,0
1583343993.068,35.156,36.133,31.250,26.855,53.711,0
1583343993.072,33.691,36.621,33.691,26.855,49.805,0
1583343993.075,37.109,35.645,29.785,24.902,0.000,0
1583343993.079,42.480,35.645,26.855,25.879,36.133,0
1583343993.083,36.621,36.621,26.855,29.297,62.500,0
1583343993.087,32.715,38.574,26.367,26.855,82.031,0
1583343993.091,34.180,37.109,25.879,24.902,51.758,0
1583343993.089,33.691,36.133,27.344,25.879,-17.578,0
1583343993.093,32.227,38.086,24.902,21.484,-4.395,0
1583343993.097,26.855,36.621,26.855,17.090,15.137,0
1583343993.101,25.879,36.133,27.344,18.066,-3.906,0
1583343993.105,40.527,38.574,22.461,32.715,1.465,0
1583343993.109,42.969,35.156,26.367,37.598,26.855,0
1583343993.113,14.648,30.762,34.180,13.184,31.738,0
1583343993.116,-0.977,29.297,35.645,1.465,58.594,0
1583343993.120,12.695,27.344,38.086,7.324,51.758,0
1583343993.124,11.230,29.297,37.598,4.883,20.020,0
1583343993.128,5.371,29.297,35.156,3.906,26.855,0
1583343993.132,4.883,26.855,38.574,5.371,40.527,0
1583343993.129,0.000,25.879,37.598,1.465,68.848,0
1583343993.133,2.930,27.832,33.691,0.000,44.922,0
1583343993.137,6.836,30.273,34.668,3.418,11.230,0
1583343993.141,6.836,29.785,37.598,8.789,-23.926,0
1583343993.145,13.184,30.273,38.574,15.137,20.508,0
1583343993.149,21.973,33.203,39.551,18.066,49.316,0
1583343993.153,22.461,33.691,40.039,17.090,56.641,0
1583343993.156,20.996,33.203,39.062,20.020,40.039,0
1583343993.160,21.484,32.715,40.039,15.625,-0.488,0
1583343993.164,21.973,30.762,39.551,9.766,51.270,0
1583343993.168,23.926,31.738,35.156,16.602,62.012,0
1583343993.172,19.531,33.203,35.645,25.391,22.949,0
1583343993.189,20.508,32.227,38.574,26.855,64.941,0
1583343993.193,27.344,32.227,37.598,27.832,63.477,0
1583343993.197,29.297,33.203,35.645,28.809,6.836,0
1583343993.201,34.180,34.668,32.715,27.832,0.977,0
1583343993.205,32.715,35.156,29.785,29.297,69.336,0
1583343993.209,29.297,31.738,29.785,29.785,67.383,0
1583343993.213,31.250,30.762,33.203,32.227,2.441,0
1583343993.216,32.715,34.180,35.645,26.367,31.250,0
1583343993.220,31.250,34.668,35.156,28.320,91.797,0
1583343993.224,36.133,33.691,34.668,36.133,55.176,0
1583343993.228,41.504,33.691,33.203,35.645,0.000,0
1583343993.232,42.480,34.180,34.668,31.250,-3.906,0
1583343993.229,37.109,34.668,37.109,27.832,11.719,0
1583343993.233,39.062,35.156,37.109,33.691,109.863,0
1583343993.237,49.805,38.574,37.109,37.598,78.613,0
1583343993.241,46.875,37.109,38.086,38.086,-18.555,0
1583343993.245,41.992,35.156,38.086,38.574,-8.789,0
1583343993.249,43.457,36.621,38.574,41.016,31.738,0
1583343993.253,41.992,33.691,40.527,41.504,-11.230,0
1583343993.256,41.504,31.738,40.039,41.504,-9.766,0
1583343993.260,43.457,31.738,40.039,45.898,71.777,0
1583343993.264,39.062,32.715,42.480,42.969,88.379,0
1583343993.268,39.551,34.668,41.992,30.273,33.691,0
1583343993.272,42.480,35.156,40.527,32.715,42.969,0
1583343993.269,38.574,37.598,37.598,38.086,63.477,0
1583343993.273,34.668,39.062,35.645,31.250,48.828,0
1583343993.277,32.715,38.574,37.109,31.738,6.836,0
1583343993.281,31.250,36.621,35.645,38.574,6.836,0
1583343993.285,35.156,35.645,33.203,37.598,60.547,0
1583343993.289,36.133,37.109,36.621,34.668,41.992,0
1583343993.293,29.297,35.156,41.016,35.645,34.180,0
1583343993.296,30.273,32.715,38.086,36.621,38.086,0
1583343993.300,32.715,34.180,35.645,31.738,20.996,0
1583343993.304,27.832,35.645,37.109,25.391,-2.441,0
1583343993.308,26.367,37.109,37.109,27.832,19.043,0
1583343993.312,31.738,39.062,37.109,33.691,39.062,0
1583343993.329,34.180,38.574,37.109,36.133,21.484,0
1583343993.333,26.855,38.574,37.109,33.691,7.812,0
1583343993.337,24.902,40.039,35.156,35.156,40.527,0
1583343993.341,28.320,39.062,36.133,34.180,60.059,0
1583343993.345,32.227,36.133,37.598,32.715,16.602,0
1583343993.349,30.273,35.645,36.133,34.668,11.719,0
1583343993.353,24.414,37.109,33.203,31.250,31.738,0
1583343993.356,25.879,37.109,33.203,29.297,53.223,0
1583343993.360,35.156,38.574,32.715,38.086,23.438,0
1583343993.364,40.527,38.086,28.809,39.551,52.734,0
1583343993.368,32.227,38.086,30.273,33.691,76.660,0
1583343993.372,24.902,40.039,35.156,33.691,47.363,0
1583343993.369,26.367,39.062,32.715,30.273,45.898,0
1583343993.373,28.809,36.133,32.715,32.227,83.008,0
1583343993.377,24.414,36.621,36.133,32.227,70.801,0
1583343993.381,20.996,35.156,36.133,26.367,-10.742,0
1583343993.385,28.320,32.227,37.109,30.762,-4.883,0
1583343993.389,30.762,33.691,37.109,30.762,34.180,0
1583343993.393,25.391,37.109,34.668,25.391,46.875,0
1583343993.396,23.438,39.551,34.180,25.879,-5.371,0
1583343993.400,29.785,37.598,31.738,27.832,32.715,0
1583343993.404,34.180,34.668,28.320,22.461,114.746,0
1583343993.408,31.250,33.203,27.344,13.672,128.418,0
1583343993.412,32.227,33.203,25.879,17.090,65.918,0
1583343993.409,34.668,33.691,27.344,20.508,-19.531,0
1583343993.413,41.016,34.180,27.832,18.066,-14.648,0
1583343993.417,46.387,35.156,25.879,24.902,20.996,0
1583343993.421,47.852,35.156,26.855,28.809,56.641,0
1583343993.425,50.781,37.598,30.273,31.250,52.246,0
1583343993.429,47.852,37.109,32.715,36.621,52.734,0
1583343993.433,41.504,33.691,31.738,35.156,50.293,0
1583343993.436,35.645,35.156,30.273,33.203,3.906,0
1583343993.440,31.738,34.180,29.297,25.879,-14.648,0
1583343993.444,35.645,32.227,30.762,19.043,-10.254,0
1583343993.448,36.133,32.227,33.691,23.926,-0.977,0
1583343993.452,31.250,32.715,32.715,22.949,-32.715,0
1583343993.469,24.902,31.250,32.715,20.996,-14.648,0
1583343993.473,22.949,30.273,31.738,21.484,45.410,0
1583343993.477,27.344,31.250,31.738,22.461,36.133,0
1583343993.481,27.832,30.762,34.668,26.855,6.836,0
1583343993.485,21.484,32.227,30.273,27.344,24.414,0
1583343993.489,20.508,34.180,27.344,28.320,-0.488,0
1583343993.493,27.344,36.621,30.762,30.762,-20.508,0
1583343993.496,28.809,37.109,34.180,29.297,8.301,0
1583343993.500,28.809,36.621,36.621,24.414,12.695,0
1583343993.504,30.762,38.086,34.668,21.484,17.090,0
1583343993.508,31.738,39.062,30.762,26.855,-47.852,0
1583343993.512,31.738,39.551,33.203,26.855,2.930,0
1583343993.509,28.809,41.016,32.227,27.832,111.328,0
1583343993.513,28.320,40.039,29.785,33.691,64.941,0
1583343993.517,31.250,40.039,28.809,33.203,27.344,0
1583343993.521,35.645,41.016,27.344,36.621,22.949,0
1583343993.525,35.645,39.551,30.762,34.180,47.363,0
1583343993.529,32.227,38.574,34.180,29.785,13.184,0
1583343993.533,31.250,38.086,34.180,36.133,-4.883,0
1583343993.536,33.691,38.086,33.691,35.645,42.480,0
1583343993.540,34.180,38.574,33.691,35.156,28.320,0
1583343993.544,36.133,38.574,33.203,34.668,6.348,0
1583343993.548,33.691,39.062,34.668,31.250,26.367,0
1583343993.552,33.691,38.086,32.227,31.738,36.133,0
1583343993.549,36.621,38.086,29.297,31.250,38.086,0
1583343993.553,28.320,35.645,31.250,27.832,39.551,0
1583343993.557,26.855,34.668,29.785,21.973,51.270,0
1583343993.561,29.297,34.668,29.297,21.484,58.594,0
1583343993.565,30.762,32.227,27.344,26.367,-5.859,0
1583343993.569,32.227,31.250,27.344,29.785,-12.695,0
1583343993.573,24.414,31.250,30.762,24.414,-14.648,0
1583343993.576,25.879,32.227,34.180,25.879,-28.809,0
1583343993.580,30.273,30.762,34.180,20.508,-4.883,0
1583343993.584,29.297,29.785,32.227,22.949,11.719,0
1583343993.588,28.809,32.715,29.297,31.250,36.621,0
1583343993.592,24.414,31.250,28.320,31.250,31.738,0
1583343993.609,27.832,30.273,32.227,35.645,24.902,0
1583343993.613,36.133,32.227,30.762,31.738,49.316,0
1583343993.617,38.086,33.203,26.855,36.133,49.805,0
1583343993.621,37.598,36.133,28.320,36.133,49.805,0
1583343993.625,37.598,37.109,29.297,24.414,74.219,0
1583343993.629,39.551,36.621,32.715,29.785,93.750,0
1583343993.633,38.086,36.133,33.691,31.738,30.273,0
1583343993.636,35.645,36.133,30.762,25.391,-13.672,0
1583343993.640,39.062,36.621,29.785,21.484,27.344,0
1583343993.644,39.551,36.621,28.809,22.461,58.594,0
1583343993.648,30.762,35.645,29.785,25.391,93.262,0
1583343993.652,24.902,34.180,31.250,15.137,56.641,0
1583343993.648,26.367,31.250,33.691,12.207,20.508,0
1583343993.652,24.902,31.250,35.156,21.484,57.617,0
1583343993.656,29.785,33.691,28.809,20.020,94.727,0
1583343993.660,34.180,34.180,29.785,12.207,50.781,0
1583343993.664,32.715,33.203,30.273,19.531,4.395,0
1583343993.668,31.250,31.250,30.762,17.578,-14.648,0
1583343993.672,30.762,31.250,31.738,11.719,-36.133,0
1583343993.675,33.691,35.156,23.926,14.648,-25.879,0
1583343993.679,32.715,33.691,23.926,17.578,25.879,0
1583343993.683,34.180,31.250,26.855,20.508,73.242,0
1583343993.687,36.133,32.227,27.832,15.625,21.973,0
1583343993.691,31.250,35.156,28.320,13.184,13.672,0
1583343993.689,29.297,35.156,29.785,21.973,1.465,0
1583343993.693,35.645,35.645,29.785,25.391,36.133,0
1583343993.697,47.363,41.504,25.391,20.996,76.660,0
1583343993.701,42.969,39.062,28.809,29.297,94.727,0
1583343993.705,36.621,35.645,29.785,28.809,85.938,0
1583343993.709,39.551,37.598,27.344,24.902,49.316,0
1583343993.713,40.039,38.086,28.320,27.832,40.527,0
1583343993.716,35.156,38.086,31.250,26.367,21.973,0
1583343993.720,30.762,35.645,30.273,27.344,31.250,0
1583343993.724,31.738,36.621,26.367,28.320,13.672,0
1583343993.728,27.344,36.133,32.715,25.391,15.625,0
1583343993.732,18.066,33.691,33.203,24.414,72.754,0
1583343993.749,15.137,36.133,34.180,26.367,14.160,0
1583343993.753,17.090,36.621,41.504,15.625,-30.762,0
1583343993.757,19.043,29.785,41.504,11.230,-9.766,0
1583343993.761,28.809,29.297,36.133,19.043,-19.531,0
1583343993.765,39.062,30.762,38.086,24.902,45.410,0
1583343993.769,25.879,32.227,38.574,19.531,54.688,0
1583343993.773,27.832,35.645,28.809,19.531,51.758,0
1583343993.776,31.738,36.133,26.367,30.273,46.875,0
1583343993.780,15.625,35.645,35.645,20.996,30.762,0
1583343993.784,22.461,31.250,34.668,20.020,40.527,0
1583343993.788,35.156,32.227,28.320,35.645,-6.836,0
1583343993.792,25.879,32.227,41.504,26.855,45.898,0
1583343993.809,25.879,32.715,32.227,10.254,87.891,0
1583343993.813,23.926,32.227,29.297,9.766,93.750,0
1583343993.817,33.691,30.762,33.203,23.926,56.152,0
1583343993.821,29.785,29.785,32.227,25.879,-6.348,0
1583343993.825,-21.484,34.668,39.062,10.254,19.531,0
1583343993.829,-25.391,36.133,30.762,2.441,10.254,0
1583343993.833,28.320,22.461,26.367,17.090,39.551,0
1583343993.836,49.805,21.973,34.180,44.434,-11.719,0
1583343993.840,39.551,31.738,32.715,25.391,-0.977,0
1583343993.844,22.461,33.691,28.320,12.695,26.855,0
1583343993.848,22.461,28.320,34.668,50.293,2.441,0
1583343993.852,24.414,30.762,36.621,40.527,57.129,0
1583343993.828,17.090,32.227,35.645,20.508,36.621,0
1583343993.832,-1.953,29.297,45.410,4.883,19.531,0
1583343993.836,-10.742,25.879,49.805,-1.465,22.461,0
1583343993.840,-41.504,36.133,32.715,0.488,40.527,0
1583343993.844,-42.480,36.621,33.203,0.000,41.992,0
1583343993.848,20.508,27.832,44.922,14.160,37.109,0
1583343993.852,-0.977,27.832,39.551,13.184,51.758,0
1583343993.855,18.555,30.273,23.438,33.203,37.109,0
1583343993.859,35.156,34.668,33.203,29.785,-1.465,0
1583343993.863,7.324,30.762,50.293,-8.789,1.465,0
1583343993.867,5.371,29.297,42.480,9.766,47.852,0
1583343993.871,15.137,31.250,22.949,41.504,41.016,0
1583343993.889,45.410,36.133,22.461,57.617,-11.230,0
1583343993.893,44.922,33.691,36.133,49.316,-1.465,0
1583343993.897,24.414,36.621,27.344,36.621,60.059,0
1583343993.901,14.648,28.320,36.621,37.598,33.691,0
1583343993.905,29.785,23.438,41.016,40.039,42.480,0
1583343993.909,13.184,31.250,40.039,-5.859,39.551,0
1583343993.913,1.465,34.180,29.785,-14.648,-0.488,0
1583343993.916,15.625,28.809,22.461,31.250,22.949,0
1583343993.920,35.645,24.902,37.598,45.410,-14.160,0
1583343993.924,34.668,31.738,42.969,20.996,-11.230,0
1583343993.928,0.488,32.227,26.855,9.277,40.039,0
1583343993.932,4.883,28.320,23.438,33.691,32.227,0
1583343993.929,29.297,31.738,35.645,28.320,8.789,0
1583343993.933,14.160,34.180,37.598,20.020,38.574,0
1583343993.937,18.066,31.250,32.715,29.785,34.668,0
1583343993.941,37.598,29.297,41.016,23.438,-1.953,0
1583343993.945,18.066,28.320,43.457,16.113,1.953,0
1583343993.949,14.648,30.762,29.785,14.648,25.391,0
1583343993.953,15.625,36.133,29.297,13.184,1.953,0
1583343993.956,28.320,34.668,29.785,28.809,0.488,0
1583343993.960,26.367,37.109,26.855,26.855,20.996,0
1583343993.964,10.254,31.250,39.062,2.441,29.297,0
1583343993.968,25.879,30.762,34.180,12.207,40.039,0
1583343993.972,20.020,31.738,36.133,27.832,41.016,0
1583343993.973,12.695,29.785,47.852,18.555,8.301,0
1583343993.977,41.504,39.062,25.879,30.762,58.105,0
1583343993.981,27.344,37.109,34.180,18.555,102.051,0
1583343993.985,28.320,34.180,34.180,14.648,79.590,0
1583343993.989,31.250,36.621,27.832,19.531,65.430,0
1583343993.993,14.648,39.551,36.133,25.879,40.527,0
1583343993.997,30.273,40.527,29.297,33.691,27.832,0
1583343994.000,37.598,34.180,34.668,30.762,8.301,0
1583343994.004,25.391,32.227,36.133,25.879,60.059,0
1583343994.008,34.668,40.527,27.344,25.391,59.082,0
1583343994.012,37.598,41.016,32.715,23.438,0.977,0
1583343994.016,34.180,37.598,37.109,18.555,-13.672,0
1583343994.029,28.320,41.504,34.180,19.531,-6.348,0
1583343994.033,22.949,43.945,31.250,29.785,41.016,0
1583343994.037,23.438,40.039,34.180,31.738,55.176,0
1583343994.041,26.855,39.062,35.156,16.602,20.020,0
1583343994.045,38.086,39.062,34.180,22.949,-14.648,0
1583343994.049,40.039,34.668,30.762,40.039,-8.301,0
1583343994.053,34.180,32.715,27.832,37.109,16.602,0
1583343994.056,42.480,38.086,29.297,39.062,-28.809,0
1583343994.060,45.898,32.715,35.156,39.062,-14.648,0
1583343994.064,39.551,32.227,38.574,42.969,11.230,0
1583343994.068,39.551,37.598,36.621,44.922,17.090,0
1583343994.072,42.969,39.062,35.645,46.387,26.367,0
1583343994.069,47.852,32.715,36.133,43.945,-0.977,0
1583343994.073,41.016,28.809,41.016,34.668,9.766,0
1583343994.077,32.227,33.691,37.109,41.992,73.730,0
1583343994.081,34.180,35.156,37.109,43.457,74.219,0
1583343994.085,41.504,30.762,36.621,37.598,42.969,0
1583343994.089,33.203,35.645,32.715,33.691,16.113,0
1583343994.093,26.367,35.645,31.250,43.945,5.371,0
1583343994.096,36.133,29.785,29.297,44.922,49.316,0
1583343994.100,33.203,32.227,29.785,24.414,51.270,0
1583343994.104,26.367,30.273,24.902,21.484,19.043,0
1583343994.108,34.180,31.250,19.531,36.621,34.180,0
1583343994.112,30.762,29.297,29.785,29.297,88.867,0
1583343994.109,30.273,31.738,28.320,27.832,12.207,0
1583343994.113,38.574,33.691,24.902,35.645,-47.363,0
1583343994.117,44.434,31.250,27.832,37.598,58.105,0
1583343994.121,42.969,33.203,21.484,40.527,75.684,0
1583343994.125,22.461,32.715,29.297,27.832,17.090,0
1583343994.129,22.949,30.273,37.109,20.020,25.391,0
1583343994.133,28.809,31.738,36.133,22.461,83.008,0
1583343994.136,21.484,32.227,37.598,10.742,88.867,0
1583343994.140,20.508,29.297,38.086,0.488,52.246,0
1583343994.144,22.461,29.297,38.086,12.207,84.961,0
1583343994.148,35.645,30.273,37.598,28.809,83.008,0
1583343994.152,35.156,32.715,37.109,23.438,43.945,0
1583343994.169,38.574,30.273,39.551,20.996,44.434,0
1583343994.173,42.480,29.297,40.527,34.180,86.914,0
1583343994.177,35.645,34.180,33.691,32.227,86.426,0
1583343994.181,32.715,32.715,31.738,31.250,51.758,0
1583343994.185,35.156,40.039,33.203,23.438,51.270,0
1583343994.189,37.598,41.992,28.320,20.020,48.828,0
1583343994.193,43.945,33.203,25.879,34.668,31.738,0
1583343994.196,40.039,33.691,26.367,35.156,-14.648,0
1583343994.200,25.391,33.691,32.227,25.391,-14.648,0
1583343994.204,24.414,33.691,29.785,21.484,28.320,0
1583343994.208,32.227,33.691,23.926,24.414,71.777,0
1583343994.212,38.574,33.691,28.320,24.902,85.938,0
1583343994.209,36.621,33.203,25.879,33.691,45.410,0
1583343994.213,29.785,29.785,28.809,27.832,-10.742,0
1583343994.217,44.922,32.715,27.832,25.391,8.301,0
1583343994.221,41.992,41.016,23.926,2.441,46.387,0
1583343994.225,38.086,40.039,20.996,3.906,20.020,0
1583343994.229,54.199,39.551,20.020,46.387,7.812,0
1583343994.233,54.199,39.062,28.809,39.062,2.441,0
1583343994.236,41.992,36.621,23.438,44.922,-5.371,0
1583343994.240,39.551,32.227,31.250,40.039,68.848,0
1583343994.244,47.852,32.715,38.086,29.785,58.594,0
1583343994.248,41.016,40.039,31.738,27.832,13.672,0
1583343994.252,29.297,41.016,34.180,37.598,53.711,0
1583343994.249,23.926,37.598,40.527,17.090,20.020,0
1583343994.253,42.969,32.227,49.805,24.902,-8.789,0
1583343994.257,38.574,35.156,53.223,50.781,82.520,0
1583343994.261,22.949,39.062,41.016,51.270,129.395,0
1583343994.265,45.898,38.086,36.133,46.387,91.309,0
1583343994.269,26.855,36.133,46.387,28.809,80.566,0
1583343994.273,35.645,40.527,39.062,34.668,54.199,0
1583343994.276,54.199,37.598,36.133,30.273,7.324,0
1583343994.280,20.020,34.180,43.457,21.973,-6.836,0
1583343994.284,19.531,36.621,39.551,28.809,-28.809,0
1583343994.288,47.852,35.156,45.410,41.504,29.297,0
1583343994.292,38.574,40.527,41.992,26.855,39.062,0
1583343994.309,30.762,45.410,37.109,11.719,-22.949,0
1583343994.313,30.273,43.457,35.156,30.273,0.000,0
1583343994.317,16.602,43.457,29.785,22.461,-14.648,0
1583343994.321,17.090,41.992,36.133,8.301,-20.508,0
1583343994.325,49.316,43.945,30.762,16.602,29.785,0
1583343994.329,31.250,41.504,30.762,20.508,72.754,0
1583343994.333,19.043,41.992,34.180,28.320,70.312,0
1583343994.336,29.297,45.410,22.949,30.762,71.777,0
1583343994.340,33.691,40.527,30.273,12.695,47.852,0
1583343994.344,33.691,39.551,28.809,18.066,1.465,0
1583343994.348,29.785,37.109,29.785,33.203,46.875,0
1583343994.352,22.949,37.109,38.574,19.043,74.707,0
1583343994.349,26.367,35.645,44.434,16.602,48.828,0
1583343994.353,33.691,33.691,47.852,34.180,16.113,0
1583343994.357,38.086,38.574,30.762,30.762,11.719,0
1583343994.361,28.320,41.992,34.180,12.695,37.598,0
1583343994.365,-0.488,35.156,45.898,-3.906,7.812,0
1583343994.369,0.977,30.762,42.969,-14.648,13.672,0
1583343994.373,20.020,38.086,30.762,-4.883,-16.113,0
1583343994.376,17.090,35.156,32.715,-4.883,20.508,0
1583343994.380,6.348,32.715,33.691,9.277,14.160,0
1583343994.384,9.277,33.203,32.715,22.949,-31.738,0
1583343994.388,24.414,30.762,37.598,25.879,25.879,0
1583343994.392,23.438,26.367,38.086,54.688,50.781,0
1583343994.401,24.414,27.344,47.852,58.594,60.547,0
1583343994.405,53.223,36.621,37.109,52.734,41.016,0
1583343994.409,80.078,35.156,24.414,58.594,5.859,0
1583343994.413,85.938,34.180,23.926,62.988,0.488,0
1583343994.417,82.520,36.621,22.949,61.035,53.223,0
1583343994.421,91.797,36.621,31.738,67.871,17.090,0
1583343994.425,90.820,33.691,40.527,71.777,-25.391,0
1583343994.428,87.891,33.691,33.203,75.195,2.441,0
1583343994.432,87.402,34.180,25.391,88.867,24.902,0
1583343994.436,81.055,31.250,32.715,104.492,34.668,0
1583343994.440,62.500,29.785,38.574,81.055,61.523,0
1583343994.444,57.129,31.738,34.668,61.035,83.984,0
1583343994.449,68.359,32.227,38.574,53.223,53.223,0
1583343994.453,62.012,31.250,45.898,53.711,56.641,0
1583343994.457,48.828,32.227,40.039,50.781,56.152,0
1583343994.461,67.871,31.250,31.738,53.711,41.504,0
1583343994.465,67.871,31.738,41.016,62.500,61.523,0
1583343994.469,49.316,37.598,41.504,38.086,62.012,0
1583343994.473,54.199,31.738,36.621,41.992,59.082,0
1583343994.476,54.199,28.809,34.180,74.219,135.254,0
1583343994.480,65.430,34.668,26.855,65.430,97.656,0
1583343994.484,70.312,30.273,32.715,38.574,19.531,0
1583343994.488,41.992,30.762,41.992,38.086,54.688,0
1583343994.492,38.086,32.227,40.039,50.781,92.773,0
1583343994.489,39.062,35.156,38.574,41.016,95.703,0
1583343994.493,35.156,38.086,37.598,31.738,118.652,0
1583343994.497,43.457,33.691,41.016,37.109,127.441,0
1583343994.501,35.645,35.645,35.645,32.715,108.398,0
1583343994.505,25.879,37.109,33.203,28.809,152.832,0
1583343994.509,6.348,39.062,42.969,20.020,163.086,0
1583343994.513,-12.695,44.922,47.363,-10.254,187.988,0
1583343994.516,-7.812,46.387,43.457,-17.090,216.797,0
1583343994.520,-2.930,51.270,41.016,-5.371,193.848,0
1583343994.524,-13.672,60.059,50.781,-20.508,157.227,0
1583343994.528,-26.855,62.012,51.270,-20.508,159.180,0
1583343994.532,-45.410,51.758,48.340,-29.785,186.035,0
1583343994.549,-77.637,57.617,49.316,-78.125,195.801,0
1583343994.553,-97.656,62.500,55.176,-85.449,165.039,0
1583343994.557,-105.957,61.523,54.199,-86.914,158.691,0
1583343994.561,-107.910,65.918,48.340,-110.352,169.434,0
1583343994.565,-114.258,67.383,56.641,-129.395,160.645,0
1583343994.569,-136.719,70.801,54.688,-142.090,120.117,0
1583343994.573,-140.625,72.266,49.316,-149.414,109.863,0
1583343994.576,-146.484,71.289,50.781,-156.250,95.703,0
1583343994.580,-145.508,68.359,45.898,-145.996,83.008,0
1583343994.584,-147.949,72.754,37.598,-138.184,113.281,0
1583343994.588,-150.391,75.684,42.480,-150.879,88.867,0
1583343994.592,-140.625,71.289,48.340,-145.508,78.125,0
1583343994.589,-145.020,66.406,52.246,-140.625,62.988,0
1583343994.593,-152.344,63.477,55.664,-149.414,31.250,0
1583343994.597,-141.113,66.895,48.828,-145.508,41.504,0
1583343994.601,-117.676,65.430,44.434,-130.371,6.836,0
1583343994.605,-123.047,61.035,47.852,-119.141,8.301,0
1583343994.609,-110.352,62.988,45.898,-112.793,17.578,0
1583343994.613,-89.844,63.965,41.016,-102.051,4.395,0
1583343994.616,-95.703,60.059,44.434,-96.191,31.250,0
1583343994.620,-81.055,59.082,39.062,-82.520,-14.648,0
1583343994.624,-72.266,55.176,42.969,-73.242,-31.738,0
1583343994.628,-53.711,50.293,42.969,-70.801,-14.648,0
1583343994.632,-56.641,54.688,33.203,-62.500,-0.488,0
1583343994.629,-45.898,45.410,41.016,-48.340,-18.066,0
1583343994.633,-5.371,36.621,34.668,-10.742,-40.527,0
1583343994.637,-9.766,38.086,26.367,1.465,-23.438,0
1583343994.641,-0.488,27.344,37.109,1.953,-10.254,0
1583343994.645,21.484,24.902,34.668,20.996,-41.992,0
1583343994.649,34.180,23.926,28.809,28.320,-85.449,0
1583343994.653,33.203,20.508,31.250,31.738,-104.980,0
1583343994.656,29.785,17.090,30.273,45.898,-110.352,0
1583343994.660,56.152,17.090,28.320,41.504,-19.043,0
1583343994.664,65.430,19.531,27.832,38.086,12.695,0
1583343994.668,54.199,17.090,26.367,62.500,-19.043,0
1583343994.672,64.453,11.719,24.902,60.059,-24.902,0
1583343994.689,71.289,9.766,29.785,66.406,-34.668,0
1583343994.693,70.801,10.254,29.297,81.055,-71.289,0
1583343994.697,78.125,13.672,24.902,74.707,-54.688,0
1583343994.701,79.102,15.625,24.414,61.523,-61.035,0
1583343994.705,66.895,14.648,22.461,63.965,-65.430,0
1583343994.709,76.660,13.184,24.414,84.473,-83.496,0
1583343994.713,79.590,15.625,31.250,81.055,-111.816,0
1583343994.716,69.824,14.648,32.715,57.129,-56.641,0
1583343994.720,68.848,16.602,26.367,51.758,-11.230,0
1583343994.724,61.035,16.113,24.414,71.777,-1.465,0
1583343994.728,68.359,15.137,25.391,62.500,-8.301,0
1583343994.732,61.035,17.578,24.902,54.199,-0.977,0
1583343994.730,47.363,12.695,24.414,68.848,19.043,0
1583343994.734,57.617,10.254,23.926,61.035,-37.109,0
1583343994.738,57.129,14.160,23.438,45.898,-71.289,0
1583343994.742,71.289,18.066,23.926,54.688,0.000,0
1583343994.746,78.125,20.996,23.926,70.312,-39.062,0
1583343994.750,86.426,21.973,24.414,81.543,-62.988,0
1583343994.754,100.098,20.508,28.320,97.168,-25.391,0
1583343994.757,108.398,22.949,26.855,88.379,-61.035,0
1583343994.761,115.234,26.855,23.926,82.031,-37.109,0
1583343994.765,109.375,24.902,26.855,106.445,-52.734,0
1583343994.769,108.887,27.832,27.344,116.699,-20.996,0
1583343994.773,124.023,30.762,26.855,109.863,-30.273,0
1583343994.769,129.395,27.832,28.809,109.863,-33.691,0
1583343994.773,117.676,26.367,31.738,121.582,14.160,0
1583343994.777,129.395,29.297,29.785,116.211,11.719,0
1583343994.781,138.184,30.273,28.809,104.980,-4.395,0
1583343994.785,126.465,29.297,32.227,120.117,22.461,0
1583343994.789,117.188,30.273,35.156,121.582,62.988,0
1583343994.793,112.305,30.273,34.180,106.445,45.898,0
1583343994.796,121.582,34.180,33.691,104.492,50.293,0
1583343994.800,127.441,37.598,35.645,99.121,2.930,0
1583343994.804,113.281,36.621,34.668,87.402,26.855,0
1583343994.808,100.098,32.227,33.691,92.773,30.273,0
1583343994.812,100.586,29.297,31.250,94.727,12.695,0
1583343994.829,102.539,32.227,31.250,92.773,78.125,0
1583343994.833,89.355,32.227,34.668,94.727,21.973,0
1583343994.837,85.449,30.762,34.180,83.496,25.391,0
1583343994.841,95.703,33.691,33.203,78.125,50.781,0
1583343994.845,95.215,33.691,34.668,83.008,15.625,0
1583343994.849,75.195,33.203,35.156,83.984,11.719,0
1583343994.853,70.312,35.156,34.180,77.148,-8.301,0
1583343994.856,75.195,34.668,34.180,71.289,-11.719,0
1583343994.860,71.777,30.762,36.621,79.590,-30.762,0
1583343994.864,75.195,32.715,37.598,88.867,-31.738,0
1583343994.868,79.590,36.133,36.133,83.496,28.320,0
1583343994.872,77.148,33.691,34.180,68.359,1.953,0
1583343994.890,77.637,32.715,32.715,62.988,40.039,0
1583343994.894,69.336,29.297,35.645,81.055,83.008,0
1583343994.898,64.941,29.297,37.109,85.449,40.527,0
1583343994.902,71.777,34.668,33.203,73.730,70.312,0
1583343994.906,72.266,35.156,31.738,75.195,61.523,0
1583343994.910,75.195,34.668,36.133,75.195,33.203,0
1583343994.914,72.266,34.180,38.086,66.895,51.270,0
1583343994.917,66.406,31.250,37.598,63.477,31.250,0
1583343994.921,74.707,33.203,36.133,70.801,26.367,0
1583343994.925,86.914,37.109,33.203,73.730,71.777,0
1583343994.929,79.102,38.574,31.250,67.871,49.805,0
1583343994.933,62.988,38.086,30.762,55.176,18.555,0
1583343994.909,52.246,36.621,29.785,42.480,9.277,0
1583343994.913,52.246,35.645,28.320,42.969,21.973,0
1583343994.917,52.734,35.645,27.832,45.898,58.105,0
1583343994.921,56.641,38.086,26.367,39.062,5.859,0
1583343994.925,59.082,39.551,28.809,46.387,46.875,0
1583343994.929,61.523,38.574,30.273,58.105,102.539,0
1583343994.933,69.336,37.598,30.273,54.199,93.750,0
1583343994.936,63.477,37.598,31.250,49.316,44.922,0
1583343994.940,56.152,35.156,31.738,53.223,-44.922,0
1583343994.944,58.594,33.691,31.738,56.152,19.043,0
1583343994.948,63.477,35.156,31.250,48.340,110.840,0
1583343994.952,61.035,36.621,33.203,41.992,91.797,0
1583343994.969,55.664,36.621,33.203,37.598,62.012,0
1583343994.973,55.176,35.156,31.250,29.785,41.016,0
1583343994.977,52.734,34.180,31.250,27.344,-0.488,0
1583343994.981,49.805,34.668,28.809,30.273,-4.395,0
1583343994.985,41.992,38.574,28.809,30.762,40.527,0
1583343994.989,33.691,38.086,30.273,32.715,23.926,0
1583343994.993,35.645,37.109,29.785,28.320,60.059,0
1583343994.996,33.691,36.621,31.738,20.508,94.238,0
1583343995.000,28.320,34.668,31.250,19.043,59.570,0
1583343995.004,20.996,32.715,30.273,18.555,32.715,0
1583343995.008,16.113,31.738,30.273,25.391,17.090,0
1583343995.012,15.137,32.227,32.715,28.320,64.453,0
1583343995.009,14.160,34.180,33.691,22.461,52.246,0
1583343995.013,16.602,36.621,33.203,15.137,15.137,0
1583343995.017,14.160,36.133,31.250,9.277,67.871,0
1583343995.021,14.648,36.621,31.250,10.254,113.770,0
1583343995.025,13.184,34.668,33.203,6.836,44.922,0
1583343995.029,11.230,36.133,30.273,6.836,-1.465,0
1583343995.033,7.324,37.109,28.809,8.789,65.918,0
1583343995.036,2.930,34.180,31.738,2.441,73.730,0
1583343995.040,1.465,32.715,30.762,5.371,22.949,0
1583343995.044,-4.395,33.691,30.762,7.812,17.578,0
1583343995.048,-3.418,36.621,31.250,-8.301,68.359,0
1583343995.052,-2.441,35.645,32.227,-5.859,87.891,0
1583343995.049,-0.977,35.645,35.645,6.348,48.340,0
1583343995.053,-0.977,36.621,35.645,-3.418,18.555,0
1583343995.057,-5.859,37.109,37.109,-10.254,28.809,0
1583343995.061,-3.418,39.062,38.574,-8.789,0.000,0
1583343995.065,-11.230,37.109,37.598,-13.672,-18.555,0
1583343995.069,-18.066,34.668,34.668,-21.484,42.969,0
1583343995.073,-19.043,36.621,30.273,-24.414,43.945,0
1583343995.076,-27.832,36.621,32.715,-27.344,21.484,0
1583343995.080,-32.715,37.109,33.203,-35.645,29.297,0
1583343995.084,-33.691,39.062,31.250,-42.969,38.086,0
1583343995.088,-43.457,35.645,31.250,-45.410,33.203,0
1583343995.092,-51.758,30.762,31.738,-47.852,-10.254,0
1583343995.109,-50.781,34.180,32.227,-52.734,-39.551,0
1583343995.113,-47.852,37.109,33.203,-54.199,-2.441,0
1583343995.117,-45.898,35.645,34.180,-49.805,33.203,0
1583343995.121,-35.645,36.133,33.691,-47.852,16.113,0
1583343995.125,-13.672,38.086,34.668,-38.086,-16.113,0
1583343995.129,3.418,36.621,33.203,-20.020,19.043,0
1583343995.133,10.742,37.109,34.668,-13.184,-14.648,0
1583343995.136,20.020,39.551,38.574,-4.883,-17.578,0
1583343995.140,33.691,37.598,39.551,13.672,63.477,0
1583343995.144,41.016,34.180,38.086,20.996,30.762,0
1583343995.148,43.945,35.645,35.645,23.926,-18.066,0
1583343995.152,46.387,38.086,36.621,29.297,9.766,0
1583343995.149,53.223,39.551,39.062,33.691,40.039,0
1583343995.153,61.523,40.039,38.086,36.133,6.348,0
1583343995.157,58.594,41.016,38.574,41.016,-46.875,0
1583343995.161,55.664,40.527,41.016,48.340,12.695,0
1583343995.165,57.129,38.574,42.480,50.781,57.129,0
1583343995.169,62.012,38.574,43.457,52.246,38.086,0
1583343995.173,63.477,37.109,42.480,49.805,35.645,0
1583343995.176,59.082,35.156,39.551,46.387,1.465,0
1583343995.180,56.641,34.180,39.062,47.852,32.227,0
1583343995.184,58.105,33.691,39.551,47.852,53.711,0
1583343995.188,60.059,35.156,40.039,44.922,-5.859,0
1583343995.192,56.152,32.227,39.551,50.781,34.180,0
1583343995.189,54.199,33.691,39.062,52.246,42.480,0
1583343995.193,62.012,38.086,37.109,46.387,38.574,0
1583343995.197,66.406,35.156,35.156,40.527,-1.953,0
1583343995.201,60.059,35.156,34.668,39.062,23.438,0
1583343995.205,50.293,36.133,33.691,41.016,76.660,0
1583343995.209,49.805,35.156,31.250,41.992,35.645,0
1583343995.213,56.641,33.691,31.738,43.945,-6.836,0
1583343995.216,54.199,32.715,33.203,44.922,0.977,0
1583343995.220,49.316,33.203,31.738,36.621,17.578,0
1583343995.224,46.875,33.691,31.738,33.691,36.133,0
1583343995.228,49.316,33.203,37.109,46.875,57.617,0
1583343995.232,52.734,35.645,40.039,53.223,90.332,0
1583343995.249,50.781,37.109,36.133,50.781,106.445,0
1583343995.253,48.340,35.156,36.133,45.898,55.664,0
1583343995.257,51.270,36.133,37.109,45.898,23.926,0
1583343995.261,54.199,36.133,34.180,54.199,71.777,0
1583343995.265,57.617,35.645,33.203,60.059,79.102,0
1583343995.269,51.270,33.203,40.527,51.270,-0.977,0
1583343995.273,36.621,28.809,44.434,33.203,11.230,0
1583343995.276,34.180,28.809,44.922,30.762,68.848,0
1583343995.280,31.738,29.297,45.898,35.156,45.410,0
1583343995.284,26.855,26.855,45.898,33.691,40.039,0
1583343995.288,25.879,25.391,47.852,34.180,86.914,0
1583343995.292,28.809,23.926,47.363,34.180,30.273,0
1583343995.289,22.949,21.973,46.387,26.855,-4.883,0
1583343995.293,19.043,23.926,46.875,23.438,14.160,0
1583343995.297,25.391,25.391,43.457,34.180,11.719,0
1583343995.301,30.273,26.367,40.527,40.527,10.742,0
1583343995.305,31.738,26.855,41.504,37.598,37.598,0
1583343995.309,31.738,27.832,40.527,36.621,49.316,0
1583343995.313,33.203,27.832,39.062,37.598,53.223,0
1583343995.316,37.109,26.855,39.062,41.016,75.195,0
1583343995.320,43.457,27.344,40.527,47.363,7.812,0
1583343995.324,41.504,28.809,41.504,44.434,57.617,0
1583343995.328,39.551,33.203,39.062,38.574,87.891,0
1583343995.332,44.434,31.738,36.133,44.434,35.156,0
1583343995.330,46.875,33.203,37.109,49.316,34.668,0
1583343995.334,44.922,35.156,37.109,50.293,19.043,0
1583343995.338,42.480,36.621,36.621,48.340,50.293,0
1583343995.342,39.551,36.621,40.039,40.039,30.762,0
1583343995.346,43.457,34.668,39.551,42.480,49.805,0
1583343995.350,50.781,35.156,33.691,47.363,76.172,0
1583343995.354,44.922,35.156,36.133,41.992,56.152,0
1583343995.357,38.086,36.621,38.574,40.527,20.996,0
1583343995.361,42.480,35.645,42.480,39.551,15.625,0
1583343995.365,46.875,35.156,41.504,39.551,-7.324,0
1583343995.369,43.457,37.109,35.156,43.945,4.883,0
1583343995.373,43.945,39.551,35.645,48.340,49.316,0
1583343995.390,52.246,39.551,32.715,47.363,30.762,0
1583343995.394,55.176,39.551,33.203,45.410,57.617,0
1583343995.398,51.758,39.062,32.227,45.898,16.602,0
1583343995.402,49.805,38.086,33.691,45.898,-34.668,0
1583343995.406,54.199,40.039,33.203,52.246,-4.395,0
1583343995.410,55.664,38.086,36.133,57.129,30.273,0
1583343995.414,53.223,38.574,37.598,47.852,74.707,0
1583343995.417,47.363,38.086,36.621,41.504,36.621,0
1583343995.421,46.387,33.691,36.621,46.875,21.973,0
1583343995.425,51.758,33.691,37.598,48.340,9.766,0
1583343995.429,48.340,33.691,39.551,41.016,36.621,0
1583343995.433,40.527,31.250,37.598,33.203,59.082,0
1583343995.429,39.062,30.762,40.039,39.551,29.297,0
1583343995.433,42.480,31.250,40.527,41.504,4.395,0
1583343995.437,44.922,34.668,35.645,37.598,-8.301,0
1583343995.441,39.551,35.156,37.109,33.691,10.254,0
1583343995.445,33.691,33.203,38.574,28.809,0.488,0
1583343995.449,31.250,32.715,37.598,27.832,6.348,0
1583343995.453,33.691,30.273,37.598,28.320,7.324,0
1583343995.456,34.668,29.297,37.109,26.367,39.062,0
1583343995.460,38.574,32.227,36.621,31.738,50.293,0
1583343995.464,38.574,34.180,39.551,31.738,-7.324,0
1583343995.468,35.645,30.762,37.109,24.902,22.461,0
1583343995.472,37.109,30.762,34.180,29.297,45.898,0
1583343995.469,35.156,30.762,36.133,27.832,24.902,0
1583343995.473,34.668,29.297,33.203,30.273,45.898,0
1583343995.477,39.551,29.297,31.738,34.180,42.969,0
1583343995.481,36.133,30.762,34.180,31.250,57.129,0
1583343995.485,33.203,30.273,34.668,29.785,40.527,0
1583343995.489,34.668,30.762,36.133,33.691,34.180,0
1583343995.493,33.203,31.250,36.133,33.203,56.641,0
1583343995.496,32.715,29.785,33.203,25.879,50.293,0
1583343995.500,34.180,31.738,32.227,23.438,40.527,0
1583343995.504,29.785,30.273,30.273,24.902,49.316,0
1583343995.508,26.367,31.250,26.855,26.367,108.398,0
1583343995.512,30.762,35.645,28.809,28.809,81.055,0
1583343995.529,34.668,36.621,30.762,26.367,7.324,0
1583343995.533,28.809,38.086,32.715,28.320,28.809,0
1583343995.537,25.879,39.062,31.250,33.203,58.594,0
1583343995.541,32.715,37.109,28.320,30.762,42.969,0
1583343995.545,36.133,36.621,30.273,26.855,27.832,0
1583343995.549,31.738,37.598,33.203,27.832,47.363,0
1583343995.553,27.832,36.621,33.203,21.973,48.828,0
1583343995.556,30.762,37.598,34.180,23.438,20.508,0
1583343995.560,33.691,38.574,33.203,31.738,-34.668,0
1583343995.564,36.133,36.133,29.297,33.203,7.812,0
1583343995.568,39.062,33.203,30.762,32.715,71.777,0
1583343995.572,34.668,30.762,34.180,33.203,19.043,0
1583343995.569,28.320,32.227,35.156,32.227,13.184,0
1583343995.573,25.391,31.250,39.551,33.691,50.781,0
1583343995.577,24.902,31.250,40.527,32.227,60.547,0
1583343995.581,24.414,31.250,38.574,27.832,32.715,0
1583343995.585,22.461,31.250,39.551,26.367,-1.953,0
1583343995.589,24.902,31.250,38.574,24.902,-3.418,0
1583343995.593,20.508,30.273,36.621,23.438,63.965,0
1583343995.596,16.113,31.738,37.109,20.996,84.961,0
1583343995.600,19.043,33.203,37.598,23.926,59.570,0
1583343995.604,22.949,33.691,37.598,24.414,28.809,0
1583343995.608,23.926,29.785,35.156,20.508,8.789,0
1583343995.612,21.973,26.367,34.668,25.879,13.672,0
1583343995.609,24.902,28.809,37.598,24.902,69.336,0
1583343995.613,30.273,30.762,36.621,25.391,89.844,0
1583343995.617,24.902,29.785,35.156,22.461,32.227,0
1583343995.621,23.926,30.273,36.621,13.672,6.348,0
1583343995.625,29.297,32.227,37.598,16.602,18.555,0
1583343995.629,29.297,33.691,38.574,15.625,9.766,0
1583343995.633,27.344,32.715,38.086,8.301,20.020,0
1583343995.636,25.391,33.203,35.156,5.371,27.344,0
1583343995.640,30.273,36.133,29.785,8.789,30.273,0
1583343995.644,34.180,37.109,30.273,16.602,35.645,0
1583343995.648,29.785,34.668,35.645,19.043,49.316,0
1583343995.652,23.926,32.715,36.133,21.484,68.848,0
1583343995.669,23.438,33.203,35.645,26.855,21.973,0
1583343995.673,24.414,33.203,37.598,25.391,50.781,0
1583343995.677,25.391,33.203,38.086,24.414,65.918,0
1583343995.681,22.461,33.691,38.086,22.461,80.078,0
1583343995.685,19.043,34.668,40.527,24.902,83.984,0
1583343995.689,18.555,35.645,40.039,28.320,50.781,0
1583343995.693,22.949,34.668,36.621,19.531,50.293,0
1583343995.696,23.926,36.133,36.621,20.508,51.270,0
1583343995.700,19.043,39.551,37.598,25.391,26.855,0
1583343995.704,15.137,39.551,38.086,16.113,-10.742,0
1583343995.708,18.066,39.062,34.180,8.301,1.953,0
1583343995.712,10.742,40.039,34.668,-1.465,29.297,0
1583343995.709,-6.836,44.434,42.480,-16.113,27.832,0
1583343995.713,-15.137,47.852,49.316,-23.438,11.230,0
1583343995.717,-24.902,49.316,48.828,-27.832,0.488,0
1583343995.721,-51.270,49.805,51.270,-47.852,28.320,0
1583343995.725,-71.777,53.711,51.758,-73.242,32.715,0
1583343995.729,-84.961,64.941,48.340,-95.215,29.785,0
1583343995.733,-104.980,70.801,53.223,-114.258,21.484,0
1583343995.736,-132.812,67.871,58.594,-136.719,34.668,0
1583343995.740,-150.391,67.383,54.199,-153.320,93.262,0
1583343995.744,-163.086,67.383,53.223,-168.457,50.293,0
1583343995.748,-172.852,66.895,61.523,-180.664,41.504,0
1583343995.752,-169.922,66.406,65.430,-185.059,87.402,0
1583343995.749,-169.434,65.918,61.035,-189.941,71.289,0
1583343995.753,-170.898,64.941,59.082,-184.082,45.410,0
1583343995.757,-165.527,65.918,56.641,-172.363,-27.344,0
1583343995.761,-147.461,67.383,54.688,-161.621,-22.461,0
1583343995.765,-138.184,65.918,53.223,-156.250,38.086,0
1583343995.769,-140.625,62.012,52.734,-151.855,18.066,0
1583343995.773,-121.094,57.129,52.734,-132.812,19.043,0
1583343995.776,-88.867,54.688,54.688,-108.398,54.688,0
1583343995.780,-64.941,54.199,52.734,-88.379,23.926,0
1583343995.784,-47.852,51.270,46.387,-62.988,-12.207,0
1583343995.788,-31.738,45.410,42.480,-41.992,33.203,0
1583343995.792,-9.766,43.457,36.621,-22.461,-0.488,0
1583343995.809,9.766,41.016,31.250,-3.418,-38.574,0
1583343995.813,18.555,33.203,31.250,10.742,37.598,0
1583343995.817,35.156,28.320,32.227,30.762,55.664,0
1583343995.821,58.594,23.926,31.250,52.734,5.859,0
1583343995.825,79.102,22.461,27.832,68.359,-2.930,0
1583343995.829,87.402,22.949,24.902,78.125,-6.836,0
1583343995.833,87.891,22.461,25.391,85.938,0.000,0
1583343995.836,94.727,21.484,24.902,95.703,8.789,0
1583343995.840,107.422,22.949,25.879,107.910,3.418,0
1583343995.844,114.258,22.949,28.809,115.234,27.344,0
1583343995.848,111.328,18.555,27.832,111.816,17.090,0
1583343995.852,114.746,20.508,27.832,112.793,62.988,0
1583343995.849,124.512,24.414,23.926,118.164,76.660,0
1583343995.853,127.930,22.461,20.508,119.629,-12.695,0
1583343995.857,126.953,21.484,20.508,120.605,0.977,0
1583343995.861,127.441,24.414,20.020,122.070,87.402,0
1583343995.865,128.906,23.926,20.020,123.047,64.941,0
1583343995.869,130.371,20.020,20.508,125.977,80.078,0
1583343995.873,127.930,20.020,20.996,121.094,72.754,0
1583343995.876,124.512,21.484,21.973,114.258,-20.996,0
1583343995.880,124.023,20.996,23.438,114.746,-46.875,0
1583343995.884,124.512,22.461,23.926,108.887,62.012,0
1583343995.888,126.465,24.902,19.531,110.840,44.922,0
1583343995.892,125.000,25.391,19.043,114.746,16.113,0
1583343995.890,125.488,24.414,21.973,114.258,42.480,0
1583343995.894,124.512,23.438,24.414,117.676,31.738,0
1583343995.898,120.605,23.438,23.438,117.676,60.547,0
1583343995.902,114.258,23.438,22.949,111.328,52.734,0
1583343995.906,110.840,25.879,25.391,104.980,24.414,0
1583343995.910,114.258,27.832,22.461,104.004,50.293,0
1583343995.914,112.793,27.344,23.438,102.539,29.785,0
1583343995.917,107.910,30.762,23.438,98.145,-7.812,0
1583343995.921,106.445,33.691,22.461,96.191,-0.977,0
1583343995.925,104.980,32.715,22.949,96.680,30.273,0
1583343995.929,102.051,30.273,21.484,95.703,-5.859,0
1583343995.933,97.168,30.273,22.949,90.820,-34.180,0
1583343995.949,89.844,31.250,26.855,82.520,49.316,0
1583343995.953,84.961,30.273,28.320,83.496,115.723,0
1583343995.957,85.938,32.715,27.832,83.984,59.082,0
1583343995.961,83.984,32.227,27.344,76.172,-10.254,0
1583343995.965,76.172,30.273,29.785,71.777,34.668,0
1583343995.969,71.289,30.762,31.738,69.336,78.613,0
1583343995.973,71.289,31.250,29.785,67.383,46.387,0
1583343995.976,68.359,31.250,27.832,63.965,29.785,0
1583343995.980,62.500,30.762,28.320,61.035,53.711,0
1583343995.984,61.523,32.227,29.297,59.082,72.266,0
1583343995.988,64.941,33.203,31.738,55.664,19.531,0
1583343995.992,64.941,32.715,32.227,51.270,-29.785,0
1583343995.989,58.105,29.297,31.738,52.734,-14.648,0
1583343995.993,49.805,28.809,32.227,53.223,60.059,0
1583343995.997,49.316,28.320,31.738,46.387,80.566,0
1583343996.001,52.246,27.832,28.320,42.480,71.289,0
1583343996.005,45.898,27.832,29.297,43.457,6.348,0
1583343996.009,37.109,26.367,30.273,41.992,-10.254,0
1583343996.013,42.480,24.902,28.809,47.363,39.551,0
1583343996.016,56.641,31.250,26.367,55.176,41.016,0
1583343996.020,55.664,39.062,22.461,44.922,-0.977,0
1583343996.024,43.945,40.527,18.555,23.926,-44.434,0
1583343996.028,36.621,40.039,12.207,12.207,10.254,0
1583343996.032,41.016,41.504,11.230,25.391,60.547,0
1583343996.049,49.805,41.016,15.137,36.621,4.395,0
1583343996.053,41.992,39.551,14.648,23.438,-14.648,0
1583343996.057,30.273,39.551,13.184,14.648,37.109,0
1583343996.061,35.156,41.504,15.625,19.531,44.922,0
1583343996.065,40.039,41.504,15.137,21.484,75.195,0
1583343996.069,39.062,38.086,11.230,26.855,50.293,0
1583343996.073,38.574,39.551,13.672,27.344,-18.555,0
1583343996.076,41.992,40.039,13.672,18.555,0.488,0
1583343996.080,45.410,37.109,10.742,27.344,17.090,0
1583343996.084,40.039,37.109,13.672,24.902,34.180,0
1583343996.088,35.645,37.598,17.578,17.578,51.758,0
1583343996.092,34.180,37.598,23.926,22.461,73.242,0
1583343996.089,36.133,35.156,26.367,22.949,44.922,0
1583343996.093,37.109,34.180,23.438,23.926,-46.387,0
1583343996.097,32.715,37.109,22.461,21.973,-11.719,0
1583343996.101,34.180,39.062,22.461,23.926,90.332,0
1583343996.105,39.551,39.551,22.949,27.832,110.352,0
1583343996.109,41.504,37.598,24.414,24.902,53.711,0
1583343996.113,39.062,37.598,24.902,28.320,27.344,0
1583343996.116,33.203,39.551,27.344,27.344,35.645,0
1583343996.120,33.691,39.551,24.414,23.438,26.855,0
1583343996.124,37.598,40.527,20.996,25.879,69.824,0
1583343996.128,37.598,41.016,21.484,18.555,57.129,0
1583343996.132,32.715,38.574,19.531,15.625,19.043,0
1583343996.129,32.715,38.574,24.414,27.832,13.672,0
1583343996.133,38.086,39.062,26.367,28.320,14.160,0
1583343996.137,35.645,40.039,26.855,21.973,34.668,0
1583343996.141,34.180,39.551,28.320,21.484,12.695,0
1583343996.145,39.062,39.062,27.344,26.855,36.133,0
1583343996.149,45.410,40.039,27.832,32.715,57.129,0
1583343996.153,46.387,40.527,25.879,34.668,34.668,0
1583343996.156,44.434,40.039,22.949,29.785,-26.855,0
1583343996.160,43.457,38.086,22.949,23.438,-6.348,0
1583343996.164,41.016,34.180,25.879,24.414,25.879,0
1583343996.168,39.062,33.691,27.344,24.414,52.246,0
1583343996.172,38.086,33.203,28.809,20.508,34.180,0
1583343996.209,37.109,32.715,28.320,17.090,23.438,0
1583343996.213,33.691,32.227,26.855,14.648,35.645,0
1583343996.217,31.250,32.715,25.879,19.043,-12.207,0
1583343996.221,28.809,32.715,24.414,19.043,25.391,0
1583343996.225,22.461,32.715,25.879,15.137,93.262,0
1583343996.229,21.484,32.715,25.879,12.207,88.867,0
1583343996.233,28.809,34.180,26.367,11.230,43.457,0
1583343996.236,28.809,33.691,28.809,11.719,25.879,0
1583343996.240,24.902,33.691,27.344,16.602,41.504,0
1583343996.244,24.902,34.180,28.320,15.137,57.129,0
1583343996.248,26.855,33.691,32.227,15.137,29.785,0
1583343996.252,25.391,32.715,31.738,20.996,32.227,0
1583343996.229,20.020,34.180,29.785,17.578,6.836,0
1583343996.233,20.020,34.668,27.344,17.090,-14.648,0
1583343996.237,25.391,33.691,31.250,20.996,32.227,0
1583343996.241,30.273,31.738,35.645,19.043,77.637,0
1583343996.245,28.809,31.738,34.668,19.531,70.801,0
1583343996.249,27.344,33.203,35.645,24.414,27.832,0
1583343996.253,28.320,33.203,36.133,24.414,40.527,0
1583343996.256,34.180,34.180,34.180,27.832,53.711,0
1583343996.260,36.133,35.156,36.621,23.438,39.551,0
1583343996.264,28.809,32.715,36.133,17.578,34.668,0
1583343996.268,30.762,32.715,33.691,25.879,29.785,0
1583343996.272,32.227,34.668,34.180,28.809,14.160,0
1583343996.269,30.273,34.180,37.109,24.902,53.223,0
1583343996.273,33.203,35.645,36.133,20.996,69.824,0
1583343996.277,30.762,35.156,32.715,20.996,52.246,0
1583343996.281,34.180,35.156,33.691,17.090,75.684,0
1583343996.285,40.527,35.156,33.691,12.695,76.660,0
1583343996.289,39.062,33.203,35.645,19.531,52.734,0
1583343996.293,36.133,33.691,38.574,19.531,9.766,0
1583343996.296,41.504,34.180,38.086,20.020,-5.371,0
1583343996.300,42.969,35.645,35.645,21.484,5.859,0
1583343996.304,40.039,35.645,34.668,17.090,-48.340,0
1583343996.308,35.645,33.691,35.645,25.391,-13.672,0
1583343996.312,29.785,33.203,35.156,30.762,43.945,0
1583343996.329,28.809,34.180,34.180,23.438,5.371,0
1583343996.333,28.809,34.180,32.715,20.508,-24.414,0
1583343996.337,25.391,33.203,35.156,19.043,12.695,0
1583343996.341,25.391,34.180,32.227,22.461,30.762,0
1583343996.345,28.809,36.133,29.785,26.367,29.297,0
1583343996.349,26.855,34.668,30.762,25.879,55.176,0
1583343996.353,25.391,35.156,32.227,25.391,29.297,0
1583343996.356,29.297,34.668,31.250,20.996,11.230,0
1583343996.360,29.785,32.227,27.832,20.508,24.414,0
1583343996.364,27.832,31.738,30.273,20.996,-27.344,0
1583343996.368,26.367,34.668,28.809,18.066,36.621,0
1583343996.372,30.273,34.668,27.344,20.996,95.703,0
1583343996.369,41.504,36.133,27.344,29.785,52.734,0
1583343996.373,41.504,33.203,30.273,37.598,48.828,0
1583343996.377,22.949,27.832,37.598,27.832,50.293,0
1583343996.381,14.160,27.344,37.109,15.137,42.969,0
1583343996.385,20.020,25.391,36.621,18.066,67.383,0
1583343996.389,25.879,25.879,37.109,15.625,19.531,0
1583343996.393,27.832,25.879,36.621,17.090,-32.715,0
1583343996.396,25.391,25.879,36.621,17.578,33.691,0
1583343996.400,24.902,27.832,35.645,17.090,56.641,0
1583343996.404,29.297,32.227,38.086,25.391,61.523,0
1583343996.408,35.645,34.668,38.574,24.902,-2.930,0
1583343996.412,35.645,35.645,36.621,28.320,19.043,0
1583343996.410,32.227,33.691,38.086,33.203,87.402,0
1583343996.414,33.203,32.227,37.598,32.715,33.691,0
1583343996.418,35.645,34.668,39.062,32.227,16.113,0
1583343996.422,28.809,33.203,38.574,24.414,62.500,0
1583343996.426,25.391,30.762,37.598,21.484,80.078,0
1583343996.430,27.832,32.227,38.086,25.879,68.848,0
1583343996.434,27.344,32.715,33.691,27.344,48.828,0
1583343996.437,24.902,32.715,33.203,25.879,22.461,0
1583343996.441,21.484,33.203,35.645,23.438,62.500,0
1583343996.445,23.926,33.691,36.621,21.484,20.508,0
1583343996.449,25.879,34.180,36.133,20.996,-15.137,0
1583343996.453,26.367,33.691,36.133,21.484,17.578,0
1583343996.469,25.879,33.203,36.621,27.344,43.457,0
1583343996.473,25.391,34.180,40.039,26.367,20.508,0
1583343996.477,31.738,36.133,37.598,24.902,48.828,0
1583343996.481,35.156,37.598,35.645,28.809,0.000,0
1583343996.485,30.762,33.203,37.598,27.832,-13.672,0
1583343996.489,28.809,32.715,35.645,26.855,58.105,0
1583343996.493,30.273,34.668,34.668,28.809,21.973,0
1583343996.496,30.762,33.691,32.715,28.809,78.613,0
1583343996.500,32.227,32.715,33.691,23.926,88.867,0
1583343996.504,33.691,33.691,33.691,25.391,-26.367,0
1583343996.508,33.691,33.691,32.227,28.320,5.371,0
1583343996.512,36.621,34.180,35.156,31.250,41.504,0
1583343996.509,37.109,35.156,35.645,31.250,54.199,0
1583343996.513,32.227,35.645,34.180,28.320,73.242,0
1583343996.517,30.762,34.180,34.180,30.273,42.480,0
1583343996.521,35.156,32.227,33.691,31.250,10.254,0
1583343996.525,36.133,34.668,30.762,32.715,33.691,0
1583343996.529,31.738,35.156,28.320,29.785,60.059,0
1583343996.533,29.297,34.180,27.832,22.949,35.156,0
1583343996.536,30.762,34.180,26.367,19.531,-11.230,0
1583343996.540,29.785,30.762,23.438,18.555,22.949,0
1583343996.544,22.949,30.273,24.902,22.461,79.102,0
1583343996.548,19.043,33.691,25.879,14.648,78.613,0
1583343996.552,21.484,34.180,20.996,10.254,47.363,0
1583343996.549,24.902,35.645,21.484,15.625,-13.672,0
1583343996.553,20.508,36.621,25.391,14.160,-11.719,0
1583343996.557,16.602,36.133,26.855,15.625,4.395,0
1583343996.561,24.902,35.156,28.320,19.531,21.973,0
1583343996.565,27.344,35.645,28.320,19.531,51.270,0
1583343996.569,25.391,35.645,31.250,20.020,32.227,0
1583343996.573,29.297,33.691,30.762,23.438,100.098,0
1583343996.576,28.320,32.227,26.855,24.414,74.219,0
1583343996.580,27.344,31.250,26.855,21.484,14.648,0
1583343996.584,30.762,29.297,31.250,24.414,20.508,0
1583343996.588,28.320,29.297,33.203,28.809,-37.598,0
1583343996.592,25.879,31.250,31.250,24.902,-41.016,0
1583343996.609,32.227,33.203,34.668,30.762,-20.508,0
1583343996.613,34.180,33.691,34.180,29.785,-23.438,0
1583343996.617,27.344,34.668,31.738,17.578,57.129,0
1583343996.621,23.926,35.156,31.738,18.066,44.922,0
1583343996.625,25.879,35.156,32.715,15.625,-39.551,0
1583343996.629,26.367,35.645,32.227,14.648,-36.621,0
1583343996.633,23.926,34.180,31.738,13.184,27.344,0
1583343996.636,23.926,34.180,33.203,17.578,41.016,0
1583343996.640,26.855,35.645,33.203,24.902,-34.668,0
1583343996.644,28.809,35.645,32.227,20.996,-5.859,0
1583343996.648,28.320,36.621,32.715,19.043,42.969,0
1583343996.652,23.438,36.621,33.203,16.602,43.945,0
1583343996.649,20.508,34.180,34.180,13.184,59.082,0
1583343996.653,20.996,33.203,33.691,16.113,30.762,0
1583343996.657,21.973,34.180,32.227,18.066,46.875,0
1583343996.661,20.020,35.156,32.715,21.973,47.363,0
1583343996.665,19.043,35.645,33.691,22.949,62.988,0
1583343996.669,21.973,34.180,31.738,18.555,86.914,0
1583343996.673,26.367,33.203,32.715,21.484,44.434,0
1583343996.676,24.414,35.156,33.203,20.996,22.949,0
1583343996.680,21.973,33.203,33.691,19.531,43.945,0
1583343996.684,25.879,32.227,35.156,18.555,38.086,0
1583343996.688,30.762,36.133,32.227,21.484,40.527,0
1583343996.692,33.203,35.645,27.832,27.344,53.223,0
1583343996.690,28.320,32.227,28.320,23.438,82.031,0
1583343996.694,30.762,32.715,30.762,26.855,79.102,0
1583343996.698,34.668,32.227,30.273,26.855,52.734,0
1583343996.702,26.367,30.273,30.762,19.531,32.227,0
1583343996.706,24.414,31.250,31.250,24.902,-6.348,0
1583343996.710,29.297,32.227,31.738,30.273,31.250,0
1583343996.714,30.273,32.227,32.227,29.785,38.086,0
1583343996.717,31.250,33.203,33.203,26.367,23.438,0
1583343996.721,26.367,30.762,30.762,12.207,2.930,0
1583343996.725,21.484,27.832,29.785,15.137,-23.438,0
1583343996.729,29.297,30.273,31.738,23.926,-7.812,0
1583343996.733,34.180,30.273,32.227,20.996,-12.207,0
1583343996.749,29.785,29.297,31.738,17.578,-3.418,0
1583343996.753,28.809,29.785,26.855,16.113,55.664,0
1583343996.757,32.715,31.250,23.926,22.949,86.914,0
1583343996.761,33.203,33.203,27.344,28.320,62.012,0
1583343996.765,31.250,33.691,28.320,29.785,19.043,0
1583343996.769,27.832,34.668,27.344,29.785,0.000,0
1583343996.773,25.391,34.180,27.344,20.996,9.766,0
1583343996.776,27.832,32.715,26.367,17.578,47.852,0
1583343996.780,35.645,36.621,26.855,24.414,49.316,0
1583343996.784,33.691,37.598,27.344,21.973,51.270,0
1583343996.788,28.809,35.645,25.391,24.414,67.383,0
1583343996.792,35.645,34.668,24.414,28.320,107.910,0
1583343996.790,36.133,32.715,27.832,30.273,77.637,0
1583343996.794,32.227,33.691,30.762,26.367,21.973,0
1583343996.798,29.785,36.133,30.762,22.949,11.230,0
1583343996.802,29.297,34.180,32.715,24.414,-15.625,0
1583343996.806,26.855,32.227,31.738,24.414,0.977,0
1583343996.810,21.973,32.227,27.832,20.020,4.395,0
1583343996.814,20.996,31.250,26.367,17.578,11.230,0
1583343996.817,20.996,28.809,26.367,20.508,66.406,0
1583343996.821,25.879,31.738,26.367,18.555,28.809,0
1583343996.825,30.762,35.156,29.297,18.555,-17.090,0
1583343996.829,29.785,33.203,35.156,16.113,7.812,0
1583343996.833,26.855,34.180,36.133,19.043,15.137,0
1583343996.829,30.273,36.133,30.273,24.414,33.691,0
1583343996.833,33.203,35.645,29.785,19.043,53.223,0
1583343996.837,27.832,35.645,34.180,19.043,8.789,0
1583343996.841,23.926,34.180,30.762,14.648,18.066,0
1583343996.845,23.926,32.227,29.785,11.719,39.551,0
1583343996.849,29.297,33.203,31.738,16.602,64.453,0
1583343996.853,31.250,35.645,32.715,14.160,73.730,0
1583343996.856,32.715,36.621,33.203,20.020,92.285,0
1583343996.860,33.691,37.598,33.691,16.602,45.898,0
1583343996.864,29.785,36.621,36.133,13.184,4.883,0
1583343996.868,23.438,34.668,36.133,19.043,31.738,0
1583343996.872,19.043,31.250,37.109,14.648,37.109,0
1583343996.889,22.461,30.273,39.062,13.184,5.371,0
1583343996.893,30.762,31.738,41.016,20.020,31.250,0
1583343996.897,31.250,31.738,45.898,23.438,94.238,0
1583343996.901,26.855,31.738,44.922,20.508,57.617,0
1583343996.905,26.855,31.738,40.527,23.438,11.719,0
1583343996.909,30.762,33.203,39.062,29.297,10.254,0
1583343996.913,31.738,33.691,36.133,31.738,47.852,0
1583343996.916,28.320,32.715,36.621,28.320,44.434,0
1583343996.920,30.762,30.762,36.621,19.043,-2.930,0
1583343996.924,34.180,31.738,34.180,18.066,-30.762,0
1583343996.928,33.203,34.668,33.691,26.855,56.641,0
1583343996.932,29.297,36.133,34.668,27.832,104.004,0
1583343996.929,26.855,36.133,34.668,26.855,-14.648,0
1583343996.933,30.762,34.180,35.156,27.344,3.906,0
1583343996.937,33.691,34.180,34.668,20.508,66.895,0
1583343996.941,27.832,33.691,32.715,17.090,57.617,0
1583343996.945,24.902,33.203,30.762,16.113,-3.418,0
1583343996.949,29.297,35.156,27.832,17.578,-2.930,0
1583343996.953,29.297,33.691,30.762,18.066,81.543,0
1583343996.956,28.809,26.367,36.621,21.973,36.621,0
1583343996.960,25.879,28.809,35.156,27.832,-40.039,0
1583343996.964,22.461,33.691,33.691,23.438,-15.625,0
1583343996.968,26.855,33.691,34.668,20.996,43.945,0
1583343996.972,32.227,35.645,35.645,21.973,78.613,0
1583343996.969,37.109,35.645,34.180,20.996,44.434,0
1583343996.973,41.992,35.156,32.227,27.344,18.555,0
1583343996.977,44.434,34.668,33.203,26.367,49.316,0
1583343996.981,42.969,31.738,33.691,24.414,49.316,0
1583343996.985,38.086,29.297,34.180,34.180,12.207,0
1583343996.989,32.227,31.250,34.668,37.598,12.207,0
1583343996.993,36.621,33.203,34.180,33.691,-17.090,0
1583343996.996,41.504,34.180,35.156,37.598,-3.418,0
1583343997.000,34.668,33.203,37.109,27.344,64.453,0
1583343997.004,27.832,31.250,37.109,20.996,60.547,0
1583343997.008,32.227,30.762,37.109,33.203,12.695,0
1583343997.012,42.969,34.180,34.668,42.969,8.301,0
1583343997.029,41.992,38.086,30.273,38.086,40.527,0
1583343997.033,28.809,37.109,29.785,32.715,21.973,0
1583343997.037,21.484,37.598,30.273,31.738,39.551,0
1583343997.041,23.926,36.621,32.227,31.738,75.684,0
1583343997.045,28.320,34.668,36.133,32.227,54.688,0
1583343997.049,25.879,36.621,37.598,26.855,-5.371,0
1583343997.053,22.949,37.598,38.574,21.973,4.883,0
1583343997.056,32.715,35.156,41.504,22.461,56.641,0
1583343997.060,39.062,36.133,41.016,30.273,46.875,0
1583343997.064,34.668,38.574,36.133,31.250,0.000,0
1583343997.068,31.738,37.109,34.180,26.855,24.902,0
1583343997.072,34.668,33.691,36.621,30.762,47.852,0
1583343997.069,37.598,33.691,38.086,38.574,52.734,0
1583343997.073,37.109,35.156,34.180,37.109,45.898,0
1583343997.077,34.668,33.203,32.227,26.855,54.199,0
1583343997.081,35.645,32.715,35.156,30.762,13.184,0
1583343997.085,41.504,33.203,36.133,38.574,-35.156,0
1583343997.089,46.387,31.738,34.668,34.668,5.859,0
1583343997.093,41.504,32.715,37.109,29.785,55.176,0
1583343997.096,33.203,35.156,36.133,31.738,85.938,0
1583343997.100,40.527,35.156,35.645,34.180,53.711,0
1583343997.104,46.387,35.645,38.086,29.785,32.227,0
1583343997.108,43.457,35.645,37.109,25.879,60.547,0
1583343997.112,40.527,33.203,36.133,30.762,55.176,0
1583343997.109,40.527,33.203,34.668,36.621,12.695,0
1583343997.113,41.992,37.109,35.645,37.598,3.906,0
1583343997.117,41.016,36.133,36.621,37.109,15.625,0
1583343997.121,37.598,35.156,36.133,33.203,27.832,0
1583343997.125,39.551,36.621,37.109,28.320,39.551,0
1583343997.129,44.922,36.133,39.062,28.320,27.344,0
1583343997.133,45.410,36.621,38.574,29.785,41.504,0
1583343997.136,44.434,38.574,38.086,33.691,51.270,0
1583343997.140,42.480,38.086,39.062,30.762,16.113,0
1583343997.144,39.062,36.621,36.621,35.156,51.758,0
1583343997.148,37.598,37.109,35.645,33.203,93.750,0
1583343997.152,34.180,35.645,35.156,21.973,50.781,0
1583343997.169,29.785,33.691,32.227,22.461,22.461,0
1583343997.173,31.250,35.645,32.227,23.926,43.945,0
1583343997.177,31.738,38.086,35.645,27.344,69.336,0
1583343997.181,25.879,37.109,36.133,30.273,50.781,0
1583343997.185,27.832,34.180,32.227,29.297,20.508,0
1583343997.189,26.367,30.762,33.203,24.414,52.246,0
1583343997.193,28.809,33.691,31.738,14.648,40.527,0
1583343997.196,30.273,36.621,29.785,20.020,23.926,0
1583343997.200,24.902,34.180,29.297,29.297,44.434,0
1583343997.204,27.832,29.297,29.297,28.320,42.969,0
1583343997.208,32.715,31.250,35.645,30.762,46.875,0
1583343997.212,34.668,35.156,39.062,25.879,31.250,0
1583343997.209,36.133,33.203,37.598,21.484,54.199,0
1583343997.213,36.621,33.691,36.621,31.250,25.391,0
1583343997.217,40.039,35.645,34.180,41.504,-30.762,0
1583343997.221,43.945,35.645,32.715,38.574,11.719,0
1583343997.225,39.551,34.180,31.738,33.203,54.688,0
1583343997.229,32.715,32.715,31.738,28.320,64.941,0
1583343997.233,29.297,33.203,35.645,25.879,68.359,0
1583343997.236,32.227,34.180,34.180,25.391,80.078,0
1583343997.240,32.227,33.691,31.250,27.832,67.871,0
1583343997.244,28.809,36.621,30.762,22.949,11.230,0
1583343997.248,29.785,40.039,30.762,20.996,-18.066,0
1583343997.252,31.250,41.016,31.250,20.996,47.852,0
1583343997.249,30.273,41.504,32.227,20.508,46.875,0
1583343997.253,29.785,41.016,31.738,25.879,13.184,0
1583343997.257,32.227,40.527,31.250,29.785,2.441,0
1583343997.261,33.203,38.574,31.250,31.250,4.395,0
1583343997.265,33.691,36.133,33.691,31.250,29.297,0
1583343997.269,33.203,36.133,38.086,33.203,-19.531,0
1583343997.273,30.273,35.645,40.039,34.180,17.090,0
1583343997.276,30.273,32.715,38.574,23.926,71.289,0
1583343997.280,34.668,31.250,37.109,20.020,12.207,0
1583343997.284,32.715,31.738,37.109,26.367,-6.836,0
1583343997.288,28.320,31.738,37.109,25.391,-12.207,0
1583343997.292,32.715,33.691,35.156,30.762,5.859,0
1583343997.309,40.527,35.156,33.203,29.297,46.387,0
1583343997.313,36.133,36.133,35.156,26.367,9.277,0
1583343997.317,29.297,36.133,35.645,30.273,9.277,0
1583343997.321,27.344,35.645,33.691,25.879,54.688,0
1583343997.325,26.855,35.645,34.180,28.320,44.922,0
1583343997.329,25.879,37.109,33.691,31.250,30.762,0
1583343997.333,22.461,38.574,32.227,17.578,29.785,0
1583343997.336,22.461,37.598,32.715,11.230,4.883,0
1583343997.340,28.809,37.109,36.133,16.602,22.461,0
1583343997.344,33.691,37.598,36.133,23.438,47.852,0
1583343997.348,24.902,37.109,30.273,17.578,-5.859,0
1583343997.352,24.902,34.668,25.391,13.672,40.527,0
1583343997.349,29.297,35.156,28.809,21.484,120.605,0
1583343997.353,26.367,36.133,32.227,21.484,97.656,0
1583343997.357,21.484,33.203,32.715,21.484,81.543,0
1583343997.361,16.602,32.227,36.621,22.461,80.078,0
1583343997.365,21.484,34.668,38.574,25.879,97.168,0
1583343997.369,29.785,36.133,38.086,29.785,68.848,0
1583343997.373,29.785,34.180,36.621,24.902,-5.859,0
1583343997.376,24.902,29.785,34.668,19.043,-22.461,0
1583343997.380,25.391,32.227,35.645,20.508,77.148,0
1583343997.384,28.809,36.621,36.133,21.484,165.039,0
1583343997.388,26.367,36.133,34.180,20.996,66.406,0
1583343997.392,25.391,36.621,32.715,25.879,-35.156,0
1583343997.389,26.367,38.574,29.785,28.320,30.273,0
1583343997.393,32.715,41.016,27.344,24.902,-1.953,0
1583343997.397,35.645,39.551,28.320,20.508,-19.043,0
1583343997.401,32.715,40.039,30.273,19.531,53.711,0
1583343997.405,30.273,41.992,29.785,17.090,19.043,0
1583343997.409,28.809,39.551,30.273,19.043,-11.719,0
1583343997.413,31.738,37.598,31.738,25.391,64.941,0
1583343997.416,32.227,39.062,33.691,19.531,67.871,0
1583343997.420,30.273,38.574,35.645,19.531,13.672,0
1583343997.424,32.715,35.156,34.180,25.879,41.016,0
1583343997.428,37.598,35.645,36.133,27.832,62.012,0
1583343997.432,39.062,36.621,37.598,31.738,57.617,0
1583343997.449,37.109,35.645,34.668,32.227,13.672,0
1583343997.453,35.645,35.156,35.156,28.809,24.902,0
1583343997.457,39.062,36.133,38.574,28.809,25.879,0
1583343997.461,43.945,37.598,39.062,31.250,-25.879,0
1583343997.465,42.480,36.133,37.109,28.320,-51.270,0
1583343997.469,44.434,34.668,35.156,27.344,-59.082,0
1583343997.473,48.828,37.598,36.621,32.227,-15.625,0
1583343997.476,44.434,37.109,36.133,32.227,47.363,0
1583343997.480,36.133,38.086,36.621,30.273,25.879,0
1583343997.484,34.180,38.574,38.086,36.133,-20.996,0
1583343997.488,34.180,37.598,37.598,35.156,4.883,0
1583343997.492,36.621,37.109,37.598,28.320,20.996,0
1583343997.489,35.645,38.086,36.133,27.344,21.973,0
1583343997.493,29.297,39.062,35.645,28.320,49.316,0
1583343997.497,34.668,40.039,35.156,29.297,68.359,0
1583343997.501,39.062,40.527,34.180,30.762,38.574,0
1583343997.505,31.250,38.086,35.156,31.738,80.566,0
1583343997.509,28.320,35.645,36.133,30.762,90.820,0
1583343997.513,32.227,35.645,34.180,29.785,47.852,0
1583343997.516,36.621,33.203,29.785,34.180,48.340,0
1583343997.520,37.109,29.297,28.320,35.156,64.941,0
1583343997.524,33.203,30.273,28.320,24.902,68.848,0
1583343997.528,34.180,33.691,29.297,30.762,26.367,0
1583343997.532,40.527,32.227,29.297,42.969,49.805,0
1583343997.529,46.875,33.203,29.297,43.457,54.688,0
1583343997.533,41.016,34.668,28.320,37.598,21.973,0
1583343997.537,35.645,34.180,27.832,36.133,-4.395,0
1583343997.541,36.621,33.691,29.297,36.133,-22.949,0
1583343997.545,35.156,32.227,29.297,35.645,-9.277,0
1583343997.549,35.156,33.691,28.809,32.715,49.805,0
1583343997.553,31.250,33.203,26.855,26.367,31.250,0
1583343997.556,29.785,32.715,26.855,20.996,12.695,0
1583343997.560,33.203,33.203,30.762,20.996,56.641,0
1583343997.564,32.227,33.691,34.180,23.438,53.223,0
1583343997.568,27.344,33.691,34.668,24.414,44.434,0
1583343997.572,24.414,34.180,33.203,23.438,47.363,0
1583343997.589,29.297,35.156,32.715,19.531,45.410,0
1583343997.593,30.762,36.133,34.668,20.996,41.992,0
1583343997.597,25.879,34.668,38.574,22.949,27.344,0
1583343997.601,25.879,33.691,41.504,24.414,11.230,0
1583343997.605,32.227,37.109,43.457,34.180,29.785,0
1583343997.609,34.180,36.133,41.992,35.645,46.875,0
1583343997.613,34.180,34.180,40.039,35.156,61.035,0
1583343997.616,31.250,34.180,39.551,37.109,53.223,0
1583343997.620,28.809,33.691,42.480,36.621,35.645,0
1583343997.624,33.691,34.180,43.457,36.621,4.395,0
1583343997.628,28.320,35.645,40.527,29.785,6.836,0
1583343997.632,22.949,34.180,41.016,32.227,15.137,0
1583343997.629,23.926,31.738,40.527,38.574,7.812,0
1583343997.633,31.250,31.738,42.969,35.156,55.664,0
1583343997.637,32.715,33.691,42.480,34.668,52.246,0
1583343997.641,25.879,34.180,39.551,34.180,39.551,0
1583343997.645,26.367,32.227,36.133,30.273,-0.488,0
1583343997.649,33.691,32.227,32.227,33.203,34.180,0
1583343997.653,34.668,35.156,32.715,35.645,24.414,0
1583343997.656,32.715,37.598,32.715,33.691,-43.945,0
1583343997.660,35.156,36.621,36.621,33.203,-5.371,0
1583343997.664,35.156,33.691,38.086,32.715,5.371,0
1583343997.668,33.691,34.668,35.645,29.785,21.484,0
1583343997.672,34.668,36.133,37.109,29.785,35.156,0
1583343997.689,34.180,36.133,37.598,33.203,-3.906,0
1583343997.693,29.785,37.598,38.574,31.738,0.977,0
1583343997.697,33.691,36.133,36.621,23.926,58.105,0
1583343997.701,36.621,35.156,32.715,21.484,108.887,0
1583343997.705,37.109,40.039,35.645,22.949,91.797,0
1583343997.709,44.922,41.992,38.086,29.297,33.691,0
1583343997.713,55.176,39.062,37.598,39.062,20.508,0
1583343997.716,41.992,35.645,41.016,26.367,21.484,0
1583343997.720,24.414,32.715,44.434,17.578,31.250,0
1583343997.724,22.949,33.691,44.434,24.414,8.301,0
1583343997.728,20.508,37.109,40.039,22.949,-5.859,0
1583343997.732,23.926,38.086,38.574,18.066,1.465,0
1583343997.728,21.973,37.109,41.992,17.090,50.293,0
1583343997.732,20.508,36.133,38.574,17.578,73.730,0
1583343997.736,24.902,36.133,32.715,21.484,91.797,0
1583343997.740,27.832,34.668,32.715,26.367,46.875,0
1583343997.744,26.367,36.133,35.156,25.391,11.719,0
1583343997.748,23.438,35.645,36.133,24.902,28.320,0
1583343997.752,26.855,31.738,37.598,29.297,85.938,0
1583343997.755,29.297,30.273,36.621,31.250,77.637,0
1583343997.759,22.949,29.297,34.180,31.738,9.766,0
1583343997.763,23.438,33.203,31.738,31.250,35.645,0
1583343997.767,29.785,35.156,32.227,24.902,38.574,0
1583343997.771,37.109,36.621,32.715,22.949,60.059,0
1583343997.768,41.992,37.598,29.785,27.344,94.238,0
1583343997.772,34.668,36.621,30.273,26.855,40.039,0
1583343997.776,28.809,36.621,28.320,25.879,-1.465,0
1583343997.780,32.227,36.621,27.832,31.738,22.461,0
1583343997.784,34.180,36.621,30.762,28.809,25.879,0
1583343997.788,33.691,37.109,34.668,25.391,24.902,0
1583343997.792,30.762,35.645,37.598,23.926,73.730,0
1583343997.795,27.344,30.762,40.039,22.461,77.148,0
1583343997.799,29.297,30.273,43.945,27.832,90.820,0
1583343997.803,26.367,32.715,43.945,24.414,60.059,0
1583343997.807,24.902,32.715,42.969,23.926,80.078,0
1583343997.811,24.414,34.180,41.016,29.785,77.148,0
1583343997.828,24.902,35.645,40.039,34.180,-22.461,0
1583343997.832,25.879,37.598,41.992,35.645,30.762,0
1583343997.836,23.438,36.133,42.480,29.785,80.566,0
1583343997.840,24.902,33.691,42.969,30.762,11.719,0
1583343997.844,32.227,33.203,45.410,30.762,11.719,0
1583343997.848,32.715,33.691,46.875,25.879,82.520,0
1583343997.852,26.367,33.691,44.922,22.461,73.242,0
1583343997.855,23.438,33.203,43.945,19.043,28.809,0
1583343997.859,27.832,35.645,38.086,20.508,12.207,0
1583343997.863,31.250,38.574,35.645,22.949,-11.719,0
1583343997.867,28.320,38.574,34.180,21.973,-31.250,0
1583343997.871,27.344,37.109,32.227,20.020,25.879,0
1583343997.868,31.250,36.133,33.691,18.066,19.043,0
1583343997.872,35.645,35.645,33.203,22.461,45.410,0
1583343997.876,36.133,36.133,30.273,23.438,89.355,0
1583343997.880,34.180,34.668,30.762,22.949,41.016,0
1583343997.884,30.273,36.133,35.645,23.926,-19.043,0
1583343997.888,30.762,38.574,35.645,22.461,-24.902,0
1583343997.892,35.645,38.086,33.691,24.414,22.949,0
1583343997.895,35.156,35.645,33.203,23.926,35.156,0
1583343997.899,31.738,35.645,33.203,28.809,11.230,0
1583343997.903,34.180,37.109,35.156,34.668,-9.277,0
1583343997.907,39.551,37.598,36.133,27.832,-4.395,0
1583343997.911,36.133,37.109,33.203,28.320,5.371,0
1583343997.909,28.809,36.621,30.273,30.273,8.301,0
1583343997.913,34.668,36.133,31.738,30.762,13.184,0
1583343997.917,38.574,37.109,34.180,34.180,85.938,0
1583343997.921,35.645,40.039,32.227,27.344,79.590,0
1583343997.925,33.691,40.039,28.809,21.484,16.602,0
1583343997.929,32.227,39.062,34.668,24.414,-21.973,0
1583343997.933,37.109,38.086,34.180,23.926,-36.133,0
1583343997.936,38.086,36.621,28.320,27.344,28.809,0
1583343997.940,32.227,33.691,32.227,22.461,69.336,0
1583343997.944,30.273,31.250,34.180,16.113,61.523,0
1583343997.948,39.062,32.227,30.762,26.855,90.332,0
1583343997.952,38.086,37.598,30.762,26.855,94.238,0
1583343997.969,34.180,40.039,31.250,25.391,44.922,0
1583343997.973,37.598,40.039,31.738,29.297,24.414,0
1583343997.977,35.156,38.574,34.180,30.762,28.320,0
1583343997.981,33.203,37.598,33.203,33.691,71.289,0
1583343997.985,34.668,38.086,33.203,33.691,45.898,0
1583343997.989,35.156,36.621,37.109,29.785,8.301,0
1583343997.993,35.645,35.156,37.109,26.855,38.574,0
1583343997.996,35.645,35.156,35.645,26.367,15.137,0
1583343998.000,35.645,36.133,35.645,25.879,-1.465,0
1583343998.004,36.133,39.551,38.086,26.367,33.203,0
1583343998.008,33.203,39.062,37.109,25.879,34.668,0
1583343998.012,34.668,35.645,37.109,24.902,49.316,0
1583343998.009,36.621,35.645,37.109,22.461,54.688,0
1583343998.013,31.738,34.668,34.668,21.973,22.461,0
1583343998.017,30.762,31.738,36.133,21.973,78.613,0
1583343998.021,31.738,30.273,38.086,23.926,56.152,0
1583343998.025,33.691,33.203,40.527,27.344,28.809,0
1583343998.029,31.250,35.156,41.992,24.414,85.449,0
1583343998.033,29.785,34.180,40.527,23.438,21.973,0
1583343998.036,29.297,33.203,38.574,24.414,-21.973,0
1583343998.040,30.273,32.227,38.086,25.879,-4.883,0
1583343998.044,28.320,34.180,37.598,26.855,-9.277,0
1583343998.048,27.344,35.156,37.598,17.578,24.902,0
1583343998.052,28.809,34.668,37.598,19.531,33.691,0
1583343998.049,27.344,33.691,35.645,23.438,28.320,0
1583343998.053,22.949,31.250,35.645,24.414,-7.812,0
1583343998.057,19.531,31.738,36.621,25.391,-17.578,0
1583343998.061,19.531,33.691,37.109,19.531,3.906,0
1583343998.065,20.508,33.203,37.598,18.555,55.664,0
1583343998.069,20.508,32.715,36.621,20.020,85.449,0
1583343998.073,20.508,33.203,36.621,22.949,68.359,0
1583343998.076,24.414,34.180,38.086,27.832,20.996,0
1583343998.080,30.273,35.645,39.062,27.832,-9.766,0
1583343998.084,35.156,35.156,37.598,26.855,20.508,0
1583343998.088,32.227,34.668,36.133,20.996,65.918,0
1583343998.092,29.297,32.715,34.668,21.484,91.309,0
1583343998.109,40.039,29.785,34.180,34.180,50.293,0
1583343998.113,48.828,32.227,35.156,34.180,51.758,0
1583343998.117,37.598,36.133,31.738,23.438,34.180,0
1583343998.121,24.902,36.621,30.273,17.578,23.438,0
1583343998.125,28.320,36.621,32.227,15.137,65.430,0
1583343998.129,25.391,34.668,34.668,14.648,114.258,0
1583343998.133,17.578,33.203,36.621,12.207,58.105,0
1583343998.136,19.043,33.691,34.180,5.371,25.391,0
1583343998.140,25.391,34.180,33.691,10.742,69.336,0
1583343998.144,32.227,32.715,31.250,20.508,40.527,0
1583343998.148,31.738,31.738,27.832,20.020,-23.438,0
1583343998.152,23.926,31.738,26.367,23.438,3.418,0
1583343998.150,22.949,32.715,22.461,23.438,77.637,0
1583343998.154,28.320,33.203,20.508,21.484,7.812,0
1583343998.158,31.250,34.668,20.508,24.414,10.254,0
1583343998.162,29.785,34.180,17.090,22.461,37.109,0
1583343998.166,28.809,32.227,18.066,23.438,48.828,0
1583343998.170,30.762,30.762,23.438,24.414,101.074,0
1583343998.174,33.691,29.785,24.902,28.320,75.195,0
1583343998.177,31.738,30.762,23.438,24.414,17.090,0
1583343998.181,28.809,32.715,22.949,22.949,9.766,0
1583343998.185,31.250,34.668,25.391,26.367,14.160,0
1583343998.189,30.273,35.156,27.832,20.996,-0.977,0
1583343998.193,29.297,33.203,27.344,22.461,6.836,0
1583343998.189,28.809,33.691,26.367,25.391,34.668,0
1583343998.193,25.879,34.180,23.438,22.461,60.059,0
1583343998.197,29.297,36.621,25.391,23.438,52.246,0
1583343998.201,29.297,37.109,27.344,20.020,44.922,0
1583343998.205,23.438,34.180,26.367,20.020,41.992,0
1583343998.209,22.949,36.621,23.438,27.344,36.133,0
1583343998.213,27.344,36.133,21.973,32.715,19.043,0
1583343998.216,32.227,34.668,22.461,28.809,3.906,0
1583343998.220,25.879,38.086,21.484,22.949,-4.883,0
1583343998.224,22.461,38.574,21.484,22.949,-5.371,0
1583343998.228,26.855,35.156,23.926,30.273,-2.930,0
1583343998.232,30.273,33.691,22.461,33.691,40.527,0
1583343998.249,28.809,32.715,21.973,29.297,109.863,0
1583343998.253,26.367,32.227,23.926,28.320,109.375,0
1583343998.257,30.273,32.715,23.926,28.320,84.961,0
1583343998.261,33.691,32.715,25.391,29.297,48.340,0
1583343998.265,31.738,30.273,30.273,28.809,92.773,0
1583343998.269,28.809,29.785,29.297,28.320,72.266,0
1583343998.273,30.273,32.715,29.297,25.391,47.852,0
1583343998.276,32.715,34.668,27.344,20.508,43.457,0
1583343998.280,31.250,33.203,22.461,25.879,37.598,0
1583343998.284,29.297,33.691,22.949,25.879,39.062,0
1583343998.288,30.273,33.691,20.020,18.066,26.855,0
1583343998.292,32.227,33.691,19.531,18.066,13.672,0
1583343998.289,30.273,32.227,24.414,22.461,-15.625,0
1583343998.293,30.762,34.180,26.367,20.020,-20.996,0
1583343998.297,30.273,36.621,25.879,18.555,-28.320,0
1583343998.301,27.832,34.668,26.367,20.996,34.180,0
1583343998.305,30.273,36.133,27.832,21.973,18.555,0
1583343998.309,32.227,38.574,26.367,22.461,0.977,0
1583343998.313,27.832,38.086,30.762,21.973,11.719,0
1583343998.316,24.414,37.598,33.691,24.902,17.090,0
1583343998.320,29.785,38.574,33.691,28.809,22.949,0
1583343998.324,31.250,39.551,40.039,28.809,-51.758,0
1583343998.328,28.320,35.645,43.457,21.484,-0.488,0
1583343998.332,29.785,40.039,42.969,19.043,85.449,0
1583343998.329,35.156,43.457,44.434,21.484,36.133,0
1583343998.333,37.109,41.504,46.387,25.391,-3.418,0
1583343998.337,35.156,41.016,42.969,25.879,38.086,0
1583343998.341,34.668,38.574,41.016,21.973,36.621,0
1583343998.345,34.180,37.598,45.410,24.902,28.320,0
1583343998.349,32.715,36.133,47.852,30.762,42.480,0
1583343998.353,32.227,33.203,47.852,31.738,31.738,0
1583343998.356,31.250,32.715,46.387,25.879,81.543,0
1583343998.360,31.738,33.691,45.410,20.020,54.688,0
1583343998.364,34.668,34.180,48.340,23.438,4.395,0
1583343998.368,35.156,35.156,49.316,28.320,5.371,0
1583343998.372,33.203,34.668,47.363,28.320,21.484,0
1583343998.389,37.598,33.203,47.363,31.738,81.543,0
1583343998.393,41.992,36.133,44.922,30.273,100.098,0
1583343998.397,38.574,38.574,42.969,25.391,26.367,0
1583343998.401,31.738,37.598,42.969,26.367,25.879,0
1583343998.405,27.832,34.668,42.480,24.414,60.547,0
1583343998.409,31.250,33.691,43.945,25.879,46.875,0
1583343998.413,30.273,35.645,41.992,23.926,21.484,0
1583343998.416,25.879,36.133,37.109,19.531,31.738,0
1583343998.420,22.949,34.668,37.598,20.996,45.410,0
1583343998.424,25.391,34.668,36.621,21.973,31.250,0
1583343998.428,32.715,37.109,37.109,23.438,73.242,0
1583343998.432,36.621,37.598,38.574,24.414,13.184,0
1583343998.429,34.180,38.574,39.551,23.926,-33.203,0
1583343998.433,32.715,39.551,39.551,24.414,5.371,0
1583343998.437,36.133,40.527,36.133,25.879,15.625,0
1583343998.441,34.668,41.504,35.156,23.438,23.438,0
1583343998.445,32.227,41.016,36.133,23.926,35.156,0
1583343998.449,35.645,40.527,36.621,29.297,0.977,0
1583343998.453,36.133,37.598,36.133,27.344,-9.277,0
1583343998.456,35.156,37.109,37.109,24.902,64.941,0
1583343998.460,37.598,39.062,37.598,31.738,62.500,0
1583343998.464,36.621,39.062,39.551,29.785,1.465,0
1583343998.468,36.133,37.109,39.551,27.344,-21.973,0
1583343998.472,38.086,36.621,38.574,28.809,-46.875,0
1583343998.469,31.738,37.598,37.598,31.250,-6.348,0
1583343998.473,24.902,36.133,34.668,28.809,23.926,0
1583343998.477,24.902,35.156,33.203,28.320,64.941,0
1583343998.481,28.809,33.691,35.645,29.785,78.125,0
1583343998.485,26.367,30.762,36.621,29.297,55.176,0
1583343998.489,22.461,30.273,36.621,30.762,39.062,0
1583343998.493,20.996,28.320,33.203,24.902,59.082,0
1583343998.496,24.902,29.785,33.691,23.438,24.902,0
1583343998.500,29.297,30.273,38.086,25.391,-22.949,0
1583343998.504,26.367,28.809,35.645,27.344,3.906,0
1583343998.508,27.344,34.668,34.180,33.691,-13.672,0
1583343998.512,35.645,36.133,34.180,39.062,-5.371,0
1583343998.529,38.086,35.156,33.691,39.551,-1.953,0
1583343998.533,37.109,36.621,34.180,38.574,6.348,0
1583343998.537,35.645,37.109,32.227,36.133,63.477,0
1583343998.541,32.227,35.156,31.738,33.691,68.359,0
1583343998.545,38.574,36.133,32.227,33.691,41.016,0
1583343998.549,43.457,39.551,32.227,33.691,22.949,0
1583343998.553,41.016,36.133,32.227,34.180,16.602,0
1583343998.556,36.133,32.227,36.133,30.762,49.805,0
1583343998.560,23.438,28.809,38.574,19.531,108.398,0
1583343998.564,23.926,28.320,35.156,20.020,92.773,0
1583343998.568,26.855,31.738,33.691,23.926,50.781,0
1583343998.572,25.879,34.180,35.156,16.113,77.637,0
1583343998.569,28.809,35.156,34.668,11.230,118.164,0
1583343998.573,34.180,37.598,33.203,11.719,79.590,0
1583343998.577,39.062,38.086,29.297,11.719,45.410,0
1583343998.581,40.527,39.551,26.855,17.090,51.270,0
1583343998.585,38.086,39.551,30.762,24.902,37.598,0
1583343998.589,36.133,37.598,34.668,21.973,40.039,0
1583343998.593,31.738,37.109,32.715,16.602,32.227,0
1583343998.596,28.809,38.574,33.203,21.484,59.570,0
1583343998.600,37.109,39.551,35.156,23.438,64.941,0
1583343998.604,41.016,38.086,36.621,17.578,41.504,0
1583343998.608,35.645,36.621,39.062,20.020,29.785,0
1583343998.612,35.645,36.133,38.086,26.855,6.348,0
1583343998.609,33.691,36.621,34.180,26.367,14.648,0
1583343998.613,35.156,37.109,31.250,29.297,73.242,0
1583343998.617,32.715,38.086,28.809,28.809,88.379,0
1583343998.621,25.391,36.621,32.715,24.902,68.359,0
1583343998.625,22.461,34.668,37.598,23.926,25.879,0
1583343998.629,20.996,32.715,35.156,21.973,-20.508,0
1583343998.633,21.973,32.227,35.156,20.996,27.832,0
1583343998.636,17.090,32.715,36.621,18.555,23.438,0
1583343998.640,14.648,34.668,33.691,14.160,-17.090,0
1583343998.644,20.996,34.180,33.203,20.020,-7.324,0
1583343998.648,25.391,32.227,35.156,23.926,20.996,0
1583343998.652,21.973,31.738,35.645,22.461,68.359,0
1583343998.669,21.973,31.738,33.203,23.438,7.812,0
1583343998.673,25.391,32.227,33.203,29.297,-28.809,0
1583343998.677,30.762,32.715,33.691,29.297,-16.113,0
1583343998.681,32.715,35.645,34.180,29.785,-2.441,0
1583343998.685,31.250,39.062,33.203,34.668,47.852,0
1583343998.689,33.691,38.574,29.297,35.645,30.762,0
1583343998.693,38.086,37.598,30.273,33.691,35.156,0
1583343998.696,37.109,38.086,35.156,38.086,38.086,0
1583343998.700,32.227,40.039,36.621,35.156,-16.602,0
1583343998.704,33.691,35.645,36.133,29.297,7.324,0
1583343998.708,36.621,33.691,36.621,32.715,46.387,0
1583343998.712,33.691,37.109,33.203,27.344,39.062,0
1583343998.709,27.344,36.621,28.809,18.555,29.785,0
1583343998.713,26.367,35.645,26.367,20.508,14.648,0
1583343998.717,26.855,36.133,25.879,23.438,41.992,0
1583343998.721,27.344,36.621,24.414,20.508,48.828,0
1583343998.725,24.902,36.133,22.461,17.090,22.949,0
1583343998.729,20.508,34.668,20.996,19.531,70.312,0
1583343998.733,25.391,34.668,21.973,24.902,41.504,0
1583343998.736,25.391,34.180,25.391,24.902,-11.719,0
1583343998.740,21.484,35.156,25.879,27.344,47.363,0
1583343998.744,18.555,34.668,25.391,29.297,56.641,0
1583343998.748,18.066,33.691,24.902,24.902,-10.742,0
1583343998.752,24.414,31.738,24.414,32.227,-9.277,0
1583343998.748,28.320,30.762,24.902,35.645,9.766,0
1583343998.752,27.832,30.762,23.438,27.832,-4.395,0
1583343998.756,30.273,30.762,21.484,23.438,-38.086,0
1583343998.760,31.738,32.715,23.926,23.926,-2.441,0
1583343998.764,30.273,30.273,20.996,19.531,35.156,0
1583343998.768,25.879,30.273,20.020,13.184,36.133,0
1583343998.772,23.926,33.203,24.414,13.184,49.805,0
1583343998.775,28.320,34.668,23.438,9.277,25.391,0
1583343998.779,28.809,33.691,20.996,10.742,0.000,0
1583343998.783,28.809,33.691,21.973,20.020,47.852,0
1583343998.787,27.832,35.156,22.949,17.090,57.129,0
1583343998.791,26.367,33.691,22.949,20.508,39.062,0
1583343998.808,32.227,33.203,25.879,27.832,62.012,1
1583343998.812,32.715,36.621,28.320,24.902,41.016,0
1583343998.816,28.809,37.598,25.879,20.508,42.480,0
1583343998.820,31.250,33.691,27.832,21.973,78.125,0
1583343998.824,36.621,34.180,32.715,30.762,73.730,0
1583343998.828,36.621,36.621,31.738,32.227,42.969,0
1583343998.832,27.832,33.203,29.785,19.043,41.016,0
1583343998.835,23.926,30.762,31.738,18.555,55.664,0
1583343998.839,31.250,31.738,30.762,25.391,67.383,0
1583343998.843,32.227,32.227,27.832,21.973,18.555,0
1583343998.847,25.879,32.715,27.832,20.508,13.184,0
1583343998.851,22.949,31.738,29.297,21.973,11.230,0
1583343998.848,26.855,30.273,30.762,27.832,0.488,0
1583343998.852,28.809,31.738,30.273,30.273,79.590,0
1583343998.856,27.344,33.203,29.297,28.809,56.641,0
1583343998.860,25.391,29.297,30.273,27.832,24.902,0
1583343998.864,26.367,25.879,29.785,27.832,54.688,0
1583343998.868,25.391,26.855,32.227,30.273,84.961,0
1583343998.872,21.973,24.414,35.156,25.879,63.477,0
1583343998.875,20.020,24.902,31.250,21.484,18.066,0
1583343998.879,22.461,29.785,30.273,21.484,76.172,0
1583343998.883,23.438,30.273,34.180,19.531,58.594,0
1583343998.887,25.879,28.809,34.180,27.344,50.293,0
1583343998.891,25.391,29.297,34.668,29.297,71.289,0
1583343998.889,24.414,29.785,36.133,24.414,40.527,0
1583343998.893,32.227,29.297,38.574,32.715,0.000,0
1583343998.897,39.551,28.320,38.086,40.039,-67.383,0
1583343998.901,39.062,33.203,31.738,36.133,-6.836,0
1583343998.905,31.738,36.621,25.879,26.855,31.250,0
1583343998.909,29.785,35.645,25.879,23.926,-17.090,0
1583343998.913,23.926,34.668,26.855,22.461,24.902,0
1583343998.916,17.578,31.250,25.391,17.578,70.312,0
1583343998.920,20.020,31.738,23.438,16.602,25.879,0
1583343998.924,22.949,34.668,20.996,20.020,-27.344,0
1583343998.928,22.461,34.668,18.066,25.391,22.461,0
1583343998.932,25.879,33.691,20.508,25.391,60.547,0
1583343998.948,26.855,34.180,25.879,21.484,85.449,0
1583343998.952,26.367,35.645,26.855,25.391,91.309,0
1583343998.956,32.227,36.621,25.391,26.367,86.914,0
1583343998.960,33.691,37.109,28.320,26.855,58.594,0
1583343998.964,29.785,37.598,29.785,28.809,10.254,0
1583343998.968,29.785,39.062,30.762,24.414,28.809,0
1583343998.972,31.738,35.156,33.203,20.996,68.848,0
1583343998.975,33.691,31.250,31.738,20.996,46.387,0
1583343998.979,33.203,32.715,30.762,22.461,-5.859,0
1583343998.983,29.785,34.668,31.250,24.902,0.977,0
1583343998.987,30.273,35.645,32.715,26.367,-13.184,0
1583343998.991,35.645,34.668,30.762,29.785,42.969,0
1583343998.989,36.621,35.156,30.273,32.715,81.055,0
1583343998.993,31.738,29.785,32.227,27.832,40.527,0
1583343998.997,31.738,28.809,31.738,25.391,8.789,0
1583343999.001,39.551,32.715,33.203,26.367,24.414,0
1583343999.005,36.621,30.762,34.668,25.391,18.555,0
1583343999.009,33.691,31.250,34.668,26.855,9.277,0
1583343999.013,36.133,33.691,34.668,30.762,9.277,0
1583343999.016,38.086,34.180,33.203,28.320,-25.391,0
1583343999.020,38.574,33.203,32.227,23.926,-12.695,0
1583343999.024,32.227,34.180,33.691,21.484,7.324,0
1583343999.028,24.414,34.668,35.156,20.020,30.273,0
1583343999.032,25.391,35.156,31.738,21.973,77.637,0
1583343999.029,28.320,34.180,29.785,25.391,46.387,0
1583343999.033,23.438,33.691,28.320,20.996,6.348,0
1583343999.037,21.973,33.203,26.367,12.695,16.602,0
1583343999.041,30.273,34.668,31.250,17.090,72.754,0
1583343999.045,30.762,36.621,33.691,24.414,51.758,0
1583343999.049,25.879,36.133,31.738,23.926,-22.949,0
1583343999.053,24.902,34.180,29.297,16.602,-25.879,0
1583343999.056,24.414,33.203,27.832,16.113,5.859,0
1583343999.060,28.320,35.156,27.344,20.996,54.199,0
1583343999.064,33.203,36.133,27.832,24.902,32.715,0
1583343999.068,30.273,34.668,28.809,23.926,5.371,0
1583343999.072,27.832,32.715,28.809,24.414,11.230,0
1583343999.089,29.785,32.715,29.297,23.438,55.664,0
1583343999.093,28.809,32.715,29.785,24.414,29.785,0
1583343999.097,29.297,32.227,30.762,30.273,24.902,0
1583343999.101,32.227,32.715,32.715,33.203,61.523,0
1583343999.105,35.156,32.715,35.645,37.598,49.316,0
1583343999.109,37.598,32.227,35.645,40.527,31.250,0
1583343999.113,39.551,32.227,31.250,38.574,40.527,0
1583343999.116,37.598,31.738,32.227,37.598,80.078,0
1583343999.120,39.551,34.180,34.180,37.109,54.688,0
1583343999.124,44.434,34.668,32.715,35.645,29.785,0
1583343999.128,39.062,32.715,33.203,33.203,18.555,0
1583343999.132,34.180,33.203,33.203,27.344,36.621,0
1583343999.129,40.039,33.203,31.250,30.273,76.660,0
1583343999.133,44.434,33.203,31.250,32.715,41.992,0
1583343999.137,43.945,34.180,32.715,35.156,18.066,0
1583343999.141,38.086,34.180,31.738,31.738,49.805,0
1583343999.145,35.156,35.156,28.809,25.879,17.090,0
1583343999.149,40.527,38.086,27.344,30.273,17.578,0
1583343999.153,42.480,38.086,25.391,35.156,62.500,0
1583343999.156,36.621,37.109,26.855,34.180,35.156,0
1583343999.160,34.180,34.668,32.227,24.902,52.246,0
1583343999.164,35.156,34.180,35.156,18.555,83.008,0
1583343999.168,35.645,35.156,35.156,22.461,21.973,0
1583343999.172,30.273,33.691,35.156,20.508,-18.555,0
1583343999.189,26.367,30.762,37.598,19.531,-6.836,0
1583343999.193,31.250,30.762,41.016,22.461,27.344,0
1583343999.197,33.203,35.156,41.016,26.367,44.922,0
1583343999.201,30.762,36.621,42.480,33.691,-9.766,0
1583343999.205,27.344,37.598,40.039,33.203,-24.414,0
1583343999.209,23.926,37.598,35.156,30.273,4.395,0
1583343999.213,27.832,34.668,39.062,35.645,69.336,0
1583343999.216,30.762,32.715,40.039,34.180,71.289,0
1583343999.220,27.344,31.738,37.598,31.250,18.066,0
1583343999.224,26.855,31.738,39.551,34.668,28.809,0
1583343999.228,29.785,32.715,41.504,41.016,53.711,0
1583343999.232,33.691,32.715,41.504,40.527,25.879,0
1583343999.249,33.691,32.715,41.504,33.203,25.879,0
1583343999.253,31.250,33.203,36.621,29.297,24.414,0
1583343999.257,30.762,32.715,34.668,30.273,41.504,0
1583343999.261,35.645,34.180,37.109,32.715,66.406,0
1583343999.265,34.668,35.156,34.180,28.320,62.012,0
1583343999.269,32.227,38.086,28.320,24.414,58.105,0
1583343999.273,34.668,38.086,28.320,28.809,43.945,0
1583343999.276,34.668,35.156,28.320,24.414,52.246,0
1583343999.280,33.203,34.668,26.855,20.996,-4.883,0
1583343999.284,31.250,35.156,26.367,21.484,-33.691,0
1583343999.288,35.645,37.109,27.344,19.043,-2.930,0
1583343999.292,38.086,36.621,28.809,24.902,7.324,0
1583343999.269,32.715,37.109,28.320,20.020,42.480,0
1583343999.273,30.273,39.551,25.879,15.625,82.031,0
1583343999.277,30.273,40.039,27.344,21.484,49.316,0
1583343999.281,30.762,39.062,29.297,17.578,-9.766,0
1583343999.285,35.156,37.598,28.320,17.578,17.090,0
1583343999.289,29.785,35.645,27.344,17.090,8.789,0
1583343999.293,23.926,34.180,29.297,16.113,-0.488,0
1583343999.296,31.738,34.180,32.715,21.973,47.363,0
1583343999.300,32.715,33.203,34.668,25.879,47.363,0
1583343999.304,27.832,31.250,31.738,25.391,19.043,0
1583343999.308,23.926,30.762,27.344,26.855,0.488,0
1583343999.312,23.926,30.273,28.320,25.879,15.137,0
1583343999.329,28.809,29.297,31.250,26.367,95.215,0
1583343999.333,29.297,28.320,33.203,27.832,71.777,0
1583343999.337,25.879,30.273,33.203,19.531,50.781,0
1583343999.341,23.438,32.715,32.227,20.996,36.621,0
1583343999.345,25.391,31.250,33.203,26.855,52.246,0
1583343999.349,31.738,31.738,34.180,33.203,79.590,0
1583343999.353,36.621,37.598,32.715,32.227,36.621,0
1583343999.356,29.297,39.062,27.832,17.090,11.230,0
1583343999.360,24.902,36.133,26.367,15.137,-17.090,0
1583343999.364,24.902,36.133,31.738,20.020,-2.930,0
1583343999.368,22.461,37.598,34.180,19.043,3.906,0
1583343999.372,19.531,40.039,35.645,16.113,31.738,0
1583343999.369,20.996,38.574,41.016,12.695,27.344,0
1583343999.373,28.320,38.086,43.945,13.184,-6.348,0
1583343999.377,27.344,39.551,45.410,15.137,33.691,0
1583343999.381,24.902,36.621,48.340,16.113,57.617,0
1583343999.385,23.926,37.598,50.293,16.113,29.785,0
1583343999.389,26.367,40.039,50.781,20.508,32.227,0
1583343999.393,29.785,37.109,49.316,20.996,119.629,0
1583343999.396,25.879,37.109,51.270,18.066,88.867,0
1583343999.400,24.414,36.621,51.270,18.066,56.152,0
1583343999.404,28.320,37.109,49.316,26.367,85.449,0
1583343999.408,26.855,38.574,48.340,20.996,39.062,0
1583343999.412,25.391,36.621,48.340,16.602,3.418,0
1583343999.409,25.391,34.180,45.410,21.973,-4.883,0
1583343999.413,24.414,37.109,42.969,21.484,11.230,0
1583343999.417,25.879,36.621,46.387,24.414,21.484,0
1583343999.421,26.367,33.203,47.852,27.832,-7.324,0
1583343999.425,25.879,32.715,46.875,25.391,-15.137,0
1583343999.429,26.367,33.203,48.828,26.367,0.977,0
1583343999.433,30.762,32.715,49.316,27.344,34.668,0
1583343999.436,33.691,33.203,49.316,24.902,63.477,0
1583343999.440,31.738,36.133,49.805,21.973,30.273,0
1583343999.444,29.297,37.109,47.363,25.391,35.645,0
1583343999.448,34.180,39.551,41.992,33.203,9.277,0
1583343999.452,38.086,40.527,38.574,29.785,33.203,0
1583343999.469,37.598,40.039,39.551,31.738,30.273,0
1583343999.473,39.062,42.969,39.062,32.227,-18.066,0
1583343999.477,38.574,41.992,40.039,30.273,12.695,0
1583343999.481,40.527,40.039,41.016,34.668,10.742,0
1583343999.485,39.551,40.039,36.621,30.273,2.930,0
1583343999.489,34.668,38.086,32.715,28.320,8.301,0
1583343999.493,33.691,35.645,33.203,29.297,13.184,0
1583343999.496,36.133,35.156,34.668,22.949,40.527,0
1583343999.500,36.621,38.086,36.133,25.391,50.293,0
1583343999.504,35.645,38.574,39.551,26.367,29.297,0
1583343999.508,32.715,37.598,38.574,23.926,28.809,0
1583343999.512,32.715,36.621,29.785,22.461,36.621,0
1583343999.509,30.273,36.133,25.391,21.973,44.922,0
1583343999.513,24.902,35.645,23.438,21.484,70.312,0
1583343999.517,23.438,35.645,18.555,21.973,49.805,0
1583343999.521,28.809,34.180,20.020,26.367,57.617,0
1583343999.525,31.738,31.738,22.461,30.273,43.457,0
1583343999.529,27.344,29.785,22.949,29.785,34.180,0
1583343999.533,27.344,29.785,20.996,24.414,94.238,0
1583343999.536,33.203,30.762,21.484,25.391,63.965,0
1583343999.540,37.598,31.250,23.438,28.809,32.227,0
1583343999.544,33.691,33.203,22.461,28.320,34.668,0
1583343999.548,29.785,35.156,21.973,25.391,31.738,0
1583343999.552,33.691,36.621,22.949,25.391,86.914,0
1583343999.569,36.133,35.645,20.996,25.391,53.223,0
1583343999.573,34.180,34.668,20.020,23.926,22.461,0
1583343999.577,30.762,32.227,18.555,20.020,76.660,0
1583343999.581,29.785,34.180,18.555,19.043,60.547,0
1583343999.585,34.180,36.133,22.949,20.508,23.926,0
1583343999.589,31.738,33.203,25.391,20.020,61.035,0
1583343999.593,25.879,32.227,26.367,26.855,20.020,0
1583343999.596,26.367,34.668,28.809,32.715,-20.020,0
1583343999.600,28.320,31.738,27.832,17.578,-1.465,0
1583343999.604,30.273,28.809,24.902,13.672,-10.254,0
1583343999.608,26.855,32.227,23.926,21.484,-4.883,0
1583343999.612,21.973,31.250,25.391,15.625,5.371,0
1583343999.609,25.879,31.738,25.879,17.578,8.301,0
1583343999.613,32.227,34.180,25.879,23.926,24.414,0
1583343999.617,28.320,32.715,25.879,20.020,55.176,0
1583343999.621,24.902,33.203,26.855,23.926,76.660,0
1583343999.625,26.855,34.180,28.320,28.320,30.273,0
1583343999.629,29.297,34.180,27.832,26.367,14.648,0
1583343999.633,32.227,33.203,30.762,27.832,22.461,0
1583343999.636,30.762,33.203,31.250,23.926,53.223,0
1583343999.640,29.785,33.691,33.203,20.996,54.199,0
1583343999.644,36.621,33.691,34.668,21.484,-30.762,0
1583343999.648,40.527,34.668,31.250,26.367,-2.930,0
1583343999.652,37.109,31.738,34.668,25.391,62.988,0
1583343999.649,32.227,31.738,36.133,17.578,38.574,0
1583343999.653,31.250,35.156,34.180,21.484,14.160,0
1583343999.657,31.738,32.715,36.621,24.902,-9.766,0
1583343999.661,29.297,32.227,37.109,24.414,-21.484,0
1583343999.665,26.367,37.598,37.598,28.320,12.207,0
1583343999.669,28.320,38.086,38.086,27.832,70.801,0
1583343999.673,29.785,35.645,38.086,25.391,85.938,0
1583343999.676,32.227,38.086,38.574,28.809,82.520,0
1583343999.680,33.691,41.016,38.574,28.320,53.223,0
1583343999.684,30.273,40.039,36.133,20.996,78.125,0
1583343999.688,30.762,40.527,36.133,14.648,52.246,0
1583343999.692,31.250,40.527,40.039,19.043,-12.207,0
1583343999.689,26.367,38.574,41.504,23.438,46.875,0
1583343999.693,29.785,40.039,38.086,24.902,87.891,0
1583343999.697,33.691,40.039,37.598,26.367,68.848,0
1583343999.701,34.180,39.551,37.109,28.320,66.406,0
1583343999.705,30.273,38.574,38.574,28.809,55.176,0
1583343999.709,24.902,37.109,41.504,29.785,16.113,0
1583343999.713,28.809,38.574,41.504,31.738,-5.859,0
1583343999.716,30.273,39.062,40.527,27.344,40.527,0
1583343999.720,23.926,35.645,40.039,20.020,121.582,0
1583343999.724,21.973,32.227,41.016,19.531,50.293,0
1583343999.728,26.367,32.715,41.504,21.973,23.926,0
1583343999.732,27.832,33.691,41.016,21.484,87.402,0
1583343999.749,26.367,34.180,41.992,23.438,58.594,0
1583343999.753,22.461,33.203,41.504,18.555,56.152,0
1583343999.757,20.020,32.227,39.062,15.137,50.293,0
1583343999.761,24.902,31.738,36.133,18.555,11.230,0
1583343999.765,24.414,28.809,34.668,19.531,24.902,0
1583343999.769,21.973,30.762,35.156,19.531,0.488,0
1583343999.773,23.926,33.203,36.133,16.602,-15.625,0
1583343999.776,24.414,31.738,34.180,13.184,20.996,0
1583343999.780,25.879,29.297,33.691,19.043,46.387,0
1583343999.784,28.809,29.297,33.203,21.973,56.641,0
1583343999.788,29.297,29.297,35.156,22.461,29.785,0
1583343999.792,29.785,28.320,39.062,25.391,8.301,0
1583343999.789,32.227,31.738,37.109,27.832,23.926,0
1583343999.793,33.691,33.203,36.133,31.250,15.625,0
1583343999.797,34.180,32.715,37.109,33.203,10.254,0
1583343999.801,34.668,33.691,37.109,33.691,64.941,0
1583343999.805,39.062,38.086,39.062,34.180,38.574,0
1583343999.809,40.039,41.504,39.062,32.715,35.645,0
1583343999.813,33.691,40.039,36.621,27.832,59.082,0
1583343999.816,36.133,39.551,34.668,25.391,53.711,0
1583343999.820,43.945,40.527,33.203,27.344,42.480,0
1583343999.824,44.434,38.574,32.715,20.020,78.613,0
1583343999.828,39.551,38.086,30.762,12.207,120.117,0
1583343999.832,39.062,38.574,29.297,20.996,80.078,0
1583343999.830,46.387,39.062,31.250,27.344,22.461,0
1583343999.834,48.828,38.086,31.250,26.855,1.465,0
1583343999.838,43.457,37.109,30.762,24.414,-2.930,0
1583343999.842,37.598,38.574,29.785,24.414,5.371,0
1583343999.846,39.551,37.109,29.297,26.855,56.152,0
1583343999.850,38.086,35.645,32.715,24.414,74.219,0
1583343999.854,32.715,37.598,36.621,22.949,49.805,0
1583343999.857,32.227,40.039,36.621,25.391,86.426,0
1583343999.861,33.691,37.109,34.180,25.879,137.207,0
1583343999.865,33.691,34.180,36.621,27.832,27.832,0
1583343999.869,34.180,35.645,38.574,27.344,0.977,0
1583343999.873,32.715,33.691,33.691,25.879,35.156,0
1583343999.889,32.715,31.250,29.297,25.879,61.035,0
1583343999.893,36.621,32.227,29.297,27.832,40.039,0
1583343999.897,38.086,29.785,32.227,36.133,21.973,0
1583343999.901,37.598,29.297,33.691,37.598,58.594,0
1583343999.905,41.016,34.668,32.227,33.203,59.570,0
1583343999.909,45.410,38.086,35.156,35.156,45.410,0
1583343999.913,44.434,37.598,38.574,33.203,28.320,0
1583343999.916,43.457,36.621,36.621,28.809,-1.465,0
1583343999.920,38.574,37.109,34.180,34.180,-10.254,0
1583343999.924,36.621,37.109,33.691,37.598,1.465,0
1583343999.928,46.387,35.645,33.203,36.133,-0.488,0
1583343999.932,42.969,35.156,34.180,33.203,43.945,0
1583343999.930,38.086,36.621,30.762,30.762,62.012,0
1583343999.934,38.574,35.156,27.832,26.855,64.453,0
1583343999.938,35.645,34.180,30.273,27.832,40.039,0
1583343999.942,30.762,35.156,31.738,24.902,87.891,0
1583343999.946,28.320,35.156,34.180,21.973,66.895,0
1583343999.950,22.461,34.668,35.645,20.996,0.488,0
1583343999.954,26.855,35.645,32.227,25.879,6.836,0
1583343999.957,31.738,35.156,29.785,31.738,24.414,0
1583343999.961,28.809,33.691,32.227,26.855,28.320,0
1583343999.965,32.227,32.715,36.621,27.832,25.879,0
1583343999.969,34.668,32.227,35.156,31.738,22.949,0
1583343999.973,36.621,32.715,34.180,36.621,-20.020,3
1583343999.989,35.645,32.227,34.668,37.598,32.715,0
1583343999.993,31.738,31.250,36.133,35.645,55.664,0
1583343999.997,29.785,32.715,36.133,34.180,0.977,0
1583344000.001,29.785,33.203,36.133,36.133,26.855,0
1583344000.005,30.762,30.273,37.109,39.062,41.992,0
1583344000.009,29.785,28.809,38.086,38.574,-9.766,0
1583344000.013,31.738,29.785,39.062,35.156,15.137,0
1583344000.016,34.668,30.273,38.086,32.227,-21.973,0
1583344000.020,35.645,29.785,36.621,24.902,4.395,0
1583344000.024,38.574,31.738,35.645,23.438,26.855,0
1583344000.028,39.551,35.645,36.621,31.250,26.367,0
1583344000.032,35.645,38.086,35.156,28.809,27.344,0
1583344000.028,36.133,36.621,35.645,23.438,9.277,0
1583344000.032,37.109,35.156,39.062,23.926,14.160,0
1583344000.036,33.691,34.668,39.062,21.484,10.742,0
1583344000.040,33.691,35.156,38.086,21.484,-22.949,0
1583344000.044,35.645,38.574,37.598,19.043,28.809,0
1583344000.048,32.227,38.574,38.574,19.531,42.480,0
1583344000.052,28.809,36.133,40.039,20.020,9.766,0
1583344000.055,30.273,36.621,38.574,20.508,12.695,0
1583344000.059,30.273,36.621,35.645,23.438,4.395,0
1583344000.063,31.738,35.156,36.621,26.855,46.875,0
1583344000.067,29.785,36.133,40.527,27.832,6.836,0
1583344000.071,25.391,33.203,42.480,22.461,-33.203,0
1583344000.068,30.273,32.227,40.527,27.344,33.203,0
1583344000.072,32.715,32.715,39.551,35.156,20.996,0
1583344000.076,28.809,32.227,39.062,32.715,2.441,0
1583344000.080,28.809,32.715,37.109,36.133,42.969,0
1583344000.084,31.738,34.180,38.086,38.086,15.137,0
1583344000.088,35.645,34.668,38.574,39.551,11.230,0
1583344000.092,34.180,35.645,34.180,38.086,38.086,0
1583344000.095,30.273,36.621,32.227,30.762,29.297,0
1583344000.099,31.738,36.621,32.715,27.832,14.648,0
1583344000.103,35.156,38.086,33.691,25.391,21.973,0
1583344000.107,37.109,35.645,29.297,19.531,44.922,0
1583344000.111,30.762,35.156,26.367,13.672,50.781,0
1583344000.108,27.832,36.133,28.320,15.625,40.527,0
1583344000.112,32.715,34.668,26.855,20.996,20.020,0
1583344000.116,31.250,35.645,27.344,17.090,58.105,0
1583344000.120,25.879,33.203,28.320,12.695,64.941,0
1583344000.124,27.344,32.715,30.762,18.555,40.527,0
1583344000.128,36.133,36.133,29.785,21.484,24.414,0
1583344000.132,36.133,33.691,29.785,24.414,-14.160,0
1583344000.135,32.715,33.691,32.227,24.414,58.105,0
1583344000.139,32.715,35.645,31.738,17.090,105.957,0
1583344000.143,31.738,34.668,31.250,23.926,106.934,0
1583344000.147,36.621,33.691,32.715,31.250,88.867,0
1583344000.151,37.109,34.668,34.180,28.809,25.391,0
1583344000.169,29.785,34.668,33.203,23.926,9.277,0
1583344000.173,33.691,35.645,33.691,24.414,-0.488,0
1583344000.177,36.621,32.227,35.645,30.762,24.414,0
1583344000.181,30.762,30.273,35.156,25.879,57.617,0
1583344000.185,26.367,32.715,34.668,21.484,42.969,0
1583344000.189,24.902,35.645,35.645,23.926,30.273,0
1583344000.193,24.414,32.227,38.574,19.531,31.738,0
1583344000.196,23.438,27.344,38.574,17.578,37.598,0
1583344000.200,22.461,29.297,35.156,21.484,1.953,0
1583344000.204,21.973,30.762,35.156,24.414,-6.836,0
1583344000.208,23.926,28.809,39.062,29.297,17.578,0
1583344000.212,24.414,30.762,41.016,29.297,11.230,0
1583344000.210,25.391,31.250,40.527,25.391,15.625,0
1583344000.214,26.367,31.250,40.527,30.273,28.809,0
1583344000.218,25.391,32.715,40.039,34.668,1.465,0
1583344000.222,31.250,33.691,40.039,29.785,44.434,0
1583344000.226,37.109,34.180,38.086,27.344,96.191,0
1583344000.230,35.156,31.250,35.645,27.832,63.965,0
1583344000.234,41.016,34.180,33.691,28.320,61.035,0
1583344000.237,48.340,35.156,30.762,32.227,63.965,0
1583344000.241,41.016,35.156,31.250,32.715,13.672,0
1583344000.245,32.227,36.621,31.738,25.879,2.930,0
1583344000.249,31.738,35.156,33.691,22.461,34.668,0
1583344000.253,37.109,33.691,34.180,25.391,34.180,0
1583344000.249,39.062,36.621,33.691,25.391,30.762,0
1583344000.253,34.180,39.062,35.645,23.438,26.855,0
1583344000.257,31.738,39.062,35.156,26.855,36.621,0
1583344000.261,28.809,39.062,32.715,24.902,60.059,0
1583344000.265,26.855,39.062,33.691,20.508,99.609,0
1583344000.269,32.715,36.133,35.645,20.020,100.586,0
1583344000.273,33.691,36.133,35.645,25.879,77.148,0
1583344000.276,37.109,37.109,35.645,27.344,41.504,0
1583344000.280,40.039,37.109,35.156,25.391,61.035,0
1583344000.284,33.203,35.156,34.180,31.250,30.762,0
1583344000.288,34.180,34.180,33.203,33.691,-88.379,0
1583344000.292,40.527,35.645,36.133,33.203,-53.223,0
1583344000.309,42.480,37.109,39.062,36.621,79.590,0
1583344000.313,41.992,37.598,36.621,37.109,75.684,0
1583344000.317,36.621,37.109,34.180,33.203,16.602,0
1583344000.321,36.133,36.621,35.156,32.227,39.551,0
1583344000.325,39.551,36.621,35.156,31.250,15.137,0
1583344000.329,38.574,37.598,33.203,29.785,-2.441,0
1583344000.333,38.086,37.109,34.668,24.902,74.707,0
1583344000.336,37.598,36.133,34.668,24.414,62.988,0
1583344000.340,37.109,38.086,29.297,23.438,12.695,0
1583344000.344,38.574,36.133,29.297,23.438,88.867,0
1583344000.348,30.273,31.250,36.133,21.484,87.402,0
1583344000.352,20.020,31.250,37.109,14.160,38.574,0
1583344000.349,23.438,31.250,37.109,20.996,22.949,0
1583344000.353,32.715,31.738,40.527,29.785,22.461,0
1583344000.357,33.691,34.180,39.551,32.715,55.176,0
1583344000.361,31.738,35.645,40.527,32.227,66.406,0
1583344000.365,32.715,35.156,40.039,29.785,39.062,0
1583344000.369,37.598,34.668,38.086,33.691,8.789,0
1583344000.373,37.109,33.203,38.086,34.668,2.441,0
1583344000.376,33.691,32.227,35.645,31.738,22.949,0
1583344000.380,35.645,35.156,34.668,33.203,41.016,0
1583344000.384,37.598,36.621,35.645,25.391,49.316,0
1583344000.388,41.016,36.133,36.133,26.367,27.344,0
1583344000.392,41.016,36.133,34.668,28.320,-10.742,0
1583344000.389,35.645,35.645,33.203,20.020,24.414,0
1583344000.393,36.133,36.133,34.668,22.949,43.457,0
1583344000.397,39.062,38.086,33.691,22.461,28.320,0
1583344000.401,32.715,36.133,35.156,20.508,65.918,0
1583344000.405,26.855,35.156,36.621,24.414,18.066,0
1583344000.409,26.367,35.645,36.133,23.926,15.625,0
1583344000.413,27.832,33.203,35.645,24.902,29.785,0
1583344000.416,26.367,35.156,33.203,16.602,-12.695,0
1583344000.420,18.555,37.109,32.715,9.277,59.570,0
1583344000.424,21.484,34.180,32.715,14.648,71.289,0
1583344000.428,30.273,32.227,31.250,19.531,48.828,0
1583344000.432,26.367,31.738,30.762,20.508,52.246,0
1583344000.449,25.391,32.227,33.691,16.113,79.102,0
1583344000.453,26.367,30.762,36.621,17.090,65.430,0
1583344000.457,27.344,28.809,32.715,20.508,73.242,0
1583344000.461,32.715,31.738,31.250,23.926,61.523,0
1583344000.465,28.809,35.156,36.621,23.438,54.199,0
1583344000.469,27.832,36.133,39.062,19.531,97.656,0
1583344000.473,32.227,37.109,39.062,23.438,41.992,0
1583344000.476,34.668,36.133,36.621,29.785,-20.996,0
1583344000.480,34.180,36.621,33.203,29.297,-25.879,0
1583344000.484,29.297,38.086,34.180,33.691,13.672,0
1583344000.488,29.785,41.504,35.645,28.809,22.949,0
1583344000.492,33.691,43.457,35.645,26.855,6.348,0
1583344000.489,31.250,40.039,37.598,35.645,28.809,0
1583344000.493,26.855,39.551,41.504,30.762,22.461,0
1583344000.497,29.297,38.574,41.992,26.367,17.578,0
1583344000.501,32.715,36.621,38.086,32.715,88.379,0
1583344000.505,27.832,35.645,39.062,35.645,91.309,0
1583344000.509,24.414,33.691,42.969,28.320,14.160,0
1583344000.513,23.926,32.227,41.504,24.414,-14.648,0
1583344000.516,22.949,30.762,39.062,23.926,34.180,0
1583344000.520,21.484,30.762,36.621,19.531,62.988,0
1583344000.524,18.066,33.203,33.691,10.742,29.785,0
1583344000.528,16.602,32.227,33.691,12.695,64.453,0
1583344000.532,21.484,29.785,33.691,20.020,101.562,0
1583344000.530,25.391,32.227,32.715,23.926,68.359,0
1583344000.534,24.902,32.715,34.668,24.902,4.883,0
1583344000.538,19.043,32.715,33.203,24.414,5.859,0
1583344000.542,23.926,34.180,32.227,25.391,55.176,0
1583344000.546,31.738,34.180,36.133,26.367,41.016,0
1583344000.550,28.809,31.250,34.668,29.297,45.410,0
1583344000.554,24.902,30.273,32.715,29.297,25.879,0
1583344000.557,23.438,32.715,34.180,22.461,-9.766,0
1583344000.561,26.855,34.668,32.227,21.973,16.602,0
1583344000.565,30.273,34.180,31.738,27.344,65.430,0
1583344000.569,27.344,35.156,34.180,28.320,24.902,0
1583344000.573,27.344,31.738,34.180,25.391,-3.906,0
1583344000.589,32.715,31.738,35.156,25.391,24.902,0
1583344000.593,36.621,34.180,35.156,30.762,3.418,0
1583344000.597,36.621,32.715,35.156,34.180,13.672,0
1583344000.601,35.156,32.227,35.645,36.133,-17.090,0
1583344000.605,35.645,31.250,34.180,33.203,15.137,0
1583344000.609,37.109,31.250,29.785,32.227,32.715,0
1583344000.613,35.645,33.203,30.762,32.227,16.602,0
1583344000.616,28.320,34.180,30.273,22.949,35.156,0
1583344000.620,27.344,37.109,28.320,21.484,74.707,0
1583344000.624,30.762,36.133,29.785,25.391,106.445,0
1583344000.628,30.273,34.180,32.715,23.926,54.199,0
1583344000.632,26.855,36.133,31.250,17.090,22.949,0
1583344000.629,28.320,36.621,29.785,19.531,38.086,0
1583344000.633,37.598,36.133,31.250,22.949,25.879,0
1583344000.637,44.922,36.621,31.250,20.020,45.898,0
1583344000.641,43.945,37.109,32.227,19.531,-4.883,0
1583344000.645,43.945,35.645,32.715,20.996,-46.875,0
1583344000.649,43.457,34.180,29.297,24.414,-18.066,0
1583344000.653,34.180,34.180,27.344,28.320,15.137,0
1583344000.656,29.297,32.715,26.367,26.367,72.754,0
1583344000.660,27.832,34.180,31.738,24.414,41.504,0
1583344000.664,25.391,34.668,37.109,25.391,4.395,0
1583344000.668,28.809,33.203,35.156,29.297,25.879,0
1583344000.672,30.273,33.203,35.645,32.715,7.324,0
1583344000.689,30.273,36.133,36.621,32.227,0.977,0
