timestamps,TP9,AF7,AF8,TP10,Right AUX,Marker0
1583421915.134,83.008,21.973,49.805,66.406,46.875,0
1583421915.138,82.031,24.902,50.293,68.359,26.855,0
1583421915.142,87.891,27.832,39.551,72.266,-26.367,0
1583421915.146,90.332,30.273,34.668,72.754,-23.926,0
1583421915.150,85.938,29.297,34.180,74.219,46.387,0
1583421915.154,78.125,25.879,36.133,74.707,68.848,0
1583421915.158,69.824,23.438,40.039,65.430,91.797,0
1583421915.161,63.965,23.926,36.621,56.152,69.824,0
1583421915.165,54.199,26.855,35.156,47.363,28.320,0
1583421915.169,52.246,27.344,37.109,48.340,36.133,0
1583421915.173,53.711,25.879,28.320,54.199,35.156,0
1583421915.177,49.805,23.926,21.484,53.711,23.438,0
1583421915.175,51.270,25.391,16.602,56.641,26.855,0
1583421915.179,53.223,24.414,13.672,58.594,13.672,0
1583421915.183,52.734,24.414,40.527,54.199,2.930,0
1583421915.187,53.711,25.879,56.152,47.852,10.254,0
1583421915.191,50.781,25.879,49.316,47.363,11.719,0
1583421915.195,50.293,25.879,43.945,46.875,35.156,0
1583421915.199,48.340,24.902,38.086,41.016,31.738,0
1583421915.202,43.457,25.879,34.668,39.062,21.973,0
1583421915.206,39.551,26.855,34.180,33.203,57.617,0
1583421915.210,35.645,26.367,37.598,26.855,37.109,0
1583421915.214,38.574,25.879,33.691,32.227,-24.414,0
1583421915.218,37.598,26.855,28.809,33.691,-13.184,0
1583421915.234,40.039,29.785,39.551,35.645,22.461,0
1583421915.238,40.039,30.762,39.551,34.180,-34.180,0
1583421915.242,35.645,30.273,37.598,32.227,-35.645,0
1583421915.246,34.180,29.297,35.645,35.645,4.395,0
1583421915.250,36.133,29.297,34.668,34.668,-10.254,0
1583421915.254,37.109,29.297,37.598,32.715,20.996,0
1583421915.258,31.738,26.367,35.645,28.320,54.688,0
1583421915.261,29.297,26.855,39.062,26.367,40.039,0
1583421915.265,36.621,29.785,36.621,29.785,24.414,0
1583421915.269,36.621,23.926,31.738,27.344,-14.160,0
1583421915.273,34.180,26.855,21.484,27.344,68.848,0
1583421915.277,40.039,35.156,29.785,29.297,55.176,0
1583421915.275,34.668,34.668,36.621,24.414,-7.324,0
1583421915.279,24.902,33.203,36.133,20.020,39.062,0
1583421915.283,22.461,33.691,40.527,19.531,46.875,0
1583421915.287,28.809,33.691,37.109,19.531,35.156,0
1583421915.291,32.227,34.180,32.715,20.996,16.113,0
1583421915.295,28.809,34.668,34.180,20.020,-0.977,0
1583421915.299,28.809,26.855,33.203,17.090,33.691,0
1583421915.302,30.762,25.391,24.902,20.508,19.531,0
1583421915.306,34.180,30.273,23.926,27.344,-8.301,0
1583421915.310,36.133,26.855,33.691,23.926,10.742,0
1583421915.314,35.645,31.250,36.133,20.020,10.254,0
1583421915.318,34.668,38.086,32.715,22.461,20.996,0
1583421915.314,37.598,37.598,34.180,23.926,11.230,0
1583421915.318,41.504,36.621,28.320,26.367,5.859,0
1583421915.322,44.922,37.109,13.672,32.227,68.848,0
1583421915.326,39.062,36.621,29.297,28.809,23.926,0
1583421915.330,32.715,36.621,46.875,24.902,-19.043,0
1583421915.334,34.668,38.086,41.016,27.344,46.875,0
1583421915.338,32.715,32.715,40.527,24.902,60.547,0
1583421915.341,35.156,32.715,36.133,25.391,77.637,0
1583421915.345,37.109,38.086,25.879,28.809,131.348,0
1583421915.349,29.785,38.086,27.832,31.250,120.117,0
1583421915.353,25.391,41.016,29.297,33.203,90.332,0
1583421915.357,26.367,39.551,22.461,30.762,42.480,0
1583421915.374,25.391,36.133,31.250,28.809,-9.277,0
1583421915.378,25.879,35.645,37.109,28.320,2.441,0
1583421915.382,28.320,35.645,37.598,27.344,62.988,0
1583421915.386,26.367,37.598,36.621,26.855,67.871,0
1583421915.390,27.832,38.574,33.691,23.438,34.668,0
1583421915.394,29.785,38.574,32.715,22.461,4.883,0
1583421915.398,33.203,41.016,25.391,22.461,21.973,0
1583421915.401,36.621,41.504,26.855,19.043,47.363,0
1583421915.405,34.180,38.574,33.691,18.555,67.383,0
1583421915.409,32.715,34.668,33.203,20.508,57.129,0
1583421915.413,36.133,37.109,31.738,24.414,-5.371,0
1583421915.417,34.668,39.551,27.832,21.484,-6.836,0
1583421915.414,29.785,40.039,27.832,15.137,39.551,0
1583421915.418,29.785,39.551,26.367,13.184,67.871,0
1583421915.422,27.832,38.086,27.832,15.137,13.184,0
1583421915.426,26.367,37.109,33.691,19.531,13.184,0
1583421915.430,22.949,36.133,33.691,18.555,28.320,0
1583421915.434,20.508,36.133,31.738,18.066,54.688,0
1583421915.438,17.090,33.691,29.785,16.113,120.605,0
1583421915.441,18.066,31.250,30.762,18.555,40.039,0
1583421915.445,19.043,32.715,32.715,20.020,32.715,0
1583421915.449,20.020,39.062,34.668,17.578,38.086,0
1583421915.453,20.020,31.250,34.668,19.531,-18.555,0
1583421915.457,28.320,26.367,34.180,32.227,33.203,0
1583421915.454,34.180,41.992,31.250,31.250,45.410,0
1583421915.458,15.625,46.875,28.320,10.742,14.648,0
1583421915.462,12.207,46.875,26.855,8.789,24.414,0
1583421915.466,15.625,45.410,23.926,9.766,82.031,0
1583421915.470,13.672,46.387,27.344,4.395,69.336,0
1583421915.474,23.926,52.734,23.926,7.324,20.996,0
1583421915.478,24.902,48.340,14.648,7.812,31.250,0
1583421915.481,26.367,49.316,16.113,10.254,41.992,0
1583421915.485,29.785,55.664,14.160,7.812,6.836,0
1583421915.489,26.855,55.176,11.719,3.906,13.672,0
1583421915.493,27.832,55.664,11.719,6.836,60.547,0
1583421915.497,28.809,52.734,9.277,4.883,31.250,0
1583421915.515,30.762,53.223,9.766,7.324,52.734,0
1583421915.519,27.832,57.129,9.277,7.324,113.770,0
1583421915.523,23.926,55.664,7.324,5.859,20.020,0
1583421915.527,21.973,54.199,5.371,10.742,2.930,0
1583421915.531,20.020,52.246,6.836,11.230,54.688,0
1583421915.535,28.809,51.758,12.695,14.648,37.598,0
1583421915.539,30.762,52.246,14.648,16.113,12.695,0
1583421915.542,27.344,47.363,12.207,13.672,8.301,0
1583421915.546,32.227,42.969,15.625,15.625,2.930,0
1583421915.550,33.691,41.992,17.578,20.508,17.578,0
1583421915.554,30.273,40.527,14.648,22.949,52.734,0
1583421915.558,32.715,41.504,17.090,23.438,36.133,0
1583421915.554,33.691,41.992,17.578,25.391,60.547,0
1583421915.558,35.645,39.551,12.695,23.926,62.988,0
1583421915.562,37.598,41.992,15.137,21.973,69.824,0
1583421915.566,39.062,43.945,21.973,24.414,94.238,0
1583421915.570,40.039,42.480,22.461,28.320,81.543,0
1583421915.574,37.109,41.992,20.508,30.273,9.277,0
1583421915.578,37.109,40.527,22.461,32.227,-11.719,0
1583421915.581,39.551,41.992,24.902,33.203,32.715,0
1583421915.585,40.527,43.457,26.367,34.668,41.016,0
1583421915.589,37.598,44.922,28.809,38.086,50.293,0
1583421915.593,35.645,40.527,27.832,37.598,32.227,0
1583421915.597,35.645,37.598,25.879,34.180,8.789,0
1583421915.594,36.133,33.691,26.367,32.227,13.184,0
1583421915.598,33.691,33.203,26.367,31.250,25.879,0
1583421915.602,34.668,41.016,22.949,27.832,36.621,0
1583421915.606,36.133,43.457,22.461,26.367,84.473,0
1583421915.610,34.668,41.992,23.438,29.297,20.020,0
1583421915.614,39.551,41.992,27.832,32.715,-24.414,0
1583421915.618,42.969,41.992,30.273,37.109,-8.789,0
1583421915.621,45.410,41.504,29.297,35.645,-16.113,0
1583421915.625,45.410,38.574,30.762,37.598,-0.488,0
1583421915.629,41.992,36.133,29.785,40.527,1.465,0
1583421915.633,37.109,39.551,29.785,37.598,-9.277,0
1583421915.637,37.598,37.109,28.809,37.598,-34.668,0
1583421915.654,37.598,33.691,27.832,34.180,24.902,0
1583421915.658,34.668,39.551,29.785,33.203,56.152,0
1583421915.662,36.133,42.480,19.043,36.133,41.992,0
1583421915.666,38.574,41.504,12.207,31.738,48.340,0
1583421915.670,38.086,37.109,27.344,28.809,52.734,0
1583421915.674,36.133,38.574,36.621,33.691,77.148,0
1583421915.678,36.621,40.039,34.180,30.762,94.238,0
1583421915.681,35.645,36.621,32.227,26.367,58.105,0
1583421915.685,30.762,33.203,29.785,27.344,32.227,0
1583421915.689,27.832,27.832,26.367,27.832,114.258,0
1583421915.693,34.668,31.738,29.785,32.715,112.305,0
1583421915.697,36.621,36.621,32.715,34.668,63.477,0
1583421915.695,35.156,37.109,23.926,33.691,69.824,0
1583421915.699,36.133,39.551,21.484,37.109,32.715,0
1583421915.703,32.715,35.156,28.809,39.062,-2.930,0
1583421915.707,27.832,30.762,35.156,37.109,-8.301,0
1583421915.711,24.414,34.180,34.180,29.297,17.578,0
1583421915.715,22.949,35.645,31.250,26.367,55.176,0
1583421915.719,26.367,36.133,32.715,28.809,37.109,0
1583421915.722,30.762,36.621,31.738,23.926,-11.719,0
1583421915.726,29.297,33.691,27.344,20.996,-23.438,0
1583421915.730,35.156,32.227,27.344,21.484,-10.254,0
1583421915.734,41.016,33.691,26.367,23.926,-7.324,0
1583421915.738,40.039,36.621,25.879,27.344,-8.301,0
1583421915.734,41.016,37.598,25.879,31.250,11.719,0
1583421915.738,39.062,40.039,27.344,33.203,7.812,0
1583421915.742,35.645,40.039,29.785,30.762,35.156,0
1583421915.746,35.645,37.598,25.391,32.227,0.488,0
1583421915.750,38.574,38.574,23.926,34.180,-42.969,0
1583421915.754,41.504,38.086,26.367,32.227,4.883,0
1583421915.758,39.551,37.598,22.949,30.273,32.227,0
1583421915.761,34.180,39.551,19.043,28.320,62.988,0
1583421915.765,32.227,41.016,21.973,23.438,71.289,0
1583421915.769,29.297,39.551,28.320,22.949,82.031,0
1583421915.773,26.855,33.203,33.203,23.438,55.664,0
1583421915.777,22.949,32.715,32.227,17.578,29.785,0
1583421915.796,20.508,39.062,30.762,14.160,-13.184,0
1583421915.800,19.043,38.086,27.344,13.672,-9.277,0
1583421915.804,24.414,37.598,26.367,13.672,32.715,0
1583421915.808,23.926,34.668,27.344,14.648,14.160,0
1583421915.812,17.578,31.738,28.320,17.578,24.414,0
1583421915.816,23.926,34.668,34.180,22.949,88.379,0
1583421915.820,31.250,37.598,36.133,26.367,66.406,0
1583421915.823,28.809,39.062,32.715,29.785,5.371,0
1583421915.827,27.344,39.062,29.297,35.645,2.930,0
1583421915.831,27.832,36.621,29.785,31.250,40.527,0
1583421915.835,31.250,40.527,36.133,27.344,57.617,0
1583421915.839,34.180,42.480,39.062,27.344,-20.020,0
1583421915.835,31.738,40.039,35.156,27.344,-22.461,0
1583421915.839,22.461,40.039,32.227,21.973,4.395,0
1583421915.843,14.160,37.109,33.691,12.207,74.219,0
1583421915.847,17.090,40.527,37.109,14.648,97.656,0
1583421915.851,7.812,42.480,37.598,9.766,37.598,0
1583421915.855,0.488,41.992,38.574,0.488,8.789,0
1583421915.859,3.418,47.852,40.527,-1.953,28.320,0
1583421915.862,-0.977,52.734,43.945,-8.789,77.637,0
1583421915.866,-17.090,53.711,45.410,-20.996,-4.395,0
1583421915.870,-30.762,53.223,42.969,-32.715,-8.789,0
1583421915.874,-41.016,51.270,46.875,-40.527,63.965,0
1583421915.878,-59.082,49.316,54.199,-50.781,41.992,0
1583421915.875,-76.660,52.246,51.270,-67.871,45.410,0
1583421915.879,-81.543,56.152,47.852,-82.031,34.668,0
1583421915.883,-87.402,54.688,49.316,-88.379,-34.180,0
1583421915.887,-103.027,51.270,48.828,-99.609,-24.414,0
1583421915.891,-109.863,49.805,50.293,-106.934,-23.438,0
1583421915.895,-105.957,52.246,48.340,-105.469,14.648,0
1583421915.899,-106.445,51.758,48.828,-106.445,73.242,0
1583421915.902,-103.516,52.246,49.316,-105.469,64.941,0
1583421915.906,-93.750,51.758,43.945,-102.539,26.367,0
1583421915.910,-83.984,43.945,42.969,-92.285,40.039,0
1583421915.914,-73.242,43.945,42.969,-78.125,105.469,0
1583421915.918,-63.477,47.363,40.039,-65.918,68.359,0
1583421915.934,-56.152,46.875,38.574,-58.105,20.996,0
1583421915.938,-49.316,42.969,38.574,-54.688,-2.930,0
1583421915.942,-46.875,37.598,41.016,-48.340,20.508,0
1583421915.946,-32.227,38.574,32.715,-33.203,84.473,0
1583421915.950,-15.625,41.016,25.879,-20.996,49.805,0
1583421915.954,-10.254,36.621,32.227,-10.254,44.922,0
1583421915.958,0.977,35.645,31.250,0.488,62.500,0
1583421915.961,5.371,38.086,30.762,0.488,35.645,0
1583421915.965,8.301,32.227,32.715,2.930,42.969,0
1583421915.969,22.461,26.855,30.762,19.531,54.199,0
1583421915.973,31.250,33.203,26.367,31.250,22.461,0
1583421915.977,33.203,33.203,24.902,34.668,8.301,0
1583421915.974,38.086,29.297,20.508,44.922,-18.555,0
1583421915.978,39.062,30.762,17.578,47.363,40.527,0
1583421915.982,44.434,31.738,20.020,41.504,57.129,0
1583421915.986,57.129,31.738,21.973,44.434,8.789,0
1583421915.990,62.988,29.785,21.484,51.270,64.941,0
1583421915.994,65.430,24.414,20.996,56.641,89.844,0
1583421915.998,65.918,24.414,22.949,55.176,63.965,0
1583421916.001,70.312,26.367,21.973,57.617,61.035,0
1583421916.005,75.684,26.855,19.043,63.965,45.898,0
1583421916.009,79.102,29.297,20.020,63.965,42.480,0
1583421916.013,79.590,30.762,20.996,68.848,33.691,0
1583421916.017,78.613,29.297,21.973,72.754,44.922,0
1583421916.015,75.195,29.785,20.020,71.777,74.707,0
1583421916.019,75.195,32.715,21.484,74.707,5.859,0
1583421916.023,69.336,29.785,24.902,78.125,50.293,0
1583421916.027,62.012,25.879,23.926,74.219,60.059,0
1583421916.031,65.918,19.043,20.996,75.195,-4.395,0
1583421916.035,69.336,17.090,18.555,76.172,0.488,0
1583421916.039,66.406,26.855,22.461,70.312,8.301,0
1583421916.042,64.453,30.273,28.320,66.406,12.695,0
1583421916.046,66.895,28.320,28.320,68.359,-11.719,0
1583421916.050,67.871,26.367,30.762,69.336,-6.348,0
1583421916.054,72.754,26.367,34.668,68.848,38.086,0
1583421916.058,77.637,28.320,34.668,68.848,79.102,0
1583421916.075,73.730,32.227,33.203,67.871,44.434,0
1583421916.079,78.125,28.320,30.273,72.266,22.949,0
1583421916.083,86.426,28.809,28.320,74.219,26.855,0
1583421916.087,83.008,36.621,26.367,73.730,30.762,0
1583421916.091,82.031,36.133,22.949,78.613,34.668,0
1583421916.095,83.008,33.691,24.414,75.195,46.875,0
1583421916.099,74.219,33.691,28.320,65.430,99.609,0
1583421916.102,66.895,32.227,28.320,61.523,59.082,0
1583421916.106,67.871,31.738,26.855,63.477,26.367,0
1583421916.110,66.895,32.227,25.879,63.965,43.945,0
1583421916.114,66.406,31.250,30.273,61.523,7.324,0
1583421916.118,61.035,28.809,31.738,60.059,54.199,0
1583421916.115,53.711,27.832,31.738,58.594,35.645,0
1583421916.119,54.199,26.367,33.691,60.547,24.414,0
1583421916.123,52.734,28.320,34.180,64.941,75.195,0
1583421916.127,48.340,33.203,34.668,60.059,64.453,0
1583421916.131,46.875,33.691,34.180,56.641,33.203,0
1583421916.135,41.504,31.738,34.180,57.129,-20.508,0
1583421916.139,39.551,31.738,34.668,52.246,-50.293,0
1583421916.142,39.551,29.785,32.715,45.898,-17.090,0
1583421916.146,43.457,26.855,30.762,41.016,33.203,0
1583421916.150,45.410,28.320,28.320,35.645,70.801,0
1583421916.154,43.945,29.785,29.785,35.645,49.805,0
1583421916.158,47.363,31.738,31.738,37.598,52.246,0
1583421916.155,53.711,35.645,32.715,40.527,48.828,0
1583421916.159,61.035,33.203,33.691,46.387,46.387,0
1583421916.163,57.617,30.762,32.227,47.363,56.641,0
1583421916.167,52.246,36.133,32.227,44.434,28.320,0
1583421916.171,51.758,35.645,34.180,44.922,0.000,0
1583421916.175,51.758,34.668,34.180,41.504,-3.418,0
1583421916.179,54.199,34.668,31.738,36.621,-8.789,0
1583421916.182,50.781,36.133,33.691,32.715,-20.996,0
1583421916.186,45.410,38.086,31.738,29.785,-22.949,0
1583421916.190,43.945,34.668,29.297,30.273,10.254,0
1583421916.194,43.945,36.133,29.297,32.227,56.641,0
1583421916.198,41.504,35.156,29.297,34.668,83.984,0
1583421916.214,34.180,30.762,30.762,32.227,81.543,0
1583421916.218,36.133,36.621,31.738,35.156,46.387,0
1583421916.222,41.016,36.621,31.738,38.574,42.480,0
1583421916.226,36.621,31.250,27.832,31.738,72.266,0
1583421916.230,37.109,34.668,28.809,31.250,27.832,0
1583421916.234,39.062,40.039,32.715,37.109,2.441,0
1583421916.238,38.574,38.086,33.691,34.668,-11.230,0
1583421916.241,36.133,33.691,33.691,31.738,-6.836,0
1583421916.245,34.180,33.691,32.715,28.320,32.227,0
1583421916.249,35.645,29.297,33.691,28.809,66.895,0
1583421916.253,32.715,30.273,35.645,28.809,41.992,0
1583421916.257,28.809,38.086,34.180,24.902,34.668,0
1583421916.254,31.738,37.598,30.273,27.832,52.246,0
1583421916.258,34.180,36.621,29.785,29.785,14.160,0
1583421916.262,31.250,34.180,32.715,29.297,35.156,0
1583421916.266,32.715,32.227,32.227,31.738,62.500,0
1583421916.270,37.598,34.668,33.203,29.785,-12.695,0
1583421916.274,39.062,36.621,36.621,28.320,-28.809,0
1583421916.278,42.480,35.645,34.668,30.273,28.809,0
1583421916.281,41.016,34.668,34.668,30.762,35.156,0
1583421916.285,38.086,35.156,37.109,24.902,24.414,0
1583421916.289,37.598,36.621,37.598,20.020,23.926,0
1583421916.293,31.738,33.691,36.621,21.484,3.418,0
1583421916.297,27.344,32.715,36.133,23.926,-3.418,0
1583421916.315,22.949,38.086,31.738,21.973,-24.902,0
1583421916.319,22.461,41.504,31.738,17.578,39.551,0
1583421916.323,22.461,41.504,36.621,15.137,47.852,0
1583421916.327,14.160,37.598,35.645,8.789,36.133,0
1583421916.331,10.742,35.156,36.133,5.859,83.984,0
1583421916.335,10.742,36.133,37.109,4.883,61.035,0
1583421916.339,7.812,37.109,37.598,1.465,26.367,0
1583421916.342,6.348,34.668,38.086,-1.953,28.809,0
1583421916.346,3.418,32.227,36.621,-0.977,56.152,0
1583421916.350,5.859,34.668,37.109,2.930,21.973,0
1583421916.354,6.836,32.715,39.551,2.930,-3.418,0
1583421916.358,0.000,29.785,44.434,3.418,42.969,0
1583421916.354,-1.465,32.715,44.922,4.883,42.480,0
1583421916.358,-4.395,30.762,40.527,1.953,48.828,0
1583421916.362,-12.695,27.344,42.480,-4.395,78.125,0
1583421916.366,-18.555,30.273,44.434,-13.672,18.555,0
1583421916.370,-20.508,32.715,43.457,-17.090,2.930,0
1583421916.374,-20.508,32.715,44.434,-17.578,5.371,0
1583421916.378,-29.785,28.320,45.898,-26.367,10.742,0
1583421916.381,-31.250,29.785,46.387,-27.832,42.969,0
1583421916.385,-26.855,34.668,46.387,-26.367,51.270,0
1583421916.389,-31.738,29.785,47.852,-33.691,88.379,0
1583421916.393,-31.738,30.762,55.664,-39.551,70.312,0
1583421916.397,-38.574,31.738,57.617,-42.969,65.918,0
1583421916.394,-40.527,28.809,53.711,-41.504,54.199,0
1583421916.398,-38.086,27.832,53.711,-41.992,26.367,0
1583421916.402,-49.805,26.367,57.129,-50.293,28.320,0
1583421916.406,-55.664,26.855,55.664,-59.570,4.883,0
1583421916.410,-53.711,24.414,55.664,-60.059,28.809,0
1583421916.414,-57.129,22.949,60.547,-60.547,34.180,0
1583421916.418,-63.477,24.414,64.453,-62.012,49.316,0
1583421916.421,-72.754,24.902,66.406,-68.359,46.875,0
1583421916.425,-79.102,27.344,62.988,-78.125,78.613,0
1583421916.429,-76.660,23.438,62.500,-73.730,67.871,0
1583421916.433,-80.566,18.066,64.453,-76.660,-17.578,0
1583421916.437,-89.844,23.926,64.453,-87.891,12.695,0
1583421916.455,-91.797,27.832,64.453,-91.309,36.621,0
1583421916.459,-86.914,26.855,65.918,-85.938,52.734,0
1583421916.463,-81.055,26.367,65.430,-78.613,35.645,0
1583421916.467,-79.102,24.414,63.965,-79.102,7.324,0
1583421916.471,-78.613,25.391,62.012,-84.473,29.297,0
1583421916.475,-71.289,29.297,62.988,-80.566,51.270,0
1583421916.479,-63.477,31.250,62.988,-69.336,103.516,0
1583421916.482,-65.918,30.762,63.965,-64.453,78.125,0
1583421916.486,-68.848,26.367,63.477,-68.359,85.938,0
1583421916.490,-60.547,27.344,63.965,-61.523,58.105,0
1583421916.494,-50.781,29.785,62.500,-53.711,38.086,0
1583421916.498,-50.293,29.297,58.594,-57.129,-21.973,0
1583421916.494,-46.875,25.391,57.129,-55.664,-88.379,0
1583421916.498,-48.340,23.926,55.664,-49.316,-29.785,0
1583421916.502,-46.387,30.273,54.688,-46.387,25.879,0
1583421916.506,-38.086,31.738,53.711,-45.410,23.926,0
1583421916.510,-35.156,32.715,55.176,-38.086,58.594,0
1583421916.514,-27.344,34.180,51.270,-32.227,41.016,0
1583421916.518,-15.625,35.156,43.457,-30.762,47.852,0
1583421916.521,-13.184,33.691,43.457,-24.902,76.660,0
1583421916.525,-12.695,30.762,43.457,-22.461,27.344,0
1583421916.529,-5.859,33.203,39.551,-22.461,7.812,0
1583421916.533,-2.930,34.180,35.156,-16.602,23.926,0
1583421916.537,-4.395,30.273,31.250,-9.766,66.406,0
1583421916.534,-0.977,31.250,34.668,-2.930,39.551,0
1583421916.538,5.859,29.785,34.668,0.000,13.672,0
1583421916.542,11.719,30.762,30.762,1.953,24.902,0
1583421916.546,17.578,35.645,27.344,7.812,62.500,0
1583421916.550,24.414,36.621,25.391,15.625,75.684,0
1583421916.554,32.227,39.062,27.344,24.414,22.461,0
1583421916.558,38.574,40.527,26.855,31.250,10.742,0
1583421916.561,46.875,39.062,24.902,38.574,35.156,0
1583421916.565,56.152,41.016,28.809,48.340,82.031,0
1583421916.569,61.523,41.504,24.902,54.688,63.965,0
1583421916.573,66.406,36.621,20.020,60.059,43.457,0
1583421916.577,69.824,36.621,24.414,63.965,40.527,0
1583421916.594,75.684,41.992,23.438,65.918,-5.859,0
1583421916.598,81.543,45.898,20.508,68.848,60.547,0
1583421916.602,84.473,40.527,20.508,73.730,102.051,0
1583421916.606,87.891,41.992,19.531,78.125,-37.109,0
1583421916.610,95.703,48.340,16.602,82.520,-27.344,0
1583421916.614,102.051,49.316,16.113,90.820,59.570,0
1583421916.618,99.609,52.246,8.789,93.262,31.738,0
1583421916.621,99.121,52.734,1.953,91.797,-17.578,0
1583421916.625,104.004,47.363,7.812,96.191,-30.273,0
1583421916.629,110.352,45.898,15.625,101.074,14.160,0
1583421916.633,114.258,46.875,17.090,105.469,34.668,0
1583421916.637,117.676,50.293,19.043,108.887,2.930,0
1583421916.634,120.605,48.340,18.066,108.887,21.484,0
1583421916.638,119.141,44.434,14.648,114.258,54.688,0
1583421916.642,120.117,48.340,16.113,117.188,42.969,0
1583421916.646,118.652,45.410,15.625,114.258,36.133,0
1583421916.650,114.258,37.598,14.648,114.746,25.879,0
1583421916.654,115.234,37.598,16.602,112.305,21.484,0
1583421916.658,117.188,44.922,18.066,110.840,33.203,0
1583421916.661,115.234,46.875,19.531,111.328,45.898,0
1583421916.665,114.746,43.457,18.066,115.234,38.574,0
1583421916.669,124.023,45.898,9.766,123.047,2.930,0
1583421916.673,129.883,48.828,6.836,125.488,8.789,0
1583421916.677,123.047,43.945,23.438,118.652,73.730,0
1583421916.675,111.816,35.156,34.668,109.375,103.027,0
1583421916.679,108.887,34.668,34.180,103.027,92.773,0
1583421916.683,109.863,40.039,33.691,101.074,43.457,0
1583421916.687,107.910,38.086,27.832,96.680,-1.953,0
1583421916.691,106.934,39.062,25.879,92.285,2.441,0
1583421916.695,107.422,44.434,28.320,90.820,90.332,0
1583421916.699,101.562,41.992,23.926,87.891,92.773,0
1583421916.702,93.750,40.527,18.555,87.402,1.465,0
1583421916.706,91.797,41.016,15.137,83.984,10.742,0
1583421916.710,84.961,38.086,14.160,78.613,9.766,0
1583421916.714,82.520,37.598,18.066,79.590,20.508,0
1583421916.718,86.426,37.109,21.484,80.566,65.918,0
1583421916.735,85.449,35.156,22.949,79.102,63.477,0
1583421916.739,78.613,37.598,20.996,75.684,14.160,0
1583421916.743,75.684,38.574,21.973,72.266,11.719,0
1583421916.747,72.266,33.203,23.438,69.824,11.719,0
1583421916.751,63.965,30.273,24.414,63.965,50.293,0
1583421916.755,64.453,36.133,25.879,67.383,90.820,0
1583421916.759,68.848,37.598,24.414,69.336,44.434,0
1583421916.762,68.359,35.645,24.414,64.941,62.500,0
1583421916.766,68.848,35.645,30.273,67.871,-3.418,0
1583421916.770,71.777,34.668,28.809,70.801,-46.387,0
1583421916.774,71.289,34.180,27.832,66.406,64.941,0
1583421916.778,69.824,38.086,30.762,62.988,47.363,0
1583421916.774,68.359,38.574,30.273,60.059,-4.883,0
1583421916.778,65.430,35.645,32.227,56.152,12.695,0
1583421916.782,62.988,33.691,32.715,56.152,-8.301,0
1583421916.786,60.059,34.180,31.250,59.082,-16.602,0
1583421916.790,54.199,28.320,31.738,53.711,25.879,0
1583421916.794,49.316,26.855,29.297,48.828,19.531,0
1583421916.798,50.293,31.738,31.250,52.734,-1.953,0
1583421916.801,52.734,32.715,33.691,52.246,-23.926,0
1583421916.805,47.852,32.715,34.180,49.805,4.395,0
1583421916.809,46.875,32.227,29.297,48.340,20.996,0
1583421916.813,51.270,32.227,20.020,51.270,15.137,0
1583421916.817,53.223,35.156,23.926,50.781,42.969,0
1583421916.815,57.129,32.227,31.250,49.316,51.758,0
1583421916.819,62.500,30.273,32.227,53.711,50.781,0
1583421916.823,64.453,33.203,32.715,55.176,64.941,0
1583421916.827,61.523,31.738,38.086,56.152,64.453,0
1583421916.831,59.570,31.738,38.574,58.594,25.391,0
1583421916.835,58.105,32.715,34.668,56.641,14.648,0
1583421916.839,57.617,33.691,34.180,56.641,5.859,0
1583421916.842,61.523,35.645,36.133,56.641,27.832,0
1583421916.846,55.664,34.180,33.203,49.805,56.152,0
1583421916.850,50.781,35.156,28.809,46.387,54.688,0
1583421916.854,56.152,34.180,27.832,50.781,47.852,0
1583421916.858,55.176,33.691,29.297,52.246,71.777,0
1583421916.874,52.734,30.273,32.227,56.641,70.312,0
1583421916.878,55.664,31.250,29.785,62.012,40.039,0
1583421916.882,56.152,35.645,28.809,60.059,38.086,0
1583421916.886,55.176,33.203,30.762,56.641,12.207,0
1583421916.890,54.688,33.203,32.715,57.617,37.109,0
1583421916.894,54.199,34.180,35.156,59.082,83.984,0
1583421916.898,50.293,32.715,32.227,55.176,57.129,0
1583421916.901,49.805,30.762,33.691,50.781,-7.324,0
1583421916.905,50.293,35.645,34.180,48.340,61.523,0
1583421916.909,54.199,35.645,30.273,48.828,83.496,0
1583421916.913,52.246,29.785,29.297,50.293,14.160,0
1583421916.917,47.852,36.621,34.668,43.945,28.320,0
1583421916.914,49.316,40.039,33.203,38.086,68.848,0
1583421916.918,43.945,36.133,27.344,38.574,74.219,0
1583421916.922,35.645,32.227,31.738,38.086,34.668,0
1583421916.926,36.621,31.738,34.180,40.039,71.777,0
1583421916.930,39.062,35.156,34.180,39.551,30.273,0
1583421916.934,37.598,35.156,35.645,37.598,15.137,0
1583421916.938,36.621,29.297,35.645,37.598,99.121,0
1583421916.941,33.691,24.902,36.133,32.715,42.480,0
1583421916.945,30.273,28.320,35.645,28.320,-54.199,0
1583421916.949,31.738,34.668,33.691,27.832,24.414,0
1583421916.953,36.133,31.250,32.715,26.855,61.035,0
1583421916.957,34.668,29.297,32.227,26.855,7.812,0
1583421916.954,33.691,33.203,32.715,27.344,-26.855,0
1583421916.958,30.273,31.738,33.691,24.902,21.484,0
1583421916.962,30.762,32.715,33.691,27.832,17.578,0
1583421916.966,31.738,32.227,33.203,28.320,-30.762,0
1583421916.970,30.762,32.227,31.738,22.949,4.395,0
1583421916.974,27.344,34.180,29.785,23.438,-3.418,0
1583421916.978,22.461,35.156,29.297,26.855,24.902,0
1583421916.981,21.484,38.086,29.785,22.461,29.785,0
1583421916.985,17.578,41.016,33.203,13.672,-6.348,0
1583421916.989,10.254,37.598,33.203,7.812,36.621,0
1583421916.993,4.883,34.668,32.227,4.395,56.641,0
1583421916.997,1.953,35.645,33.691,3.906,31.738,0
1583421917.014,-0.488,38.086,36.133,-2.441,38.574,0
1583421917.018,3.906,41.992,36.621,-3.418,83.496,0
1583421917.022,11.719,39.062,37.109,7.324,57.617,0
1583421917.026,8.301,33.203,38.574,9.766,6.836,0
1583421917.030,-1.465,36.133,35.156,-3.906,30.273,0
1583421917.034,-6.836,41.504,35.645,-10.742,69.824,0
1583421917.038,-14.648,36.621,40.039,-19.531,11.230,0
1583421917.041,-23.438,33.203,42.480,-24.414,17.090,0
1583421917.045,-22.949,36.621,43.945,-18.555,43.945,0
1583421917.049,-31.250,34.180,46.387,-25.879,11.719,0
1583421917.053,-41.016,33.691,46.875,-36.133,38.086,0
1583421917.057,-42.480,35.645,53.223,-39.062,51.758,0
1583421917.054,-50.781,30.273,57.129,-44.434,20.020,0
1583421917.058,-58.105,28.320,57.617,-52.734,-8.789,0
1583421917.062,-59.082,30.273,61.035,-53.711,24.414,0
1583421917.066,-64.941,26.855,59.570,-61.523,64.941,0
1583421917.070,-68.359,26.855,60.059,-64.941,60.059,0
1583421917.074,-63.477,30.273,61.523,-59.570,62.012,0
1583421917.078,-65.430,27.832,60.059,-62.988,16.113,0
1583421917.081,-74.219,26.855,59.082,-71.289,-15.137,0
1583421917.085,-79.102,23.438,57.617,-80.078,34.180,0
1583421917.089,-81.543,27.832,62.988,-83.008,35.645,0
1583421917.093,-91.309,34.668,65.430,-89.844,25.391,0
1583421917.097,-97.168,31.250,62.988,-92.285,61.035,0
1583421917.094,-100.098,31.738,62.500,-95.215,61.035,0
1583421917.098,-106.934,33.691,60.547,-107.422,7.324,0
1583421917.102,-111.816,32.715,61.035,-112.305,-9.277,0
1583421917.106,-122.070,29.785,62.012,-118.164,22.461,0
1583421917.110,-130.371,27.344,64.453,-126.953,85.449,0
1583421917.114,-127.441,25.879,65.430,-125.488,71.289,0
1583421917.118,-123.047,26.367,64.941,-117.676,41.504,0
1583421917.121,-115.723,25.879,67.871,-112.793,71.289,0
1583421917.125,-106.934,26.367,68.848,-104.492,68.359,0
1583421917.129,-103.516,24.414,63.477,-91.797,99.609,0
1583421917.133,-97.656,20.020,62.012,-84.961,75.195,0
1583421917.137,-91.797,23.438,63.965,-83.984,27.832,0
1583421917.154,-87.891,29.785,60.059,-81.055,39.551,0
1583421917.158,-75.684,29.785,56.641,-72.266,12.207,0
1583421917.162,-60.547,28.809,58.594,-57.129,-8.301,0
1583421917.166,-50.781,25.879,57.617,-48.828,35.645,0
1583421917.170,-48.340,24.414,54.199,-46.387,56.641,0
1583421917.174,-42.969,25.391,49.316,-41.504,9.277,0
1583421917.178,-27.344,25.391,45.898,-27.832,-31.738,0
1583421917.181,-14.648,27.344,40.039,-14.160,78.125,0
1583421917.185,-7.324,32.715,33.203,-10.254,143.066,0
1583421917.189,-1.953,33.691,33.691,-5.371,89.844,0
1583421917.193,3.906,32.715,39.551,6.348,56.152,0
1583421917.197,7.812,27.344,43.945,17.578,12.207,0
1583421917.195,10.254,28.809,43.457,24.414,47.363,0
1583421917.199,12.695,35.156,39.062,23.926,53.711,0
1583421917.203,15.625,35.156,35.645,21.973,87.402,0
1583421917.207,15.137,29.785,34.668,26.855,91.309,0
1583421917.211,17.578,29.297,30.273,27.832,59.082,0
1583421917.215,20.020,34.668,24.902,29.785,65.430,0
1583421917.219,21.973,34.180,22.949,32.715,26.367,0
1583421917.222,29.297,33.691,18.555,33.203,6.836,0
1583421917.226,39.551,35.645,20.020,36.621,20.020,0
1583421917.230,48.340,40.527,24.414,41.504,7.324,0
1583421917.234,52.246,37.598,20.508,45.410,27.344,0
1583421917.238,58.105,37.109,17.090,52.246,68.359,0
1583421917.234,63.965,43.945,16.602,56.152,19.531,0
1583421917.238,68.359,46.875,18.555,58.594,-1.953,0
1583421917.242,69.824,49.316,17.578,58.594,6.836,0
1583421917.246,70.312,48.340,14.160,58.105,-10.254,0
1583421917.250,79.102,49.805,15.137,70.312,30.762,0
1583421917.254,81.543,50.781,4.883,73.730,21.484,0
1583421917.258,76.660,48.828,5.859,66.406,-30.273,0
1583421917.261,85.449,50.293,18.066,69.824,68.359,0
1583421917.265,88.867,52.246,8.789,73.242,95.215,0
1583421917.269,84.961,49.316,6.836,79.102,27.832,0
1583421917.273,84.961,46.387,17.090,90.332,-16.113,0
1583421917.277,86.914,40.527,21.484,95.703,-46.387,0
1583421917.294,94.727,41.016,18.555,96.680,-8.789,0
1583421917.298,99.609,48.340,14.160,91.797,42.969,0
1583421917.302,103.027,51.270,14.160,92.773,82.031,0
1583421917.306,104.492,50.781,15.137,100.098,90.820,0
1583421917.310,106.445,49.316,11.230,103.027,57.617,0
1583421917.314,114.746,49.316,-0.488,107.910,10.742,0
1583421917.318,114.258,45.410,-7.324,104.004,46.875,0
1583421917.321,111.816,41.016,12.207,103.027,56.152,0
1583421917.325,122.559,42.969,30.273,112.305,44.922,0
1583421917.329,135.254,48.340,28.320,115.234,68.848,0
1583421917.333,142.578,49.805,11.719,118.164,0.488,0
1583421917.337,140.625,46.387,12.695,121.582,4.883,0
1583421917.335,135.254,40.527,24.902,121.094,-7.324,0
1583421917.339,136.719,42.480,21.484,127.441,27.832,0
1583421917.343,139.648,47.852,17.578,133.301,90.332,0
1583421917.347,138.184,47.363,16.113,136.719,41.992,0
1583421917.351,137.695,47.363,12.695,140.625,40.527,0
1583421917.355,137.207,44.434,12.695,141.113,53.223,0
1583421917.359,134.766,43.457,17.578,138.672,33.203,0
1583421917.362,128.418,40.039,21.973,133.301,-4.395,0
1583421917.366,122.070,36.621,23.926,126.953,22.949,0
1583421917.370,121.094,37.598,26.367,120.117,66.406,0
1583421917.374,116.699,36.133,27.832,113.281,40.039,0
1583421917.378,112.305,36.621,15.137,115.234,61.523,0
1583421917.374,113.770,36.133,12.207,118.652,75.684,0
1583421917.378,118.164,34.180,20.508,119.141,23.438,0
1583421917.382,115.723,36.621,25.391,114.258,-18.066,0
1583421917.386,115.234,38.574,33.691,107.422,36.133,0
1583421917.390,112.305,39.062,29.297,108.887,69.336,0
1583421917.394,105.957,38.574,25.391,107.422,-2.441,0
1583421917.398,104.492,38.086,26.855,104.492,-9.277,0
1583421917.401,100.098,38.574,18.555,103.027,44.922,0
1583421917.405,95.215,41.016,15.625,97.168,60.059,0
1583421917.409,86.914,30.273,30.273,94.727,-0.977,0
1583421917.413,85.449,24.902,23.438,94.238,-1.465,0
1583421917.417,88.867,32.715,5.371,97.656,12.695,0
1583421917.435,82.031,26.367,13.672,89.355,13.672,0
1583421917.439,75.684,26.367,40.527,79.102,51.270,0
1583421917.443,75.684,31.738,51.758,80.566,21.973,0
1583421917.447,72.266,33.203,51.270,75.195,-14.160,0
1583421917.451,72.266,32.715,47.363,71.777,-29.785,0
1583421917.455,74.219,33.691,32.227,76.172,-17.578,0
1583421917.459,70.312,35.156,29.785,72.754,54.199,0
1583421917.462,70.801,37.109,36.621,66.895,-4.883,0
1583421917.466,79.102,36.621,24.414,68.848,-12.207,0
1583421917.470,77.637,32.715,20.996,68.848,31.738,0
1583421917.474,69.824,28.809,44.922,63.477,60.547,0
1583421917.478,72.754,30.273,55.176,62.500,67.383,0
1583421917.475,75.684,36.621,47.852,65.918,38.574,0
1583421917.479,77.148,38.086,41.504,69.824,20.508,0
1583421917.483,75.684,35.645,38.574,73.730,-5.371,0
1583421917.487,69.824,36.621,45.898,73.730,51.270,0
1583421917.491,72.266,38.086,34.668,73.730,50.781,0
1583421917.495,71.777,34.668,15.137,71.777,37.598,0
1583421917.499,67.383,31.738,30.273,67.871,29.785,0
1583421917.502,62.500,32.715,42.969,65.918,3.418,0
1583421917.506,61.523,30.762,41.992,62.500,3.418,0
1583421917.510,63.965,30.273,36.621,58.594,33.691,0
1583421917.514,61.035,36.133,29.785,60.059,58.594,0
1583421917.518,64.453,40.039,36.133,62.988,34.668,0
1583421917.515,64.941,40.039,41.504,62.988,-1.953,0
1583421917.519,63.477,36.621,39.551,62.012,-13.672,0
1583421917.523,70.801,38.574,28.320,60.059,69.336,0
1583421917.527,67.871,42.480,23.926,55.176,36.621,0
1583421917.531,57.617,40.527,43.457,51.270,-19.043,0
1583421917.535,51.758,36.621,51.270,46.875,-1.953,0
1583421917.539,46.875,36.133,44.922,40.039,-8.301,0
1583421917.542,42.969,34.180,36.621,38.574,10.254,0
1583421917.546,35.645,29.785,37.109,31.250,-14.160,0
1583421917.550,35.156,37.598,39.551,30.273,-6.348,0
1583421917.554,40.527,41.016,22.461,39.062,37.109,0
1583421917.558,43.457,33.203,30.273,43.457,-36.133,0
1583421917.575,44.922,33.203,47.852,42.969,-34.668,0
1583421917.579,44.434,34.668,49.316,44.434,48.828,0
1583421917.583,45.410,35.156,50.781,48.828,75.684,0
1583421917.587,42.969,33.691,49.316,47.363,84.961,0
1583421917.591,35.156,27.344,42.480,43.945,70.801,0
1583421917.595,33.691,25.879,42.480,43.945,78.125,0
1583421917.599,37.598,35.156,37.109,44.922,60.059,0
1583421917.602,34.668,41.992,27.832,40.527,22.461,0
1583421917.606,32.715,42.480,26.367,35.645,4.883,0
1583421917.610,33.691,38.086,30.762,36.133,43.945,0
1583421917.614,32.715,36.621,37.598,35.156,28.809,0
1583421917.618,37.109,40.527,40.527,35.645,-55.664,0
1583421917.614,39.062,38.086,38.086,39.062,-8.789,0
1583421917.618,41.016,37.598,39.551,37.598,55.176,0
1583421917.622,42.480,34.180,39.551,33.203,55.176,0
1583421917.626,42.969,31.250,40.527,36.621,60.547,0
1583421917.630,40.039,33.691,36.133,37.598,101.074,0
1583421917.634,38.574,36.133,27.832,36.133,96.191,0
1583421917.638,39.551,37.109,24.902,37.598,60.059,0
1583421917.641,37.109,35.645,29.297,32.715,42.969,0
1583421917.645,32.715,33.203,41.992,29.785,39.551,0
1583421917.649,27.344,33.691,51.270,31.250,58.105,0
1583421917.653,28.809,32.227,49.316,38.086,60.059,0
1583421917.657,41.504,29.297,46.875,47.363,78.125,0
1583421917.674,42.480,34.668,46.387,41.504,81.543,0
1583421917.678,29.785,36.621,41.016,26.855,64.453,0
1583421917.682,32.715,32.715,35.156,27.832,29.297,0
1583421917.686,42.480,32.715,36.621,34.180,25.879,0
1583421917.690,50.293,34.668,35.645,40.039,79.590,0
1583421917.694,61.523,35.645,29.297,48.828,83.496,0
1583421917.698,65.918,42.969,27.344,52.246,21.973,0
1583421917.701,62.988,46.387,30.762,49.316,19.043,0
1583421917.705,60.059,46.387,29.297,50.293,11.230,0
1583421917.709,62.012,46.875,29.297,53.711,12.695,0
1583421917.713,62.988,48.340,28.320,50.293,48.828,0
1583421917.717,62.988,51.270,25.879,47.852,29.785,0
1583421917.714,56.152,50.781,25.391,45.410,17.090,0
1583421917.718,48.340,49.316,23.438,42.969,34.668,0
1583421917.722,52.246,49.805,22.949,42.969,34.180,0
1583421917.726,56.641,48.340,23.438,44.434,61.035,0
1583421917.730,61.035,47.363,22.949,47.363,56.152,0
1583421917.734,59.570,44.434,20.508,47.363,69.336,0
1583421917.738,54.199,45.410,17.090,47.852,50.781,0
1583421917.741,48.340,47.363,26.367,47.852,29.297,0
1583421917.745,47.852,41.992,35.156,45.898,77.148,0
1583421917.749,48.828,41.016,34.180,41.504,71.289,0
1583421917.753,39.551,40.527,33.203,37.598,28.809,0
1583421917.757,35.156,38.086,34.668,36.621,-0.977,0
1583421917.754,40.039,40.039,34.180,33.203,-4.883,0
1583421917.758,42.969,42.969,30.273,28.809,-28.320,0
1583421917.762,43.457,42.969,25.879,28.809,5.371,0
1583421917.766,43.457,38.086,29.297,28.809,43.457,0
1583421917.770,42.480,38.086,26.855,26.367,68.848,0
1583421917.774,41.504,41.504,23.438,28.320,56.641,0
1583421917.778,42.969,39.551,26.367,31.738,20.020,0
1583421917.781,49.316,39.551,28.809,33.691,39.062,0
1583421917.785,51.270,42.480,35.645,32.715,35.156,0
1583421917.789,49.316,42.480,37.598,31.738,-8.301,0
1583421917.793,44.922,39.551,32.715,30.273,29.297,0
1583421917.797,39.551,41.016,26.367,30.762,60.059,0
1583421917.814,33.203,38.574,27.344,29.785,20.508,0
1583421917.818,31.250,37.598,29.297,28.320,-16.113,0
1583421917.822,35.156,37.598,32.715,29.785,2.930,0
1583421917.826,33.691,30.762,31.250,31.250,17.578,0
1583421917.830,33.691,29.785,39.062,32.227,25.391,0
1583421917.834,35.156,32.715,49.316,36.621,56.641,0
1583421917.838,37.598,37.109,41.992,38.574,15.137,0
1583421917.841,37.109,39.551,35.645,33.691,-0.488,0
1583421917.845,33.691,36.133,36.621,34.180,25.879,0
1583421917.849,31.250,37.598,38.086,30.762,41.504,0
1583421917.853,38.086,41.016,38.574,27.344,26.367,0
1583421917.857,48.828,42.480,34.180,32.715,41.504,0
1583421917.854,47.852,43.945,32.715,36.133,48.828,0
1583421917.858,46.875,34.668,37.598,35.156,13.672,0
1583421917.862,47.363,32.715,38.574,33.203,36.621,0
1583421917.866,48.340,41.504,33.691,38.086,49.316,0
1583421917.870,50.293,45.898,22.461,45.898,30.273,0
1583421917.874,51.270,45.410,26.855,47.363,3.906,0
1583421917.878,45.410,41.016,38.086,41.504,34.668,0
1583421917.881,40.527,41.016,33.203,33.203,73.242,0
1583421917.885,49.316,40.527,29.785,36.133,24.414,0
1583421917.889,57.129,41.992,32.715,48.340,47.363,0
1583421917.893,35.156,43.457,40.039,28.809,27.832,0
1583421917.897,6.348,40.039,37.109,-1.465,11.230,0
1583421917.895,8.789,41.992,29.297,2.930,48.828,0
1583421917.899,4.395,39.062,26.367,0.000,63.477,0
1583421917.903,-10.254,31.738,25.391,-11.719,57.129,0
1583421917.907,-17.578,31.250,23.438,-17.578,74.219,0
1583421917.911,-20.508,33.691,18.555,-20.020,20.996,0
1583421917.915,-20.508,32.227,20.508,-16.113,32.227,0
1583421917.919,-21.973,28.809,18.066,-13.184,55.176,0
1583421917.922,-18.066,28.809,18.066,-9.766,35.156,0
1583421917.926,-11.719,31.250,38.574,-11.230,40.527,0
1583421917.930,-5.859,33.203,46.387,-7.812,33.203,0
1583421917.934,-4.883,35.156,39.062,0.488,39.551,0
1583421917.938,-0.977,35.645,37.598,2.930,49.316,0
1583421917.954,11.719,35.645,31.250,8.301,49.805,0
1583421917.958,23.438,33.691,21.484,15.625,25.391,0
1583421917.962,21.973,30.273,23.926,14.648,47.852,0
1583421917.966,24.414,35.645,18.555,20.508,72.266,0
1583421917.970,30.762,39.062,15.625,26.367,5.371,0
1583421917.974,27.832,36.621,34.180,20.996,-17.578,0
1583421917.978,32.227,36.133,42.969,19.043,-15.625,0
1583421917.981,32.715,33.203,47.363,19.531,-2.930,0
1583421917.985,30.762,33.691,41.504,19.043,17.090,0
1583421917.989,29.785,33.203,29.785,20.020,7.812,0
1583421917.993,23.438,26.855,39.551,20.020,5.371,0
1583421917.997,25.879,30.762,38.574,20.996,23.926,0
1583421917.994,30.273,34.668,37.598,27.344,43.945,0
1583421917.998,27.832,33.203,34.180,27.344,57.617,0
1583421918.002,23.438,35.645,23.438,21.973,71.777,0
1583421918.006,17.578,39.551,29.785,21.973,17.578,0
1583421918.010,18.555,34.668,21.484,19.531,-23.438,0
1583421918.014,17.090,28.320,26.367,16.602,10.254,0
1583421918.018,11.230,31.738,41.992,12.695,58.105,0
1583421918.021,12.207,34.668,41.504,15.137,42.480,0
1583421918.025,18.066,31.250,47.363,22.949,-5.371,0
1583421918.029,21.973,34.180,40.527,25.879,2.441,0
1583421918.033,20.996,40.039,24.414,24.902,61.523,0
1583421918.037,20.020,36.133,31.738,23.926,103.516,0
1583421918.035,23.926,36.621,41.992,25.391,65.918,0
1583421918.039,26.855,38.086,35.156,28.809,-26.367,0
1583421918.043,25.879,34.668,34.668,28.809,-20.020,0
1583421918.047,27.832,37.598,41.016,27.832,32.227,0
1583421918.051,31.738,39.062,39.062,30.762,28.809,0
1583421918.055,35.645,39.551,33.691,33.203,42.969,0
1583421918.059,36.621,36.133,37.598,36.621,104.980,0
1583421918.062,37.109,33.691,39.062,38.574,57.617,0
1583421918.066,36.133,39.062,26.367,32.715,21.484,0
1583421918.070,30.762,38.574,23.926,29.785,89.844,0
1583421918.074,30.762,34.180,34.668,29.785,47.852,0
1583421918.078,30.762,34.668,40.039,26.855,-23.438,0
1583421918.094,30.273,39.062,41.504,26.855,-13.672,0
1583421918.098,31.738,40.527,37.598,30.762,3.906,0
1583421918.102,25.391,41.016,31.250,28.320,22.461,0
1583421918.106,25.391,45.410,19.531,26.855,0.488,0
1583421918.110,34.668,44.922,24.414,31.250,46.387,0
1583421918.114,40.039,37.598,23.438,33.203,25.879,0
1583421918.118,35.156,35.156,29.785,26.367,-30.762,0
1583421918.121,32.227,36.133,38.574,19.531,-15.625,0
1583421918.125,31.250,35.645,36.621,25.879,-65.430,0
1583421918.129,30.273,34.180,42.480,30.762,-21.484,0
1583421918.133,32.227,30.762,40.527,29.297,67.383,0
1583421918.137,33.203,33.691,36.621,35.156,41.016,0
1583421918.134,32.227,33.691,36.133,36.133,41.992,0
1583421918.138,35.645,36.621,22.461,34.180,37.109,0
1583421918.142,41.016,39.062,14.160,38.574,48.828,0
1583421918.146,42.480,33.203,27.344,38.086,45.898,0
1583421918.150,37.109,40.039,31.250,32.715,37.109,0
1583421918.154,33.203,44.434,31.738,30.273,37.109,0
1583421918.158,32.715,38.086,48.828,31.250,-28.320,0
1583421918.161,24.902,34.180,55.664,29.785,-15.625,0
1583421918.165,21.484,32.227,42.969,26.855,111.816,0
1583421918.169,28.809,36.621,38.574,30.273,86.426,0
1583421918.173,31.250,39.062,31.738,29.785,3.906,0
1583421918.177,31.250,36.133,31.250,26.367,-2.930,0
1583421918.174,28.320,35.645,41.016,24.902,-0.488,0
1583421918.178,27.344,33.691,35.645,23.926,20.508,0
1583421918.182,27.344,35.156,27.832,25.391,9.277,0
1583421918.186,20.508,39.551,38.574,19.043,17.090,0
1583421918.190,20.508,40.527,39.551,16.602,7.324,0
1583421918.194,26.367,38.086,36.133,22.461,-23.926,0
1583421918.198,24.902,34.180,33.691,27.832,-9.766,0
1583421918.201,28.320,35.156,39.062,33.691,9.766,0
1583421918.205,33.203,36.133,45.898,32.715,20.996,0
1583421918.209,36.133,35.156,42.480,31.250,-6.836,0
1583421918.213,35.156,34.668,37.109,34.668,-3.418,0
1583421918.217,34.668,35.156,33.203,33.203,28.809,0
1583421918.234,41.016,40.527,28.809,33.691,46.387,0
1583421918.238,50.781,45.410,5.371,37.598,58.594,0
1583421918.242,41.504,36.621,19.531,28.809,15.137,0
1583421918.246,19.043,29.785,65.918,13.184,31.738,0
1583421918.250,16.113,31.738,75.195,13.672,58.105,0
1583421918.254,22.461,32.227,64.453,23.438,78.613,0
1583421918.258,29.297,29.297,56.641,26.367,97.656,0
1583421918.261,32.227,25.879,54.688,30.273,111.816,0
1583421918.265,23.438,27.832,53.711,32.227,90.820,0
1583421918.269,20.020,31.250,47.852,29.297,68.848,0
1583421918.273,30.273,28.320,45.410,31.738,119.141,0
1583421918.277,36.621,26.367,48.340,33.691,64.453,0
1583421918.275,35.156,30.273,46.387,31.250,6.836,0
1583421918.279,35.156,26.855,39.062,30.273,-0.488,0
1583421918.283,36.621,26.855,36.133,30.273,-18.555,0
1583421918.287,36.621,32.227,38.574,32.227,22.949,0
1583421918.291,36.133,38.574,25.879,33.691,11.230,0
1583421918.295,36.621,38.086,28.320,33.203,-1.953,0
1583421918.299,36.133,28.809,57.617,29.785,30.762,0
1583421918.302,37.109,32.227,58.105,28.809,0.000,0
1583421918.306,39.551,35.645,56.152,32.227,13.672,0
1583421918.310,43.457,36.621,48.340,36.621,78.125,0
1583421918.314,42.480,39.062,25.391,33.203,31.738,0
1583421918.318,33.203,30.762,52.734,27.832,5.371,0
1583421918.314,30.762,24.902,66.895,28.809,29.297,0
1583421918.318,26.855,29.785,49.805,27.344,49.805,0
1583421918.322,25.879,36.621,47.852,28.320,60.547,0
1583421918.326,27.832,40.039,45.898,30.762,32.715,0
1583421918.330,25.391,38.086,46.875,30.762,41.016,0
1583421918.334,27.832,38.086,44.434,34.668,-6.836,0
1583421918.338,33.203,38.574,31.250,36.621,-20.020,0
1583421918.341,34.668,38.574,42.480,32.715,1.465,0
1583421918.345,36.621,37.598,58.105,30.273,33.203,0
1583421918.349,32.715,35.156,53.223,29.785,37.109,0
1583421918.353,25.391,32.227,45.898,27.832,7.812,0
1583421918.357,25.391,40.039,46.387,25.391,45.898,0
1583421918.374,26.367,41.504,49.805,25.391,5.371,0
1583421918.378,26.855,40.039,41.992,24.414,7.324,0
1583421918.382,21.973,38.574,38.574,18.066,49.316,0
1583421918.386,19.043,32.227,42.969,15.137,42.969,0
1583421918.390,22.461,32.715,38.086,19.531,40.527,0
1583421918.394,23.438,30.762,38.574,20.996,-1.953,0
1583421918.398,26.367,25.879,50.781,18.555,7.812,0
1583421918.401,25.879,26.367,56.641,15.137,26.855,0
1583421918.405,22.949,31.250,46.387,20.020,39.551,0
1583421918.409,28.320,29.785,41.992,26.367,40.039,0
1583421918.413,28.320,22.949,45.898,25.879,64.453,0
1583421918.417,26.855,24.414,42.969,22.949,78.613,0
1583421918.414,21.973,27.344,41.504,20.996,56.641,0
1583421918.418,17.090,29.785,45.898,23.926,42.480,0
1583421918.422,20.508,33.691,34.668,26.855,78.125,0
1583421918.426,19.043,30.273,36.133,22.949,72.754,0
1583421918.430,15.625,27.344,53.223,20.020,38.574,0
1583421918.434,14.648,34.180,45.898,19.531,70.801,0
1583421918.438,15.625,38.086,39.551,19.531,33.203,0
1583421918.441,15.625,31.250,41.016,20.996,0.488,0
1583421918.445,17.090,26.855,45.898,20.996,47.363,0
1583421918.449,17.090,35.156,43.945,18.066,31.738,0
1583421918.453,14.160,39.551,42.480,15.625,30.273,0
1583421918.457,13.184,39.551,43.945,16.602,53.711,0
1583421918.454,20.020,41.016,34.668,19.531,5.371,0
1583421918.458,21.484,37.109,30.273,20.508,10.742,0
1583421918.462,16.602,36.133,34.668,22.461,30.273,0
1583421918.466,20.020,35.156,30.273,21.973,24.414,0
1583421918.470,27.832,35.156,22.949,27.832,48.340,0
1583421918.474,26.855,37.598,32.227,26.855,93.262,0
1583421918.478,22.949,34.668,42.480,19.043,81.055,0
1583421918.481,27.344,34.668,45.898,20.508,24.414,0
1583421918.485,27.344,35.645,43.457,22.949,-19.043,0
1583421918.489,27.344,38.086,33.691,25.879,-36.133,0
1583421918.493,32.715,39.062,21.484,27.832,52.246,0
1583421918.497,32.715,40.527,23.438,26.855,64.941,0
1583421918.514,29.297,41.992,30.762,23.926,71.777,0
1583421918.518,26.855,40.039,34.180,20.020,99.121,0
1583421918.522,25.391,35.645,42.480,14.648,69.824,0
1583421918.526,24.414,31.738,46.387,14.648,11.719,0
1583421918.530,25.879,32.715,35.645,17.578,-45.898,0
1583421918.534,27.344,33.691,38.086,20.508,-44.922,0
1583421918.538,28.320,33.691,46.875,24.902,2.441,0
1583421918.541,28.320,29.785,38.574,31.738,29.297,0
1583421918.545,31.738,34.180,18.066,35.645,78.125,0
1583421918.549,31.250,37.598,17.578,28.320,39.062,0
1583421918.553,38.574,35.156,41.504,28.320,50.293,0
1583421918.557,36.133,33.203,54.199,30.762,88.379,0
1583421918.554,20.020,32.715,52.246,19.531,20.996,0
1583421918.558,20.508,32.715,42.969,15.625,7.812,0
1583421918.562,21.973,31.250,43.457,16.602,58.105,0
1583421918.566,21.484,25.391,44.922,17.090,37.598,0
1583421918.570,21.484,24.902,43.945,21.484,11.230,0
1583421918.574,18.066,31.738,41.992,21.973,40.039,0
1583421918.578,18.555,33.203,40.527,25.879,41.504,0
1583421918.581,16.113,32.227,41.016,27.832,23.438,0
1583421918.585,17.578,32.227,40.039,26.855,7.812,0
1583421918.589,27.344,36.133,41.016,30.273,34.668,0
1583421918.593,26.855,34.180,40.527,30.762,57.617,0
1583421918.597,27.344,31.250,39.551,27.832,63.477,0
1583421918.594,29.297,33.203,37.598,29.785,40.039,0
1583421918.598,28.320,35.645,36.621,30.762,-32.227,0
1583421918.602,25.391,32.715,34.180,24.902,15.137,0
1583421918.606,22.949,27.832,27.344,23.926,48.340,0
1583421918.610,23.438,29.785,31.250,22.949,17.578,0
1583421918.614,22.949,31.738,36.133,21.484,42.969,0
1583421918.618,18.555,32.227,37.598,23.926,38.574,0
1583421918.621,19.043,34.180,40.527,23.926,4.395,0
1583421918.625,20.020,34.180,35.156,23.438,46.875,0
1583421918.629,20.996,34.668,30.273,21.973,62.500,0
1583421918.633,24.902,39.551,32.715,22.461,52.246,0
1583421918.637,24.902,40.039,26.367,20.996,69.824,0
1583421918.654,24.902,40.527,22.461,24.414,59.082,0
1583421918.658,27.344,39.062,27.344,25.879,84.473,0
1583421918.662,31.250,38.574,35.156,25.879,120.605,0
1583421918.666,29.785,38.574,35.156,28.320,62.012,0
1583421918.670,25.879,31.250,22.461,30.762,61.035,0
1583421918.674,28.809,32.227,28.809,34.180,50.293,0
1583421918.678,26.367,33.691,46.875,27.344,-5.859,0
1583421918.681,17.578,28.320,47.852,21.973,0.000,0
1583421918.685,20.508,31.738,34.668,29.785,60.547,0
1583421918.689,22.461,36.133,19.531,34.180,7.324,0
1583421918.693,21.484,39.062,36.133,31.250,-43.945,0
1583421918.697,25.391,38.086,54.199,28.809,24.414,0
1583421918.694,31.738,37.598,50.293,31.250,32.227,0
1583421918.698,34.668,37.109,43.457,31.738,34.668,0
1583421918.702,36.133,38.574,31.250,35.156,30.762,0
1583421918.706,40.039,37.598,23.926,38.574,26.367,0
1583421918.710,43.457,39.551,42.969,38.574,26.855,0
1583421918.714,52.734,41.504,40.039,40.527,-24.902,0
1583421918.718,52.734,41.016,24.902,43.945,4.883,0
1583421918.721,42.969,38.574,32.715,37.598,-4.395,0
1583421918.725,39.062,37.598,39.551,34.180,-16.113,0
1583421918.729,34.668,39.551,36.133,37.109,20.508,0
1583421918.733,30.273,37.109,29.785,34.180,5.859,0
1583421918.737,27.344,31.738,36.621,28.809,-12.207,0
1583421918.735,26.367,33.203,37.598,28.320,25.391,0
1583421918.739,35.156,35.645,24.414,33.203,14.160,0
1583421918.743,35.156,27.344,28.320,29.785,-12.207,0
1583421918.747,30.273,29.297,39.551,26.855,62.988,0
1583421918.751,34.180,36.621,36.133,29.297,73.730,0
1583421918.755,33.203,37.109,39.551,27.832,38.574,0
1583421918.759,32.715,33.691,37.109,29.785,26.855,0
1583421918.762,34.180,36.133,17.090,34.180,37.598,0
1583421918.766,25.391,38.086,24.902,29.785,66.895,0
1583421918.770,20.996,36.133,44.434,27.832,53.711,0
1583421918.774,25.879,36.133,39.551,28.320,90.820,0
1583421918.778,31.250,32.227,40.039,32.715,88.379,0
1583421918.794,37.109,31.250,44.922,37.109,39.551,0
1583421918.798,33.691,38.574,41.016,32.227,-14.648,0
1583421918.802,29.785,38.086,34.668,25.879,-21.973,0
1583421918.806,31.738,37.109,28.320,24.902,34.180,0
1583421918.810,32.227,39.551,17.578,27.832,41.992,0
1583421918.814,37.109,35.156,21.973,30.273,-14.648,0
1583421918.818,41.016,36.621,27.344,22.949,-5.371,0
1583421918.821,32.715,38.086,36.133,17.578,78.613,0
1583421918.825,25.391,35.645,38.086,27.832,105.957,0
1583421918.829,24.902,34.180,19.043,31.738,41.016,0
1583421918.833,25.391,37.109,27.832,26.855,-7.812,0
1583421918.837,25.391,37.109,43.945,24.902,-56.641,0
1583421918.834,22.949,31.738,41.016,24.902,-55.176,0
1583421918.838,26.855,38.574,28.809,32.227,0.977,0
1583421918.842,30.273,42.480,28.809,34.668,76.172,0
1583421918.846,28.320,41.016,31.738,29.785,87.402,0
1583421918.850,30.273,40.527,26.367,31.738,9.766,0
1583421918.854,31.250,40.039,44.922,33.691,58.594,0
1583421918.858,32.227,37.598,54.688,33.203,-7.812,0
1583421918.861,37.109,37.598,39.551,34.668,-30.762,0
1583421918.865,38.086,40.039,37.109,34.180,56.641,0
1583421918.869,40.527,41.992,37.109,32.715,56.152,0
1583421918.873,38.574,41.016,29.297,31.738,30.762,0
1583421918.877,28.320,36.133,37.598,27.832,-3.418,0
1583421918.875,25.879,33.691,41.016,25.391,20.508,0
1583421918.879,27.832,35.156,21.484,31.250,62.988,0
1583421918.883,31.250,37.598,12.695,34.668,78.125,0
1583421918.887,33.691,37.598,41.992,33.691,86.914,0
1583421918.891,34.180,41.016,23.438,36.621,73.730,0
1583421918.895,31.250,41.016,9.766,34.668,69.336,0
1583421918.899,28.320,33.691,54.688,33.203,61.035,0
1583421918.902,30.273,32.715,66.406,31.250,35.156,0
1583421918.906,35.156,38.574,53.711,31.250,6.836,0
1583421918.910,38.086,40.039,42.969,38.574,-21.484,0
1583421918.914,38.086,38.086,33.203,41.016,-25.879,0
1583421918.918,38.086,34.180,41.016,41.504,0.488,0
1583421918.934,40.527,34.668,48.828,34.668,14.648,0
1583421918.938,46.387,40.527,22.949,41.016,26.855,0
1583421918.942,52.734,42.969,11.719,52.734,1.953,0
1583421918.946,40.039,37.598,36.621,43.457,-5.371,0
1583421918.950,32.715,35.645,44.434,36.133,34.668,0
1583421918.954,38.574,38.086,54.688,37.109,50.293,0
1583421918.958,36.621,35.156,53.223,34.180,51.270,0
1583421918.961,36.621,31.738,44.922,36.133,60.059,0
1583421918.965,33.691,33.691,36.133,36.133,41.992,0
1583421918.969,31.738,35.645,40.039,33.203,34.668,0
1583421918.973,34.668,37.598,39.551,33.203,-1.465,0
1583421918.977,32.227,40.527,36.621,32.227,-36.621,0
1583421918.975,28.809,32.227,54.199,27.344,-5.859,0
1583421918.979,27.344,29.297,36.621,26.855,38.574,0
1583421918.983,28.809,34.668,29.297,29.785,2.441,0
1583421918.987,31.250,33.691,54.199,27.832,-16.113,0
1583421918.991,28.320,34.668,61.523,28.809,29.785,0
1583421918.995,27.344,34.180,51.758,32.227,28.320,0
1583421918.999,26.367,32.227,48.828,33.203,8.301,0
1583421919.002,23.438,28.320,53.223,32.227,31.250,0
1583421919.006,22.461,28.809,44.434,31.250,17.090,0
1583421919.010,23.438,30.273,48.828,33.203,43.945,0
1583421919.014,27.344,30.273,44.922,35.645,22.461,0
1583421919.018,25.879,33.203,39.551,32.227,-2.441,0
1583421919.014,24.414,28.320,52.734,30.762,24.414,0
1583421919.018,24.902,25.879,50.781,29.785,73.242,0
1583421919.022,24.414,34.180,39.062,24.902,65.918,0
1583421919.026,23.438,38.574,38.086,25.391,53.223,0
1583421919.030,22.949,35.156,45.898,24.414,44.434,0
1583421919.034,27.832,33.203,44.922,25.391,1.953,0
1583421919.038,27.832,35.156,44.922,25.391,24.902,0
1583421919.041,24.414,41.504,46.875,25.391,96.680,0
1583421919.045,26.367,45.898,39.062,25.879,44.434,0
1583421919.049,25.391,45.410,37.598,25.879,-34.180,0
1583421919.053,21.973,45.898,39.551,23.926,1.953,0
1583421919.057,17.090,43.457,40.527,17.578,9.277,0
1583421919.074,15.137,42.969,49.805,13.672,27.344,0
1583421919.078,13.184,46.875,55.664,11.230,63.965,0
1583421919.082,-1.465,43.945,50.781,0.977,69.824,0
1583421919.086,-10.742,40.527,48.828,-5.371,65.430,0
1583421919.090,-5.859,46.875,52.246,-3.418,61.523,0
1583421919.094,-13.672,52.246,54.688,-13.672,81.543,0
1583421919.098,-23.926,54.688,50.293,-26.367,55.664,0
1583421919.101,-33.691,56.152,47.852,-39.062,73.730,0
1583421919.105,-43.945,55.664,47.852,-50.293,48.340,0
1583421919.109,-53.223,56.641,47.363,-61.523,21.484,0
1583421919.113,-74.219,63.477,51.758,-80.078,1.465,0
1583421919.117,-96.680,64.941,49.805,-100.098,-21.973,0
1583421919.115,-110.840,61.523,53.223,-111.328,16.602,0
1583421919.119,-118.164,63.477,47.363,-117.188,26.855,0
1583421919.123,-124.512,65.430,34.668,-121.582,80.078,0
1583421919.127,-128.906,59.082,46.387,-125.977,47.363,0
1583421919.131,-131.836,55.664,52.734,-131.348,9.277,0
1583421919.135,-128.906,60.547,48.340,-127.930,41.016,0
1583421919.139,-119.629,62.500,43.457,-116.211,68.848,0
1583421919.142,-105.469,56.152,35.645,-104.492,96.191,0
1583421919.146,-83.984,53.711,33.691,-86.914,29.297,0
1583421919.150,-66.895,56.641,40.527,-73.242,43.457,0
1583421919.154,-49.805,50.781,41.504,-61.035,46.875,0
1583421919.158,-36.621,45.410,33.203,-42.480,-9.277,0
1583421919.174,-22.461,44.922,33.691,-23.438,51.758,0
1583421919.178,0.977,43.457,44.922,-2.930,83.984,0
1583421919.182,12.695,35.645,38.574,11.719,18.066,0
1583421919.186,22.949,32.227,20.508,21.973,11.719,0
1583421919.190,32.715,32.715,21.484,30.273,26.855,0
1583421919.194,44.922,33.691,26.367,41.992,36.621,0
1583421919.198,59.570,30.762,26.855,57.617,68.359,0
1583421919.201,65.918,26.855,40.527,61.035,2.441,0
1583421919.205,68.359,24.902,35.156,65.430,6.836,0
1583421919.209,77.148,20.508,21.973,75.195,42.480,0
1583421919.213,86.426,19.043,38.086,84.961,37.109,0
1583421919.217,87.402,22.461,38.086,89.844,31.250,0
1583421919.215,88.867,24.414,31.250,89.844,56.152,0
1583421919.219,98.633,25.391,31.250,99.609,75.195,0
1583421919.223,103.516,26.855,22.461,104.492,13.184,0
1583421919.227,101.074,26.855,18.555,100.098,-3.418,0
1583421919.231,103.516,26.855,30.273,99.609,5.859,0
1583421919.235,98.633,20.508,32.227,98.633,47.852,0
1583421919.239,94.727,16.602,19.531,98.633,34.180,0
1583421919.242,98.633,20.996,26.367,99.609,-9.766,0
1583421919.246,100.586,24.414,39.551,96.680,41.016,0
1583421919.250,97.656,27.344,32.715,95.215,78.613,0
1583421919.254,99.609,27.832,29.297,96.680,42.480,0
1583421919.258,97.656,24.414,34.180,93.750,-14.648,0
1583421919.254,94.238,25.879,30.762,90.820,-45.898,0
1583421919.258,98.145,30.762,19.531,93.750,0.488,0
1583421919.262,96.191,31.738,17.090,92.773,49.805,0
1583421919.266,92.773,27.344,26.855,92.773,40.039,0
1583421919.270,88.379,19.043,26.855,89.844,20.996,0
1583421919.274,83.984,18.555,21.973,85.449,7.812,0
1583421919.278,82.031,24.902,29.297,83.008,21.484,0
1583421919.281,78.125,27.344,37.109,79.590,39.551,0
1583421919.285,75.195,28.809,47.363,77.148,24.902,0
1583421919.289,72.754,28.809,56.152,73.242,47.363,0
1583421919.293,72.754,26.855,50.293,69.336,56.152,0
1583421919.297,75.684,25.879,45.410,74.707,41.992,0
1583421919.295,82.031,23.926,20.996,83.008,27.832,0
1583421919.299,87.402,27.832,14.648,82.520,27.832,0
1583421919.303,80.566,33.691,41.504,74.707,46.875,0
1583421919.307,73.730,33.203,48.828,70.801,76.660,0
1583421919.311,68.848,32.227,38.574,71.777,25.391,0
1583421919.315,61.035,28.809,41.016,63.477,58.594,0
1583421919.319,63.965,25.879,51.270,61.523,92.773,0
1583421919.322,62.012,27.344,40.039,63.965,-24.414,0
1583421919.326,59.082,33.203,29.785,66.406,12.695,0
1583421919.330,62.988,28.809,35.645,66.406,53.223,0
1583421919.334,62.500,25.391,43.945,57.617,-2.930,0
1583421919.338,60.059,34.180,39.551,52.734,4.883,0
1583421919.354,57.617,40.039,31.250,55.664,37.109,0
1583421919.358,59.082,36.621,37.598,55.176,11.230,0
1583421919.362,53.223,31.250,53.711,47.852,5.859,0
1583421919.366,48.340,28.320,51.270,44.922,18.066,0
1583421919.370,51.270,32.715,45.898,49.316,-36.621,0
1583421919.374,54.688,37.109,44.922,55.176,-42.480,0
1583421919.378,53.711,35.645,38.086,51.270,0.000,0
1583421919.381,46.875,36.133,30.762,42.969,8.789,0
1583421919.385,38.574,30.762,30.273,38.086,30.273,0
1583421919.389,36.621,30.762,36.621,41.992,62.500,0
1583421919.393,41.016,37.109,28.809,43.457,37.598,0
1583421919.397,36.133,40.527,43.945,38.574,13.672,0
1583421919.394,34.180,35.156,54.688,41.992,40.527,0
1583421919.398,38.574,33.203,52.734,47.852,67.383,0
1583421919.402,36.133,36.621,55.176,47.363,78.613,0
1583421919.406,34.668,34.180,41.504,43.457,58.594,0
1583421919.410,38.086,35.645,29.297,42.969,11.230,0
1583421919.414,39.062,29.297,44.922,39.551,-3.418,0
1583421919.418,39.062,19.043,59.082,40.039,45.410,0
1583421919.421,40.527,30.273,53.223,41.992,97.656,0
1583421919.425,42.480,39.062,41.504,37.109,68.359,0
1583421919.429,42.480,39.551,41.504,36.133,35.645,0
1583421919.433,42.480,37.109,42.480,41.504,24.414,0
1583421919.437,43.945,35.156,22.461,46.875,29.785,0
1583421919.454,38.086,35.156,29.785,43.945,53.711,0
1583421919.458,34.668,33.203,62.988,39.551,46.387,0
1583421919.462,36.621,29.297,62.012,41.016,32.715,0
1583421919.466,39.062,29.785,57.617,42.969,88.867,0
1583421919.470,49.316,33.203,39.062,52.246,90.820,0
1583421919.474,55.664,39.551,1.465,60.547,53.711,0
1583421919.478,48.340,39.062,31.250,51.758,65.918,0
1583421919.481,32.227,30.273,73.730,34.668,20.020,0
1583421919.485,24.902,29.785,75.684,30.762,8.789,0
1583421919.489,29.785,32.715,75.684,34.668,75.684,0
1583421919.493,31.250,29.297,68.848,33.691,38.086,0
1583421919.497,30.273,27.344,60.547,31.250,-3.906,0
1583421919.494,32.715,29.785,54.199,31.738,19.531,0
1583421919.498,33.203,30.762,48.340,31.738,15.137,0
1583421919.502,32.715,29.785,50.293,33.691,50.293,0
1583421919.506,40.039,31.738,48.340,36.621,25.879,0
1583421919.510,45.898,38.574,47.852,40.527,-8.789,0
1583421919.514,41.016,34.668,39.062,39.551,59.082,0
1583421919.518,36.621,26.855,35.645,38.574,49.805,0
1583421919.521,35.645,34.180,54.199,41.992,15.625,0
1583421919.525,39.551,39.062,46.875,46.387,44.922,0
1583421919.529,40.039,35.156,41.016,45.410,40.527,0
1583421919.533,35.645,31.738,61.035,39.062,23.926,0
1583421919.537,32.227,30.762,63.477,36.621,60.059,0
1583421919.534,31.250,29.297,51.758,36.621,17.578,0
1583421919.538,34.180,28.320,42.969,41.504,16.113,0
1583421919.542,38.086,29.785,45.410,44.922,57.129,0
1583421919.546,37.109,33.203,43.457,40.527,56.641,0
1583421919.550,40.039,39.062,37.598,41.504,-20.996,0
1583421919.554,41.016,37.598,44.434,43.945,-65.430,0
1583421919.558,34.668,32.715,48.340,38.574,1.465,0
1583421919.561,28.809,31.738,62.988,35.645,26.855,0
1583421919.565,28.320,33.691,65.918,34.180,46.387,0
1583421919.569,30.762,28.809,53.711,31.738,54.688,0
1583421919.573,31.250,27.832,40.527,35.645,41.992,0
1583421919.577,33.691,31.738,39.062,33.691,42.969,0
1583421919.594,31.738,29.297,46.875,31.250,11.719,0
1583421919.598,26.855,31.250,51.270,30.762,8.301,0
1583421919.602,24.414,35.156,50.781,25.879,66.895,0
1583421919.606,24.902,32.715,46.387,24.902,32.715,0
1583421919.610,28.809,36.133,36.621,26.855,46.875,0
1583421919.614,29.785,40.527,32.715,27.344,84.473,0
1583421919.618,27.832,40.039,31.738,28.320,45.898,0
1583421919.621,27.344,33.691,33.203,28.809,1.465,0
1583421919.625,33.691,33.203,32.227,35.156,27.344,0
1583421919.629,35.645,34.668,33.691,38.086,61.523,0
1583421919.633,27.832,28.320,48.828,34.180,42.480,0
1583421919.637,27.344,29.785,53.223,30.762,55.664,0
1583421919.634,26.855,33.691,44.922,24.414,12.695,0
1583421919.638,25.879,34.180,39.551,22.461,25.391,0
1583421919.642,24.902,32.715,43.457,22.949,57.617,0
1583421919.646,20.996,29.785,37.109,21.484,83.008,0
1583421919.650,22.461,32.227,25.879,21.484,79.590,0
1583421919.654,28.809,33.203,31.738,23.926,-21.484,0
1583421919.658,32.227,32.715,40.527,25.879,5.859,0
1583421919.661,37.109,34.180,44.922,25.879,86.914,0
1583421919.665,36.133,31.250,35.645,24.902,70.801,0
1583421919.669,36.621,35.645,32.715,25.879,53.711,0
1583421919.673,37.598,39.551,39.551,26.855,21.973,0
1583421919.677,30.762,35.645,47.852,25.879,7.324,0
1583421919.675,30.273,32.715,49.805,28.320,5.371,0
1583421919.679,30.273,27.832,43.945,28.809,5.859,0
1583421919.683,30.762,27.832,41.992,28.809,42.480,0
1583421919.687,31.250,36.133,40.527,28.809,6.348,0
1583421919.691,27.832,36.621,42.480,24.414,4.395,0
1583421919.695,28.809,37.598,38.574,26.367,16.602,0
1583421919.699,26.855,41.016,40.039,22.949,28.809,0
1583421919.702,21.973,37.109,41.016,19.043,54.199,0
1583421919.706,26.855,33.203,39.062,22.949,33.203,0
1583421919.710,27.832,33.691,37.109,23.438,37.598,0
1583421919.714,22.461,35.156,30.273,26.855,114.746,0
1583421919.718,21.484,37.109,29.785,22.949,132.324,0
1583421919.734,25.391,39.551,28.809,25.391,58.594,0
1583421919.738,32.227,43.457,32.715,31.250,-7.812,0
1583421919.742,29.785,40.527,27.832,25.879,8.301,0
1583421919.746,22.461,37.598,25.879,22.949,70.801,0
1583421919.750,20.020,34.180,44.922,22.461,25.391,0
1583421919.754,15.625,29.785,45.410,19.531,18.066,0
1583421919.758,12.207,35.645,36.133,17.090,71.289,0
1583421919.761,13.184,37.598,35.156,17.578,51.270,0
1583421919.765,14.648,32.715,38.086,17.578,22.461,0
1583421919.769,18.555,30.273,31.250,18.066,45.410,0
1583421919.773,18.555,32.227,26.855,21.973,71.777,0
1583421919.777,22.461,35.156,31.738,24.414,72.754,0
1583421919.774,21.484,34.180,21.973,22.949,30.762,0
1583421919.778,23.438,29.297,8.789,26.855,-18.555,0
1583421919.782,29.297,23.438,28.809,28.320,-16.113,0
1583421919.786,21.973,28.320,48.340,20.508,7.812,0
1583421919.790,22.461,40.527,48.340,18.066,1.953,0
1583421919.794,24.414,38.574,40.039,21.484,-79.102,0
1583421919.798,24.414,31.738,36.621,20.020,-41.992,0
1583421919.801,23.926,33.203,33.691,17.090,36.133,0
1583421919.805,21.973,34.180,27.832,14.648,77.637,0
1583421919.809,28.320,35.156,23.926,15.625,118.164,0
1583421919.813,35.156,38.086,29.297,16.602,71.777,0
1583421919.817,28.809,33.203,33.203,18.555,37.598,0
1583421919.814,23.438,30.762,25.879,22.461,80.078,0
1583421919.818,23.438,36.133,37.109,23.926,55.176,0
1583421919.822,24.902,36.621,36.621,20.996,-26.855,0
1583421919.826,22.949,32.715,34.180,18.555,5.371,0
1583421919.830,21.484,30.762,46.387,19.043,30.762,0
1583421919.834,23.926,29.297,41.016,19.531,-8.301,0
1583421919.838,26.367,30.273,34.668,21.973,38.574,0
1583421919.841,29.785,33.691,32.715,25.391,7.812,0
1583421919.845,30.762,34.668,26.855,25.879,-7.324,0
1583421919.849,28.320,32.227,27.832,26.855,23.926,0
1583421919.853,29.297,30.273,39.062,27.344,-17.578,0
1583421919.857,30.273,26.855,43.457,25.391,0.000,0
1583421919.874,32.715,34.180,35.156,25.879,24.414,0
1583421919.878,30.273,39.551,33.691,25.879,32.715,0
1583421919.882,24.902,36.133,37.598,22.949,80.078,0
1583421919.886,26.855,35.645,36.133,25.391,104.492,0
1583421919.890,31.738,38.574,32.227,25.879,97.656,0
1583421919.894,37.598,38.086,33.691,31.738,68.848,0
1583421919.898,37.109,34.180,35.156,34.668,70.312,0
1583421919.901,31.250,32.227,24.414,28.320,76.172,0
1583421919.905,29.297,26.855,18.066,27.832,17.578,0
1583421919.909,26.855,28.809,30.762,29.785,-26.855,0
1583421919.913,27.832,36.133,42.969,28.809,9.766,0
1583421919.917,26.855,37.109,42.480,25.391,49.805,0
1583421919.915,21.973,34.668,40.527,20.996,45.898,0
1583421919.919,22.461,34.668,36.133,21.973,-6.836,0
1583421919.923,22.461,36.621,29.297,23.438,-19.043,0
1583421919.927,18.066,36.133,31.738,16.602,52.246,0
1583421919.931,13.672,37.109,36.621,10.742,13.672,0
1583421919.935,11.719,36.133,33.691,10.254,34.180,0
1583421919.939,6.348,32.715,30.273,8.789,76.660,0
1583421919.942,3.418,31.738,33.691,6.348,31.250,0
1583421919.946,2.441,33.203,37.109,5.859,6.836,0
1583421919.950,0.000,38.086,37.109,6.836,3.906,0
1583421919.954,0.488,38.574,35.645,6.836,-20.508,0
1583421919.958,-1.465,35.156,38.574,4.883,-59.570,0
1583421919.954,-4.883,36.133,38.574,-1.465,-14.648,0
1583421919.958,-5.371,41.504,35.645,-8.789,53.223,0
1583421919.962,-5.371,40.039,41.016,-9.277,55.664,0
1583421919.966,-10.254,39.062,41.016,-14.648,45.410,0
1583421919.970,-11.719,40.039,38.086,-19.531,42.480,0
1583421919.974,-7.324,38.086,40.527,-17.090,27.832,0
1583421919.978,-12.207,40.039,42.969,-20.020,49.316,0
1583421919.981,-22.461,39.551,41.992,-31.738,30.762,0
1583421919.985,-23.926,39.062,41.992,-39.062,35.156,0
1583421919.989,-26.855,35.156,38.086,-40.527,28.320,0
1583421919.993,-28.809,32.227,33.691,-40.527,-61.035,0
1583421919.997,-33.203,39.551,34.668,-46.875,12.207,0
1583421920.014,-39.551,41.504,35.645,-53.711,53.711,0
1583421920.018,-41.504,42.480,30.762,-58.105,44.434,0
1583421920.022,-42.969,44.922,24.902,-61.523,77.637,0
1583421920.026,-40.039,42.969,23.926,-56.152,39.062,0
1583421920.030,-39.551,38.574,26.367,-50.781,57.129,0
1583421920.034,-35.156,37.598,34.180,-46.875,56.152,0
1583421920.038,-35.156,42.480,33.203,-42.480,33.203,0
1583421920.041,-32.715,43.945,28.320,-38.086,29.785,0
1583421920.045,-18.066,41.504,21.484,-26.855,23.926,0
1583421920.049,-13.184,44.922,9.766,-25.879,26.367,0
1583421920.053,-8.301,46.387,6.836,-23.438,59.570,0
1583421920.057,-0.977,44.922,13.672,-19.531,53.223,0
1583421920.054,4.395,41.992,16.602,-15.137,20.020,0
1583421920.058,7.812,43.945,11.719,-8.789,49.316,0
1583421920.062,8.301,48.340,10.254,-9.277,67.871,0
1583421920.066,10.742,46.387,14.160,-2.930,25.391,0
1583421920.070,13.672,44.922,15.137,2.930,47.852,0
1583421920.074,16.602,43.457,20.508,5.859,61.035,0
1583421920.078,14.160,39.551,23.926,3.906,51.758,0
1583421920.081,12.695,38.086,24.414,2.441,102.539,0
1583421920.085,16.602,36.133,26.367,10.742,46.875,0
1583421920.089,16.602,40.527,31.250,9.766,0.488,0
1583421920.093,8.789,42.969,29.785,-1.465,65.918,0
1583421920.097,-1.953,39.551,26.855,-4.883,51.270,0
1583421920.094,-10.254,38.574,34.180,-7.812,30.273,0
1583421920.098,-14.160,42.969,39.062,-11.230,37.598,0
1583421920.102,-24.902,46.387,38.086,-21.973,43.945,0
1583421920.106,-41.504,45.410,38.574,-43.945,0.977,0
1583421920.110,-57.617,45.410,37.109,-61.523,24.414,0
1583421920.114,-76.172,42.480,30.273,-80.566,56.641,0
1583421920.118,-89.844,40.527,29.297,-103.027,35.156,0
1583421920.121,-108.398,47.852,28.320,-127.930,100.586,0
1583421920.125,-125.000,52.246,25.391,-147.461,127.930,0
1583421920.129,-135.742,49.805,17.090,-152.344,49.805,0
1583421920.133,-137.695,54.688,12.207,-152.344,-9.277,0
1583421920.137,-130.371,52.734,24.902,-146.484,10.254,0
1583421920.154,-119.141,44.922,26.855,-135.254,33.203,0
1583421920.158,-111.328,44.922,25.879,-122.559,42.480,0
1583421920.162,-99.121,48.828,31.250,-105.957,54.199,0
1583421920.166,-82.520,46.387,28.320,-85.449,75.684,0
1583421920.170,-66.406,45.410,21.484,-60.059,72.754,0
1583421920.174,-51.758,53.223,23.438,-39.062,30.273,0
1583421920.178,-37.598,54.199,28.809,-25.391,41.504,0
1583421920.181,-19.531,49.316,23.926,-16.602,41.992,0
1583421920.185,-0.977,52.246,20.508,-6.348,25.391,0
1583421920.189,14.648,56.152,9.766,7.812,41.504,0
1583421920.193,28.320,56.641,6.348,20.996,21.973,0
1583421920.197,44.434,59.570,13.672,36.133,21.973,0
1583421920.194,59.570,52.246,4.883,46.387,16.602,0
1583421920.198,64.941,44.922,4.395,54.688,-30.273,0
1583421920.202,74.219,50.781,6.836,64.941,-21.484,0
1583421920.206,93.262,50.293,5.859,77.637,-13.184,0
1583421920.210,102.051,45.410,0.977,86.914,2.441,0
1583421920.214,104.004,49.316,3.906,91.797,71.289,0
1583421920.218,109.863,45.410,17.090,97.656,88.379,0
1583421920.221,108.887,41.504,16.602,99.121,58.594,0
1583421920.225,108.887,41.016,18.066,99.609,41.016,0
1583421920.229,113.281,40.039,14.648,101.074,-7.324,0
1583421920.233,108.398,38.574,4.395,103.027,-45.898,0
1583421920.237,104.004,33.691,8.789,104.980,13.184,0
1583421920.234,108.887,31.738,22.461,109.863,42.480,0
1583421920.238,110.352,29.297,24.414,114.258,62.500,0
1583421920.242,109.375,28.320,16.602,116.211,57.129,0
1583421920.246,116.211,25.391,11.719,126.953,44.434,0
1583421920.250,118.164,21.973,16.113,124.023,49.805,0
1583421920.254,115.723,25.879,21.484,118.164,47.363,0
1583421920.258,113.770,30.762,19.043,118.164,66.895,0
1583421920.261,115.723,32.227,7.812,118.164,31.738,0
1583421920.265,115.723,31.738,9.766,120.117,12.207,0
1583421920.269,115.723,28.320,14.160,120.605,12.695,0
1583421920.273,119.141,25.391,10.254,118.652,-46.875,0
1583421920.277,120.117,27.832,13.672,119.141,-41.016,0
1583421920.294,120.605,31.738,19.043,122.070,-12.207,0
1583421920.298,116.211,34.668,17.578,115.723,0.977,0
1583421920.302,107.422,31.250,20.020,110.840,37.109,0
1583421920.306,96.191,27.832,21.484,106.934,32.715,0
1583421920.310,90.820,30.273,16.602,103.516,24.414,0
1583421920.314,87.402,30.273,22.461,95.703,0.488,0
1583421920.318,76.172,24.902,32.227,82.031,-3.418,0
1583421920.321,66.406,21.973,29.297,75.684,22.949,0
1583421920.325,66.895,23.926,25.391,73.242,14.648,0
1583421920.329,72.754,28.320,24.902,71.289,-16.113,0
1583421920.333,79.590,30.762,23.438,73.242,28.320,0
1583421920.337,81.543,30.273,24.414,76.660,73.242,0
1583421920.335,84.473,28.809,23.438,83.984,36.621,0
1583421920.339,87.891,23.438,19.531,87.891,59.570,0
1583421920.343,82.031,21.973,26.855,82.520,54.688,0
1583421920.347,81.055,27.344,21.484,82.520,5.371,0
1583421920.351,78.613,29.785,20.508,82.031,20.508,0
1583421920.355,73.730,25.879,37.109,74.707,-29.297,0
1583421920.359,66.406,23.926,35.156,68.359,-36.621,0
1583421920.362,52.734,23.926,24.414,63.477,22.461,0
1583421920.366,48.340,25.391,14.160,62.500,-9.277,0
1583421920.370,49.316,28.320,24.902,59.570,21.484,0
1583421920.374,47.363,29.297,38.086,51.758,57.129,0
1583421920.378,49.805,23.926,38.574,50.293,29.297,0
1583421920.374,55.664,24.414,26.855,57.129,-9.766,0
1583421920.378,56.641,29.785,17.090,55.664,81.543,0
1583421920.382,54.688,29.297,31.250,52.246,101.074,0
1583421920.386,52.246,29.785,36.133,51.758,2.441,0
1583421920.390,49.805,28.320,32.715,47.852,0.000,0
1583421920.394,49.805,26.367,24.414,46.387,20.508,0
1583421920.398,48.340,29.785,19.043,49.316,34.180,0
1583421920.401,42.969,30.762,26.855,41.992,44.922,0
1583421920.405,35.645,25.879,32.715,39.062,15.625,0
1583421920.409,33.691,24.902,24.902,45.898,13.672,0
1583421920.413,40.039,28.320,8.301,48.340,46.875,0
1583421920.417,40.039,30.762,13.672,42.480,56.152,0
1583421920.434,35.645,32.227,43.945,36.621,41.016,0
1583421920.438,31.738,30.273,44.434,34.180,-17.578,0
1583421920.442,40.039,27.832,26.855,38.086,7.812,0
1583421920.446,45.410,30.273,31.250,38.086,69.824,0
1583421920.450,41.504,31.250,31.738,34.180,66.895,0
1583421920.454,36.621,36.621,39.062,33.203,78.613,0
1583421920.458,37.109,32.715,34.180,32.715,76.660,0
1583421920.461,41.992,27.832,26.367,31.250,20.020,0
1583421920.465,44.434,37.109,22.949,29.785,-13.672,0
1583421920.469,49.805,41.016,16.602,31.250,-11.719,0
1583421920.473,53.223,38.574,30.273,33.691,-10.254,0
1583421920.477,55.176,34.668,35.645,37.109,37.109,0
1583421920.474,53.711,34.668,34.180,38.086,57.129,0
1583421920.478,57.617,38.086,37.109,45.898,28.809,0
1583421920.482,62.500,31.250,25.391,56.641,-20.020,0
1583421920.486,53.711,24.414,21.484,54.199,30.762,0
1583421920.490,46.387,27.832,41.504,47.363,76.172,0
1583421920.494,50.781,31.738,46.875,44.922,31.738,0
1583421920.498,51.758,33.691,38.574,46.875,50.293,0
1583421920.501,47.852,35.156,22.949,44.434,86.914,0
1583421920.505,47.852,33.691,27.344,41.992,71.289,0
1583421920.509,47.852,31.738,41.016,41.016,14.648,0
1583421920.513,48.340,30.762,32.715,41.016,37.598,0
1583421920.517,45.410,30.762,39.551,39.062,84.473,0
1583421920.514,43.945,29.785,40.527,37.109,76.172,0
1583421920.518,45.898,27.344,31.250,41.016,55.176,0
1583421920.522,41.992,27.344,35.156,36.621,76.660,0
1583421920.526,39.062,32.227,40.527,31.738,115.234,0
1583421920.530,35.645,32.715,42.969,29.785,49.805,0
1583421920.534,35.156,33.203,42.969,29.297,33.691,0
1583421920.538,35.645,29.785,40.527,24.414,18.555,0
1583421920.541,37.598,28.809,41.016,22.949,3.418,0
1583421920.545,42.969,32.715,33.203,29.297,4.883,0
1583421920.549,45.410,34.180,24.414,33.691,-24.902,0
1583421920.553,44.922,34.668,29.297,32.227,-9.766,0
1583421920.557,42.969,33.203,36.621,31.250,-21.484,0
1583421920.574,41.016,35.156,39.551,34.180,4.883,0
1583421920.578,38.574,38.574,35.156,37.109,48.828,0
1583421920.582,42.969,37.109,17.090,39.062,36.621,0
1583421920.586,44.922,36.133,27.344,38.574,12.207,0
1583421920.590,42.480,37.109,48.340,41.504,16.602,0
1583421920.594,39.551,35.645,39.062,42.969,18.555,0
1583421920.598,37.109,34.180,21.484,37.598,-10.254,0
1583421920.601,30.762,34.180,37.598,32.715,-39.062,0
1583421920.605,28.320,27.832,47.852,30.762,-8.301,0
1583421920.609,29.297,26.367,33.691,27.344,36.133,0
1583421920.613,31.738,35.156,38.086,27.832,74.707,0
1583421920.617,37.598,34.668,52.734,28.809,98.145,0
1583421920.614,34.180,34.180,44.922,28.320,42.480,0
1583421920.618,28.320,35.156,31.250,25.879,60.059,0
1583421920.622,32.715,33.203,28.320,21.973,81.055,0
1583421920.626,32.715,34.668,31.738,20.020,45.898,0
1583421920.630,25.879,33.691,36.621,19.043,41.504,0
1583421920.634,26.855,27.832,37.598,21.484,67.383,0
1583421920.638,28.809,32.227,22.949,24.414,79.590,0
1583421920.641,29.297,41.504,14.648,26.367,48.340,0
1583421920.645,29.785,37.598,35.645,29.297,15.625,0
1583421920.649,28.320,34.180,44.922,29.297,73.242,0
1583421920.653,25.879,36.133,43.457,28.809,96.680,0
1583421920.657,26.367,33.691,42.969,30.762,75.195,0
1583421920.654,27.344,29.297,37.598,33.203,39.062,0
1583421920.658,31.250,32.715,39.062,37.598,-31.738,0
1583421920.662,28.809,36.133,39.062,37.109,-28.320,0
1583421920.666,23.438,37.109,36.133,32.227,15.137,0
1583421920.670,25.391,37.598,31.738,31.250,45.898,0
1583421920.674,28.320,30.762,29.297,31.738,70.312,0
1583421920.678,27.344,31.738,35.645,28.809,54.688,0
1583421920.681,25.879,39.062,25.391,25.879,31.738,0
1583421920.685,29.297,37.109,27.344,21.973,20.508,0
1583421920.689,31.738,36.133,38.574,20.996,30.273,0
1583421920.693,27.832,38.574,36.621,17.090,90.332,0
1583421920.697,24.902,37.598,41.992,12.207,143.066,0
1583421920.715,23.926,34.668,41.016,9.766,118.652,0
1583421920.719,24.414,34.180,33.691,10.742,66.406,0
1583421920.723,24.902,39.062,21.484,13.184,43.945,0
1583421920.727,23.926,41.016,20.508,13.672,12.207,0
1583421920.731,20.996,37.109,28.320,15.137,23.926,0
1583421920.735,22.949,34.180,38.086,17.578,28.320,0
1583421920.739,25.879,33.203,45.410,22.949,2.930,0
1583421920.742,31.250,34.180,38.086,30.762,44.434,0
1583421920.746,30.762,38.574,27.344,34.668,103.516,0
1583421920.750,33.691,36.133,24.414,35.645,93.262,0
1583421920.754,36.133,25.391,41.992,34.180,61.035,0
1583421920.758,35.645,27.832,51.758,31.738,52.734,0
1583421920.754,35.645,38.086,45.898,29.785,63.965,0
1583421920.758,32.227,39.062,40.527,25.879,23.926,0
1583421920.762,25.879,37.598,31.250,26.855,32.227,0
1583421920.766,24.414,37.598,29.297,28.809,58.594,0
1583421920.770,27.832,35.645,36.133,24.902,9.277,0
1583421920.774,31.250,36.621,38.086,26.367,-22.949,0
1583421920.778,33.691,40.527,36.621,25.879,-20.020,0
1583421920.781,30.762,38.086,33.203,24.414,-2.441,0
1583421920.785,31.250,33.691,31.250,27.344,8.789,0
1583421920.789,31.250,38.086,32.715,26.855,-8.789,0
1583421920.793,30.762,42.480,25.391,29.297,25.879,0
1583421920.797,29.297,41.016,20.996,29.297,62.500,0
1583421920.814,30.273,36.621,37.109,29.297,39.551,0
1583421920.818,36.133,39.062,27.832,32.715,38.574,0
1583421920.822,34.668,41.016,17.090,31.250,34.668,0
1583421920.826,27.832,36.621,39.551,28.320,55.176,0
1583421920.830,23.438,35.645,48.828,28.809,38.086,0
1583421920.834,21.484,33.691,44.922,29.785,29.297,0
1583421920.838,25.391,35.156,43.457,29.297,9.766,0
1583421920.841,27.344,37.598,41.504,24.414,-30.273,0
1583421920.845,25.879,33.203,33.691,23.926,27.344,0
1583421920.849,28.809,34.180,25.391,29.785,17.090,0
1583421920.853,28.320,37.598,24.414,25.391,16.113,0
1583421920.857,20.996,34.180,24.414,17.578,9.277,0
1583421920.854,21.973,32.227,34.180,18.555,-16.113,0
1583421920.858,27.344,33.691,33.691,20.996,3.418,0
1583421920.862,29.297,27.344,29.297,19.043,14.648,0
1583421920.866,32.227,24.414,39.551,20.508,-11.719,0
1583421920.870,31.738,30.762,36.621,27.832,-9.277,0
1583421920.874,28.320,29.785,35.645,28.320,-11.719,0
1583421920.878,27.344,27.344,41.992,27.344,-4.395,0
1583421920.881,26.855,31.738,39.551,29.297,34.180,0
1583421920.885,20.996,30.273,35.156,29.785,87.402,0
1583421920.889,20.996,29.297,37.598,34.668,77.637,0
1583421920.893,25.879,33.691,42.480,36.621,25.879,0
1583421920.897,27.832,34.180,40.527,36.133,14.648,0
1583421920.894,31.738,31.738,35.156,38.574,2.441,0
1583421920.898,29.297,26.855,39.551,37.109,14.160,0
1583421920.902,23.438,28.320,39.551,31.250,4.883,0
1583421920.906,25.391,34.180,33.203,24.414,29.297,0
1583421920.910,25.391,34.668,34.180,21.484,-2.441,0
1583421920.914,23.438,34.180,28.320,19.043,7.324,0
1583421920.918,28.320,36.621,25.391,19.043,64.941,0
1583421920.921,29.297,36.133,28.320,18.555,22.949,0
1583421920.925,26.367,33.691,33.203,16.113,4.395,0
1583421920.929,26.855,31.738,34.668,14.160,49.805,0
1583421920.933,26.367,36.621,26.367,13.672,64.453,0
1583421920.937,28.320,40.527,28.320,12.695,48.828,0
1583421920.954,33.203,40.039,33.203,11.719,-0.977,0
1583421920.958,31.250,39.062,31.250,13.672,-20.996,0
1583421920.962,32.715,37.598,25.391,16.113,-3.906,0
1583421920.966,37.109,37.109,28.320,18.066,-35.156,0
1583421920.970,35.645,35.645,27.344,19.531,-20.996,0
1583421920.974,34.668,36.133,17.090,25.879,16.113,0
1583421920.978,33.203,37.109,25.391,26.855,87.891,0
1583421920.981,25.879,28.809,38.574,22.949,115.723,0
1583421920.985,22.949,28.320,29.785,26.855,65.918,0
1583421920.989,28.320,34.180,27.832,31.250,38.086,0
1583421920.993,27.344,30.762,34.668,30.273,49.805,0
1583421920.997,23.926,32.715,33.691,30.273,101.074,0
1583421920.994,26.855,36.621,32.227,29.297,55.176,0
1583421920.998,31.250,37.598,26.367,26.367,17.090,0
1583421921.002,30.273,36.621,30.762,24.414,48.828,0
1583421921.006,34.668,35.645,23.438,28.320,19.531,0
1583421921.010,39.551,34.180,13.184,33.203,24.902,0
1583421921.014,36.621,36.133,33.203,29.785,40.527,0
1583421921.018,33.203,38.574,36.621,25.879,65.918,0
1583421921.021,31.738,36.621,35.156,22.461,82.031,0
1583421921.025,35.156,36.133,33.203,21.973,28.809,0
1583421921.029,37.109,36.133,29.297,28.320,53.223,0
1583421921.033,32.715,38.086,30.273,31.738,41.504,0
1583421921.037,37.109,39.062,28.809,34.180,21.484,0
1583421921.034,42.969,36.133,32.227,39.551,39.062,0
1583421921.038,40.039,30.762,32.227,36.621,13.184,0
1583421921.042,38.574,34.668,26.855,33.691,-13.184,0
1583421921.046,40.039,42.969,27.344,31.738,11.230,0
1583421921.050,38.086,42.480,28.320,26.855,40.039,0
1583421921.054,33.691,39.062,23.926,26.855,52.246,0
1583421921.058,28.809,39.551,21.973,29.297,31.738,0
1583421921.061,22.461,36.133,32.227,25.879,6.348,0
1583421921.065,24.414,33.691,39.551,22.461,18.555,0
1583421921.069,29.785,30.762,40.527,26.855,68.359,0
1583421921.073,27.344,24.414,35.156,31.250,76.172,0
1583421921.077,26.367,31.738,22.949,30.273,26.367,0
1583421921.094,29.785,35.156,24.414,32.715,16.602,0
1583421921.098,31.250,33.691,39.062,35.156,-7.324,0
1583421921.102,32.715,36.133,44.922,36.133,21.973,0
1583421921.106,34.180,38.086,40.039,35.156,56.641,0
1583421921.110,31.738,35.156,35.645,35.645,60.547,0
1583421921.114,32.715,33.203,32.227,37.598,45.410,0
1583421921.118,33.691,36.621,22.461,34.668,38.574,0
1583421921.121,26.367,33.203,24.902,30.273,32.715,0
1583421921.125,24.414,30.762,38.574,27.832,40.527,0
1583421921.129,23.438,30.762,42.480,24.902,45.898,0
1583421921.133,22.461,32.227,36.621,23.926,11.230,0
1583421921.137,25.879,35.645,30.762,24.902,8.789,0
1583421921.135,27.344,37.109,24.902,29.785,46.875,0
1583421921.139,30.273,38.574,19.043,35.645,50.781,0
1583421921.143,33.691,35.156,20.508,34.668,52.246,0
1583421921.147,31.738,27.832,33.691,29.785,33.203,0
1583421921.151,27.344,31.738,43.945,28.809,-4.395,0
1583421921.155,29.785,39.551,36.133,31.250,12.695,0
1583421921.159,31.250,35.645,36.133,27.344,29.785,0
1583421921.162,29.297,31.250,43.457,25.879,35.156,0
1583421921.166,31.250,28.809,43.457,31.738,25.391,0
1583421921.170,32.227,24.902,37.109,34.668,6.836,0
1583421921.174,28.320,27.832,27.344,35.156,31.250,0
1583421921.178,27.832,27.832,21.973,34.668,1.465,0
1583421921.174,27.832,33.691,24.414,33.203,28.809,0
1583421921.178,30.762,42.480,21.973,37.598,73.242,0
1583421921.182,33.691,40.527,16.602,39.551,60.059,0
1583421921.186,31.738,34.180,27.832,31.250,84.961,0
1583421921.190,31.738,38.086,37.598,29.297,128.418,0
1583421921.194,32.227,38.574,34.668,31.738,73.242,0
1583421921.198,27.832,34.668,36.621,31.250,43.945,0
1583421921.201,29.297,36.621,38.086,31.250,49.805,0
1583421921.205,34.180,35.156,32.227,30.273,35.156,0
1583421921.209,29.785,36.133,34.180,26.855,108.398,0
1583421921.213,30.762,36.133,35.645,26.367,92.285,0
1583421921.217,35.156,34.668,33.691,28.320,9.277,0
1583421921.234,35.156,34.180,38.574,25.879,0.488,0
1583421921.238,38.574,37.109,32.715,27.344,-9.766,0
1583421921.242,34.668,36.621,25.391,29.785,26.855,0
1583421921.246,31.738,31.250,33.203,29.297,51.758,0
1583421921.250,37.109,34.180,30.273,30.762,-28.809,0
1583421921.254,40.039,28.320,28.809,33.203,-20.020,0
1583421921.258,37.598,25.391,36.133,32.715,-2.930,0
1583421921.261,32.715,34.668,34.668,30.762,21.484,0
1583421921.265,25.879,37.598,26.855,28.809,60.059,0
1583421921.269,25.391,38.086,26.367,28.809,31.250,0
1583421921.273,27.832,35.645,29.297,30.273,31.738,0
1583421921.277,21.484,31.738,27.832,25.879,57.617,0
1583421921.274,14.648,29.785,33.691,20.508,63.965,0
1583421921.278,16.602,29.785,38.086,21.484,59.570,0
1583421921.282,18.555,29.297,36.133,23.438,49.805,0
1583421921.286,19.531,24.902,35.645,22.461,22.461,0
1583421921.290,19.043,22.949,32.715,24.902,40.527,0
1583421921.294,20.020,22.949,24.414,26.367,62.500,0
1583421921.298,24.902,28.809,27.344,26.367,19.043,0
1583421921.301,22.949,31.738,35.156,23.438,-15.625,0
1583421921.305,17.578,30.273,37.109,18.066,13.672,0
1583421921.309,27.832,31.738,31.738,20.996,30.273,0
1583421921.313,36.621,36.621,24.902,26.367,10.254,0
1583421921.317,36.621,37.598,24.902,26.855,35.645,0
1583421921.314,38.574,37.109,28.320,28.320,41.016,0
1583421921.318,38.086,36.133,33.203,29.785,-14.160,0
1583421921.322,36.621,28.320,33.691,30.762,-32.227,0
1583421921.326,35.645,27.832,22.949,27.832,8.789,0
1583421921.330,33.203,38.086,21.973,28.320,63.477,0
1583421921.334,32.227,41.504,29.785,36.133,96.191,0
1583421921.338,27.344,36.621,27.832,32.227,44.922,0
1583421921.341,26.855,34.180,30.762,28.809,-20.508,0
1583421921.345,36.133,35.645,33.203,33.203,44.434,0
1583421921.349,38.086,34.180,24.902,33.203,79.102,0
1583421921.353,39.551,35.156,28.809,30.762,37.109,0
1583421921.357,44.434,34.180,29.785,31.250,24.902,0
1583421921.374,40.527,30.762,24.902,31.738,60.547,0
1583421921.378,35.645,36.621,34.668,32.227,21.973,0
1583421921.382,36.133,35.645,29.785,33.203,-30.273,0
1583421921.386,41.992,35.645,21.973,33.691,27.344,0
1583421921.390,41.992,40.527,35.156,37.598,-2.930,0
1583421921.394,38.086,41.992,35.156,39.062,-8.789,0
1583421921.398,34.668,42.969,36.621,33.203,62.988,0
1583421921.401,32.227,37.598,42.480,30.273,32.227,0
1583421921.405,32.227,31.738,34.180,30.273,-21.484,0
1583421921.409,27.344,35.645,32.227,26.367,-32.227,0
1583421921.413,25.391,38.574,32.715,24.902,6.348,0
1583421921.417,30.762,39.551,33.691,26.855,13.184,0
1583421921.414,29.785,40.039,32.715,25.879,20.996,0
1583421921.418,28.809,43.945,35.645,28.320,40.039,0
1583421921.422,36.621,47.852,24.902,33.691,7.812,0
1583421921.426,33.203,42.480,12.695,29.297,15.625,0
1583421921.430,25.879,34.180,26.367,26.367,14.160,0
1583421921.434,26.367,35.645,31.250,26.855,36.621,0
1583421921.438,22.949,45.898,37.109,24.414,119.629,0
1583421921.441,21.484,52.734,45.410,21.484,103.516,0
1583421921.445,25.879,53.711,41.992,21.484,38.086,0
1583421921.449,32.227,53.223,41.016,24.414,31.738,0
1583421921.453,33.691,55.176,42.480,22.949,51.270,0
1583421921.457,29.297,53.711,40.527,21.484,53.711,0
1583421921.455,27.832,52.246,39.551,25.391,36.133,0
1583421921.459,20.508,50.781,34.668,22.461,62.500,0
1583421921.463,20.020,53.223,36.621,24.902,90.820,0
1583421921.467,23.438,58.105,39.062,28.809,62.500,0
1583421921.471,16.113,56.641,35.156,21.484,38.574,0
1583421921.475,8.789,55.664,36.621,12.695,25.391,0
1583421921.479,3.418,56.152,28.320,8.301,49.805,0
1583421921.482,2.930,56.152,25.879,9.766,62.500,0
1583421921.486,-4.883,58.594,32.715,-1.953,42.480,0
1583421921.490,-11.719,62.012,42.480,-12.207,19.043,0
1583421921.494,-15.625,62.012,47.852,-14.160,41.992,0
1583421921.498,-22.461,60.059,39.551,-19.043,24.414,0
1583421921.514,-25.879,62.012,37.598,-24.902,19.531,0
1583421921.518,-32.227,62.988,38.086,-34.668,10.742,0
1583421921.522,-37.109,67.871,32.715,-40.527,-0.977,0
1583421921.526,-39.062,73.242,32.227,-45.410,6.348,0
1583421921.530,-54.199,70.801,30.273,-56.641,4.395,0
1583421921.534,-64.941,64.941,32.227,-66.406,41.016,0
1583421921.538,-67.383,68.359,37.109,-72.754,57.129,0
1583421921.541,-76.172,66.895,31.738,-79.102,83.984,0
1583421921.545,-74.707,66.406,33.691,-77.637,101.562,0
1583421921.549,-70.312,74.219,44.922,-77.148,53.711,0
1583421921.553,-70.801,69.824,46.387,-78.613,24.414,0
1583421921.557,-71.777,63.477,40.039,-74.219,-1.953,0
1583421921.575,-67.383,62.988,36.133,-73.730,6.348,0
1583421921.579,-62.012,62.500,42.969,-72.754,80.078,0
1583421921.583,-59.082,64.453,46.387,-69.824,61.523,0
1583421921.587,-58.594,62.012,39.551,-72.266,33.691,0
1583421921.591,-56.641,60.547,38.086,-72.754,87.891,0
1583421921.595,-47.852,63.477,34.668,-63.477,117.188,0
1583421921.599,-43.945,58.105,30.762,-51.758,82.520,0
1583421921.602,-43.457,54.199,35.156,-45.898,44.434,0
1583421921.606,-41.504,57.129,36.133,-43.457,24.902,0
1583421921.610,-40.527,54.688,39.062,-41.504,34.668,0
1583421921.614,-34.668,53.223,40.039,-34.180,70.312,0
1583421921.618,-26.367,57.129,26.367,-23.926,69.824,0
1583421921.594,-25.391,54.688,18.555,-22.949,91.309,0
1583421921.598,-23.926,50.293,33.691,-22.949,108.398,0
1583421921.602,-9.766,49.316,43.457,-14.160,31.738,0
1583421921.606,1.953,51.758,39.551,-7.324,43.945,0
1583421921.610,5.371,52.246,33.203,0.977,16.602,0
1583421921.614,12.207,48.340,32.227,6.836,-7.812,0
1583421921.618,18.555,48.340,22.461,6.836,20.996,0
1583421921.621,27.832,44.434,7.324,15.137,-25.879,0
1583421921.625,39.551,42.969,19.531,23.438,-17.090,0
1583421921.629,45.898,48.340,36.133,25.391,51.270,0
1583421921.633,44.434,48.340,35.645,31.738,18.555,0
1583421921.637,43.945,43.945,33.203,40.039,-37.109,0
1583421921.674,57.129,44.434,21.484,49.316,34.668,0
1583421921.678,65.430,48.828,10.254,57.129,31.738,0
1583421921.682,65.430,42.969,20.020,62.012,23.438,0
1583421921.686,65.918,39.062,30.762,64.453,58.594,0
1583421921.690,67.383,40.527,35.645,66.406,73.242,0
1583421921.694,74.219,38.086,33.203,76.660,84.473,0
1583421921.698,78.125,33.203,26.855,79.590,-26.367,0
1583421921.701,79.102,36.133,25.879,76.172,12.207,0
1583421921.705,83.008,41.504,20.020,80.078,108.398,0
1583421921.709,92.285,42.969,20.508,87.402,41.992,0
1583421921.713,92.285,42.969,29.297,92.773,17.578,0
1583421921.717,89.355,41.504,22.461,90.332,48.828,0
1583421921.714,92.773,42.480,22.949,88.379,112.305,0
1583421921.718,91.309,42.480,33.691,87.402,87.891,0
1583421921.722,85.449,40.039,31.738,85.449,22.461,0
1583421921.726,88.379,35.645,23.438,84.961,31.738,0
1583421921.730,85.449,36.621,22.949,83.496,81.543,0
1583421921.734,80.566,43.945,25.391,83.984,39.551,0
1583421921.738,81.543,45.410,23.926,82.520,15.625,0
1583421921.741,84.961,42.969,21.484,80.566,19.531,0
1583421921.745,83.496,42.480,24.414,79.102,-53.711,0
1583421921.749,81.055,41.992,27.344,75.195,-52.246,0
1583421921.753,81.543,40.527,33.691,71.289,-50.293,0
1583421921.757,82.031,41.016,25.391,70.801,-21.973,0
1583421921.734,82.520,39.551,16.113,70.312,8.301,0
1583421921.738,80.078,31.738,21.484,66.895,0.977,0
1583421921.742,83.008,37.109,26.367,66.895,28.320,0
1583421921.746,78.613,43.457,35.156,62.988,47.363,0
1583421921.750,72.754,41.992,26.855,58.105,51.758,0
1583421921.754,75.684,44.434,10.742,61.523,8.301,0
1583421921.758,75.684,44.922,22.949,66.406,-33.691,0
1583421921.761,70.801,42.480,41.992,65.918,-48.340,0
1583421921.765,65.430,37.109,43.945,60.547,-21.484,0
1583421921.769,63.965,33.203,36.621,60.547,6.348,0
1583421921.773,63.477,35.156,33.691,62.500,4.395,0
1583421921.777,56.641,30.762,34.180,62.012,32.715,0
1583421921.794,57.617,34.668,38.086,65.430,41.504,0
1583421921.798,58.594,48.828,35.645,60.547,-8.789,0
1583421921.802,51.270,48.340,23.926,52.246,20.508,0
1583421921.806,44.434,40.527,25.391,48.828,66.406,0
1583421921.810,41.016,40.527,34.180,41.504,40.527,0
1583421921.814,45.898,42.480,40.039,41.992,8.301,0
1583421921.818,47.852,36.133,37.109,40.039,-11.719,0
1583421921.821,49.805,37.109,30.273,37.598,4.395,0
1583421921.825,52.734,42.480,25.391,39.551,-24.414,0
1583421921.829,47.852,43.945,31.250,39.551,-46.875,0
1583421921.833,47.852,44.434,40.527,41.992,34.668,0
1583421921.837,52.734,41.992,31.738,47.363,14.160,0
1583421921.834,51.758,42.480,27.344,44.434,9.277,0
1583421921.838,45.410,46.387,20.996,38.574,104.004,0
1583421921.842,42.480,47.363,22.461,38.086,125.977,0
1583421921.846,41.992,41.504,38.086,34.180,64.941,0
1583421921.850,40.039,39.062,34.668,34.180,48.828,0
1583421921.854,39.551,38.086,36.133,35.156,17.578,0
1583421921.858,40.527,40.527,35.645,30.762,-22.461,0
1583421921.861,39.551,39.551,26.855,27.344,17.578,0
1583421921.865,35.156,40.039,22.949,29.785,64.941,0
1583421921.869,34.668,41.504,28.809,30.762,56.152,0
1583421921.873,31.738,41.016,37.109,31.738,32.227,0
1583421921.877,27.344,44.434,26.855,34.180,44.922,0
1583421921.874,26.367,42.969,26.855,31.250,28.809,0
1583421921.878,23.438,40.527,39.062,28.320,13.184,0
1583421921.882,22.461,42.480,36.621,27.832,31.738,0
1583421921.886,23.926,47.363,33.203,27.832,31.738,0
1583421921.890,23.926,50.293,24.902,27.832,33.691,0
1583421921.894,19.043,47.852,31.738,20.508,49.316,0
1583421921.898,14.160,43.945,46.387,11.230,87.891,0
1583421921.901,13.672,48.340,44.922,12.207,112.305,0
1583421921.905,13.184,46.875,41.992,11.719,50.781,0
1583421921.909,12.207,47.363,35.156,10.254,7.324,0
1583421921.913,10.742,58.105,26.855,10.254,7.324,0
1583421921.917,5.371,57.617,28.809,3.418,-19.531,0
1583421921.934,2.441,54.688,34.180,-2.930,29.785,0
1583421921.938,2.441,56.152,37.598,-2.930,59.082,0
1583421921.942,-3.418,60.547,40.527,-9.277,-9.277,0
1583421921.946,-11.719,57.129,37.598,-17.090,-8.789,0
1583421921.950,-19.531,55.176,39.551,-23.926,-3.906,0
1583421921.954,-25.879,60.547,38.574,-29.785,16.113,0
1583421921.958,-32.715,62.500,32.715,-38.086,40.039,0
1583421921.961,-44.922,61.035,39.062,-54.688,2.930,0
1583421921.965,-51.270,64.941,46.875,-62.012,-25.879,0
1583421921.969,-58.594,67.383,51.270,-68.359,-30.762,0
1583421921.973,-73.730,63.965,49.805,-82.031,59.570,0
1583421921.977,-80.078,65.918,45.898,-89.844,141.602,0
1583421921.974,-82.520,68.848,48.340,-91.797,35.645,0
1583421921.978,-88.379,60.059,45.410,-100.098,22.949,0
1583421921.982,-97.168,57.617,38.574,-110.840,82.520,0
1583421921.986,-102.539,65.430,43.945,-108.887,62.988,0
1583421921.990,-102.539,69.336,46.875,-108.398,48.828,0
1583421921.994,-100.098,65.918,45.410,-108.887,-10.742,0
1583421921.998,-100.098,57.617,42.480,-105.469,3.418,0
1583421922.001,-101.074,55.176,39.062,-102.539,65.430,0
1583421922.005,-93.262,57.617,38.574,-96.680,25.391,0
1583421922.009,-81.543,59.570,45.410,-88.867,18.066,0
1583421922.013,-71.289,53.711,52.246,-72.754,54.199,0
1583421922.017,-58.105,43.945,54.688,-57.129,56.641,0
1583421922.014,-40.039,45.410,54.199,-42.480,13.184,0
1583421922.018,-22.461,49.805,53.711,-25.391,-53.711,0
1583421922.022,-7.324,45.898,52.734,-11.230,-25.391,0
1583421922.026,7.324,38.574,41.016,3.906,47.363,0
1583421922.030,20.996,42.480,43.457,19.043,19.531,0
1583421922.034,41.016,45.898,36.621,36.133,6.836,0
1583421922.038,54.199,43.945,26.855,44.434,87.402,0
1583421922.041,65.430,48.340,34.668,48.828,62.988,0
1583421922.045,73.730,46.387,35.645,62.500,23.926,0
1583421922.049,78.125,43.457,31.250,72.266,32.227,0
1583421922.053,84.473,39.062,28.809,80.078,-3.906,0
1583421922.057,85.449,32.715,24.902,88.379,-19.043,0
1583421922.074,84.961,34.668,24.902,92.773,0.488,0
1583421922.078,84.961,35.156,22.949,93.750,4.395,0
1583421922.082,80.078,32.715,17.578,91.309,25.391,0
1583421922.086,77.637,32.227,22.461,92.285,41.992,0
1583421922.090,79.102,35.645,17.090,95.703,26.367,0
1583421922.094,86.426,38.086,7.812,97.656,3.418,0
1583421922.098,89.355,34.180,19.043,99.609,36.133,0
1583421922.101,92.285,33.203,31.738,100.098,27.344,0
1583421922.105,102.051,30.273,37.109,98.633,7.812,0
1583421922.109,101.562,29.297,31.738,95.703,33.691,0
1583421922.113,103.027,26.855,24.902,93.750,35.156,0
1583421922.117,107.910,25.391,25.879,92.285,60.547,0
1583421922.114,103.027,32.715,28.320,94.238,70.312,0
1583421922.118,98.145,39.551,30.273,95.703,16.113,0
1583421922.122,98.145,41.016,24.902,91.309,62.500,0
1583421922.126,98.145,38.086,22.461,85.938,134.766,0
1583421922.130,95.215,34.668,20.020,81.543,67.871,0
1583421922.134,95.215,35.156,21.484,82.031,19.531,0
1583421922.138,93.750,35.156,25.391,78.613,10.254,0
1583421922.141,90.332,32.227,25.391,71.777,49.805,0
1583421922.145,86.426,31.250,28.320,71.289,62.012,0
1583421922.149,84.473,31.738,21.973,72.266,10.254,0
1583421922.153,79.590,36.621,21.484,68.359,-20.508,0
1583421922.157,76.172,38.574,29.785,66.406,14.160,0
1583421922.155,76.172,32.227,26.855,69.824,62.500,0
1583421922.159,74.707,30.273,25.391,70.801,55.176,0
1583421922.163,68.359,37.598,25.879,70.312,66.406,0
1583421922.167,60.059,37.598,27.832,70.801,127.930,0
1583421922.171,59.570,33.691,25.391,68.848,110.352,0
1583421922.175,60.059,35.156,26.855,64.941,127.930,0
1583421922.179,56.641,31.250,34.668,65.918,83.496,0
1583421922.182,55.664,27.344,30.762,68.359,-11.719,0
1583421922.186,56.641,35.645,30.273,62.012,53.711,0
1583421922.190,61.035,41.016,37.109,59.570,65.430,0
1583421922.194,61.523,37.598,34.180,61.523,54.688,0
1583421922.198,61.523,36.621,33.203,62.012,34.668,0
1583421922.214,62.500,39.062,34.668,58.105,2.441,0
1583421922.218,58.594,35.645,31.738,51.270,49.316,0
1583421922.222,56.152,32.715,31.250,50.781,17.578,0
1583421922.226,59.082,40.527,12.207,56.152,0.977,0
1583421922.230,58.105,44.434,1.465,52.246,28.320,0
1583421922.234,52.246,35.645,28.320,38.574,13.184,0
1583421922.238,50.293,35.156,38.574,35.156,2.441,0
1583421922.241,45.898,39.551,38.574,38.086,-25.879,0
1583421922.245,41.504,42.969,42.480,35.645,17.090,0
1583421922.249,40.527,42.969,40.527,36.133,44.434,0
1583421922.253,39.551,38.086,41.016,36.133,5.371,0
1583421922.257,37.598,38.086,39.551,33.691,27.344,0
1583421922.254,36.133,38.574,31.250,37.598,40.527,0
1583421922.258,39.062,39.551,28.320,38.086,18.066,0
1583421922.262,42.480,37.109,32.227,38.574,-7.324,0
1583421922.266,44.922,32.715,27.344,45.898,-21.484,0
1583421922.270,45.410,35.645,23.438,50.781,24.902,0
1583421922.274,48.340,43.457,34.180,53.223,113.770,0
1583421922.278,51.758,45.898,39.551,53.223,89.844,0
1583421922.281,54.688,42.969,39.551,53.711,34.668,0
1583421922.285,54.688,43.457,43.945,52.246,55.176,0
1583421922.289,54.688,48.340,45.410,48.828,-40.039,0
1583421922.293,56.641,47.852,30.762,48.340,-70.312,0
1583421922.297,50.781,45.410,17.578,45.410,41.016,0
1583421922.314,42.969,40.039,32.715,42.969,66.895,0
1583421922.318,38.574,36.133,45.410,40.039,15.625,0
1583421922.322,35.156,41.504,42.969,34.668,-2.441,0
1583421922.326,36.621,45.898,33.691,35.156,62.500,0
1583421922.330,38.574,42.969,29.785,34.668,39.062,0
1583421922.334,35.645,42.969,36.133,32.715,13.672,0
1583421922.338,34.180,44.434,33.203,33.203,83.496,0
1583421922.341,32.715,44.434,33.691,31.250,26.855,0
1583421922.345,29.297,47.363,33.203,27.832,2.930,0
1583421922.349,31.250,48.828,28.320,28.320,66.895,0
1583421922.353,36.621,47.852,32.715,26.367,16.602,0
1583421922.357,30.273,41.992,33.203,21.484,-9.766,0
1583421922.355,30.273,39.551,27.344,24.414,12.207,0
1583421922.359,44.922,38.086,19.043,40.039,45.898,0
1583421922.363,46.875,34.180,22.949,46.875,41.992,0
1583421922.367,32.227,41.504,34.668,30.273,44.434,0
1583421922.371,25.391,40.527,43.457,25.391,58.594,0
1583421922.375,27.832,32.715,49.316,28.809,66.406,0
1583421922.379,24.414,34.180,55.664,24.414,41.504,0
1583421922.382,18.555,36.621,41.992,24.414,10.254,0
1583421922.386,19.043,33.691,34.180,27.832,32.715,0
1583421922.390,20.996,26.367,53.223,31.250,42.480,0
1583421922.394,25.879,26.855,54.199,34.668,3.906,0
1583421922.398,25.879,28.320,56.641,34.180,7.812,0
1583421922.395,25.391,24.414,58.105,31.738,27.832,0
1583421922.399,28.809,24.902,58.105,34.668,41.016,0
1583421922.403,29.785,29.785,53.223,37.598,39.062,0
1583421922.407,32.227,30.762,48.340,36.621,7.812,0
1583421922.411,29.297,30.762,45.410,33.203,24.902,0
1583421922.415,30.762,37.109,24.414,33.203,21.973,0
1583421922.419,31.738,39.551,12.207,35.156,-12.207,0
1583421922.422,22.949,34.668,32.715,30.762,29.297,0
1583421922.426,22.949,27.832,43.457,28.809,22.949,0
1583421922.430,27.344,36.621,28.809,33.203,53.711,0
1583421922.434,23.438,38.086,41.504,27.344,67.383,0
1583421922.438,23.926,32.227,56.641,21.973,41.016,0
1583421922.454,28.809,38.086,50.781,26.367,84.961,0
1583421922.458,34.668,44.434,42.969,30.762,106.445,0
1583421922.462,32.715,38.574,36.133,29.297,47.852,0
1583421922.466,27.344,38.574,43.945,31.738,48.340,0
1583421922.470,25.391,42.480,49.316,35.156,32.227,0
1583421922.474,27.344,41.016,46.875,32.715,28.809,0
1583421922.478,35.645,42.969,43.945,34.180,58.594,0
1583421922.481,32.715,44.922,39.551,32.715,44.434,0
1583421922.485,25.879,42.969,32.227,29.297,32.227,0
1583421922.489,31.250,41.504,33.203,29.785,-25.879,0
1583421922.493,32.227,40.039,42.969,30.273,-0.488,0
1583421922.497,29.297,39.551,46.387,31.250,45.410,0
1583421922.494,27.344,37.598,42.969,30.762,53.711,0
1583421922.498,28.320,34.180,42.969,31.250,-44.922,0
1583421922.502,30.762,36.133,44.434,32.715,-74.219,0
1583421922.506,35.156,44.434,40.039,34.180,11.230,0
1583421922.510,41.504,45.898,43.457,36.621,47.852,0
1583421922.514,39.551,41.016,41.992,37.598,3.906,0
1583421922.518,37.598,42.480,32.227,37.598,33.203,0
1583421922.521,41.016,41.992,27.832,37.598,78.125,0
1583421922.525,38.086,37.598,44.434,33.203,41.992,0
1583421922.529,34.180,41.016,54.688,29.297,71.289,0
1583421922.533,36.133,46.875,43.945,31.738,28.809,0
1583421922.537,32.715,43.945,32.715,28.809,4.883,0
1583421922.534,27.832,41.992,37.109,23.926,80.078,0
1583421922.538,30.273,45.898,44.434,24.414,57.617,0
1583421922.542,35.156,49.805,40.039,28.320,-6.348,0
1583421922.546,34.668,45.898,31.250,31.250,-17.090,0
1583421922.550,28.320,38.086,28.809,29.297,38.574,0
1583421922.554,28.809,40.039,40.039,28.320,23.926,0
1583421922.558,32.227,37.598,49.805,28.320,-27.832,0
1583421922.561,28.809,31.738,48.340,24.902,-11.230,0
1583421922.565,31.250,35.645,36.621,26.855,35.156,0
1583421922.569,35.156,42.480,25.879,30.273,62.500,0
1583421922.573,30.762,47.363,31.738,28.320,69.336,1
1583421922.577,31.250,46.875,43.945,24.414,32.715,0
1583421922.594,30.273,41.504,38.086,21.973,19.043,0
1583421922.598,24.414,40.527,25.391,21.484,18.555,0
1583421922.602,24.902,40.527,29.785,21.973,-0.977,0
1583421922.606,26.367,41.504,39.551,23.438,-17.090,0
1583421922.610,21.973,41.992,41.016,24.414,-31.738,0
1583421922.614,25.879,34.668,40.527,31.250,-2.441,0
1583421922.618,36.133,32.715,41.504,35.645,15.137,0
1583421922.621,35.645,40.527,36.621,30.762,6.348,0
1583421922.625,31.738,43.457,31.738,25.879,73.242,0
1583421922.629,35.156,44.434,32.227,28.809,101.074,0
1583421922.633,38.086,46.875,31.738,34.668,46.387,0
1583421922.637,38.086,44.434,31.250,30.762,-19.043,0
1583421922.636,34.668,45.898,33.691,27.832,-31.738,0
1583421922.640,34.668,44.922,25.879,31.738,14.160,0
1583421922.644,38.086,43.945,10.254,31.738,47.363,0
1583421922.648,41.016,45.410,9.766,33.691,58.105,0
1583421922.652,41.504,41.992,23.926,34.668,66.406,0
1583421922.656,31.250,37.109,41.016,29.297,49.316,0
1583421922.660,21.973,35.645,47.852,22.949,-2.441,0
1583421922.663,23.926,41.016,51.270,23.926,32.715,0
1583421922.667,27.832,44.434,43.457,28.320,70.312,0
1583421922.671,31.738,43.945,19.531,31.738,56.152,0
1583421922.675,32.227,43.457,27.344,33.691,58.105,0
1583421922.679,29.297,42.969,40.039,29.297,22.949,0
1583421922.674,33.203,41.016,41.504,25.391,-1.953,0
1583421922.678,34.668,39.062,45.410,26.855,56.641,0
1583421922.682,35.645,36.621,42.480,28.320,41.992,0
1583421922.686,39.551,34.668,41.992,30.273,-9.277,0
1583421922.690,38.086,41.504,36.621,29.785,-1.953,0
1583421922.694,33.691,45.410,23.926,34.180,17.090,0
1583421922.698,33.203,43.945,21.484,34.668,45.898,0
1583421922.701,31.250,41.992,31.250,29.785,61.035,0
1583421922.705,35.156,41.504,32.715,23.926,41.016,0
1583421922.709,38.574,46.387,34.668,18.555,-5.859,0
1583421922.713,29.297,45.898,47.852,20.996,-9.277,0
1583421922.717,24.414,38.086,51.270,25.879,9.766,0
1583421922.734,28.320,35.645,46.875,29.297,53.223,0
1583421922.738,29.297,40.039,39.551,29.297,87.402,0
1583421922.742,30.762,41.992,39.551,27.344,81.543,0
1583421922.746,36.133,43.945,30.762,33.203,4.883,0
1583421922.750,37.598,39.062,9.766,40.039,-30.273,0
1583421922.754,30.762,35.645,25.879,32.715,52.734,0
1583421922.758,22.949,40.039,48.340,22.949,42.969,0
1583421922.761,17.578,39.062,45.898,17.578,-1.953,0
1583421922.765,16.602,39.062,41.992,18.555,22.461,0
1583421922.769,18.066,38.574,37.598,19.531,13.672,0
1583421922.773,26.855,39.062,35.156,22.461,30.762,0
1583421922.777,32.227,45.410,37.109,27.344,42.480,0
1583421922.774,30.762,44.922,31.250,27.832,11.719,0
1583421922.778,35.156,42.969,29.785,27.344,-16.113,0
1583421922.782,31.738,45.410,24.902,27.344,10.254,0
1583421922.786,31.738,43.945,25.879,33.203,27.344,0
1583421922.790,44.922,43.945,41.016,45.898,31.250,0
1583421922.794,43.945,49.316,41.504,37.598,58.105,0
1583421922.798,34.668,47.363,33.691,21.484,83.008,0
1583421922.801,36.621,39.062,32.227,28.809,82.520,0
1583421922.805,36.621,37.598,32.227,31.250,53.223,0
1583421922.809,35.156,44.922,32.715,26.367,37.598,0
1583421922.813,37.109,49.316,30.762,20.996,20.996,0
1583421922.817,35.645,46.875,25.879,18.066,23.926,0
1583421922.814,34.668,50.781,26.855,20.996,4.395,0
1583421922.818,33.691,53.223,29.297,19.531,-46.387,0
1583421922.822,37.109,50.781,29.297,20.508,-22.461,0
1583421922.826,40.039,51.758,22.461,27.344,53.711,0
1583421922.830,40.527,52.734,13.672,32.227,43.457,0
1583421922.834,40.039,49.805,21.973,31.250,43.457,0
1583421922.838,39.551,46.875,45.410,29.785,74.219,0
1583421922.841,39.551,45.410,44.434,30.273,12.695,0
1583421922.845,41.504,45.410,23.438,32.715,22.461,0
1583421922.849,46.875,44.434,21.973,34.180,43.945,0
1583421922.853,41.992,38.086,34.668,34.668,13.184,0
1583421922.857,40.039,42.969,43.457,35.645,5.371,0
1583421922.874,45.898,49.805,37.598,38.574,15.625,0
1583421922.878,47.852,51.758,35.156,40.527,-17.578,0
1583421922.882,49.316,52.246,23.926,43.457,-18.066,0
1583421922.886,46.387,48.340,16.113,39.551,22.949,0
1583421922.890,38.574,44.434,37.109,34.180,12.695,0
1583421922.894,35.645,42.480,47.852,34.180,-27.832,0
1583421922.898,38.574,39.062,42.969,36.621,58.594,0
1583421922.901,41.992,42.480,41.992,38.086,85.938,0
1583421922.905,41.504,44.922,39.062,41.016,25.391,0
1583421922.909,40.039,41.992,33.691,41.504,63.965,0
1583421922.913,40.039,41.992,32.227,38.086,96.680,0
1583421922.917,37.598,42.969,28.320,36.621,77.148,0
1583421922.914,38.574,45.898,21.973,37.109,18.555,0
1583421922.918,34.668,50.293,19.043,32.227,35.645,0
1583421922.922,30.762,51.758,29.297,32.227,57.617,0
1583421922.926,32.227,43.945,46.387,29.297,44.922,0
1583421922.930,27.344,37.109,44.922,22.949,41.992,0
1583421922.934,25.391,46.387,35.645,27.344,43.457,0
1583421922.938,27.832,48.828,34.668,24.902,62.500,0
1583421922.941,29.297,47.852,33.691,23.438,41.504,0
1583421922.945,25.879,43.457,32.227,26.855,25.879,0
1583421922.949,30.273,43.457,24.414,28.809,67.383,0
1583421922.953,33.691,51.758,12.695,30.762,77.148,0
1583421922.957,28.320,46.875,25.879,27.832,32.715,0
1583421922.954,28.320,41.504,46.387,24.414,35.156,0
1583421922.958,29.785,39.062,45.410,24.902,54.688,0
1583421922.962,32.715,40.039,41.016,26.367,97.656,0
1583421922.966,29.297,48.340,40.527,26.855,75.195,0
1583421922.970,27.344,50.781,35.645,25.879,2.441,0
1583421922.974,32.227,50.293,31.250,24.414,-6.836,0
1583421922.978,30.273,48.340,34.180,20.020,25.879,0
1583421922.981,27.344,45.898,35.645,19.043,70.801,0
1583421922.985,27.344,45.410,34.668,21.484,20.508,0
1583421922.989,29.297,41.016,31.738,20.508,4.395,0
1583421922.993,31.250,41.016,33.203,24.414,36.621,0
1583421922.997,28.809,44.922,33.691,26.855,17.578,0
1583421923.014,27.832,42.969,29.297,28.320,5.859,0
1583421923.018,27.344,42.969,22.461,29.297,40.527,0
1583421923.022,24.414,41.992,31.250,25.879,26.855,0
1583421923.026,23.438,42.480,36.133,23.438,-2.930,0
1583421923.030,21.484,46.875,26.367,23.926,49.805,0
1583421923.034,22.949,46.875,21.973,22.949,43.457,0
1583421923.038,17.578,37.598,30.273,16.113,2.930,0
1583421923.041,18.066,29.297,39.551,13.184,29.297,0
1583421923.045,24.902,29.297,32.715,21.484,33.203,0
1583421923.049,24.902,34.668,37.598,24.414,-10.742,0
1583421923.053,26.855,40.527,44.434,22.949,-1.465,0
1583421923.057,21.484,44.434,43.457,22.949,37.598,0
1583421923.054,17.090,42.480,39.062,21.973,63.965,0
1583421923.058,23.438,41.504,32.715,23.438,92.285,0
1583421923.062,27.832,39.551,28.320,23.438,75.684,0
1583421923.066,28.320,38.086,32.715,23.926,20.020,0
1583421923.070,26.367,40.039,32.227,22.949,39.062,0
1583421923.074,29.785,37.598,32.227,19.531,57.617,0
1583421923.078,31.738,37.109,31.738,21.484,9.766,0
1583421923.081,30.762,41.992,25.391,20.996,29.785,0
1583421923.085,29.297,45.898,27.344,22.949,84.473,0
1583421923.089,27.344,46.387,31.738,22.949,52.246,0
1583421923.093,26.855,42.969,38.574,16.113,74.707,0
1583421923.097,26.855,40.527,40.527,16.602,91.797,0
1583421923.094,30.273,41.992,33.203,23.926,-13.672,0
1583421923.098,28.809,43.945,29.785,25.879,3.906,0
1583421923.102,30.762,40.039,39.551,24.902,47.363,0
1583421923.106,37.109,41.016,42.969,27.344,-30.762,0
1583421923.110,37.109,39.062,36.133,27.344,-37.598,0
1583421923.114,32.227,35.156,40.527,27.344,10.254,0
1583421923.118,30.273,42.969,38.574,27.344,27.832,0
1583421923.121,32.227,48.340,29.297,28.320,20.508,0
1583421923.125,31.738,41.016,27.344,27.344,-8.789,0
1583421923.129,25.391,36.621,32.227,22.461,37.598,0
1583421923.133,20.996,40.527,44.434,22.461,1.953,0
1583421923.137,25.879,41.016,33.203,25.879,-20.508,0
1583421923.154,28.809,41.016,17.090,27.344,6.836,0
1583421923.158,27.832,41.992,32.227,27.344,31.250,0
1583421923.162,25.391,37.109,37.598,25.879,37.109,0
1583421923.166,24.902,35.645,44.434,27.344,72.754,0
1583421923.170,23.926,42.480,49.316,28.320,115.723,0
1583421923.174,26.367,46.875,37.598,28.320,33.203,0
1583421923.178,31.250,47.363,33.203,27.832,13.672,0
1583421923.181,28.809,44.922,27.832,25.391,47.852,0
1583421923.185,28.320,41.504,23.926,22.949,24.414,0
1583421923.189,25.879,38.574,28.809,20.020,0.000,0
1583421923.193,20.508,35.156,28.809,20.996,63.965,0
1583421923.197,19.043,35.156,27.832,20.996,70.801,0
1583421923.194,19.043,33.691,35.156,21.484,32.715,0
1583421923.198,17.090,30.762,35.156,20.508,77.637,0
1583421923.202,15.137,32.715,34.180,18.555,105.957,0
1583421923.206,18.066,34.180,31.250,16.602,20.996,0
1583421923.210,14.648,32.715,29.297,12.695,4.883,0
1583421923.214,15.137,39.551,29.785,18.066,39.551,0
1583421923.218,24.902,41.992,21.484,26.367,7.812,0
1583421923.221,23.438,29.785,29.297,19.043,-6.348,0
1583421923.225,18.066,30.762,42.480,14.648,6.836,0
1583421923.229,24.414,42.480,38.574,20.020,38.086,0
1583421923.233,22.461,45.410,24.414,18.555,39.062,0
1583421923.237,24.414,43.945,20.996,20.996,30.762,0
1583421923.234,32.227,42.480,29.785,22.949,47.852,0
1583421923.238,23.438,41.016,32.715,17.578,36.621,0
1583421923.242,22.949,43.457,31.738,19.531,68.848,0
1583421923.246,25.879,42.969,28.809,22.461,75.195,0
1583421923.250,27.344,39.551,25.391,19.043,24.902,0
1583421923.254,31.738,44.434,26.367,17.578,12.695,0
1583421923.258,26.855,38.086,34.180,16.602,8.789,0
1583421923.261,28.320,39.062,22.461,19.043,24.902,0
1583421923.265,32.227,48.828,12.207,22.461,60.547,0
1583421923.269,29.297,48.340,24.414,22.949,62.500,0
1583421923.273,28.320,46.387,30.273,24.902,-7.812,0
1583421923.277,30.762,47.852,34.180,27.832,29.297,0
1583421923.294,32.715,47.852,32.715,26.367,93.750,0
1583421923.298,31.738,42.969,35.645,22.461,94.727,0
1583421923.302,27.832,42.969,38.086,22.461,75.684,0
1583421923.306,22.461,41.504,37.598,23.926,92.773,0
1583421923.310,25.391,39.062,31.738,24.414,52.734,0
1583421923.314,29.785,35.645,32.227,28.320,20.020,0
1583421923.318,22.461,32.715,29.785,30.273,58.594,0
1583421923.321,20.020,37.598,16.602,30.762,65.430,0
1583421923.325,22.949,41.992,22.461,30.762,66.406,0
1583421923.329,18.066,38.086,35.645,27.344,22.461,0
1583421923.333,16.113,35.645,41.016,21.973,11.230,0
1583421923.337,20.996,36.621,41.504,22.949,17.090,0
1583421923.335,27.344,38.086,32.227,27.344,-7.324,0
1583421923.339,31.250,47.363,23.926,29.785,33.691,0
1583421923.343,29.297,40.527,37.598,26.855,82.031,0
1583421923.347,32.227,35.645,44.922,24.902,130.859,0
1583421923.351,34.668,43.457,39.551,26.367,118.164,0
1583421923.355,29.785,41.992,32.227,28.320,0.488,0
1583421923.359,28.320,39.551,35.645,29.297,-28.320,0
1583421923.362,29.785,41.016,42.969,27.832,30.273,0
1583421923.366,34.668,42.969,36.621,29.297,61.523,0
1583421923.370,35.645,42.480,38.086,26.367,40.527,0
1583421923.374,35.645,37.109,43.457,27.344,82.031,0
1583421923.378,33.203,32.715,40.527,30.762,81.543,0
1583421923.375,30.762,35.156,30.762,29.297,54.688,0
1583421923.379,32.715,39.062,30.762,25.391,73.242,0
1583421923.383,28.320,41.016,38.574,20.508,43.457,0
1583421923.387,23.438,40.527,36.133,17.578,38.574,0
1583421923.391,26.367,39.551,28.809,19.043,-5.859,0
1583421923.395,31.250,41.016,18.555,23.926,-55.664,0
1583421923.399,30.762,39.551,19.531,24.902,10.254,0
1583421923.402,29.785,37.598,36.621,21.973,45.898,0
1583421923.406,34.180,41.016,39.062,25.391,34.180,0
1583421923.410,35.645,34.180,47.363,33.203,27.344,0
1583421923.414,31.738,32.227,47.363,33.203,51.758,0
1583421923.418,31.738,40.527,32.227,32.715,52.734,0
1583421923.434,37.109,45.898,37.598,41.016,-16.113,0
1583421923.438,39.551,45.410,40.527,42.969,-26.855,0
1583421923.442,43.457,37.598,31.738,38.574,41.504,0
1583421923.446,45.410,35.645,33.691,38.574,60.059,0
1583421923.450,36.621,39.062,42.480,38.086,20.508,0
1583421923.454,30.762,46.387,41.016,38.086,38.086,0
1583421923.458,30.273,44.922,34.668,36.621,30.762,0
1583421923.461,25.391,36.621,38.086,33.203,-3.906,0
1583421923.465,21.973,42.480,45.898,27.832,59.082,0
1583421923.469,20.020,43.457,44.434,25.879,74.219,0
1583421923.473,23.438,39.062,45.898,28.320,37.109,0
1583421923.477,28.320,37.109,47.852,32.227,47.852,0
1583421923.475,26.367,41.016,40.527,31.250,-3.418,0
1583421923.479,15.137,42.969,35.645,15.137,-25.391,0
1583421923.483,12.207,39.062,32.715,10.254,-15.625,0
1583421923.487,20.508,35.645,35.645,18.555,-7.324,0
1583421923.491,22.461,36.621,36.621,18.066,-11.230,0
1583421923.495,21.973,41.504,35.156,19.043,-1.953,0
1583421923.499,23.926,42.969,37.109,20.508,19.043,0
1583421923.502,26.855,45.898,36.133,21.973,-6.348,0
1583421923.506,31.738,46.875,29.297,24.414,-42.480,0
1583421923.510,29.785,40.527,25.391,21.484,-2.930,0
1583421923.514,32.715,40.527,29.785,18.066,22.461,0
1583421923.518,38.574,43.945,29.785,19.043,34.668,0
1583421923.514,37.598,46.875,12.207,26.367,48.340,0
1583421923.518,38.086,46.875,8.301,28.809,-5.859,0
1583421923.522,35.645,38.574,30.273,26.367,36.133,0
1583421923.526,31.738,41.016,41.504,25.391,93.750,0
1583421923.530,28.320,44.434,41.016,24.414,118.652,0
1583421923.534,28.809,45.898,44.922,25.879,84.473,0
1583421923.538,31.738,46.875,31.738,26.855,21.973,0
1583421923.541,34.668,44.922,25.391,23.438,38.086,0
1583421923.545,32.227,43.457,35.156,19.531,18.555,0
1583421923.549,24.902,42.969,35.156,23.926,-20.996,0
1583421923.553,28.320,45.410,31.738,30.273,0.977,0
1583421923.557,31.738,42.969,16.602,31.738,4.883,0
1583421923.574,29.297,39.062,11.230,31.738,-11.230,0
1583421923.578,29.785,43.457,29.297,28.320,-8.301,0
1583421923.582,30.273,46.387,38.086,24.902,36.133,0
1583421923.586,24.414,42.969,35.645,28.320,77.637,0
1583421923.590,24.902,41.016,25.879,32.715,51.758,0
1583421923.594,29.785,40.527,20.996,29.785,50.293,0
1583421923.598,26.855,30.762,41.016,19.531,12.695,0
1583421923.601,21.484,24.414,46.387,13.672,20.996,0
1583421923.605,22.461,29.297,41.504,13.184,21.973,0
1583421923.609,23.926,31.250,35.645,11.719,-15.137,0
1583421923.613,28.809,36.133,20.508,11.719,10.742,0
1583421923.617,32.715,41.992,15.625,13.672,36.621,0
1583421923.614,31.250,40.039,28.809,17.578,66.895,0
1583421923.618,32.227,38.574,37.109,24.902,75.684,0
1583421923.622,27.832,39.062,31.738,26.855,80.078,0
1583421923.626,21.973,39.551,32.227,25.391,41.992,0
1583421923.630,21.973,34.668,39.551,27.344,-0.488,0
1583421923.634,25.391,32.227,34.668,27.344,0.488,0
1583421923.638,28.809,40.039,22.949,28.320,-4.883,0
1583421923.641,27.832,38.574,23.438,29.297,-4.395,0
1583421923.645,29.297,31.250,34.180,23.438,36.621,0
1583421923.649,29.785,36.621,35.156,19.531,56.152,0
1583421923.653,30.273,42.480,25.879,23.438,73.242,0
1583421923.657,31.250,42.480,29.785,24.902,104.980,1
1583421923.654,27.344,40.039,34.668,23.926,70.312,0
1583421923.658,26.367,39.062,33.203,22.949,20.020,0
1583421923.662,26.367,34.668,39.551,20.996,7.812,0
1583421923.666,30.762,35.156,37.109,22.949,40.527,0
1583421923.670,34.180,36.133,29.785,24.414,46.387,0
1583421923.674,30.273,29.785,37.598,27.832,10.742,0
1583421923.678,31.250,30.762,43.457,34.180,14.160,0
1583421923.681,34.668,39.551,34.668,29.785,12.695,0
1583421923.685,35.156,46.387,21.973,25.879,25.391,0
1583421923.689,35.156,45.898,18.555,33.691,67.383,0
1583421923.693,31.250,45.410,23.438,33.203,41.016,0
1583421923.697,30.762,46.387,42.480,26.367,2.441,0
1583421923.714,32.227,44.434,52.246,27.344,-23.438,0
1583421923.718,31.250,43.945,47.363,32.715,-10.742,0
1583421923.722,33.691,42.480,41.992,34.180,11.719,0
1583421923.726,31.738,39.551,40.039,30.762,28.320,0
1583421923.730,30.273,40.039,38.086,26.855,12.695,0
1583421923.734,34.180,41.992,27.832,28.320,35.156,0
1583421923.738,37.109,43.457,15.137,32.227,75.684,0
1583421923.741,36.133,41.504,17.090,30.273,61.035,0
1583421923.745,36.621,41.992,30.273,21.973,53.223,0
1583421923.749,33.203,41.992,42.969,17.578,39.062,0
1583421923.753,35.156,42.480,47.852,19.531,61.035,0
1583421923.757,36.621,38.574,42.969,23.926,64.453,0
1583421923.754,32.715,36.133,33.203,26.367,44.922,0
1583421923.758,35.156,41.992,32.227,26.367,21.484,0
1583421923.762,38.574,41.504,23.438,30.762,56.152,0
1583421923.766,40.527,38.086,17.578,38.574,81.055,0
1583421923.770,37.598,38.086,38.086,35.156,26.855,0
1583421923.774,35.645,39.062,43.945,30.273,-12.695,0
1583421923.778,34.180,38.086,36.621,32.227,5.859,0
1583421923.781,30.762,37.598,42.969,31.250,27.344,0
1583421923.785,28.320,39.551,47.852,28.809,-7.324,0
1583421923.789,26.367,39.062,39.062,23.926,1.465,0
1583421923.793,27.832,39.062,34.180,21.973,33.691,0
1583421923.797,24.902,41.016,31.250,19.531,51.270,0
1583421923.815,18.555,36.621,33.203,13.672,4.883,0
1583421923.819,18.555,36.621,38.086,11.230,-16.113,0
1583421923.823,21.484,41.016,31.738,13.184,68.848,0
1583421923.827,24.902,40.039,31.738,16.113,93.262,0
1583421923.831,25.391,41.504,37.598,17.090,34.180,0
1583421923.835,20.996,41.504,32.715,16.113,34.668,0
1583421923.839,20.508,35.156,20.996,18.066,63.477,0
1583421923.842,25.879,39.551,27.832,18.066,80.078,0
1583421923.846,22.949,43.457,34.668,20.508,72.266,0
1583421923.850,22.461,41.504,37.109,24.902,19.043,0
1583421923.854,31.738,41.992,38.574,24.414,49.805,0
1583421923.858,37.109,40.527,28.809,26.855,92.285,0
1583421923.854,33.203,34.668,28.809,27.832,52.734,0
1583421923.858,31.250,35.645,36.133,25.879,44.922,0
1583421923.862,30.273,40.527,33.203,23.438,86.426,0
1583421923.866,27.344,40.039,32.227,18.555,70.801,0
1583421923.870,27.344,29.785,33.691,21.973,102.539,0
1583421923.874,21.973,32.227,28.320,23.438,57.617,0
1583421923.878,20.508,49.805,29.297,20.508,28.809,0
1583421923.881,23.926,48.340,34.180,20.508,35.156,0
1583421923.885,26.367,40.039,25.879,22.949,-0.488,0
1583421923.889,30.273,41.992,16.602,26.367,-0.488,0
1583421923.893,32.227,40.039,29.785,26.855,30.273,0
1583421923.897,30.762,33.691,41.992,26.367,42.480,0
1583421923.894,29.785,33.203,42.969,30.762,-25.879,0
1583421923.898,34.668,30.762,39.551,36.621,-18.066,0
1583421923.902,43.945,28.809,34.668,40.527,17.090,0
1583421923.906,50.293,38.574,30.762,40.039,43.457,0
1583421923.910,51.270,46.387,36.621,40.039,24.414,0
1583421923.914,47.363,42.969,38.574,38.574,14.160,0
1583421923.918,45.898,40.039,39.551,32.715,37.598,0
