timestamps,TP9,AF7,AF8,TP10,Right AUX,Marker0
1583437894.764,32.227,53.223,22.461,31.738,-7.812,0
1583437894.768,27.832,44.434,21.973,26.367,26.367,0
1583437894.772,31.250,39.551,30.762,38.086,62.988,0
1583437894.776,37.109,46.387,28.809,44.434,70.312,0
1583437894.780,32.715,59.082,14.648,28.320,64.453,0
1583437894.784,29.785,63.477,2.930,19.531,75.195,0
1583437894.788,30.273,58.105,7.324,15.137,31.738,0
1583437894.791,34.668,44.434,11.230,24.902,12.695,0
1583437894.795,38.086,35.645,8.789,31.250,26.855,0
1583437894.799,38.086,52.734,9.277,20.508,-27.832,0
1583437894.803,36.621,67.871,0.000,18.555,31.738,0
1583437894.807,34.668,67.871,-13.672,15.625,83.008,0
1583437894.844,34.668,67.383,-3.418,14.648,26.367,0
1583437894.848,34.668,62.012,10.254,20.996,-2.441,0
1583437894.852,35.156,54.688,11.230,21.484,17.578,0
1583437894.856,33.691,54.199,2.930,23.926,12.207,0
1583437894.860,31.250,56.152,-8.789,24.902,46.387,0
1583437894.864,31.738,53.711,-4.883,21.973,88.867,0
1583437894.868,30.273,46.387,4.883,21.973,65.918,0
1583437894.871,26.367,37.109,10.254,21.484,-10.254,0
1583437894.875,28.809,47.852,17.578,23.926,6.836,0
1583437894.879,27.344,56.152,15.137,18.066,11.230,0
1583437894.883,26.367,56.641,4.883,16.113,11.230,0
1583437894.887,28.320,64.453,10.254,25.879,16.113,0
1583437894.865,24.902,57.129,24.902,29.785,-17.090,0
1583437894.869,31.250,46.387,28.809,29.785,-15.625,0
1583437894.873,34.180,42.480,23.926,24.414,64.941,0
1583437894.877,27.832,37.109,16.113,20.996,87.891,0
1583437894.881,22.949,30.273,10.254,22.949,80.078,0
1583437894.885,27.832,31.738,16.602,27.344,87.891,0
1583437894.889,27.832,42.480,29.785,27.344,52.246,0
1583437894.892,24.414,48.340,45.410,20.996,77.148,0
1583437894.896,25.879,41.016,49.316,24.414,21.973,0
1583437894.900,29.785,32.715,27.344,31.738,-10.742,0
1583437894.904,30.273,23.438,24.414,34.180,42.969,0
1583437894.908,24.414,14.648,40.527,27.832,44.434,0
1583437894.924,24.414,12.695,47.363,24.414,43.945,0
1583437894.928,24.902,10.742,42.969,30.762,45.898,0
1583437894.932,22.949,6.348,41.992,32.227,21.973,0
1583437894.936,21.973,-2.930,48.340,27.344,34.668,0
1583437894.940,16.113,-10.254,42.969,24.414,67.383,0
1583437894.944,15.137,-5.859,30.273,22.949,53.711,0
1583437894.948,21.484,-9.766,25.391,22.949,6.348,0
1583437894.951,22.461,-13.184,29.785,22.461,-17.578,0
1583437894.955,17.090,-12.207,30.273,21.484,-24.414,0
1583437894.959,17.578,-16.113,31.250,26.855,65.918,0
1583437894.963,23.438,-15.137,35.645,34.180,71.777,0
1583437894.967,30.762,-10.742,40.039,29.297,-20.996,0
1583437894.944,29.785,-13.184,39.062,16.113,19.531,0
1583437894.948,26.367,-22.949,29.785,19.043,56.152,0
1583437894.952,27.832,-25.879,23.926,32.227,72.266,0
1583437894.956,32.227,-23.438,38.086,32.715,71.289,0
1583437894.960,36.621,-20.508,42.480,27.344,38.574,0
1583437894.964,33.691,-22.949,35.156,23.438,56.641,0
1583437894.968,34.668,-27.344,36.621,31.250,56.152,0
1583437894.971,33.691,-27.344,34.668,35.645,82.031,0
1583437894.975,39.062,-19.043,32.715,31.738,70.801,0
1583437894.979,44.922,-3.906,37.109,29.785,44.922,0
1583437894.983,40.527,7.324,43.457,33.691,85.938,0
1583437894.987,37.598,21.484,37.598,34.180,103.027,0
1583437894.984,30.762,23.438,39.551,27.344,61.035,0
1583437894.988,37.109,7.812,45.410,36.621,15.625,0
1583437894.992,43.457,10.742,42.969,49.805,41.016,0
1583437894.996,43.457,35.645,44.922,36.621,73.730,0
1583437895.000,33.203,46.875,37.598,19.043,76.172,0
1583437895.004,26.367,45.898,28.809,15.137,31.250,0
1583437895.008,35.645,45.898,28.809,23.926,17.578,0
1583437895.011,38.086,48.828,29.297,33.691,15.137,0
1583437895.015,35.645,48.828,35.645,22.949,2.441,0
1583437895.019,33.691,43.457,31.250,19.043,56.641,0
1583437895.023,32.715,48.828,23.438,27.344,88.867,0
1583437895.027,33.691,55.664,33.691,23.926,65.430,0
1583437895.043,31.738,51.270,30.762,22.461,62.500,0
1583437895.047,27.344,46.875,20.020,27.344,25.879,0
1583437895.051,28.809,57.129,29.785,29.297,23.926,0
1583437895.055,33.691,66.406,35.156,33.691,33.691,0
1583437895.059,35.645,67.871,33.691,34.180,-57.617,0
1583437895.063,35.645,67.871,39.062,29.785,-41.992,0
1583437895.067,39.062,63.477,34.180,21.973,3.906,0
1583437895.070,41.016,57.617,29.297,27.344,-12.207,0
1583437895.074,39.551,50.781,37.109,39.551,68.359,0
1583437895.078,41.504,60.547,40.527,37.598,37.598,0
1583437895.082,41.504,69.824,37.109,36.133,16.602,0
1583437895.086,36.133,66.895,28.320,34.180,66.406,0
1583437895.083,29.785,58.105,22.461,32.227,56.641,0
1583437895.087,30.762,41.504,27.344,33.691,62.012,0
1583437895.091,35.645,49.805,30.273,23.926,69.336,0
1583437895.095,39.062,66.406,24.414,13.672,80.566,0
1583437895.099,40.039,67.383,26.855,25.391,55.664,0
1583437895.103,30.762,61.035,34.668,34.180,65.918,0
1583437895.107,25.391,59.570,29.785,32.227,48.340,0
1583437895.110,33.203,62.012,24.902,30.762,15.137,0
1583437895.114,41.016,58.594,34.180,34.668,-2.441,0
1583437895.118,32.227,54.199,21.973,27.832,-2.441,0
1583437895.122,28.809,57.617,17.090,21.484,41.992,0
1583437895.126,31.738,51.270,40.527,28.809,33.691,0
1583437895.123,28.809,22.461,38.574,32.715,21.973,0
1583437895.127,33.691,33.203,30.762,30.273,28.320,0
1583437895.131,36.133,66.406,30.273,32.715,3.906,0
1583437895.135,26.367,59.570,25.391,29.785,-14.160,0
1583437895.139,19.531,51.270,23.438,21.973,50.293,0
1583437895.143,23.926,54.688,28.809,22.461,80.078,0
1583437895.147,26.367,52.734,28.809,23.926,64.941,0
1583437895.150,36.133,52.734,27.832,27.344,61.523,0
1583437895.154,37.598,55.664,20.020,27.832,67.871,0
1583437895.158,31.250,57.617,19.531,30.762,10.742,0
1583437895.162,31.738,53.223,28.809,30.762,-13.672,0
1583437895.166,28.809,43.945,23.438,28.809,46.875,0
1583437895.183,27.344,42.969,22.461,22.461,37.598,0
1583437895.187,29.297,47.363,31.738,21.973,-16.113,0
1583437895.191,29.297,50.293,35.645,28.320,-8.301,0
1583437895.195,33.691,43.945,35.156,30.762,11.719,0
1583437895.199,24.414,43.945,30.273,19.043,-11.230,0
1583437895.203,16.113,47.852,29.297,14.160,38.574,0
1583437895.207,18.066,39.062,32.227,13.184,104.980,0
1583437895.210,18.555,34.668,30.273,3.418,86.914,0
1583437895.214,21.973,34.180,26.367,4.395,33.203,0
1583437895.218,6.836,29.785,26.367,0.000,-39.551,0
1583437895.222,-11.719,20.996,28.809,-1.953,1.465,0
1583437895.226,-19.531,15.625,24.902,-3.906,19.531,0
1583437895.223,-19.043,14.648,16.113,-19.043,5.371,0
1583437895.227,-8.301,14.160,1.953,-26.855,46.875,0
1583437895.231,-7.812,11.230,-2.930,-25.391,40.527,0
1583437895.235,-20.508,9.277,-2.441,-26.855,-2.441,0
1583437895.239,-29.297,4.883,-9.766,-29.785,-17.090,0
1583437895.243,-31.738,5.859,-14.160,-34.180,52.246,0
1583437895.247,-41.016,5.371,-6.836,-37.598,62.988,0
1583437895.250,-47.852,-1.465,2.930,-41.504,11.719,0
1583437895.254,-41.504,8.301,-0.977,-40.527,47.852,0
1583437895.258,-33.203,18.066,-4.883,-38.086,44.434,0
1583437895.262,-22.949,16.113,12.695,-39.062,30.762,0
1583437895.266,-25.391,11.230,27.832,-33.203,29.785,0
1583437895.264,-30.273,15.625,31.250,-33.203,0.000,0
1583437895.268,-26.855,16.602,28.809,-28.809,-13.672,0
1583437895.272,-16.113,11.230,25.391,-19.531,37.598,0
1583437895.276,-7.324,4.395,20.508,-16.113,51.758,0
1583437895.280,-11.230,4.883,19.043,-13.672,37.598,0
1583437895.284,-6.348,15.625,30.762,-14.160,22.461,0
1583437895.288,7.324,12.695,43.457,-11.230,33.203,0
1583437895.291,12.207,7.812,48.340,-1.465,80.078,0
1583437895.295,6.348,11.230,43.945,-0.488,74.219,0
1583437895.299,4.395,8.301,38.574,0.977,41.016,0
1583437895.303,12.695,4.883,39.062,5.859,22.461,0
1583437895.307,22.949,12.207,30.273,11.719,24.414,0
1583437895.324,26.367,17.578,26.367,13.672,47.363,0
1583437895.328,23.926,11.719,40.527,20.020,56.152,0
1583437895.332,17.578,7.324,42.969,28.320,22.461,0
1583437895.336,23.438,0.000,34.668,27.344,0.488,0
1583437895.340,34.180,-3.906,41.016,29.297,-34.180,0
1583437895.344,32.227,3.906,46.875,33.203,17.090,0
1583437895.348,26.855,8.301,40.039,23.438,87.402,0
1583437895.351,26.855,4.395,32.715,27.832,144.043,0
1583437895.355,35.645,2.930,31.250,42.480,106.445,0
1583437895.359,46.875,4.883,34.668,43.945,79.102,0
1583437895.363,38.086,1.953,41.016,45.410,121.582,0
1583437895.367,37.598,6.836,37.598,49.316,89.844,0
1583437895.364,51.758,5.859,32.227,48.828,32.715,0
1583437895.368,51.758,-1.465,37.598,52.734,19.531,0
1583437895.372,56.641,4.883,32.227,61.035,-20.996,0
1583437895.376,65.918,9.277,22.949,59.082,25.879,0
1583437895.380,63.965,5.371,16.113,49.316,83.008,0
1583437895.384,62.500,5.859,3.418,59.082,75.684,0
1583437895.388,53.711,4.883,5.371,64.941,39.062,0
1583437895.391,50.781,-1.465,1.953,54.688,-6.348,0
1583437895.395,57.129,-4.883,0.977,59.082,-11.230,0
1583437895.399,52.246,3.418,14.160,56.152,14.648,0
1583437895.403,54.199,18.066,19.531,56.152,-0.488,0
1583437895.407,59.570,21.484,21.973,58.594,17.090,0
1583437895.403,58.594,16.113,23.438,55.664,18.066,0
1583437895.407,57.129,13.672,23.438,56.641,8.301,0
1583437895.411,48.828,7.324,23.926,53.223,45.898,0
1583437895.415,43.457,5.859,21.973,48.340,76.660,0
1583437895.419,53.711,18.555,18.555,44.434,42.480,0
1583437895.423,54.199,21.484,30.762,52.246,-2.441,0
1583437895.427,47.363,11.719,36.621,58.594,14.648,0
1583437895.430,56.641,16.602,30.762,55.176,25.391,0
1583437895.434,54.688,23.926,36.133,58.105,1.465,0
1583437895.438,58.594,9.766,26.855,56.641,43.945,0
1583437895.442,69.336,10.254,18.555,52.246,71.289,0
1583437895.446,57.617,24.414,38.086,50.781,52.734,0
1583437895.464,47.852,20.996,46.875,42.969,57.129,0
1583437895.468,48.828,16.602,38.086,40.527,23.926,0
1583437895.472,48.828,12.695,40.039,59.082,11.719,0
1583437895.476,47.363,11.230,46.875,62.500,40.527,0
1583437895.480,47.363,24.902,41.504,51.758,9.766,0
1583437895.484,50.781,40.039,39.551,45.898,17.090,0
1583437895.488,54.688,42.969,45.898,47.363,12.695,0
1583437895.491,51.270,40.039,43.945,52.734,-58.105,0
1583437895.495,44.434,41.016,44.922,56.152,-33.691,0
1583437895.499,53.711,39.551,45.898,53.223,25.879,0
1583437895.503,57.617,30.762,36.621,47.363,47.363,0
1583437895.507,44.434,32.715,35.156,42.969,64.453,0
1583437895.504,40.527,35.645,44.434,49.805,47.852,0
1583437895.508,46.387,33.203,39.551,47.363,50.293,0
1583437895.512,42.480,26.855,30.273,41.504,27.832,0
1583437895.516,53.223,20.020,34.180,47.363,24.902,0
1583437895.520,63.477,29.297,45.898,52.246,32.227,0
1583437895.524,52.246,33.691,54.199,48.828,51.270,0
1583437895.528,49.316,31.250,52.246,40.039,61.035,0
1583437895.531,52.246,26.855,49.316,44.922,49.805,0
1583437895.535,68.848,23.438,48.340,58.105,-4.395,0
1583437895.539,65.918,31.738,52.246,51.270,0.488,0
1583437895.543,44.922,41.016,61.035,46.875,21.973,0
1583437895.547,38.086,44.434,66.895,47.363,25.879,0
1583437895.564,29.297,33.691,65.918,42.480,36.621,0
1583437895.568,26.367,35.156,61.035,48.828,-16.602,0
1583437895.572,32.715,46.387,54.199,46.875,-1.953,0
1583437895.576,41.504,49.805,55.664,36.621,-9.277,0
1583437895.580,31.738,45.898,60.547,31.738,-41.992,0
1583437895.584,20.020,36.621,63.477,29.297,50.781,0
1583437895.588,26.367,32.715,72.754,33.203,115.723,0
1583437895.591,21.973,26.367,74.219,34.668,87.891,0
1583437895.595,21.973,19.531,67.383,33.691,45.410,0
1583437895.599,37.109,18.066,63.965,41.504,7.324,0
1583437895.603,40.039,19.531,60.059,36.621,41.504,0
1583437895.607,42.480,17.578,59.082,34.180,14.160,0
1583437895.603,34.180,19.043,64.453,44.922,-19.043,0
1583437895.607,30.273,9.277,64.453,46.875,19.531,0
1583437895.611,37.598,-4.395,61.035,40.039,3.906,0
1583437895.615,41.992,12.207,53.711,43.945,-1.953,0
1583437895.619,40.527,21.484,51.758,46.387,60.059,0
1583437895.623,41.016,16.113,58.594,43.945,48.340,0
1583437895.627,40.039,19.043,51.270,38.574,15.137,0
1583437895.630,39.551,21.484,41.016,41.504,48.828,0
1583437895.634,43.945,15.137,48.340,44.922,59.082,0
1583437895.638,37.109,13.184,59.570,41.016,49.805,0
1583437895.642,31.738,16.602,61.035,40.039,48.828,0
1583437895.646,37.109,16.602,54.199,36.133,67.871,0
1583437895.663,38.086,11.719,45.410,40.039,57.129,0
1583437895.667,41.016,5.371,50.293,40.039,24.902,0
1583437895.671,39.062,3.906,57.617,43.457,4.883,0
1583437895.675,38.086,7.812,59.570,48.828,4.883,0
1583437895.679,44.434,10.742,57.129,46.875,7.812,0
1583437895.683,34.180,11.230,52.734,48.340,25.391,0
1583437895.687,29.297,14.648,54.199,43.945,61.035,0
1583437895.690,38.086,22.949,60.547,32.715,29.297,0
1583437895.694,31.250,20.020,65.918,37.109,-27.832,0
1583437895.698,32.715,20.508,58.594,49.316,-41.016,0
1583437895.702,39.551,22.949,54.199,58.105,20.020,0
1583437895.706,48.340,20.508,55.664,51.270,27.344,0
1583437895.683,55.664,14.160,54.688,42.969,18.555,0
1583437895.687,50.781,13.184,48.340,46.875,45.898,0
1583437895.691,48.828,11.719,45.898,38.086,29.297,0
1583437895.695,42.480,8.789,44.922,45.410,39.062,0
1583437895.699,41.504,21.973,41.992,42.480,36.621,0
1583437895.703,40.527,17.578,49.316,31.738,19.531,0
1583437895.707,39.062,3.418,53.711,42.480,52.734,0
1583437895.710,54.199,14.648,56.641,46.387,55.176,0
1583437895.714,49.805,28.809,54.199,39.062,41.992,0
1583437895.718,36.133,29.297,41.504,30.762,16.602,0
1583437895.722,39.062,23.926,34.668,34.668,-2.930,0
1583437895.726,47.852,27.344,37.598,37.598,52.246,0
1583437895.743,49.316,29.785,37.598,29.785,105.957,0
1583437895.747,33.203,30.762,30.762,18.066,74.219,0
1583437895.751,31.250,32.715,24.902,24.414,53.223,0
1583437895.755,40.039,32.715,24.414,32.715,5.859,0
1583437895.759,38.086,35.156,13.672,25.879,-8.301,0
1583437895.763,32.227,38.574,10.742,25.879,41.992,0
1583437895.767,33.203,34.180,26.855,33.691,20.020,0
1583437895.770,31.250,24.414,23.926,19.531,-38.574,0
1583437895.774,34.668,23.438,21.484,8.789,17.090,0
1583437895.778,29.785,23.438,30.762,25.879,62.988,0
1583437895.782,25.391,26.855,35.156,31.738,25.391,0
1583437895.786,26.367,30.273,39.062,32.715,69.824,0
1583437895.784,33.203,28.320,36.621,34.668,107.422,0
1583437895.788,40.527,23.438,35.156,26.367,31.250,0
1583437895.792,39.062,27.344,33.691,24.414,57.129,0
1583437895.796,45.410,38.574,29.297,31.250,67.871,0
1583437895.800,38.086,39.062,28.809,38.086,-8.301,0
1583437895.804,32.227,38.574,29.297,33.691,19.043,0
1583437895.808,38.086,35.156,34.180,29.297,23.438,0
1583437895.811,42.969,21.973,38.574,39.551,38.574,0
1583437895.815,44.922,22.461,40.039,35.645,39.062,0
1583437895.819,37.598,31.738,46.875,28.320,20.996,0
1583437895.823,36.621,30.273,49.805,38.086,71.777,0
1583437895.827,54.688,32.715,39.062,32.227,62.988,0
1583437895.864,50.781,34.180,35.156,33.203,79.590,0
1583437895.868,29.785,28.320,41.016,44.922,73.730,0
1583437895.872,31.250,32.227,27.832,27.344,7.324,0
1583437895.876,33.203,35.645,25.391,15.137,25.879,0
1583437895.880,22.949,29.785,47.363,22.949,46.875,0
1583437895.884,29.785,21.973,57.129,33.203,-10.254,0
1583437895.888,13.672,17.578,53.223,24.902,-12.207,0
1583437895.891,7.812,32.227,45.898,15.137,54.199,0
1583437895.895,35.156,38.086,39.551,20.996,36.621,0
1583437895.899,18.066,29.297,39.062,33.203,9.766,0
1583437895.903,21.484,21.484,41.992,36.621,56.641,0
1583437895.907,41.992,18.066,52.734,40.039,102.051,0
1583437895.884,38.574,29.297,58.594,43.457,19.531,0
1583437895.888,41.504,39.062,49.805,40.527,32.715,0
1583437895.892,41.992,36.133,42.480,43.945,61.035,0
1583437895.896,36.621,20.020,43.945,56.641,40.039,0
1583437895.900,43.945,17.578,49.316,56.641,47.363,0
1583437895.904,41.016,32.715,51.758,46.875,37.109,0
1583437895.908,41.016,37.598,43.945,43.945,21.484,0
1583437895.911,38.086,32.715,37.598,43.945,35.156,0
1583437895.915,36.621,29.297,47.852,47.363,46.875,0
1583437895.919,41.016,18.066,52.734,51.270,29.297,0
1583437895.923,39.551,17.578,47.363,49.805,12.695,0
1583437895.927,33.203,28.809,46.387,21.484,24.902,0
1583437895.923,29.785,30.762,42.480,27.344,28.320,0
1583437895.927,38.574,28.320,41.504,57.617,59.082,0
1583437895.931,34.180,24.414,43.945,43.457,17.090,0
1583437895.935,35.156,33.203,41.992,37.598,15.625,0
1583437895.939,36.133,33.691,42.969,27.344,-12.207,0
1583437895.943,37.109,31.250,47.852,27.344,-27.832,0
1583437895.947,38.086,36.621,45.410,39.551,9.277,0
1583437895.950,20.996,26.855,45.898,34.180,-1.953,0
1583437895.954,6.836,19.043,56.641,42.480,6.348,0
1583437895.958,15.137,28.809,52.246,43.457,40.039,0
1583437895.962,37.598,33.691,50.781,51.758,88.379,0
1583437895.966,30.762,36.133,48.828,37.109,51.270,0
1583437895.983,31.738,32.715,43.457,22.949,3.418,0
1583437895.987,41.992,29.785,46.387,51.758,29.785,0
1583437895.991,39.062,30.762,45.410,58.105,48.828,0
1583437895.995,46.875,30.273,41.504,38.086,12.695,0
1583437895.999,32.227,27.344,43.457,39.062,37.109,0
1583437896.003,28.320,19.531,48.340,50.293,29.297,0
1583437896.007,43.945,22.461,48.828,44.434,-50.293,0
1583437896.010,50.781,31.738,41.992,50.293,-90.820,0
1583437896.014,46.387,28.320,34.180,49.316,-25.391,0
1583437896.018,32.715,26.855,26.855,40.039,-5.371,0
1583437896.022,36.133,34.668,29.785,41.016,12.207,0
1583437896.026,34.180,36.621,44.922,49.316,48.340,0
1583437896.023,37.109,32.715,49.316,56.641,-5.371,0
1583437896.027,36.133,29.785,45.898,49.805,26.855,0
1583437896.031,36.133,25.879,41.992,39.551,62.988,0
1583437896.035,40.039,27.832,39.062,35.645,43.945,0
1583437896.039,51.758,31.250,39.062,34.180,34.668,0
1583437896.043,39.062,27.344,37.109,37.109,33.691,0
1583437896.047,31.250,26.367,27.832,50.293,38.086,0
1583437896.050,43.457,27.344,30.273,50.781,-11.230,0
1583437896.054,35.156,25.879,39.062,50.781,-12.207,0
1583437896.058,40.527,23.926,30.762,42.969,75.195,0
1583437896.062,35.645,12.695,25.391,34.180,82.520,0
1583437896.066,38.574,14.648,18.555,42.969,66.895,0
1583437896.063,59.570,31.738,9.766,35.645,65.430,0
1583437896.067,43.457,33.203,13.672,41.992,11.230,0
1583437896.071,39.551,30.762,21.484,52.246,55.664,0
1583437896.075,49.805,29.297,28.809,68.359,81.543,0
1583437896.079,39.062,27.344,31.250,70.801,47.852,0
1583437896.083,34.668,29.297,27.832,52.734,51.758,0
1583437896.087,22.949,26.855,29.297,49.805,18.555,0
1583437896.090,21.484,27.344,25.879,43.945,3.418,0
1583437896.094,31.738,32.227,26.855,35.645,-12.207,0
1583437896.098,29.297,33.203,31.250,23.438,15.625,0
1583437896.102,38.574,24.414,30.273,40.527,42.480,0
1583437896.106,38.086,18.066,30.762,51.270,38.086,0
1583437896.123,19.043,25.391,28.809,38.086,44.434,0
1583437896.127,15.137,30.273,33.203,50.293,32.715,0
1583437896.131,20.020,24.902,35.156,37.598,-14.648,0
1583437896.135,36.133,23.926,32.227,22.949,16.113,0
1583437896.139,40.527,30.273,34.668,46.875,86.426,0
1583437896.143,16.602,24.902,40.039,59.082,77.148,0
1583437896.147,28.320,26.855,37.109,40.527,55.176,0
1583437896.150,34.180,27.832,33.691,32.715,42.480,0
1583437896.154,23.438,21.973,39.062,39.062,21.973,0
1583437896.158,32.715,22.949,38.574,34.180,23.438,0
1583437896.162,31.250,30.273,35.645,30.273,55.664,0
1583437896.166,25.391,35.645,41.016,23.926,71.289,0
1583437896.164,28.320,32.715,41.992,27.832,79.590,0
1583437896.168,34.180,30.762,34.668,42.969,57.617,0
1583437896.172,33.691,33.691,40.527,39.062,37.598,0
1583437896.176,33.691,32.227,49.316,38.086,29.297,0
1583437896.180,18.066,29.297,50.781,31.250,65.918,0
1583437896.184,7.812,28.809,50.781,17.578,51.758,0
1583437896.188,18.555,29.785,48.828,27.832,7.324,0
1583437896.191,39.062,29.297,48.828,42.480,27.344,0
1583437896.195,16.602,28.320,47.363,21.484,40.527,0
1583437896.199,-12.207,26.855,42.969,2.930,50.781,0
1583437896.203,20.996,29.785,40.527,18.066,25.879,0
1583437896.207,26.855,29.785,42.480,21.973,30.762,0
1583437896.203,3.906,23.926,41.992,23.438,24.902,0
1583437896.207,25.391,26.367,43.457,31.250,-4.883,0
1583437896.211,43.945,31.738,45.898,32.227,-4.883,0
1583437896.215,4.395,28.809,45.898,37.598,9.277,0
1583437896.219,-17.578,26.855,45.410,13.672,28.320,0
1583437896.223,13.184,29.297,42.480,-3.906,32.715,0
1583437896.227,27.344,34.180,41.016,20.020,41.504,0
1583437896.230,32.715,35.645,38.574,27.832,21.973,0
1583437896.234,25.391,29.785,36.133,4.883,-40.039,0
1583437896.238,13.672,23.438,43.945,9.277,4.883,0
1583437896.242,16.113,23.438,49.805,28.320,63.965,0
1583437896.246,-6.836,22.949,48.340,25.391,36.621,0
1583437896.263,0.488,26.855,46.387,14.160,14.160,0
1583437896.267,26.367,30.762,44.922,14.160,55.176,0
1583437896.271,30.273,34.668,41.992,14.648,47.363,0
1583437896.275,21.484,34.180,43.457,8.789,47.852,0
1583437896.279,8.301,30.273,43.457,18.555,82.031,0
1583437896.283,11.719,25.879,37.598,24.414,30.273,0
1583437896.287,11.719,23.438,34.668,21.973,33.203,0
1583437896.290,18.066,27.832,39.551,25.879,12.207,0
1583437896.294,42.969,38.574,44.922,32.227,-14.160,0
1583437896.298,41.992,23.926,41.016,20.020,27.344,0
1583437896.302,39.062,6.348,37.109,28.320,17.090,0
1583437896.306,16.113,21.973,41.016,35.645,14.648,0
1583437896.304,1.465,33.691,44.434,21.973,56.641,0
1583437896.308,32.227,36.133,45.898,30.762,35.156,0
1583437896.312,51.758,41.016,39.551,7.812,19.531,0
1583437896.316,51.758,42.480,38.574,12.207,37.598,0
1583437896.320,32.227,35.156,46.875,34.668,34.180,0
1583437896.324,21.484,28.320,53.223,42.480,-19.531,0
1583437896.328,46.387,30.273,48.828,41.992,5.371,0
1583437896.331,44.922,34.668,41.504,32.227,72.754,0
1583437896.335,32.715,33.203,41.016,32.227,20.020,0
1583437896.339,49.316,27.832,40.039,35.645,-11.230,0
1583437896.343,45.898,26.855,33.203,30.762,38.574,0
1583437896.347,45.898,34.668,23.438,26.855,74.219,0
1583437896.344,39.062,35.156,24.414,42.480,48.340,0
1583437896.348,33.691,32.227,28.320,44.434,89.844,0
1583437896.352,50.781,30.762,30.762,22.949,81.543,0
1583437896.356,44.922,21.484,34.668,27.344,35.156,0
1583437896.360,36.133,20.508,35.645,45.410,3.418,0
1583437896.364,29.785,29.297,33.691,35.645,23.926,0
1583437896.368,27.344,21.484,23.438,32.715,88.867,0
1583437896.371,40.039,13.672,10.254,34.668,39.551,0
1583437896.375,38.086,31.250,2.441,23.438,-15.137,0
1583437896.379,31.738,41.992,3.418,29.785,9.766,0
1583437896.383,24.414,39.062,4.395,32.715,66.406,0
1583437896.387,21.484,32.715,-4.395,23.926,68.359,0
1583437896.403,30.762,28.320,-8.301,28.809,15.137,0
1583437896.407,40.039,31.738,-9.766,42.480,6.836,0
1583437896.411,49.316,34.180,-15.625,41.016,35.156,0
1583437896.415,42.969,34.668,-18.066,23.438,74.219,0
1583437896.419,33.691,31.738,-18.555,21.973,8.789,0
1583437896.423,38.086,35.156,-25.879,47.363,41.016,0
1583437896.427,33.203,33.691,-31.250,42.480,88.379,0
1583437896.430,27.344,27.832,-20.508,33.203,-13.672,0
1583437896.434,62.012,51.758,14.648,73.730,-6.836,0
1583437896.438,40.527,19.043,-10.742,37.109,45.898,0
1583437896.442,6.348,1.465,-36.621,5.859,51.758,0
1583437896.446,11.719,16.602,-20.996,32.227,26.367,0
1583437896.444,15.137,21.484,-20.020,38.086,-5.859,0
1583437896.448,24.414,32.715,-14.648,37.109,45.898,0
1583437896.452,25.391,30.273,-10.254,33.203,53.223,0
1583437896.456,24.902,36.621,-4.883,36.621,19.043,0
1583437896.460,30.762,39.551,-9.766,32.227,82.520,0
1583437896.464,31.250,38.574,-9.766,31.250,70.312,0
1583437896.468,36.621,38.574,0.977,35.156,52.246,0
1583437896.471,34.668,34.180,3.906,30.273,66.895,0
1583437896.475,29.785,24.902,5.371,28.809,71.777,0
1583437896.479,42.969,11.230,12.207,22.949,54.199,0
1583437896.483,35.156,16.113,23.438,18.555,23.438,0
1583437896.487,20.996,31.738,30.273,31.738,56.641,0
1583437896.483,26.367,37.109,36.133,39.551,87.891,0
1583437896.487,24.902,36.621,39.062,32.715,30.273,0
1583437896.491,13.672,33.203,35.156,22.949,-20.996,0
1583437896.495,9.277,30.762,34.668,18.066,-24.414,0
1583437896.499,10.254,34.668,37.109,12.695,-44.922,0
1583437896.503,10.254,32.715,43.945,14.648,-13.672,0
1583437896.507,0.977,20.996,46.387,9.277,57.617,0
1583437896.510,-11.230,23.438,37.109,-6.836,31.250,0
1583437896.514,-15.625,34.668,29.785,-25.391,-2.441,0
1583437896.518,-20.508,38.086,21.973,-33.691,39.062,0
1583437896.522,-28.809,33.691,16.602,-39.551,8.301,0
1583437896.526,-30.273,28.809,17.578,-36.133,12.207,0
1583437896.543,-34.180,21.973,17.090,-31.738,89.355,0
1583437896.547,-48.828,12.695,23.438,-51.758,75.684,0
1583437896.551,-51.758,17.090,33.203,-67.383,34.180,0
1583437896.555,-53.711,27.344,33.203,-62.500,14.160,0
1583437896.559,-58.594,22.949,18.555,-62.500,27.344,0
1583437896.563,-56.641,16.602,14.648,-66.406,59.082,0
1583437896.567,-53.223,21.484,26.855,-66.406,4.395,0
1583437896.570,-47.852,26.367,33.691,-62.500,31.738,0
1583437896.574,-47.852,30.273,24.414,-55.664,57.617,0
1583437896.578,-45.898,41.504,12.695,-50.781,51.758,0
1583437896.582,-32.715,50.293,21.484,-40.527,25.879,0
1583437896.586,-21.484,38.574,14.160,-35.156,-1.465,0
1583437896.603,-17.578,28.320,-8.789,-24.414,-17.090,0
1583437896.607,-8.789,35.645,-3.418,-8.789,-36.621,0
1583437896.611,1.953,36.621,-7.812,-6.836,20.508,0
1583437896.615,3.906,36.133,-14.648,-5.859,22.461,0
1583437896.619,7.812,41.016,12.207,6.348,0.488,0
1583437896.623,14.160,37.598,23.926,16.602,6.836,0
1583437896.627,20.508,37.109,18.555,25.391,36.621,0
1583437896.630,23.438,38.086,16.602,28.809,15.137,0
1583437896.634,36.133,34.668,8.789,41.992,49.316,0
1583437896.638,51.758,35.156,10.254,52.246,40.527,0
1583437896.642,54.199,27.832,13.184,45.898,-31.250,0
1583437896.646,62.500,25.879,6.348,54.688,-3.906,0
1583437896.624,67.871,41.016,12.695,63.965,16.602,0
1583437896.628,66.406,47.852,25.391,65.918,38.574,0
1583437896.632,73.730,41.992,17.090,69.824,34.668,0
1583437896.636,72.754,37.598,8.789,61.035,36.621,0
1583437896.640,74.707,38.574,24.414,62.988,60.547,0
1583437896.644,74.707,35.156,39.062,79.102,21.484,0
1583437896.648,67.383,30.273,41.016,77.148,30.273,0
1583437896.651,71.289,23.438,39.551,74.219,44.434,0
1583437896.655,74.219,13.672,44.434,77.148,73.242,0
1583437896.659,67.871,22.949,39.551,75.684,93.750,0
1583437896.663,72.266,32.715,19.043,82.031,72.754,0
1583437896.667,82.031,34.180,13.672,82.031,53.711,0
1583437896.683,78.613,33.203,14.648,73.242,22.461,0
1583437896.687,73.242,30.273,18.555,76.172,5.859,0
1583437896.691,69.824,24.902,36.133,82.520,21.484,0
1583437896.695,68.848,16.113,40.527,81.543,61.523,0
1583437896.699,74.219,17.090,35.645,79.590,49.805,0
1583437896.703,76.660,24.414,34.668,78.613,62.988,0
1583437896.707,73.730,26.367,41.504,77.637,83.984,0
1583437896.710,80.566,27.344,52.734,80.078,47.363,0
1583437896.714,83.008,27.832,42.969,78.125,55.664,0
1583437896.718,84.961,27.832,37.109,81.543,68.848,0
1583437896.722,84.961,33.691,46.875,90.332,-13.184,0
1583437896.726,80.078,36.133,45.410,86.426,-20.020,0
1583437896.724,82.520,33.691,54.199,81.055,35.156,0
1583437896.728,83.496,33.691,52.246,79.102,21.484,0
1583437896.732,78.125,28.809,44.434,77.148,69.824,0
1583437896.736,80.078,27.344,50.293,74.219,78.125,0
1583437896.740,80.566,26.367,60.547,73.730,64.941,0
1583437896.744,76.660,20.020,61.523,71.777,40.039,0
1583437896.748,80.078,30.762,55.664,73.242,14.648,0
1583437896.751,79.102,38.086,60.059,75.195,64.941,0
1583437896.755,74.707,28.320,58.594,70.312,54.688,0
1583437896.759,73.242,29.297,59.570,60.547,50.293,0
1583437896.763,70.312,38.574,64.453,59.082,100.586,0
1583437896.767,66.895,41.992,54.688,69.824,102.539,0
1583437896.763,65.430,35.645,43.945,65.918,21.484,0
1583437896.767,63.965,25.391,57.129,60.547,21.484,0
1583437896.771,60.059,22.949,65.430,59.082,0.488,0
1583437896.775,58.105,31.250,54.688,61.035,-14.160,0
1583437896.779,54.688,40.039,42.969,62.988,8.301,0
1583437896.783,52.734,39.551,38.086,58.105,8.301,0
1583437896.787,50.781,36.133,48.828,52.734,32.715,0
1583437896.790,46.875,31.250,61.035,50.781,25.391,0
1583437896.794,48.828,25.879,62.500,53.711,30.273,0
1583437896.798,53.711,29.785,56.641,53.223,12.207,0
1583437896.802,53.223,30.762,30.762,51.270,10.742,0
1583437896.806,51.270,20.020,12.207,54.688,17.090,0
1583437896.823,50.781,19.531,20.996,54.199,-2.441,0
1583437896.827,51.758,31.250,17.090,48.828,47.363,0
1583437896.831,53.223,29.785,3.906,47.363,17.578,0
1583437896.835,53.711,28.320,3.906,50.781,60.059,0
1583437896.839,53.711,35.156,-9.766,51.270,82.520,0
1583437896.843,57.617,36.621,-7.812,53.711,34.180,0
1583437896.847,61.035,35.645,19.531,48.828,20.996,0
1583437896.850,60.059,33.691,29.785,43.945,44.922,0
1583437896.854,53.223,32.227,21.973,48.828,38.574,0
1583437896.858,51.270,27.832,12.695,52.246,45.898,0
1583437896.862,56.641,20.996,25.879,49.805,23.926,0
1583437896.866,59.082,27.832,36.621,49.316,66.895,0
1583437896.863,56.641,35.156,41.992,51.758,92.773,0
1583437896.867,54.199,18.066,36.133,51.270,65.430,0
1583437896.871,54.688,20.508,27.344,43.945,67.871,0
1583437896.875,48.828,33.203,35.156,38.574,54.688,0
1583437896.879,41.504,25.391,45.898,43.945,65.918,0
1583437896.883,38.574,30.762,38.574,45.410,19.043,0
1583437896.887,35.645,40.039,41.504,43.457,11.719,0
1583437896.890,41.504,27.832,46.387,41.016,-5.371,0
1583437896.894,43.457,15.137,40.039,45.410,23.438,0
1583437896.898,43.457,15.625,41.016,52.246,40.039,0
1583437896.902,54.199,27.832,35.645,52.734,-8.789,0
1583437896.906,51.758,44.434,27.832,43.945,-16.113,0
1583437896.903,40.527,40.039,26.367,26.367,13.184,0
1583437896.907,39.551,34.180,41.504,26.855,39.062,0
1583437896.911,43.945,37.598,47.363,36.621,-12.207,0
1583437896.915,49.316,39.551,45.410,39.062,-7.812,0
1583437896.919,46.387,37.598,43.457,32.227,33.691,0
1583437896.923,41.504,35.645,37.598,28.320,23.438,0
1583437896.927,48.828,41.992,37.109,36.621,16.113,0
1583437896.930,50.293,40.527,34.668,34.180,75.684,0
1583437896.934,47.852,28.809,35.156,30.273,85.938,0
1583437896.938,46.387,28.320,39.062,37.598,74.707,0
1583437896.942,42.969,34.180,42.480,37.109,68.848,0
1583437896.946,45.898,38.086,43.945,33.203,-9.766,0
1583437896.963,46.875,41.016,41.016,29.297,25.391,0
1583437896.967,41.992,39.062,38.086,31.250,44.434,0
1583437896.971,42.480,33.203,32.227,37.598,18.066,0
1583437896.975,47.852,23.926,29.785,39.062,96.680,0
1583437896.979,45.410,29.297,29.297,35.645,98.145,0
1583437896.983,39.062,35.645,25.391,29.785,-17.090,0
1583437896.987,35.645,33.203,25.391,30.273,-48.340,0
1583437896.990,30.273,33.203,13.184,34.668,-13.672,0
1583437896.994,29.297,34.668,-5.859,33.203,-3.906,0
1583437896.998,35.645,35.156,2.930,35.645,14.648,0
1583437897.002,41.016,43.945,7.812,39.062,34.180,0
1583437897.006,44.434,44.434,2.930,37.598,52.246,0
1583437897.003,44.922,34.668,1.953,35.645,6.348,0
1583437897.007,41.992,37.109,-3.906,34.180,23.926,0
1583437897.011,40.527,32.227,-8.301,41.016,45.410,0
1583437897.015,36.133,29.297,-9.277,39.062,53.711,0
1583437897.019,35.645,35.156,-11.230,33.203,82.520,0
1583437897.023,37.598,37.598,-15.625,35.645,20.508,0
1583437897.027,40.527,37.598,-21.973,33.691,18.555,0
1583437897.030,45.898,34.180,-20.996,35.156,61.035,0
1583437897.034,43.457,36.621,-10.742,38.086,42.480,0
1583437897.038,38.574,41.504,-27.344,24.902,45.898,0
1583437897.042,46.387,37.109,-42.969,28.320,43.457,0
1583437897.046,49.805,40.039,-20.996,42.480,60.547,0
1583437897.044,47.852,44.434,-13.672,40.527,14.648,0
1583437897.048,45.898,39.551,-18.066,38.574,-14.160,0
1583437897.052,41.016,40.527,-9.766,35.156,-10.254,0
1583437897.056,41.992,37.598,-13.184,35.645,-11.719,0
1583437897.060,43.945,24.414,-24.414,41.016,33.203,0
1583437897.064,43.945,29.297,-36.133,36.133,-3.906,0
1583437897.068,45.410,39.062,-34.180,28.320,-33.691,0
1583437897.071,42.969,26.855,-26.855,27.832,-0.488,0
1583437897.075,41.016,27.832,-34.180,32.715,63.965,0
1583437897.079,39.551,39.551,-34.180,32.715,26.855,0
1583437897.083,37.598,34.668,-21.484,30.273,19.531,0
1583437897.087,41.992,34.668,-25.391,33.691,51.758,0
1583437897.103,39.062,36.133,-33.203,33.203,-27.832,0
1583437897.107,33.203,41.016,-31.738,28.809,-12.207,0
1583437897.111,46.875,34.180,-30.273,41.016,47.852,0
1583437897.115,60.547,24.414,-27.832,55.176,81.543,0
1583437897.119,46.875,39.062,-29.297,40.527,66.895,0
1583437897.123,32.715,42.480,-21.484,25.391,29.785,0
1583437897.127,41.016,37.598,-6.348,29.297,18.555,0
1583437897.130,52.246,40.039,-4.395,38.086,15.625,0
1583437897.134,50.293,41.504,-15.137,47.363,30.762,0
1583437897.138,52.734,36.133,-21.484,53.223,34.180,0
1583437897.142,53.223,26.855,-18.555,46.387,31.738,0
1583437897.146,47.852,22.949,-14.648,37.109,69.336,0
1583437897.143,48.340,32.227,-26.367,40.527,16.602,0
1583437897.147,46.387,35.156,-36.621,40.527,11.230,0
1583437897.151,41.992,35.645,-24.902,36.133,50.293,0
1583437897.155,42.480,32.715,-10.742,36.621,7.812,0
1583437897.159,41.992,26.855,-12.207,36.133,38.086,0
1583437897.163,43.457,23.438,-18.555,37.598,82.031,0
1583437897.167,44.434,28.320,-25.879,43.457,11.719,0
1583437897.170,40.527,41.992,-35.645,41.016,-50.781,0
1583437897.174,36.621,43.945,-29.785,37.109,-36.133,0
1583437897.178,37.109,44.922,-23.926,39.062,28.320,0
1583437897.182,38.574,43.457,-29.785,41.992,112.305,0
1583437897.186,40.527,45.410,-28.809,48.340,80.566,0
1583437897.184,40.039,46.387,-7.812,48.340,41.504,0
1583437897.188,41.016,40.039,15.137,42.969,41.504,0
1583437897.192,43.945,34.668,21.484,45.898,5.371,0
1583437897.196,41.016,35.156,15.137,46.875,28.320,0
1583437897.200,40.039,33.203,8.301,44.434,29.785,0
1583437897.204,43.945,10.254,6.836,45.898,27.832,0
1583437897.208,50.293,14.648,16.113,51.270,29.297,0
1583437897.211,51.758,40.527,16.113,46.387,64.453,0
1583437897.215,45.410,44.434,-3.906,37.109,39.551,0
1583437897.219,42.480,45.898,-20.996,40.527,1.465,0
1583437897.223,46.387,40.039,-37.598,46.875,22.949,0
1583437897.227,46.387,31.250,-31.250,49.316,58.594,0
1583437897.243,45.410,33.203,-16.602,42.969,91.797,0
1583437897.247,42.969,33.203,-20.996,37.598,37.109,0
1583437897.251,39.062,35.645,-28.320,40.039,74.707,0
1583437897.255,35.645,36.621,-23.438,39.551,124.512,0
1583437897.259,27.832,23.438,-19.043,34.668,101.562,0
1583437897.263,36.133,21.484,-33.203,33.203,27.832,0
1583437897.267,47.363,38.086,-41.504,38.086,43.945,0
1583437897.270,33.203,43.457,-41.504,28.809,100.098,0
1583437897.274,21.973,41.016,-43.945,15.625,2.441,0
1583437897.278,26.367,40.039,-49.316,21.484,9.277,0
1583437897.282,27.344,33.691,-62.012,26.855,39.062,0
1583437897.286,31.250,30.273,-57.129,26.367,45.410,0
1583437897.284,38.574,33.203,-46.387,33.691,44.922,0
1583437897.288,41.504,33.691,-51.270,38.086,36.133,0
1583437897.292,38.574,38.574,-53.711,33.691,29.297,0
1583437897.296,36.133,31.250,-45.898,31.738,37.598,0
1583437897.300,41.992,26.367,-53.711,36.621,34.180,0
1583437897.304,43.945,43.945,-58.594,35.156,21.484,0
1583437897.308,41.504,38.086,-44.922,28.320,24.414,0
1583437897.311,36.621,24.902,-44.434,33.691,62.988,0
1583437897.315,33.691,38.086,-53.223,34.180,91.797,0
1583437897.319,36.133,41.504,-48.828,30.273,40.039,0
1583437897.323,37.109,38.574,-45.898,30.273,26.855,0
1583437897.327,34.668,38.086,-55.176,28.809,36.133,0
1583437897.343,32.715,30.273,-55.176,33.203,9.277,0
1583437897.347,31.250,28.320,-49.805,33.203,-5.859,0
1583437897.351,36.133,34.668,-47.852,26.855,9.766,0
1583437897.355,38.086,44.922,-48.828,27.832,40.039,0
1583437897.359,35.645,42.969,-51.270,28.320,19.043,0
1583437897.363,34.180,33.203,-44.922,29.785,-6.348,0
1583437897.367,33.203,33.203,-37.109,28.809,58.105,0
1583437897.370,36.133,22.461,-33.691,20.020,51.758,0
1583437897.374,38.086,21.973,-31.250,22.949,19.043,0
1583437897.378,33.203,43.945,-40.527,31.738,40.039,0
1583437897.382,28.809,44.922,-52.246,28.809,59.082,0
1583437897.386,28.320,40.039,-49.316,26.855,111.328,0
1583437897.383,28.320,35.645,-55.664,24.902,68.848,0
1583437897.387,33.203,35.156,-59.570,28.809,35.156,0
1583437897.391,37.109,42.480,-39.062,29.785,44.434,0
1583437897.395,31.250,47.363,-30.762,24.414,30.762,0
1583437897.399,29.785,38.574,-37.598,26.367,9.766,0
1583437897.403,31.738,25.879,-41.504,28.320,30.762,0
1583437897.407,28.809,25.391,-34.668,29.785,41.016,0
1583437897.410,31.738,29.785,-40.039,27.344,-0.488,0
1583437897.414,35.156,37.598,-46.875,23.438,16.113,0
1583437897.418,31.250,46.387,-33.203,26.855,53.711,0
1583437897.422,28.320,35.645,-21.973,26.367,23.926,0
1583437897.426,26.855,31.738,-20.508,24.414,-30.273,0
1583437897.443,30.273,41.016,-27.344,30.762,-33.691,0
1583437897.447,36.621,35.156,-21.484,38.574,51.758,0
1583437897.451,33.691,31.250,-21.484,38.574,78.613,0
1583437897.455,30.273,39.062,-31.250,31.738,41.504,0
1583437897.459,39.551,36.621,-22.949,33.691,4.395,0
1583437897.463,51.270,30.762,-20.020,45.898,-35.156,0
1583437897.467,48.340,35.645,-16.602,49.316,-5.371,0
1583437897.470,29.297,37.598,-16.113,33.691,30.762,0
1583437897.474,20.996,33.203,-18.066,21.973,13.184,0
1583437897.478,26.367,24.902,-19.043,26.367,7.812,0
1583437897.482,29.785,20.996,-20.020,32.227,26.855,0
1583437897.486,31.250,26.855,-23.926,34.180,9.766,0
1583437897.483,35.156,34.668,-36.133,33.691,4.395,0
1583437897.487,31.250,39.062,-34.180,32.715,22.461,0
1583437897.491,30.762,37.598,-20.996,36.621,67.871,0
1583437897.495,37.109,41.504,-0.488,41.504,120.605,0
1583437897.499,36.133,33.203,29.297,39.551,115.234,0
1583437897.503,36.133,13.184,41.992,30.762,69.824,0
1583437897.507,38.086,28.809,43.457,26.855,-3.418,0
1583437897.510,37.109,41.504,56.152,31.250,1.465,0
1583437897.514,35.156,36.621,71.289,32.227,60.059,0
1583437897.518,31.738,34.180,76.660,29.785,41.504,0
1583437897.522,28.320,35.156,81.055,30.273,-1.953,0
1583437897.526,32.227,38.574,85.938,37.109,-42.969,0
1583437897.523,31.738,34.180,74.219,29.297,-60.547,0
1583437897.527,32.715,30.273,66.406,27.344,-29.785,0
1583437897.531,34.668,39.062,72.266,38.086,-7.324,0
1583437897.535,32.715,35.645,91.797,37.109,18.555,0
1583437897.539,35.645,23.438,104.492,34.180,19.043,0
1583437897.543,38.574,23.926,93.262,33.691,56.641,0
1583437897.547,35.156,25.879,73.730,26.855,42.480,0
1583437897.550,36.621,34.180,48.828,24.414,30.273,0
1583437897.554,41.504,37.598,33.203,27.832,48.828,0
1583437897.558,40.039,30.762,25.391,29.785,48.828,0
1583437897.562,40.039,27.344,10.254,29.297,31.738,0
1583437897.566,37.109,28.320,6.836,31.738,22.949,0
1583437897.563,34.180,34.180,26.367,36.621,-8.301,0
1583437897.567,36.133,42.480,49.316,36.133,7.812,0
1583437897.571,37.598,36.621,67.871,35.645,71.777,0
1583437897.575,34.668,26.367,69.824,34.668,26.855,0
1583437897.579,32.715,33.691,65.430,35.645,17.578,0
1583437897.583,34.668,41.504,78.613,38.574,66.406,0
1583437897.587,33.691,34.668,99.121,31.250,75.684,0
1583437897.590,35.156,27.832,105.957,30.762,14.160,0
1583437897.594,36.621,32.715,99.121,32.715,56.641,0
1583437897.598,39.062,29.297,90.332,32.227,56.641,0
1583437897.602,38.086,29.297,92.285,32.227,-15.137,0
1583437897.606,35.645,26.855,98.633,29.785,17.578,0
1583437897.623,39.062,12.207,99.121,34.180,10.742,0
1583437897.627,40.039,15.137,93.262,38.574,-31.250,0
1583437897.631,36.133,29.785,91.797,38.086,-23.926,0
1583437897.635,35.156,41.504,94.727,34.180,10.254,0
1583437897.639,37.109,42.969,86.914,36.133,76.660,0
1583437897.643,38.086,37.109,81.055,42.480,108.887,0
1583437897.647,38.574,33.691,73.242,36.621,77.637,0
1583437897.650,39.551,36.133,63.965,28.320,37.109,0
1583437897.654,40.527,34.668,84.961,38.574,41.992,0
1583437897.658,36.621,33.691,104.004,39.551,73.242,0
1583437897.662,31.250,33.691,104.004,30.273,30.762,0
1583437897.666,34.180,33.691,98.145,27.832,8.789,0
1583437897.663,45.898,37.598,83.984,29.785,0.977,0
1583437897.667,45.410,28.809,81.055,35.645,10.742,0
1583437897.671,32.715,20.508,97.656,32.715,49.805,0
1583437897.675,25.879,26.367,98.145,30.762,43.945,0
1583437897.679,25.879,26.855,93.750,35.645,45.410,0
1583437897.683,22.949,28.320,104.492,37.109,50.781,0
1583437897.687,16.113,31.250,103.027,30.762,55.664,0
1583437897.690,17.090,29.785,103.516,24.414,57.129,0
1583437897.694,21.973,32.227,108.398,26.367,-0.977,0
1583437897.698,25.879,29.785,92.773,30.762,-5.371,0
1583437897.702,27.344,28.320,91.797,27.344,102.051,0
1583437897.706,31.250,24.902,101.562,27.832,105.957,0
1583437897.703,28.809,10.742,93.750,31.738,47.852,0
1583437897.707,30.762,17.090,92.285,34.180,83.984,0
1583437897.711,28.320,28.809,105.957,35.156,78.613,0
1583437897.715,25.879,28.809,110.840,32.715,-4.883,0
1583437897.719,29.297,35.156,103.027,30.762,-9.277,0
1583437897.723,25.879,36.621,104.492,27.344,39.551,0
1583437897.727,24.414,35.156,101.562,29.297,20.996,0
1583437897.730,27.344,39.062,99.609,28.809,57.617,0
1583437897.734,28.809,41.016,109.863,21.484,40.039,0
1583437897.738,33.203,40.039,104.980,21.484,13.672,0
1583437897.742,38.086,34.180,80.078,31.738,51.758,0
1583437897.746,39.062,27.344,69.824,36.621,50.293,0
1583437897.763,44.922,21.484,89.355,36.133,51.270,0
1583437897.767,45.410,26.855,105.469,38.574,20.508,0
1583437897.771,40.527,37.109,98.633,38.574,-12.207,0
1583437897.775,38.574,31.738,86.426,41.016,-37.598,0
1583437897.779,35.156,33.203,89.355,40.039,0.000,0
1583437897.783,33.691,46.387,100.586,34.668,8.789,0
1583437897.787,31.250,41.504,94.238,29.785,8.789,0
1583437897.790,31.250,38.574,85.938,29.297,66.406,0
1583437897.794,31.738,45.898,81.055,32.715,51.758,0
1583437897.798,30.762,26.367,76.172,30.273,22.461,0
1583437897.802,29.785,9.766,75.195,31.738,48.340,0
1583437897.806,30.762,24.414,77.637,32.715,43.945,0
1583437897.803,36.621,38.574,83.984,31.738,72.266,0
1583437897.807,32.227,38.086,91.797,32.227,77.637,0
1583437897.811,30.762,40.527,86.426,36.621,13.672,0
1583437897.815,38.574,42.969,70.801,37.109,44.434,0
1583437897.819,35.156,36.621,79.102,33.691,67.383,0
1583437897.823,29.785,38.086,89.355,33.203,67.383,0
1583437897.827,32.715,40.527,82.031,30.762,81.055,0
1583437897.830,33.691,39.551,67.871,34.668,72.754,0
1583437897.834,35.645,38.574,51.270,39.062,21.484,0
1583437897.838,41.504,34.668,58.594,39.551,14.648,0
1583437897.842,40.527,21.484,75.684,30.273,70.312,0
1583437897.846,41.016,20.020,69.824,28.809,66.895,0
1583437897.843,38.574,37.109,69.824,39.062,0.000,0
1583437897.847,39.062,45.410,70.801,38.574,-52.246,0
1583437897.851,43.457,43.457,58.594,36.133,-11.719,0
1583437897.855,41.016,36.133,62.988,32.715,46.387,0
1583437897.859,46.875,30.273,63.965,36.621,-4.395,0
1583437897.863,45.898,30.273,51.758,41.504,33.203,0
1583437897.867,40.039,41.992,52.734,38.086,68.359,0
1583437897.870,41.016,42.969,58.594,37.109,30.273,0
1583437897.874,39.551,47.363,56.641,33.691,32.715,0
1583437897.878,42.480,49.316,45.898,37.598,34.180,0
1583437897.882,45.410,32.227,37.598,40.039,88.379,0
1583437897.886,43.457,31.250,49.316,37.109,92.773,0
1583437897.903,39.551,38.086,64.941,36.133,34.180,0
1583437897.907,39.062,37.598,50.781,35.645,33.691,0
1583437897.911,40.039,39.551,32.227,36.133,21.973,0
1583437897.915,35.645,40.039,38.086,31.738,13.672,0
1583437897.919,32.227,42.480,49.805,27.832,57.617,0
1583437897.923,34.668,42.969,47.852,31.250,49.805,0
1583437897.927,37.109,37.109,42.480,31.738,44.922,0
1583437897.930,38.086,32.227,49.316,32.715,62.012,0
1583437897.934,42.480,41.504,49.805,36.621,25.879,0
1583437897.938,47.852,48.340,40.039,40.039,36.621,0
1583437897.942,49.316,37.109,33.691,46.387,76.660,0
1583437897.946,44.434,24.414,36.133,36.621,35.645,0
1583437897.943,41.992,38.574,37.109,29.297,-13.184,0
1583437897.947,40.039,49.316,25.879,36.621,-20.996,0
1583437897.951,39.551,45.898,28.809,38.574,17.090,0
1583437897.955,47.852,38.574,41.016,45.898,36.133,0
1583437897.959,45.898,33.691,48.340,42.480,28.320,0
1583437897.963,32.715,43.945,37.598,31.250,3.418,0
1583437897.967,30.762,52.734,25.879,32.715,-18.555,0
1583437897.970,35.156,47.363,28.809,36.133,73.730,0
1583437897.974,38.086,41.504,37.598,38.086,67.871,0
1583437897.978,40.527,36.621,36.133,32.715,30.762,0
1583437897.982,37.598,35.645,33.203,29.297,46.875,0
1583437897.986,41.504,42.480,32.715,39.551,21.973,0
1583437897.983,43.945,36.621,23.926,43.945,35.156,0
1583437897.987,42.480,32.227,19.531,37.598,54.199,0
1583437897.991,42.480,38.086,26.855,35.645,37.109,0
1583437897.995,40.527,35.156,31.738,39.551,-13.672,0
1583437897.999,38.086,20.020,35.156,38.086,3.906,0
1583437898.003,44.922,21.484,53.223,37.598,24.902,0
1583437898.007,42.969,32.227,58.594,37.109,26.855,0
1583437898.010,35.156,37.598,50.293,37.109,56.152,0
1583437898.014,32.715,37.109,45.898,35.156,30.762,0
1583437898.018,32.227,35.156,46.387,33.203,-25.391,0
1583437898.022,31.738,32.715,40.039,34.180,-8.789,0
1583437898.026,31.250,20.020,25.391,34.180,25.879,0
1583437898.043,37.109,23.926,33.203,35.645,-4.395,0
1583437898.047,41.016,31.738,45.410,35.156,26.855,0
1583437898.051,42.480,31.250,45.410,39.551,60.547,0
1583437898.055,46.387,29.785,42.480,43.457,23.926,0
1583437898.059,42.480,30.273,51.270,43.945,5.859,0
1583437898.063,36.133,23.926,62.500,38.574,12.695,0
1583437898.067,40.527,21.484,58.105,34.668,22.949,0
1583437898.070,42.969,27.832,49.316,38.086,10.254,0
1583437898.074,41.992,27.832,45.898,37.109,20.996,0
1583437898.078,41.504,33.203,42.480,37.109,68.359,0
1583437898.082,43.945,20.996,39.062,36.133,53.711,0
1583437898.086,40.039,13.672,39.062,29.785,30.762,0
1583437898.083,37.598,26.367,44.434,32.227,65.430,0
1583437898.087,40.527,30.762,38.574,41.016,19.043,0
1583437898.091,41.992,31.738,34.180,42.969,10.254,0
1583437898.095,41.504,27.344,37.109,43.457,37.109,0
1583437898.099,37.109,26.855,31.250,44.434,20.996,0
1583437898.103,37.109,32.227,37.109,44.434,23.926,0
1583437898.107,40.527,28.320,45.898,40.039,61.035,0
1583437898.110,38.086,21.973,35.156,37.598,82.031,0
1583437898.114,36.621,21.973,24.902,47.363,60.547,0
1583437898.118,39.551,22.949,29.297,46.875,44.922,0
1583437898.122,33.691,34.668,38.086,26.855,39.062,0
1583437898.126,29.785,41.992,40.039,20.508,43.945,0
1583437898.124,28.809,39.062,40.527,23.926,53.223,0
1583437898.128,24.902,37.109,44.922,21.973,16.113,0
1583437898.132,23.926,39.062,40.039,25.391,24.902,0
1583437898.136,29.785,40.039,30.273,26.855,54.199,0
1583437898.140,28.809,35.645,16.602,23.438,61.523,0
1583437898.144,24.414,37.598,16.113,23.438,56.152,0
1583437898.148,29.297,38.086,38.086,26.367,-0.977,0
1583437898.151,27.344,34.180,46.387,25.879,6.836,0
1583437898.155,25.879,35.156,39.062,23.926,10.254,0
1583437898.159,28.320,20.996,43.945,24.902,-0.977,0
1583437898.163,24.902,16.113,54.688,24.414,26.367,0
1583437898.167,25.391,41.016,53.223,20.508,8.301,0
1583437898.184,26.855,48.340,50.781,20.508,17.090,0
1583437898.188,28.320,42.969,45.410,23.438,48.828,0
1583437898.192,26.367,41.992,45.410,26.367,23.438,0
1583437898.196,24.902,40.039,51.758,27.344,92.285,0
1583437898.200,28.320,38.574,44.434,28.320,62.012,0
1583437898.204,29.785,40.039,37.598,33.691,6.348,0
1583437898.208,29.297,38.574,52.246,29.785,53.223,0
1583437898.211,28.320,41.504,63.965,23.926,31.250,0
1583437898.215,28.809,39.551,59.570,25.879,49.805,0
1583437898.219,29.785,24.902,54.199,26.855,33.691,0
1583437898.223,27.344,21.973,49.316,29.297,-8.301,0
1583437898.227,26.367,27.832,47.363,28.809,-12.695,0
1583437898.224,28.320,39.551,53.711,23.926,2.930,0
1583437898.228,29.297,45.898,59.570,23.438,8.789,0
1583437898.232,31.250,41.992,58.105,28.809,12.695,0
1583437898.236,35.156,43.457,48.828,31.250,15.625,0
1583437898.240,38.086,44.922,48.340,31.738,35.645,0
1583437898.244,39.551,39.062,46.387,33.203,51.270,0
1583437898.248,39.062,32.227,29.297,33.691,36.621,0
1583437898.251,37.598,34.668,38.574,31.250,41.504,0
1583437898.255,33.203,42.480,65.430,29.785,44.922,0
1583437898.259,25.879,40.039,68.848,19.531,33.203,0
1583437898.263,22.461,23.926,60.059,14.160,23.438,0
1583437898.267,26.855,24.902,59.082,24.902,50.781,0
1583437898.264,30.273,29.297,64.941,30.273,85.449,0
1583437898.268,31.738,25.391,63.965,31.738,85.449,0
1583437898.272,32.715,33.203,54.199,30.762,46.387,0
1583437898.276,33.203,39.062,53.711,34.668,1.953,0
1583437898.280,34.180,45.410,54.199,36.133,12.207,0
1583437898.284,32.715,38.574,47.852,32.227,5.859,0
1583437898.288,31.738,29.785,41.992,33.203,-19.531,0
1583437898.291,30.762,30.273,31.250,29.297,7.324,0
1583437898.295,29.297,31.250,34.180,24.414,7.324,0
1583437898.299,30.273,27.344,50.293,29.297,9.766,0
1583437898.303,34.180,30.762,55.176,30.762,47.363,0
1583437898.307,31.738,37.109,58.105,32.227,32.715,0
1583437898.324,33.203,36.621,46.875,36.621,33.691,0
1583437898.328,40.527,37.598,35.645,38.574,65.918,0
1583437898.332,38.086,29.297,39.062,32.227,44.922,0
1583437898.336,45.410,32.715,37.109,35.156,46.875,0
1583437898.340,59.570,46.875,29.785,55.176,-2.930,0
1583437898.344,43.457,44.434,21.973,48.828,-11.230,0
1583437898.348,25.879,31.738,23.438,27.832,42.480,0
1583437898.351,20.020,27.832,37.598,20.996,74.219,0
1583437898.355,20.508,28.809,38.086,26.855,33.691,0
1583437898.359,27.344,27.344,33.691,34.180,-12.207,0
1583437898.363,28.320,30.762,28.809,26.367,54.688,0
1583437898.367,32.227,34.180,29.297,27.832,83.984,0
1583437898.364,32.715,38.574,24.902,33.691,61.035,0
1583437898.368,32.227,28.809,-0.488,35.156,26.367,0
1583437898.372,33.203,19.043,6.348,40.039,20.020,0
1583437898.376,34.668,31.250,39.551,43.457,54.688,0
1583437898.380,34.668,39.551,34.668,45.410,64.941,0
1583437898.384,35.156,41.016,20.996,43.945,30.762,0
1583437898.388,35.645,34.668,26.367,44.434,12.207,0
1583437898.391,28.320,17.090,26.367,38.086,25.879,0
1583437898.395,23.926,17.090,20.508,34.180,38.574,0
1583437898.399,25.879,29.785,20.508,34.180,42.969,0
1583437898.403,26.367,33.203,15.625,27.344,76.660,0
1583437898.407,27.832,30.762,21.484,29.785,30.273,0
1583437898.404,23.926,35.156,19.531,29.785,47.852,0
1583437898.408,22.949,41.016,5.371,28.809,70.312,0
1583437898.412,27.832,32.715,8.789,27.832,12.695,0
1583437898.416,32.227,31.738,8.301,24.414,69.336,0
1583437898.420,32.227,39.062,0.000,26.367,82.031,0
1583437898.424,27.832,32.715,12.207,29.297,2.930,0
1583437898.428,27.832,20.020,19.531,33.691,5.371,0
1583437898.431,28.320,17.090,19.043,29.297,41.504,0
1583437898.435,27.832,19.043,26.367,21.973,30.762,0
1583437898.439,30.273,22.461,21.484,28.809,34.668,0
1583437898.443,31.738,19.531,16.113,39.062,49.316,0
1583437898.447,36.621,24.902,25.879,44.434,61.523,0
1583437898.464,37.109,40.039,29.785,41.992,52.734,0
1583437898.468,36.621,37.598,13.672,41.992,75.684,0
1583437898.472,36.133,34.668,10.254,44.434,62.012,0
1583437898.476,37.598,24.902,21.484,41.504,5.371,0
1583437898.480,37.598,20.508,25.879,39.551,31.250,0
1583437898.484,34.180,25.879,27.344,39.062,50.781,0
1583437898.488,38.086,23.926,19.043,36.133,42.480,0
1583437898.491,38.574,26.367,8.301,34.668,68.848,0
1583437898.495,31.738,32.715,15.137,30.762,82.520,0
1583437898.499,33.691,31.250,32.715,29.297,45.410,0
1583437898.503,38.086,25.391,38.574,32.715,-2.441,0
1583437898.507,36.133,27.344,33.691,35.156,13.672,0
1583437898.504,33.203,31.250,18.066,31.738,20.508,0
1583437898.508,35.156,25.879,21.973,34.180,30.273,0
1583437898.512,37.109,21.484,38.574,36.621,-1.953,0
1583437898.516,33.691,24.902,35.156,35.645,-18.066,0
1583437898.520,35.156,27.832,35.156,29.297,33.203,0
1583437898.524,39.551,41.016,36.133,26.367,43.945,0
1583437898.528,40.039,40.039,39.062,26.855,22.949,0
1583437898.531,41.992,35.645,44.922,28.320,51.270,0
1583437898.535,45.410,41.504,34.668,30.762,65.430,0
1583437898.539,48.828,40.039,29.297,19.531,24.902,0
1583437898.543,50.293,36.133,35.156,19.043,-25.879,0
1583437898.547,47.363,33.691,35.645,30.273,-24.414,0
1583437898.544,44.434,36.621,40.039,31.738,-20.020,0
1583437898.548,40.527,41.992,51.270,29.297,0.488,0
1583437898.552,32.715,29.297,60.059,26.367,80.566,0
1583437898.556,30.273,7.812,58.105,32.227,67.383,0
1583437898.560,33.691,17.090,50.293,37.598,3.906,0
1583437898.564,30.273,38.086,50.781,36.133,50.781,0
1583437898.568,28.320,46.387,60.547,33.203,60.059,0
1583437898.571,27.344,43.945,63.477,31.250,33.691,0
1583437898.575,29.785,44.434,55.664,37.109,22.949,0
1583437898.579,31.738,49.316,52.246,33.691,6.836,0
1583437898.583,26.367,50.293,58.105,22.461,42.969,0
1583437898.587,25.391,38.086,56.641,24.902,57.129,0
1583437898.603,28.809,35.156,58.105,27.832,52.734,0
1583437898.607,29.297,41.016,57.129,27.344,-12.207,0
1583437898.611,31.250,35.645,49.316,32.715,3.418,0
1583437898.615,33.691,23.438,55.176,32.227,57.129,0
1583437898.619,37.109,18.066,65.430,35.156,57.617,0
1583437898.623,39.062,29.785,69.824,40.527,52.246,0
1583437898.627,36.621,34.668,61.035,37.598,19.043,0
1583437898.630,38.574,37.109,48.340,37.109,19.531,0
1583437898.634,40.527,39.551,59.082,38.574,29.785,0
1583437898.638,40.039,42.969,72.266,40.039,20.996,0
1583437898.642,38.086,36.621,75.195,40.527,4.883,0
1583437898.646,37.598,30.762,77.637,36.621,20.996,0
1583437898.643,37.598,36.133,72.754,32.715,30.273,0
1583437898.647,37.598,35.156,58.594,39.062,14.648,0
1583437898.651,40.039,34.180,54.199,44.922,52.734,0
1583437898.655,39.062,34.180,54.199,37.109,40.039,0
1583437898.659,38.574,35.645,48.340,39.062,70.312,0
1583437898.663,40.527,41.504,51.758,44.922,106.445,0
1583437898.667,42.969,43.945,63.965,43.457,48.828,0
1583437898.670,39.062,44.922,68.359,42.480,-2.930,0
1583437898.674,35.156,38.574,66.895,37.598,-11.230,0
1583437898.678,37.109,32.715,60.059,27.344,8.789,0
1583437898.682,41.992,38.086,44.922,31.250,-14.648,0
1583437898.686,44.922,42.480,55.664,39.062,-15.625,0
1583437898.691,41.992,35.156,69.824,38.574,31.250,0
1583437898.695,42.480,33.203,61.035,40.039,62.988,0
1583437898.699,40.039,46.387,60.059,38.574,28.809,0
1583437898.703,36.621,49.805,54.199,39.551,7.812,0
1583437898.707,38.086,47.363,50.781,35.645,36.133,0
1583437898.711,37.598,41.016,58.594,34.668,61.035,0
1583437898.715,40.039,33.691,54.688,40.527,72.266,0
1583437898.718,42.480,36.621,60.059,35.645,53.223,0
1583437898.722,38.574,39.551,67.383,27.344,-32.227,0
1583437898.726,38.086,36.133,58.105,29.785,0.977,0
1583437898.730,37.109,32.715,57.129,33.203,18.555,0
1583437898.734,30.762,37.598,63.477,30.273,-18.555,0
1583437898.743,30.762,37.598,58.594,25.879,57.617,0
1583437898.747,30.762,35.645,60.547,24.414,49.316,0
1583437898.751,33.203,32.227,59.570,38.086,53.711,0
1583437898.755,41.016,32.227,55.176,44.434,84.473,0
1583437898.759,38.574,41.992,49.805,31.250,25.391,0
1583437898.763,30.273,45.898,50.293,17.578,-15.625,0
1583437898.767,27.344,33.691,62.988,16.113,43.457,0
1583437898.770,30.273,32.227,60.059,24.414,8.789,0
1583437898.774,30.273,40.527,49.316,21.484,-20.508,0
1583437898.778,27.344,37.109,45.898,17.578,68.848,0
1583437898.782,29.297,34.180,40.527,19.531,-0.488,0
1583437898.786,33.203,41.992,45.898,22.461,-43.945,0
1583437898.783,30.762,40.039,46.875,28.809,55.664,0
1583437898.787,31.738,24.902,49.316,32.715,81.543,0
1583437898.791,37.109,28.809,58.105,32.715,21.973,0
1583437898.795,34.668,37.109,57.617,31.250,-17.578,0
1583437898.799,32.715,38.086,47.852,28.809,-40.039,0
1583437898.803,34.180,43.457,48.340,30.762,15.137,0
1583437898.807,31.738,35.645,45.898,26.367,53.223,0
1583437898.810,34.668,24.902,44.922,29.297,78.125,0
1583437898.814,39.551,34.668,53.223,35.645,88.867,0
1583437898.818,40.527,26.367,44.434,29.785,43.457,0
1583437898.822,42.480,23.438,38.574,31.738,53.711,0
1583437898.826,41.992,41.504,61.523,37.109,70.801,0
1583437898.844,36.621,40.039,67.383,38.574,78.613,0
1583437898.848,31.738,33.691,44.434,37.109,39.062,0
1583437898.852,34.180,30.273,38.086,31.250,51.758,0
1583437898.856,39.062,39.551,50.293,32.227,73.242,0
1583437898.860,40.039,47.363,51.758,33.203,86.426,0
1583437898.864,38.086,33.691,49.316,33.203,86.426,0
1583437898.868,39.062,35.156,54.199,35.645,24.902,0
1583437898.871,40.527,44.434,46.875,36.133,28.320,0
1583437898.875,39.062,47.852,39.551,36.133,-11.719,0
1583437898.879,33.691,46.875,50.781,33.691,-5.371,0
1583437898.883,33.203,40.527,59.570,30.273,18.066,0
1583437898.887,35.156,37.109,55.664,31.250,1.953,0
1583437898.883,31.250,39.062,59.082,35.156,26.855,0
1583437898.887,31.250,31.738,63.965,34.668,16.113,0
1583437898.891,33.203,19.043,63.477,30.273,76.660,0
1583437898.895,31.250,18.066,61.523,28.809,61.035,0
1583437898.899,28.809,28.809,53.223,32.227,41.016,0
1583437898.903,32.227,44.922,52.246,31.738,39.551,0
1583437898.907,37.598,43.945,38.086,33.203,19.043,0
1583437898.910,39.062,34.668,20.508,36.621,53.223,0
1583437898.914,38.574,35.645,39.062,36.621,17.578,0
1583437898.918,36.133,34.668,57.617,38.574,37.109,0
1583437898.922,31.250,32.227,65.430,32.715,63.965,0
1583437898.926,33.203,32.227,63.477,25.879,20.020,0
1583437898.923,37.109,36.133,56.641,27.344,55.176,0
1583437898.927,37.598,31.738,56.641,35.156,90.332,0
1583437898.931,40.527,22.461,55.176,38.574,59.082,0
1583437898.935,42.480,31.250,46.387,38.086,32.227,0
1583437898.939,44.434,41.992,32.715,36.133,33.203,0
1583437898.943,47.363,40.039,29.297,36.133,18.066,0
1583437898.947,47.852,37.598,38.574,41.504,31.250,0
1583437898.950,47.852,46.387,36.133,43.457,7.812,0
1583437898.954,47.852,39.062,30.762,42.480,28.809,0
1583437898.958,42.480,24.902,43.457,35.645,69.336,0
1583437898.962,43.457,38.574,50.293,35.156,32.715,0
1583437898.966,43.457,45.410,48.340,36.133,3.418,0
1583437898.983,41.016,47.363,50.781,32.715,15.625,0
1583437898.987,41.016,47.363,47.363,33.203,34.180,0
1583437898.991,33.203,43.457,38.574,32.227,23.926,0
1583437898.995,32.715,59.570,39.551,36.133,34.180,0
1583437898.999,35.156,65.430,40.527,36.621,40.039,0
1583437899.003,38.086,59.570,38.574,39.062,48.340,0
1583437899.007,41.504,59.570,40.527,41.016,31.250,0
1583437899.010,28.809,63.965,33.691,28.320,53.223,0
1583437899.014,22.949,60.547,24.414,21.484,100.586,0
1583437899.018,27.344,52.734,32.227,22.461,87.402,0
1583437899.022,28.320,57.617,39.062,22.461,8.789,0
1583437899.026,25.391,52.246,37.598,14.648,3.906,0
1583437899.024,21.973,50.781,37.109,11.719,20.020,0
1583437899.028,23.438,66.895,36.133,7.324,2.930,0
1583437899.032,23.926,51.758,42.480,6.348,8.789,0
1583437899.036,20.508,40.039,43.457,13.672,19.531,0
1583437899.040,21.973,56.152,35.645,20.020,45.898,0
1583437899.044,20.508,62.500,45.898,19.531,17.578,0
1583437899.048,18.555,62.012,51.758,13.672,15.625,0
1583437899.051,22.949,53.711,44.922,18.066,-15.625,0
1583437899.055,23.438,47.363,36.621,22.949,40.527,0
1583437899.059,25.879,62.012,36.133,23.438,45.898,0
1583437899.063,26.367,64.941,40.527,20.996,-0.488,0
1583437899.067,27.344,55.664,40.527,21.484,90.332,0
1583437899.064,29.297,60.547,39.062,25.879,49.316,0
1583437899.068,27.832,71.289,46.387,27.344,-34.180,0
1583437899.072,31.250,74.707,52.734,30.762,0.977,0
1583437899.076,34.180,69.336,49.316,37.598,39.551,0
1583437899.080,37.598,72.266,53.711,39.551,46.875,0
1583437899.084,43.457,69.336,61.035,40.039,78.125,0
1583437899.088,46.387,70.312,50.781,40.527,95.703,0
1583437899.091,42.480,75.684,36.621,40.527,71.777,0
1583437899.095,38.574,68.848,41.016,38.574,73.242,0
1583437899.099,38.086,62.988,44.434,37.109,60.547,0
1583437899.103,32.227,62.012,44.922,31.250,38.574,0
1583437899.107,32.715,56.152,45.410,27.832,54.199,0
1583437899.123,37.598,45.898,39.551,35.156,18.555,0
1583437899.127,34.180,53.711,40.039,29.297,24.902,0
1583437899.131,31.250,68.359,52.246,17.578,21.973,0
1583437899.135,33.203,67.383,46.387,20.996,-42.480,0
1583437899.139,34.180,64.941,35.645,27.832,-40.527,0
1583437899.143,39.062,64.941,29.297,33.203,29.297,0
1583437899.147,38.086,68.359,21.484,31.250,80.566,0
1583437899.150,31.738,72.266,28.320,15.137,128.418,0
1583437899.154,35.645,62.988,42.480,20.996,77.148,0
1583437899.158,32.227,41.504,43.945,31.250,29.297,0
1583437899.162,28.809,37.598,40.527,27.344,22.461,0
1583437899.166,34.180,42.969,41.992,24.414,41.016,0
1583437899.164,36.133,43.457,35.156,26.855,66.895,0
1583437899.168,35.156,54.199,41.504,35.645,34.668,0
1583437899.172,29.785,61.035,53.711,34.668,38.574,0
1583437899.176,30.762,64.453,50.293,33.691,48.828,0
1583437899.180,35.645,67.383,44.434,38.086,12.207,0
1583437899.184,37.598,69.824,43.945,40.527,52.246,0
1583437899.188,37.598,64.453,52.246,37.598,46.875,0
1583437899.191,32.715,46.387,55.176,28.320,17.578,0
1583437899.195,35.645,46.387,48.828,25.391,62.988,0
1583437899.199,47.363,61.035,45.898,41.016,37.109,0
1583437899.203,35.156,63.965,51.758,40.527,76.660,0
1583437899.207,11.719,62.500,49.316,15.137,94.727,0
1583437899.203,13.184,62.988,48.828,10.254,57.129,0
1583437899.207,20.996,55.664,54.688,19.531,46.387,0
1583437899.211,25.879,44.434,60.547,24.902,49.316,0
1583437899.215,34.180,40.039,65.918,28.320,40.527,0
1583437899.219,33.203,44.922,59.082,26.367,8.301,0
1583437899.223,31.250,53.711,45.898,27.832,-1.953,0
1583437899.227,36.133,47.852,40.527,34.668,2.930,0
1583437899.230,37.598,38.574,54.199,34.668,9.766,0
1583437899.234,31.738,37.109,58.594,27.344,1.465,0
1583437899.238,31.738,36.621,48.340,26.367,52.734,0
1583437899.242,36.133,47.363,46.875,33.691,23.438,0
1583437899.246,41.016,49.805,60.059,37.598,25.391,0
1583437899.264,41.992,40.039,68.359,36.621,62.500,0
1583437899.268,37.598,34.180,66.406,32.715,31.738,0
1583437899.272,36.133,25.391,67.383,35.156,33.691,0
1583437899.276,36.621,15.137,66.406,40.039,108.887,0
1583437899.280,27.832,10.254,58.105,31.738,93.262,0
1583437899.284,25.391,10.742,57.129,28.320,55.176,0
1583437899.288,23.438,7.324,62.012,21.484,58.594,0
1583437899.291,14.160,8.789,63.477,15.137,65.918,0
1583437899.295,17.090,12.207,63.965,26.855,73.242,0
1583437899.299,21.973,6.836,57.129,29.297,24.902,0
1583437899.303,13.672,2.441,53.711,15.625,15.137,0
1583437899.307,6.836,3.418,62.012,9.766,58.594,0
1583437899.305,7.324,5.371,66.895,9.766,62.988,0
1583437899.309,1.953,10.254,62.988,-0.977,-0.488,0
1583437899.313,-0.488,19.043,63.477,-5.371,10.254,0
1583437899.317,4.395,23.438,59.082,-0.977,12.207,0
1583437899.321,11.230,17.090,49.805,-1.465,7.324,0
1583437899.325,12.695,7.812,57.129,-1.953,37.109,0
1583437899.329,5.371,12.207,56.641,-3.906,56.152,0
1583437899.332,4.395,22.461,56.641,-7.812,36.621,0
1583437899.336,5.371,25.391,62.988,-5.859,65.430,0
1583437899.340,4.883,23.438,65.918,-5.371,60.547,0
1583437899.344,1.953,20.508,62.500,-9.766,17.090,0
1583437899.348,-0.488,18.555,51.270,-11.230,32.715,0
1583437899.344,3.418,20.508,53.223,-3.418,40.039,0
1583437899.348,4.395,19.043,64.941,2.930,80.078,0
1583437899.352,-0.488,11.230,61.523,-2.441,81.055,0
1583437899.356,2.930,19.043,39.551,-1.465,50.293,0
1583437899.360,11.719,24.414,20.508,9.766,50.293,0
1583437899.364,13.184,26.855,35.645,13.184,14.648,0
1583437899.368,9.277,24.414,57.129,10.742,-23.438,0
1583437899.371,6.836,18.066,59.082,11.719,-9.766,0
1583437899.375,9.277,19.531,60.059,17.578,37.109,0
1583437899.379,15.625,7.812,59.082,24.414,54.199,0
1583437899.383,17.578,8.301,57.129,26.367,44.922,0
1583437899.387,18.066,26.367,41.504,25.391,37.109,0
1583437899.404,23.926,28.320,31.250,29.297,37.598,0
1583437899.408,24.414,31.250,41.016,37.109,62.500,0
1583437899.412,20.996,40.527,41.992,38.086,55.664,0
1583437899.416,23.926,28.320,41.504,37.598,13.184,0
1583437899.420,30.762,20.996,40.527,40.039,-0.977,0
1583437899.424,40.039,29.297,30.762,43.457,28.320,0
1583437899.428,44.922,29.297,27.832,41.016,9.277,0
1583437899.431,51.270,32.715,41.992,42.480,3.906,0
1583437899.435,52.246,28.320,62.500,47.363,14.648,0
1583437899.439,48.340,18.066,60.547,41.016,22.949,0
1583437899.443,54.199,13.184,48.340,44.434,-0.977,0
1583437899.447,55.664,10.742,42.969,45.410,-23.926,0
1583437899.444,53.711,20.996,38.086,43.457,32.227,0
1583437899.448,53.223,24.902,37.109,45.410,20.020,0
1583437899.452,51.270,30.273,36.621,45.898,-18.066,0
1583437899.456,47.852,28.320,32.227,46.875,0.977,0
1583437899.460,50.781,22.461,34.668,51.270,45.410,0
1583437899.464,51.758,28.809,35.645,56.152,19.043,0
1583437899.468,48.828,33.203,23.926,59.082,17.578,0
1583437899.471,49.316,29.297,38.574,56.641,73.242,0
1583437899.475,48.828,20.020,49.316,51.758,59.570,0
1583437899.479,47.852,15.137,47.363,46.875,-0.488,0
1583437899.483,51.758,13.184,48.828,45.898,-48.828,0
1583437899.487,60.547,20.508,41.016,52.734,-7.812,0
1583437899.484,61.035,24.414,40.527,49.316,46.875,0
1583437899.488,62.012,26.367,42.969,46.387,49.805,0
1583437899.492,59.082,31.738,41.504,51.270,77.148,0
1583437899.496,61.523,28.320,42.480,54.199,107.910,0
1583437899.500,67.383,29.785,50.293,54.199,37.109,0
1583437899.504,61.035,34.668,55.176,51.270,30.273,0
1583437899.508,57.129,30.273,45.410,49.805,28.809,0
1583437899.511,57.129,20.996,40.039,52.246,0.977,0
1583437899.515,53.223,18.555,44.434,44.922,77.637,0
1583437899.519,48.340,23.438,36.621,36.133,30.762,0
1583437899.523,41.992,29.785,21.973,37.109,-33.203,0
1583437899.527,40.039,27.344,27.344,41.992,-22.949,0
1583437899.564,45.898,30.762,47.363,50.293,1.465,0
1583437899.568,48.340,33.203,46.875,49.805,6.348,0
1583437899.572,47.363,20.508,40.527,47.852,-22.461,0
1583437899.576,43.945,20.020,44.434,42.480,5.371,0
1583437899.580,46.387,23.438,48.340,40.039,37.598,0
1583437899.584,48.340,15.137,42.480,45.410,2.441,0
1583437899.588,45.898,9.277,35.645,39.551,19.043,0
1583437899.591,40.527,22.949,36.621,35.156,51.758,0
1583437899.595,38.574,34.668,29.297,37.598,30.273,0
1583437899.599,39.551,32.715,21.484,37.598,31.250,0
1583437899.603,36.621,28.320,26.367,38.574,31.250,0
1583437899.607,39.062,25.391,32.227,36.133,62.012,0
1583437899.584,38.574,31.250,34.668,37.598,38.574,0
1583437899.588,39.551,33.691,29.297,41.992,52.246,0
1583437899.592,39.062,23.926,26.855,43.457,76.660,0
1583437899.596,39.062,21.484,29.785,45.898,18.555,0
1583437899.600,38.086,34.668,29.785,47.852,62.500,0
1583437899.604,38.574,34.668,31.250,44.922,45.410,0
1583437899.608,42.969,35.156,35.156,41.504,20.996,0
1583437899.611,43.945,26.367,30.762,42.480,22.949,0
1583437899.615,39.062,20.996,20.996,43.457,20.996,0
1583437899.619,41.992,31.250,22.461,43.457,70.801,0
1583437899.623,49.805,31.250,30.762,44.922,13.672,0
1583437899.627,52.246,34.180,39.062,44.922,-4.395,0
1583437899.624,48.828,35.645,29.785,42.969,20.996,0
1583437899.628,53.223,29.297,29.785,43.457,42.480,0
1583437899.632,59.082,30.273,39.551,39.551,51.270,0
1583437899.636,51.270,41.504,28.320,34.668,20.508,0
1583437899.640,47.852,44.922,32.227,33.691,31.250,0
1583437899.644,45.410,39.062,51.270,36.621,35.645,0
1583437899.648,44.922,38.086,37.598,36.621,28.320,0
1583437899.651,44.434,33.691,10.742,30.273,25.391,0
1583437899.655,39.551,27.832,22.949,27.344,47.852,0
1583437899.659,36.621,36.621,45.410,30.762,72.266,0
1583437899.663,34.668,43.457,49.316,35.645,9.277,0
1583437899.667,36.621,41.016,48.828,34.668,-37.109,0
1583437899.683,36.621,26.367,49.805,36.133,63.965,0
1583437899.687,35.156,23.926,51.758,38.574,87.402,0
1583437899.691,36.621,41.016,40.039,41.016,87.891,0
1583437899.695,37.109,42.969,23.926,40.527,79.102,0
1583437899.699,35.156,28.320,35.645,36.621,102.051,0
1583437899.703,34.180,19.531,49.316,41.992,79.590,0
1583437899.707,31.250,20.020,49.805,35.645,-7.324,0
1583437899.710,28.809,24.902,50.781,31.738,-4.395,0
1583437899.714,33.203,26.367,55.664,42.480,-5.859,0
1583437899.718,37.109,26.367,60.059,45.410,4.395,0
1583437899.722,35.645,25.879,56.152,50.781,24.902,0
1583437899.726,38.574,29.297,50.293,50.781,11.719,0
1583437899.724,40.527,39.551,54.688,43.945,53.711,0
1583437899.728,35.156,37.598,59.082,41.992,39.551,0
1583437899.732,33.203,34.180,54.199,44.434,-3.418,0
1583437899.736,35.156,33.691,46.875,43.945,1.465,0
1583437899.740,33.203,27.344,41.992,38.086,-17.090,0
1583437899.744,36.621,27.832,46.875,34.668,34.668,0
1583437899.748,33.203,29.297,64.453,34.668,36.133,0
1583437899.751,26.367,33.691,71.777,29.297,18.555,0
1583437899.755,26.367,33.691,70.312,27.832,63.965,0
1583437899.759,25.391,34.180,59.570,18.555,80.078,0
1583437899.763,26.855,24.902,52.246,12.695,41.992,0
1583437899.767,29.785,13.672,51.270,22.949,14.648,0
1583437899.764,36.621,28.809,49.316,29.785,33.691,0
1583437899.768,42.969,41.992,52.246,30.273,41.016,0
1583437899.772,42.480,44.922,59.570,28.320,37.598,0
1583437899.776,39.062,37.109,52.246,30.762,66.895,0
1583437899.780,41.016,26.855,45.410,33.691,8.301,0
1583437899.784,42.480,32.715,51.270,29.785,9.277,0
1583437899.788,49.805,31.250,49.316,29.297,82.031,0
1583437899.791,61.523,23.926,47.852,42.480,80.078,0
1583437899.795,47.852,25.879,54.688,40.527,58.105,0
1583437899.799,25.391,24.902,58.594,21.973,18.555,0
1583437899.803,22.461,19.043,58.105,17.090,3.418,0
1583437899.807,29.297,15.625,59.082,25.391,39.062,0
1583437899.824,28.320,24.902,55.664,27.832,79.590,0
1583437899.828,19.043,21.484,53.711,19.043,37.109,0
1583437899.832,20.996,25.879,56.152,20.020,6.348,0
1583437899.836,27.344,39.062,49.316,25.879,6.348,0
1583437899.840,29.297,38.086,50.293,27.832,44.922,0
1583437899.844,28.809,37.109,63.965,32.227,14.648,0
1583437899.848,29.785,41.016,54.688,25.879,-31.250,0
1583437899.851,37.598,42.969,43.457,30.273,19.531,0
1583437899.855,38.086,39.062,55.664,39.062,27.832,0
1583437899.859,35.156,40.039,55.664,39.551,36.621,0
1583437899.863,36.133,41.992,52.246,40.527,37.598,0
1583437899.867,41.016,43.945,49.316,41.504,66.406,0
1583437899.864,45.410,30.273,43.945,46.875,74.707,0
1583437899.868,48.340,27.344,38.574,52.246,-0.488,0
1583437899.872,54.199,55.664,39.062,50.293,-0.488,0
1583437899.876,52.734,60.547,48.340,44.922,52.734,0
1583437899.880,48.340,47.852,50.781,44.922,38.574,0
1583437899.884,47.852,42.969,41.504,47.852,-0.488,0
1583437899.888,50.293,43.457,27.832,47.852,9.277,0
1583437899.891,47.363,42.969,35.156,45.410,6.836,0
1583437899.895,40.039,41.992,49.805,42.480,-7.324,0
1583437899.899,38.086,36.133,48.828,37.598,63.477,0
1583437899.903,40.527,31.738,44.922,33.203,74.707,0
1583437899.907,41.992,35.645,47.852,34.668,24.902,0
1583437899.904,38.086,38.574,44.434,33.203,-15.625,0
1583437899.908,34.180,38.574,37.598,32.715,18.066,0
1583437899.912,30.762,36.133,34.668,33.691,34.180,0
1583437899.916,36.133,35.156,28.320,36.133,20.020,0
1583437899.920,40.039,33.691,27.344,33.203,20.508,0
1583437899.924,38.574,34.180,37.598,33.203,-4.395,0
1583437899.928,39.551,41.016,40.527,37.598,25.391,0
1583437899.931,39.062,37.109,33.203,36.621,9.766,0
1583437899.935,37.109,33.691,40.527,34.668,52.734,0
1583437899.939,38.086,36.133,37.598,39.062,63.965,0
1583437899.943,36.621,44.922,30.273,40.527,-12.207,0
1583437899.947,41.016,55.664,42.480,42.480,40.527,0
1583437899.984,45.898,56.641,44.434,41.992,73.242,0
1583437899.988,43.457,46.387,35.156,37.109,66.406,0
1583437899.992,43.457,37.109,35.156,42.969,108.398,0
1583437899.996,44.434,45.410,42.969,44.434,62.988,0
1583437900.000,49.805,57.129,47.363,41.504,44.922,0
1583437900.004,46.875,55.664,42.969,40.039,78.613,0
1583437900.008,42.480,49.805,35.156,36.621,36.621,0
1583437900.011,42.969,49.805,20.020,39.551,25.391,0
1583437900.015,41.504,52.734,20.020,37.109,-8.789,0
1583437900.019,37.598,50.781,33.203,26.855,6.836,0
1583437900.023,40.039,44.434,34.668,29.785,49.805,0
1583437900.027,41.992,47.363,36.133,35.156,62.500,0
1583437900.005,34.668,43.457,33.203,32.715,59.082,0
1583437900.009,35.156,39.551,27.832,32.715,48.828,0
1583437900.013,40.527,47.363,36.133,33.691,40.039,0
1583437900.017,32.227,45.410,38.086,29.785,54.199,0
1583437900.021,24.902,52.734,33.691,27.832,14.160,0
1583437900.025,23.438,57.129,28.320,23.926,20.508,0
1583437900.029,20.996,48.828,22.461,23.926,35.645,0
1583437900.032,21.973,49.316,34.668,30.762,10.742,0
1583437900.036,22.461,56.152,35.645,33.203,36.621,0
1583437900.040,25.879,49.805,28.320,32.715,13.184,0
1583437900.044,32.715,41.016,27.344,30.273,15.625,0
1583437900.048,34.180,44.434,25.879,31.738,49.316,0
1583437900.044,28.320,39.062,22.949,30.273,25.879,0
1583437900.048,25.879,34.180,23.926,28.320,-5.371,0
1583437900.052,22.949,34.668,23.926,22.949,13.672,0
1583437900.056,28.809,39.062,9.766,26.855,37.109,0
1583437900.060,37.598,47.363,22.949,42.480,18.066,0
1583437900.064,17.090,43.457,38.574,26.855,75.684,0
1583437900.068,7.812,39.551,33.203,14.648,83.008,0
1583437900.071,18.066,42.969,36.133,20.996,76.172,0
1583437900.075,16.602,44.434,37.598,13.184,94.238,0
1583437900.079,24.414,45.410,35.156,19.531,59.082,0
1583437900.083,34.180,47.852,26.367,26.367,55.664,0
1583437900.087,33.691,46.875,17.578,28.320,29.785,0
1583437900.104,33.691,48.340,22.949,32.227,32.227,0
1583437900.108,29.785,40.039,33.203,28.320,28.809,0
1583437900.112,34.668,35.156,32.715,28.809,9.277,0
1583437900.116,39.062,51.758,24.902,29.785,61.035,0
1583437900.120,31.738,59.082,29.785,27.832,75.195,0
1583437900.124,25.391,48.828,40.527,27.344,56.641,0
1583437900.128,26.367,44.434,40.039,22.461,73.242,0
1583437900.131,30.273,51.270,40.527,21.484,22.461,0
1583437900.135,28.320,55.664,41.992,26.367,-18.555,0
1583437900.139,29.297,54.688,39.551,32.715,46.387,0
1583437900.143,31.738,51.270,33.203,29.785,-0.977,0
1583437900.147,30.762,53.223,23.438,24.902,-22.461,0
1583437900.144,34.668,49.316,23.438,30.273,16.602,0
1583437900.148,35.645,32.715,34.668,33.203,16.602,0
1583437900.152,38.086,30.762,34.668,34.180,31.738,0
1583437900.156,38.086,47.363,39.062,34.668,8.301,0
1583437900.160,35.156,54.688,48.340,33.203,17.578,0
1583437900.164,40.039,50.781,56.641,38.574,63.965,0
1583437900.168,42.480,46.387,53.711,41.504,98.145,0
1583437900.171,41.992,48.828,41.992,39.062,40.039,0
1583437900.175,39.551,49.805,45.410,39.551,1.465,0
1583437900.179,39.551,50.293,43.945,34.668,4.883,0
1583437900.183,41.992,46.387,40.039,36.133,48.828,0
1583437900.187,38.574,38.086,47.852,38.086,79.590,0
1583437900.184,32.715,36.621,57.617,34.668,100.098,0
1583437900.188,30.762,31.250,55.664,39.551,98.633,0
1583437900.192,33.691,30.273,46.387,41.504,29.297,0
1583437900.196,34.180,37.598,46.875,39.551,-19.531,0
1583437900.200,35.645,41.016,42.480,37.109,-21.484,0
1583437900.204,36.133,42.480,39.062,35.156,-20.508,0
1583437900.208,36.621,41.016,47.363,38.574,-43.945,0
1583437900.211,31.250,40.039,51.270,34.180,29.297,0
1583437900.215,23.438,32.227,48.340,23.926,29.785,0
1583437900.219,21.484,41.504,41.504,26.367,-13.672,0
1583437900.223,25.391,52.734,31.738,28.809,12.207,0
1583437900.227,28.809,46.387,37.109,33.203,14.648,0
1583437900.244,31.250,45.410,46.875,34.180,39.062,0
1583437900.248,36.133,55.176,43.457,29.785,41.504,0
1583437900.252,34.180,64.453,37.598,32.715,36.621,0
1583437900.256,32.715,67.871,38.574,39.062,11.719,0
1583437900.260,37.109,67.383,47.852,38.574,21.484,0
1583437900.264,41.504,60.547,38.574,34.180,87.402,0
1583437900.268,42.480,58.105,30.762,35.156,64.941,0
1583437900.271,42.480,59.082,44.434,41.016,24.414,0
1583437900.275,41.504,49.316,45.410,37.109,-23.438,0
1583437900.279,41.016,57.129,46.875,30.273,20.996,0
1583437900.283,40.527,69.336,45.898,31.250,59.082,0
1583437900.287,38.574,68.359,44.434,35.645,9.766,0
1583437900.284,31.250,64.453,48.340,39.062,36.133,0
1583437900.288,28.809,59.082,49.805,36.133,30.273,0
1583437900.292,24.902,62.988,50.293,30.273,-24.902,0
1583437900.296,21.484,69.824,44.922,30.762,16.602,0
1583437900.300,23.438,74.219,46.387,30.273,19.531,0
1583437900.304,25.391,70.312,51.758,29.785,-45.898,0
1583437900.308,27.344,69.824,43.945,27.832,18.555,0
1583437900.311,27.344,69.824,20.996,26.855,38.086,0
1583437900.315,23.438,62.012,12.695,26.855,21.973,0
1583437900.319,25.391,58.594,40.527,20.996,40.039,0
1583437900.323,31.250,61.523,50.293,18.555,-11.719,0
1583437900.327,30.273,63.477,43.457,24.414,-10.742,0
1583437900.324,27.344,61.523,46.875,25.391,77.637,0
1583437900.328,28.320,57.129,47.852,29.785,73.730,0
1583437900.332,32.227,59.570,45.410,33.203,35.645,0
1583437900.336,32.715,58.594,42.969,31.250,61.035,0
1583437900.340,31.738,51.270,37.109,35.156,67.871,0
1583437900.344,34.668,49.805,38.574,34.668,87.402,0
1583437900.348,37.109,55.664,44.434,28.809,52.734,0
1583437900.351,31.738,61.035,44.434,19.531,41.504,0
1583437900.355,28.320,67.383,42.969,21.973,56.641,0
1583437900.359,34.180,68.359,35.645,32.715,24.902,0
1583437900.363,38.086,64.941,36.133,33.203,-14.160,0
1583437900.367,35.645,52.734,38.086,31.738,-64.453,0
1583437900.384,32.715,46.387,33.203,31.250,-25.391,0
1583437900.388,32.715,40.039,29.297,28.809,44.434,0
1583437900.392,32.715,29.297,37.598,30.762,31.250,0
1583437900.396,32.715,35.645,51.270,28.809,-9.277,0
1583437900.400,31.738,40.039,48.828,29.297,-5.371,0
1583437900.404,35.156,37.109,46.387,33.691,9.766,0
1583437900.408,33.203,27.832,51.270,33.691,6.836,0
1583437900.411,27.832,23.926,49.316,34.180,44.922,0
1583437900.415,25.391,40.527,39.551,29.785,66.895,0
1583437900.419,27.832,47.363,38.574,35.156,-11.719,0
1583437900.423,29.297,48.828,40.039,36.621,-62.012,0
1583437900.427,28.809,50.781,36.133,30.273,-8.301,0
1583437900.427,29.785,44.922,44.922,33.691,22.949,0
1583437900.431,29.785,43.457,47.363,35.156,-2.930,0
1583437900.435,30.762,48.340,33.203,36.621,23.926,0
1583437900.439,27.344,41.992,34.180,29.785,72.754,0
1583437900.443,29.785,35.645,45.410,24.414,33.203,0
1583437900.447,36.133,38.574,42.480,28.320,11.719,0
1583437900.451,35.645,41.016,39.551,28.320,62.988,0
1583437900.454,34.668,45.410,40.039,26.367,90.820,0
1583437900.458,36.621,43.457,36.621,23.926,124.023,0
1583437900.462,34.180,41.504,35.645,20.020,54.199,0
1583437900.466,39.062,39.062,30.762,33.203,4.395,0
1583437900.470,40.039,45.410,24.902,35.156,52.734,0
1583437900.483,36.621,56.152,42.969,29.785,47.363,0
1583437900.487,39.062,52.734,53.223,30.762,15.137,0
1583437900.491,39.551,49.316,34.668,31.250,18.555,0
1583437900.495,34.180,47.852,29.785,32.227,66.895,0
1583437900.499,28.809,36.621,44.922,29.297,57.129,0
1583437900.503,26.367,32.227,50.781,25.879,92.285,0
1583437900.507,27.832,38.086,41.504,22.949,154.785,0
1583437900.510,28.320,39.551,36.621,20.020,103.027,0
1583437900.514,24.902,33.691,43.945,23.438,34.180,0
1583437900.518,28.809,35.645,49.316,29.297,-1.465,0
1583437900.522,30.762,46.387,48.340,32.715,-1.953,0
1583437900.526,25.391,44.434,48.340,30.273,28.320,0
1583437900.524,25.879,41.016,49.805,27.344,6.836,0
1583437900.528,25.391,40.039,40.039,27.344,41.992,0
1583437900.532,23.926,37.109,38.086,26.367,31.738,0
1583437900.536,26.367,29.297,43.457,35.645,-22.949,0
1583437900.540,32.227,33.691,42.969,44.922,26.855,0
1583437900.544,35.156,51.270,43.945,32.715,32.715,0
1583437900.548,25.391,53.711,42.969,19.043,21.484,0
1583437900.551,20.996,47.363,44.434,18.555,39.551,0
1583437900.555,26.367,48.340,38.574,20.508,33.203,0
1583437900.559,31.250,48.340,44.434,24.414,-1.465,0
1583437900.563,27.832,39.551,55.176,20.996,17.090,0
1583437900.567,25.391,22.461,49.316,22.461,29.297,0
1583437900.564,30.273,33.203,39.551,32.227,-35.156,0
1583437900.568,30.273,58.105,39.551,32.715,-51.270,0
1583437900.572,22.949,61.035,45.410,24.414,-43.945,0
1583437900.576,26.367,63.477,43.457,24.414,-37.109,0
1583437900.580,30.273,51.270,38.574,30.273,-21.484,0
1583437900.584,32.715,45.410,37.598,32.227,18.555,0
1583437900.588,34.668,52.246,39.551,32.715,19.531,0
1583437900.591,36.621,50.781,47.852,37.109,41.504,0
1583437900.595,38.574,47.363,42.480,35.156,77.637,0
1583437900.599,41.992,43.945,28.809,33.203,26.367,0
1583437900.603,46.875,39.062,29.297,37.598,39.551,0
1583437900.607,43.457,48.340,33.203,36.133,47.852,0
1583437900.624,38.086,58.594,41.992,34.668,23.438,0
1583437900.628,30.273,50.781,50.781,30.273,41.504,0
1583437900.632,30.273,50.781,50.293,30.273,57.617,0
1583437900.636,34.668,49.805,49.316,34.180,87.402,0
1583437900.640,35.645,37.109,44.434,36.133,83.008,0
1583437900.644,39.062,42.969,36.621,40.039,42.480,0
1583437900.648,38.086,49.805,28.809,36.133,1.953,0
1583437900.651,35.156,50.293,30.762,30.762,-40.527,0
1583437900.655,34.668,63.477,31.738,32.715,23.926,0
1583437900.659,35.645,60.547,35.645,33.691,54.199,0
1583437900.663,35.156,51.758,39.062,35.156,4.395,0
1583437900.667,35.156,54.688,29.297,32.227,24.902,0
1583437900.664,34.668,47.852,23.926,25.391,55.664,0
1583437900.668,31.738,42.969,27.832,29.297,28.809,0
1583437900.672,28.320,52.246,37.109,30.273,39.062,0
1583437900.676,28.809,56.641,46.387,29.297,46.387,0
1583437900.680,31.738,55.664,45.410,32.715,-6.836,0
1583437900.684,33.203,54.688,42.969,33.203,-43.457,0
1583437900.688,37.598,49.805,33.203,34.180,2.930,0
1583437900.691,35.645,43.945,25.879,30.762,50.293,0
1583437900.695,33.203,41.016,34.180,24.902,41.016,0
1583437900.699,36.621,44.434,28.809,29.297,33.691,0
1583437900.703,36.621,49.316,25.391,30.273,34.180,0
1583437900.707,34.180,50.781,30.273,26.855,37.109,0
1583437900.705,35.156,46.875,31.250,31.250,27.344,0
1583437900.709,37.598,45.410,33.203,34.180,2.930,0
1583437900.713,36.621,56.641,33.691,37.109,9.277,0
1583437900.717,40.527,58.594,34.668,37.598,0.488,0
1583437900.721,44.922,54.688,35.156,40.039,38.086,0
1583437900.725,39.551,56.641,38.574,37.109,30.762,0
1583437900.729,34.180,47.363,38.086,36.133,12.695,0
1583437900.732,33.691,40.039,32.227,38.086,91.797,0
1583437900.736,32.227,42.969,34.180,30.762,74.707,0
1583437900.740,27.344,48.828,38.574,22.949,36.133,0
1583437900.744,27.344,52.246,40.039,26.367,30.273,0
1583437900.748,31.250,48.340,37.598,32.715,35.645,0
1583437900.763,31.738,40.039,37.598,30.273,61.035,0
1583437900.767,27.344,44.434,38.086,19.531,59.082,0
1583437900.771,23.926,47.363,26.367,20.996,20.508,0
1583437900.775,26.367,40.527,21.484,31.250,33.691,0
1583437900.779,26.855,57.617,31.250,30.273,67.871,0
1583437900.783,31.250,62.500,39.062,31.250,96.191,0
1583437900.787,28.320,39.551,44.922,30.273,67.383,0
1583437900.790,26.367,22.949,41.016,20.508,-5.859,0
1583437900.794,31.250,20.996,35.156,28.809,30.273,0
1583437900.798,31.250,26.367,35.156,36.621,61.523,0
1583437900.802,29.785,28.320,35.156,30.762,39.551,0
1583437900.806,29.297,18.066,41.504,29.785,19.043,0
1583437900.803,26.855,5.859,48.828,30.273,27.832,0
1583437900.807,32.715,7.812,41.992,30.762,88.867,0
1583437900.811,34.668,4.883,25.391,32.227,42.480,0
1583437900.815,26.367,2.441,13.184,31.250,-8.789,0
1583437900.819,31.250,1.465,25.391,31.250,43.945,0
1583437900.823,32.715,-2.930,38.086,26.855,19.531,0
1583437900.827,26.367,-8.789,40.039,23.926,71.777,0
1583437900.830,28.809,-9.277,36.133,26.367,82.520,0
1583437900.834,27.832,0.977,33.203,28.320,4.883,0
1583437900.838,29.785,-4.883,36.133,27.344,27.344,0
1583437900.842,32.715,-7.812,36.133,21.484,113.770,0
1583437900.846,28.809,2.930,36.621,21.484,125.488,0
1583437900.843,30.273,2.441,37.109,28.320,79.102,0
1583437900.847,33.691,4.395,40.527,34.180,68.848,0
1583437900.851,38.086,0.000,39.551,39.551,63.477,0
1583437900.855,40.527,-6.348,37.598,38.574,29.297,0
1583437900.859,35.645,2.930,34.180,28.320,47.852,0
1583437900.863,36.621,11.230,21.973,28.320,0.488,0
1583437900.867,40.039,7.812,23.926,33.691,-21.973,0
1583437900.870,41.016,0.488,37.598,34.180,-14.648,0
1583437900.874,37.109,-6.348,37.598,35.645,-45.410,0
1583437900.878,32.715,-5.859,33.691,35.156,45.898,0
1583437900.882,35.645,0.977,39.062,35.156,58.594,0
1583437900.886,40.527,0.488,40.527,36.621,-3.906,0
1583437900.903,36.621,1.953,37.598,32.227,-28.320,0
1583437900.907,30.762,4.883,46.875,25.391,4.883,0
1583437900.911,31.250,-6.348,45.410,28.809,70.801,0
1583437900.915,33.203,-13.672,37.109,35.156,64.941,0
1583437900.919,33.203,0.488,45.410,30.273,83.984,0
1583437900.923,34.180,0.977,41.992,31.738,56.641,0
1583437900.927,35.645,-1.953,39.062,27.344,51.270,0
1583437900.930,35.645,1.953,41.992,17.090,49.805,0
1583437900.934,32.715,-3.906,41.992,24.414,10.742,0
1583437900.938,29.785,-1.953,39.551,32.227,21.973,0
1583437900.942,28.809,7.812,31.738,31.250,9.766,0
1583437900.946,31.738,7.812,29.297,31.250,-25.391,0
1583437900.944,33.203,7.812,38.086,29.297,37.598,0
1583437900.948,27.832,7.812,43.945,25.879,50.293,0
1583437900.952,29.297,4.883,53.223,29.297,-6.836,0
1583437900.956,35.645,9.766,54.688,29.785,9.766,0
1583437900.960,36.133,12.695,41.992,29.785,47.363,0
1583437900.964,34.180,5.371,45.898,30.762,55.664,0
1583437900.968,36.621,8.789,48.340,33.203,30.762,0
1583437900.971,38.574,16.602,33.203,36.133,-26.855,0
1583437900.975,38.574,2.441,33.203,33.691,25.879,0
1583437900.979,35.156,-4.395,43.945,28.809,67.871,0
1583437900.983,34.668,15.137,44.922,32.715,45.410,0
1583437900.987,36.133,20.020,48.828,36.621,4.883,0
1583437900.983,28.320,13.184,47.852,29.297,18.555,0
1583437900.987,26.855,10.254,41.992,27.344,38.086,0
1583437900.991,31.250,17.090,39.062,33.203,64.453,0
1583437900.995,32.715,23.438,40.527,35.645,100.098,0
1583437900.999,35.156,21.973,45.410,37.109,99.121,0
1583437901.003,36.621,13.672,48.340,36.621,54.688,0
1583437901.007,34.668,15.137,46.387,33.203,-22.461,0
1583437901.010,30.273,22.949,38.574,28.809,-10.254,0
1583437901.014,27.832,12.695,43.945,20.508,25.879,0
1583437901.018,27.832,11.230,47.363,19.043,-16.602,0
1583437901.022,34.180,24.414,41.504,29.785,4.883,0
1583437901.026,29.297,20.508,45.898,32.227,45.410,0
1583437901.044,26.367,15.625,50.293,28.809,2.930,0
1583437901.048,28.320,22.949,49.805,23.438,14.648,0
1583437901.052,24.414,25.391,49.805,20.020,46.387,0
1583437901.056,26.367,21.973,51.758,25.879,36.133,0
1583437901.060,28.320,21.973,49.316,28.809,65.918,0
1583437901.064,26.367,29.297,51.270,24.414,90.820,0
1583437901.068,25.391,25.391,51.270,17.578,93.750,0
1583437901.071,26.367,21.484,49.316,16.113,129.395,0
1583437901.075,29.297,23.926,52.734,27.344,85.449,0
1583437901.079,32.227,21.973,45.898,28.320,-18.066,0
1583437901.083,32.715,18.555,36.621,26.367,-43.945,0
1583437901.087,32.227,22.461,51.270,30.273,3.906,0
1583437901.083,33.203,20.996,53.223,32.227,-13.184,0
1583437901.087,36.621,22.949,47.363,38.574,-30.762,0
1583437901.091,39.551,21.973,51.758,38.086,43.945,0
1583437901.095,35.156,4.395,51.270,33.203,56.152,0
1583437901.099,31.738,8.301,47.852,33.203,39.551,0
1583437901.103,41.504,27.832,44.922,41.992,12.207,0
1583437901.107,41.992,27.344,39.551,46.387,-48.828,0
1583437901.110,26.855,27.344,36.133,34.668,-61.035,0
1583437901.114,21.484,26.367,41.016,31.250,7.812,0
1583437901.118,24.902,17.090,49.316,28.320,57.617,0
1583437901.122,31.250,21.484,53.223,21.484,51.758,0
1583437901.126,36.621,21.973,44.922,22.949,81.543,0
1583437901.124,36.621,19.531,40.039,23.926,62.012,0
1583437901.128,32.715,26.367,34.180,28.320,13.184,0
1583437901.132,36.133,27.344,36.133,27.832,52.734,0
1583437901.136,36.621,21.484,42.480,24.414,66.895,0
1583437901.140,29.297,18.066,33.691,32.715,51.270,0
1583437901.144,22.949,15.137,30.273,35.645,53.711,0
1583437901.148,24.414,16.602,32.227,31.250,42.480,0
1583437901.151,28.320,25.391,33.203,32.227,41.504,0
1583437901.155,32.715,21.484,40.039,35.645,62.500,0
1583437901.159,33.203,16.602,42.969,36.621,56.152,0
1583437901.163,35.645,12.695,37.598,39.551,62.988,0
1583437901.167,39.062,9.766,28.320,39.551,77.148,0
1583437901.184,37.598,10.742,31.250,35.156,78.613,0
1583437901.188,38.574,13.672,25.879,36.133,90.332,0
1583437901.192,41.016,21.973,29.297,41.992,61.035,0
1583437901.196,39.551,19.043,42.480,38.574,49.805,0
1583437901.200,36.621,11.719,44.434,37.598,72.754,0
1583437901.204,40.039,18.066,42.480,41.016,72.754,0
1583437901.208,39.551,25.879,37.109,34.668,39.551,0
1583437901.211,41.504,24.902,40.039,33.203,28.320,0
1583437901.215,45.898,24.414,40.039,37.109,40.527,0
1583437901.219,41.992,24.902,42.480,37.598,45.410,0
1583437901.223,36.621,22.949,47.363,36.621,98.145,0
1583437901.227,32.715,12.695,43.945,34.668,82.031,0
1583437901.224,27.832,3.906,36.621,33.691,58.105,0
1583437901.228,33.691,12.207,33.691,33.691,24.414,0
1583437901.232,41.016,19.531,40.527,33.691,62.500,0
1583437901.236,35.156,7.812,44.434,32.715,45.410,0
1583437901.240,30.762,5.859,45.898,30.762,-36.621,0
1583437901.244,31.250,25.391,45.898,27.344,8.789,0
1583437901.248,32.227,31.250,40.527,30.273,4.395,0
1583437901.251,34.668,26.367,46.875,32.227,7.812,0
1583437901.255,34.668,25.879,47.363,28.809,-14.648,0
1583437901.259,28.320,20.508,40.039,27.344,-30.273,0
1583437901.263,22.461,14.160,36.621,21.973,11.719,0
1583437901.267,26.367,12.207,36.133,26.367,-4.395,0
1583437901.264,34.668,11.230,44.922,34.668,-52.734,0
1583437901.268,40.039,22.949,41.992,35.156,30.273,0
1583437901.272,39.062,11.230,32.715,35.645,53.711,0
1583437901.276,40.039,2.441,38.574,35.645,18.555,0
1583437901.280,37.109,27.344,40.039,32.227,54.688,0
1583437901.284,36.133,40.039,42.969,30.273,-1.953,0
1583437901.288,36.133,30.762,53.711,30.273,-6.836,0
1583437901.291,33.691,22.949,48.828,30.762,46.875,0
1583437901.295,34.180,22.461,38.574,33.691,29.785,0
1583437901.299,28.809,18.066,34.180,22.949,57.129,0
1583437901.303,24.902,17.578,36.621,7.324,70.801,0
1583437901.307,26.367,23.438,39.551,16.602,48.828,0
1583437901.344,19.043,22.949,39.062,23.926,38.574,0
1583437901.348,17.578,21.973,42.480,17.090,42.969,0
1583437901.352,13.184,23.926,44.434,16.113,44.434,0
1583437901.356,5.859,18.066,42.480,15.137,24.414,0
1583437901.360,11.230,12.695,40.527,17.578,42.480,0
1583437901.364,14.648,13.184,41.992,17.090,64.453,0
1583437901.368,12.695,12.695,41.016,8.301,14.648,0
1583437901.371,15.625,4.395,38.086,11.230,12.695,0
1583437901.375,15.137,6.836,36.133,17.578,59.570,0
1583437901.379,9.277,18.555,41.016,17.578,67.383,0
1583437901.383,13.184,2.930,37.109,20.996,58.594,0
1583437901.387,19.043,-0.977,28.809,23.926,62.012,0
1583437901.364,19.531,7.812,30.762,27.832,76.660,0
1583437901.368,18.066,3.418,37.109,27.832,23.438,0
1583437901.372,18.066,3.906,39.551,21.973,0.488,0
1583437901.376,20.020,7.812,38.574,20.020,9.277,0
1583437901.380,17.090,8.301,43.945,18.066,57.617,0
1583437901.384,15.625,5.859,46.387,17.090,74.707,0
1583437901.388,14.648,0.000,45.898,14.160,21.484,0
1583437901.391,19.531,-15.625,43.945,13.672,25.391,0
1583437901.395,19.531,-12.207,37.109,17.090,-3.418,0
1583437901.399,19.043,8.789,39.551,20.020,29.785,0
1583437901.403,24.902,16.602,40.527,19.531,90.820,0
1583437901.407,23.926,12.207,32.715,16.113,31.250,0
1583437901.404,21.973,7.324,39.062,12.695,13.184,0
1583437901.408,23.438,6.836,40.527,20.508,17.090,0
1583437901.412,27.344,3.906,33.203,22.949,-5.371,0
1583437901.416,26.367,0.488,26.855,12.695,-5.371,0
1583437901.420,22.949,3.906,25.879,10.742,16.602,0
1583437901.424,25.391,15.137,36.133,17.090,-0.488,0
1583437901.428,20.020,1.953,43.457,18.066,-22.461,0
1583437901.431,20.020,-5.371,46.875,14.648,-37.598,0
1583437901.435,30.273,14.648,48.340,12.207,-22.949,0
1583437901.439,26.367,20.508,46.875,15.625,38.574,0
1583437901.443,15.625,15.625,47.363,18.066,34.180,0
1583437901.447,18.066,15.625,43.457,16.602,9.277,0
1583437901.464,25.391,0.488,42.969,18.555,20.020,0
1583437901.468,34.668,-0.488,41.992,27.344,85.938,0
1583437901.472,37.109,19.043,35.645,30.762,105.469,0
1583437901.476,36.621,19.043,30.762,30.273,51.270,0
1583437901.480,35.645,8.301,40.039,30.762,53.711,0
1583437901.484,36.133,4.395,38.574,23.438,46.387,0
1583437901.488,36.133,14.648,31.250,22.461,40.527,0
1583437901.491,34.180,20.508,41.992,27.344,22.461,0
1583437901.495,38.086,16.113,48.340,28.809,4.395,0
1583437901.499,43.457,15.137,48.340,31.738,27.344,0
1583437901.503,41.504,20.508,46.875,32.715,31.738,0
1583437901.507,38.086,12.207,45.898,32.227,62.012,0
1583437901.504,38.574,6.348,40.039,33.691,36.133,0
1583437901.508,38.086,19.043,17.578,34.180,30.762,0
1583437901.512,35.156,10.742,20.020,36.133,25.879,0
1583437901.516,34.668,0.488,40.527,39.551,8.301,0
1583437901.520,36.133,10.254,34.668,40.527,14.160,0
1583437901.524,35.645,19.531,26.367,36.621,30.273,0
1583437901.528,36.133,17.578,36.621,35.156,30.762,0
1583437901.531,36.621,20.020,43.945,36.133,-6.836,0
1583437901.535,33.691,20.508,38.086,35.156,11.230,0
1583437901.539,28.320,16.113,36.621,28.809,53.223,0
1583437901.543,23.926,20.020,38.086,23.438,35.645,0
1583437901.547,23.926,19.531,27.344,29.785,-15.625,0
1583437901.544,26.367,23.438,30.273,32.227,25.879,0
1583437901.548,26.855,16.602,44.434,28.809,77.637,0
1583437901.552,28.320,12.695,31.250,29.297,65.430,0
1583437901.556,31.738,17.090,26.367,29.785,84.961,0
1583437901.560,37.109,18.066,36.621,31.250,52.734,0
1583437901.564,34.668,26.367,27.832,32.227,53.711,0
1583437901.568,36.133,31.738,20.020,29.297,50.293,0
1583437901.571,43.457,32.715,18.555,31.738,38.086,0
1583437901.575,49.805,30.762,25.879,39.062,45.898,0
1583437901.579,43.457,20.996,40.527,35.156,27.832,0
1583437901.583,39.551,22.949,39.551,31.738,-9.277,0
1583437901.587,42.969,20.508,25.879,34.180,21.484,0
1583437901.604,41.992,14.160,17.090,34.180,153.809,0
1583437901.608,45.898,26.855,21.484,35.156,99.609,0
1583437901.612,44.922,32.227,30.762,36.133,26.855,0
1583437901.616,37.109,29.297,35.645,35.645,63.965,0
1583437901.620,36.621,30.273,36.621,38.574,15.137,0
1583437901.624,41.016,36.133,26.367,39.551,-0.488,0
1583437901.628,35.645,41.992,20.508,29.785,-3.418,0
1583437901.631,39.551,36.621,27.344,30.762,23.438,0
1583437901.635,42.969,24.414,28.809,38.086,31.738,0
1583437901.639,37.109,28.809,25.391,41.016,-0.488,0
1583437901.643,41.504,38.574,15.625,40.527,7.324,0
1583437901.647,41.992,44.922,16.113,37.598,34.180,0
1583437901.643,33.691,41.016,28.320,35.156,5.859,0
1583437901.647,34.180,39.062,31.738,34.668,-25.391,0
1583437901.651,35.645,39.062,31.250,35.645,50.781,0
1583437901.655,33.203,39.551,31.250,31.250,86.426,0
1583437901.659,34.180,54.199,32.715,27.344,29.297,0
1583437901.663,32.227,62.500,33.203,25.879,25.391,0
1583437901.667,22.461,56.641,27.832,19.043,62.988,0
1583437901.670,16.113,46.875,26.855,12.695,27.344,0
1583437901.674,17.578,45.410,37.109,10.742,-13.672,0
1583437901.678,14.160,43.945,40.527,4.395,14.160,0
1583437901.682,19.531,40.527,38.086,10.742,48.340,0
1583437901.686,16.113,28.809,42.480,13.184,81.055,0
1583437901.683,-11.230,23.438,42.480,-15.137,51.758,0
1583437901.687,-20.020,33.691,39.062,-24.414,-20.508,0
1583437901.691,-25.879,35.645,39.551,-28.809,-49.805,0
1583437901.695,-34.668,37.109,41.992,-44.434,-3.418,0
1583437901.699,-38.086,39.551,43.457,-50.293,5.371,0
1583437901.703,-52.734,45.898,41.992,-58.594,-7.324,0
1583437901.707,-61.523,54.688,39.551,-70.312,13.672,0
1583437901.710,-55.664,62.500,41.016,-72.754,-14.648,0
1583437901.714,-44.922,67.871,33.691,-62.988,-4.883,0
1583437901.718,-48.828,77.637,25.879,-58.105,4.883,0
1583437901.722,-57.617,86.426,29.297,-56.641,7.324,0
1583437901.726,-50.293,70.312,38.086,-46.875,5.371,0
1583437901.743,-33.691,46.387,49.805,-39.551,46.875,0
1583437901.747,-28.809,53.711,46.875,-39.551,59.570,0
1583437901.751,-29.297,65.918,46.875,-34.668,16.602,0
1583437901.755,-24.414,59.082,45.898,-28.809,55.664,0
1583437901.759,-14.160,49.805,41.992,-20.508,74.219,1
1583437901.763,-8.789,44.434,41.992,-14.648,64.941,0
1583437901.767,0.000,51.270,44.922,-5.859,83.008,0
1583437901.770,14.648,56.641,42.969,8.789,8.789,0
1583437901.774,12.695,53.223,28.809,10.254,-18.066,0
1583437901.778,23.438,52.246,31.250,22.461,32.227,0
1583437901.782,37.598,41.504,41.992,34.668,23.438,0
1583437901.786,34.668,42.969,45.898,36.133,36.621,0
1583437901.783,36.621,55.176,44.922,40.527,44.434,0
1583437901.787,42.480,58.594,36.133,44.434,76.172,0
1583437901.791,46.875,60.547,32.715,51.270,62.500,0
1583437901.795,46.875,59.570,36.133,51.758,30.273,0
1583437901.799,48.340,60.059,39.062,56.152,25.391,0
1583437901.803,52.246,58.594,36.621,59.082,59.082,0
1583437901.807,56.641,61.035,29.785,56.152,50.781,0
1583437901.810,58.594,63.477,27.344,54.688,60.059,0
1583437901.814,65.918,63.965,25.391,58.105,113.770,0
1583437901.818,65.430,53.223,27.832,59.570,62.012,0
1583437901.822,58.594,42.480,26.855,56.641,20.996,0
1583437901.826,67.871,42.969,22.461,64.941,13.672,0
1583437901.824,71.777,29.297,23.926,72.754,6.836,0
1583437901.828,68.359,21.973,23.926,63.477,43.945,0
1583437901.832,66.895,25.879,23.926,55.664,47.363,0
1583437901.836,61.523,26.367,23.926,63.965,62.988,0
1583437901.840,61.035,26.855,21.973,66.895,51.758,0
1583437901.844,65.430,22.949,9.766,61.035,16.113,0
1583437901.848,59.570,23.926,10.254,57.129,60.547,0
1583437901.851,56.152,26.855,26.367,51.270,39.551,0
1583437901.855,62.012,26.367,31.250,52.734,35.645,0
1583437901.859,63.965,26.367,27.832,60.547,12.207,0
1583437901.863,65.430,21.973,25.391,58.594,-21.484,0
1583437901.867,67.383,19.531,28.320,58.105,41.992,0
1583437901.883,67.383,15.137,29.297,62.012,7.812,0
1583437901.887,68.848,16.113,28.320,65.918,-3.418,0
1583437901.891,67.383,28.809,25.391,67.383,54.199,0
1583437901.895,63.477,28.320,25.391,61.035,45.898,0
1583437901.899,61.035,23.926,27.832,55.176,23.438,0
1583437901.903,55.664,22.461,27.344,54.199,45.898,0
1583437901.907,54.688,21.973,28.320,54.199,54.199,0
1583437901.910,56.152,29.297,30.273,54.688,38.574,0
1583437901.914,55.176,27.344,31.738,53.711,33.691,0
1583437901.918,49.805,13.184,32.715,50.781,37.109,0
1583437901.922,46.387,20.020,30.762,43.945,75.684,0
1583437901.926,46.875,20.508,35.645,36.133,32.715,0
1583437901.924,43.457,16.113,37.109,41.016,-53.711,0
1583437901.928,42.480,17.578,33.203,47.852,-4.395,0
1583437901.932,50.293,13.184,26.855,51.758,4.883,0
1583437901.936,52.246,20.020,15.625,51.270,-17.090,0
1583437901.940,48.828,25.879,17.090,46.875,16.113,0
1583437901.944,49.316,22.949,31.250,52.734,-5.859,0
1583437901.948,47.363,17.090,37.109,52.246,30.273,0
1583437901.951,49.805,12.695,26.367,48.340,45.898,0
1583437901.955,51.270,13.672,27.832,46.875,23.926,0
1583437901.959,45.410,15.625,44.922,37.109,82.031,0
1583437901.963,39.551,18.066,53.711,41.504,77.637,0
1583437901.967,41.504,20.020,48.340,44.434,11.230,0
1583437901.983,45.410,15.625,37.109,38.086,16.602,0
1583437901.987,45.410,10.742,37.109,38.574,2.441,0
1583437901.991,47.363,-1.465,35.645,43.457,-5.859,0
1583437901.995,48.828,3.906,26.367,44.922,38.574,0
1583437901.999,46.875,22.461,29.785,40.527,28.320,0
1583437902.003,45.410,20.508,38.086,40.039,11.230,0
1583437902.007,39.062,15.137,24.902,44.922,90.332,0
1583437902.010,29.297,11.719,20.996,45.410,64.941,0
1583437902.014,28.320,4.883,36.621,41.992,18.066,0
1583437902.018,29.785,-4.883,41.504,41.016,59.570,0
1583437902.022,28.809,-8.301,42.480,39.551,35.645,0
1583437902.026,23.926,0.977,42.969,40.039,31.738,0
1583437902.023,28.320,3.906,42.480,41.504,9.277,0
1583437902.027,37.598,-8.789,39.062,33.203,3.906,0
1583437902.031,36.133,-6.348,37.598,27.344,70.312,0
1583437902.035,27.344,13.672,32.715,39.062,46.875,0
1583437902.039,34.668,19.043,36.133,48.828,33.203,0
1583437902.043,39.551,14.160,42.969,41.992,5.371,0
1583437902.047,43.945,14.648,47.852,42.969,14.160,0
1583437902.050,50.293,16.113,46.875,55.176,35.645,0
1583437902.054,44.922,15.137,38.086,45.410,-7.324,0
1583437902.058,43.945,19.531,35.156,40.527,31.250,0
1583437902.062,43.945,24.902,34.180,43.945,36.621,0
1583437902.066,35.156,26.855,33.691,38.086,-47.363,0
1583437902.084,40.039,23.438,33.691,41.016,3.906,0
1583437902.088,47.363,15.137,39.062,42.480,42.969,0
1583437902.092,41.504,17.090,45.898,38.086,-1.465,0
1583437902.096,41.504,30.762,47.363,31.738,41.016,0
1583437902.100,43.945,41.992,44.434,36.133,70.312,0
1583437902.104,36.133,43.945,41.504,37.598,49.805,0
1583437902.108,33.203,41.016,39.062,32.227,24.902,0
1583437902.111,41.992,41.504,37.109,38.574,25.879,0
1583437902.115,45.898,43.457,37.109,39.062,1.465,0
1583437902.119,44.922,43.945,26.367,38.574,47.363,0
1583437902.123,37.598,42.480,25.391,44.434,68.848,0
1583437902.127,31.250,39.551,40.527,39.551,28.809,0
1583437902.124,31.738,37.109,39.062,39.551,42.480,0
1583437902.128,42.969,39.551,30.273,40.039,49.316,0
1583437902.132,47.852,44.434,42.480,39.551,101.562,0
1583437902.136,37.598,36.621,49.805,39.062,93.750,0
1583437902.140,39.551,21.973,46.875,40.039,24.902,0
1583437902.144,40.039,25.879,52.734,36.621,-13.672,0
1583437902.148,43.457,41.016,55.176,28.809,62.012,0
1583437902.151,42.969,50.781,50.781,25.879,75.684,0
1583437902.155,36.133,49.316,43.457,21.973,-6.836,0
1583437902.159,39.551,45.410,41.992,28.320,-8.789,0
1583437902.163,38.086,45.898,42.480,35.156,49.316,0
1583437902.167,42.969,40.527,41.992,26.855,12.207,0
1583437902.163,53.223,38.574,45.410,33.691,-2.930,0
1583437902.167,46.387,39.062,39.551,33.203,77.637,0
1583437902.171,38.574,41.504,34.180,25.879,72.754,0
1583437902.175,42.969,39.062,35.156,38.086,16.602,0
1583437902.179,33.203,35.645,30.762,31.738,11.230,0
1583437902.183,37.598,41.992,39.062,41.504,43.945,0
1583437902.187,39.062,32.227,53.711,35.645,26.855,0
1583437902.190,29.297,33.691,52.246,20.996,8.301,0
1583437902.194,39.062,47.852,40.039,29.297,54.199,0
1583437902.198,38.574,40.527,40.527,30.273,84.961,0
1583437902.202,36.133,36.621,40.039,33.203,66.406,0
1583437902.206,31.250,36.133,33.203,22.949,19.043,0
1583437902.203,30.762,34.668,35.156,18.555,-9.277,0
1583437902.207,33.203,35.645,39.551,28.320,-4.883,0
1583437902.211,34.180,37.598,41.504,34.180,12.207,0
1583437902.215,42.969,47.363,44.434,38.086,1.465,0
1583437902.219,33.203,41.504,31.738,26.855,70.801,0
1583437902.223,65.918,81.055,53.223,57.129,45.898,0
1583437902.227,86.426,115.723,69.336,78.613,32.227,0
1583437902.230,28.320,54.199,15.625,16.113,58.594,0
1583437902.234,25.391,39.062,8.789,8.789,-1.465,0
1583437902.238,37.109,64.941,12.695,23.926,-2.441,0
1583437902.242,34.668,70.312,13.184,27.344,-15.137,0
1583437902.246,43.457,74.219,26.367,43.945,11.719,0
1583437902.263,72.266,98.145,58.594,75.684,60.059,0
1583437902.267,36.621,66.406,21.484,40.527,51.270,0
1583437902.271,17.578,42.969,-4.395,21.973,26.367,0
1583437902.275,42.480,58.594,17.578,43.457,11.719,0
1583437902.279,68.359,92.285,42.480,64.453,-1.465,0
1583437902.283,36.621,78.125,16.113,34.180,52.734,0
1583437902.287,15.625,64.453,6.836,16.602,68.359,0
1583437902.290,28.320,69.336,14.648,26.367,24.414,0
1583437902.294,69.336,92.773,34.668,69.824,6.348,0
1583437902.298,43.457,73.730,21.484,49.805,15.137,0
1583437902.302,1.465,37.109,-1.953,4.883,60.547,0
1583437902.306,20.996,39.551,27.344,26.367,57.617,0
1583437902.304,25.879,25.879,33.691,33.203,2.930,0
1583437902.308,31.250,31.738,33.203,36.133,-16.602,0
1583437902.312,31.250,43.945,32.715,38.086,15.625,0
1583437902.316,22.949,40.039,26.855,39.062,51.758,0
1583437902.320,43.457,45.898,35.645,53.711,43.945,0
1583437902.324,64.941,58.594,42.969,64.453,27.832,0
1583437902.328,14.160,16.113,0.488,18.555,43.945,0
1583437902.331,8.301,4.883,3.418,15.137,85.938,0
1583437902.335,24.414,15.137,20.020,34.668,93.750,0
1583437902.339,25.391,8.789,19.531,34.180,79.590,0
1583437902.343,30.762,6.836,20.508,31.250,67.871,0
1583437902.347,37.109,11.719,16.602,31.250,63.477,0
1583437902.344,32.715,-1.465,9.277,34.180,16.113,0
1583437902.348,25.879,-1.953,8.789,34.180,22.949,0
1583437902.352,19.043,13.184,14.160,29.297,91.309,0
1583437902.356,12.207,8.301,13.672,27.832,47.852,0
1583437902.360,8.301,9.277,20.020,34.668,37.598,0
1583437902.364,13.672,14.160,23.438,34.668,48.340,0
1583437902.368,23.438,10.742,16.602,27.832,62.988,0
1583437902.371,25.391,8.789,17.578,30.762,82.520,0
1583437902.375,22.949,7.324,20.996,26.367,26.855,0
1583437902.379,21.484,7.812,21.973,25.391,-10.254,0
1583437902.383,26.855,10.254,20.508,32.715,31.738,0
1583437902.387,32.227,10.254,16.602,27.832,87.891,0
1583437902.404,25.391,6.348,14.648,28.809,75.684,0
1583437902.408,22.949,4.883,12.695,30.762,-34.180,0
1583437902.412,27.344,4.395,14.648,33.203,-5.371,0
1583437902.416,26.855,2.441,9.277,31.738,26.855,0
1583437902.420,30.762,1.465,-3.418,36.133,13.672,0
1583437902.424,33.203,13.184,9.277,37.109,60.059,0
1583437902.428,25.879,24.414,30.273,24.414,24.902,0
1583437902.431,27.344,24.902,36.133,22.461,-4.883,0
1583437902.435,29.297,18.555,35.156,26.367,-5.859,0
1583437902.439,29.785,13.672,33.691,29.785,-10.742,0
1583437902.443,33.203,20.508,33.203,32.227,12.695,0
1583437902.447,30.762,25.879,22.461,27.832,7.812,0
1583437902.443,22.949,23.926,12.695,23.926,61.035,0
1583437902.447,25.879,18.066,17.578,26.367,93.750,0
1583437902.451,30.273,24.902,23.438,32.227,51.758,0
1583437902.455,33.203,32.715,20.508,32.715,39.551,0
1583437902.459,33.691,24.902,19.043,24.902,68.848,0
1583437902.463,35.156,14.160,30.762,28.809,9.766,0
1583437902.467,32.715,21.973,42.969,33.691,-49.316,0
1583437902.470,27.344,34.668,32.715,30.762,36.621,0
1583437902.474,30.273,33.203,29.785,27.832,42.969,0
1583437902.478,32.715,26.855,31.250,26.855,-25.391,0
1583437902.482,24.414,27.344,18.555,23.926,-34.180,0
1583437902.486,24.902,28.320,19.531,24.902,-7.812,0
1583437902.484,27.344,24.414,24.414,23.438,-10.254,0
1583437902.488,26.855,20.996,24.902,21.484,19.043,0
1583437902.492,31.738,22.949,21.484,27.832,47.363,0
1583437902.496,28.320,16.113,19.043,26.855,5.371,0
1583437902.500,27.832,10.254,17.578,26.367,49.316,0
1583437902.504,25.391,24.902,11.230,22.949,60.547,0
1583437902.508,20.020,30.762,11.230,20.020,48.828,0
1583437902.511,20.020,22.949,10.254,20.996,43.945,0
1583437902.515,24.414,19.531,7.324,18.555,56.641,0
1583437902.519,33.203,16.602,5.859,20.996,53.223,0
1583437902.523,33.203,7.324,3.906,29.297,31.738,0
1583437902.527,32.715,10.254,6.836,31.738,47.852,0
1583437902.543,34.180,22.949,0.977,30.273,50.293,0
1583437902.547,33.203,26.367,2.930,28.809,60.547,0
1583437902.551,31.738,21.484,11.230,27.344,19.043,0
1583437902.555,29.297,19.043,14.160,32.227,32.715,0
1583437902.559,28.320,24.414,15.625,34.668,34.180,0
1583437902.563,26.367,31.250,8.789,28.809,-20.508,0
1583437902.567,23.926,32.715,8.789,22.461,62.988,0
1583437902.570,30.273,21.484,11.719,23.926,69.824,0
1583437902.574,32.715,15.625,3.906,31.738,6.348,0
1583437902.578,30.273,24.902,-3.906,32.227,49.805,0
1583437902.582,32.715,34.180,0.000,30.762,62.500,0
1583437902.586,34.668,36.133,10.254,34.668,35.156,0
1583437902.583,32.227,28.320,10.254,38.086,76.660,0
1583437902.587,29.785,21.484,1.953,33.691,111.328,0
1583437902.591,31.738,25.391,0.000,35.156,77.637,0
1583437902.595,31.250,32.227,3.418,32.715,26.855,0
1583437902.599,29.297,28.320,-0.977,27.344,1.953,0
1583437902.603,25.879,26.367,-3.906,25.391,-29.785,0
1583437902.607,27.832,24.414,-6.836,27.344,-3.906,0
1583437902.610,30.273,17.090,-4.883,27.344,26.855,0
1583437902.614,26.367,15.625,6.836,26.855,28.809,0
1583437902.618,25.391,27.832,10.254,27.832,-4.395,0
1583437902.622,21.973,36.133,10.254,22.949,-53.711,0
1583437902.626,20.020,30.273,8.789,18.555,62.500,0
1583437902.623,19.531,26.855,10.742,23.438,151.367,0
1583437902.627,21.484,25.391,15.625,30.273,106.934,0
1583437902.631,25.879,19.043,13.184,21.973,74.219,0
1583437902.635,30.762,17.090,8.301,23.926,115.234,0
1583437902.639,28.320,15.625,14.160,32.715,35.645,0
1583437902.643,24.414,11.230,20.996,30.273,18.066,0
1583437902.647,25.391,14.160,19.043,29.297,118.164,0
1583437902.650,25.879,9.277,18.066,26.855,57.617,0
1583437902.654,20.996,10.254,10.742,17.578,4.883,0
1583437902.658,23.926,15.625,7.324,20.996,-1.953,0
1583437902.662,28.320,17.578,8.301,26.855,13.672,0
1583437902.666,24.414,22.949,6.836,29.297,51.758,0
1583437902.683,26.855,25.391,4.395,29.785,53.223,0
1583437902.687,28.809,23.438,8.301,27.344,27.344,0
1583437902.691,22.461,19.043,21.484,30.762,72.266,0
1583437902.695,18.555,17.578,20.508,24.414,50.781,0
1583437902.699,27.344,20.508,13.184,26.855,-3.418,0
1583437902.703,32.715,17.090,19.043,34.180,45.410,0
1583437902.707,31.250,9.766,20.996,29.785,50.293,0
1583437902.710,33.691,11.230,21.973,25.879,41.016,0
1583437902.714,34.180,8.301,29.297,23.438,62.500,0
1583437902.718,32.227,15.625,36.133,28.320,80.566,0
1583437902.722,34.668,16.113,37.598,31.738,72.266,0
1583437902.726,34.668,10.254,30.273,27.832,30.273,0
1583437902.723,30.273,15.137,28.320,24.414,35.645,0
1583437902.727,27.832,15.137,34.180,21.973,46.387,0
1583437902.731,27.832,11.719,39.551,24.902,53.711,0
1583437902.735,28.809,19.043,37.598,29.297,34.180,0
1583437902.739,32.715,26.367,36.133,31.250,-7.812,0
1583437902.743,31.250,23.926,40.039,32.715,6.348,0
1583437902.747,29.785,22.461,43.457,36.133,26.367,0
1583437902.750,30.273,17.578,42.480,39.551,-11.719,0
1583437902.754,34.180,16.602,40.527,42.969,21.973,0
1583437902.758,33.203,19.043,35.156,33.691,72.266,0
1583437902.762,32.227,19.043,28.809,30.273,8.301,0
1583437902.766,33.203,10.742,36.621,39.551,-0.977,0
1583437902.763,30.762,9.766,45.898,38.574,32.715,0
1583437902.767,30.273,24.902,52.734,30.762,42.969,0
1583437902.771,30.273,21.484,53.711,28.809,49.805,0
1583437902.775,32.715,12.695,52.246,31.738,66.895,0
1583437902.779,35.156,18.066,54.199,39.551,72.266,0
1583437902.783,37.598,18.555,48.340,38.086,33.203,0
1583437902.787,33.691,16.602,45.410,32.227,70.312,0
1583437902.790,29.297,19.531,48.828,29.297,57.129,0
1583437902.794,29.297,16.602,48.828,24.902,-40.039,3
1583437902.798,27.832,17.090,49.805,26.855,-25.391,0
1583437902.802,28.809,20.996,48.340,29.785,70.312,0
1583437902.806,29.785,16.602,40.527,31.250,62.012,0
1583437902.823,32.715,22.949,32.715,36.621,14.648,0
1583437902.827,33.203,29.785,36.133,38.086,49.316,0
1583437902.831,33.203,26.855,51.270,32.715,16.602,0
1583437902.835,35.156,23.926,56.641,28.809,-1.465,0
1583437902.839,35.645,23.926,55.664,31.250,13.184,0
1583437902.843,32.227,25.391,55.176,29.785,-6.348,0
1583437902.847,27.832,18.555,57.617,21.484,30.762,0
1583437902.850,29.785,17.090,60.059,28.320,29.785,0
1583437902.854,25.879,23.926,51.758,40.039,-21.484,0
1583437902.858,20.996,27.832,49.805,41.504,16.602,0
1583437902.862,25.391,33.691,56.641,39.551,24.414,0
1583437902.866,24.414,45.898,56.152,30.273,33.203,0
1583437902.863,23.926,52.734,50.293,31.250,16.113,0
1583437902.867,31.738,59.082,38.574,39.062,-2.930,0
1583437902.871,33.691,67.871,43.457,36.621,66.406,0
1583437902.875,33.691,68.848,56.641,32.715,61.523,0
1583437902.879,37.109,66.895,60.547,39.551,31.738,0
1583437902.883,41.504,64.941,53.711,43.457,41.016,0
1583437902.887,34.180,71.289,46.387,35.645,12.695,0
1583437902.890,29.297,85.938,51.758,28.320,-10.254,0
1583437902.894,32.715,88.379,57.129,30.762,30.762,0
1583437902.898,31.738,77.637,57.617,31.250,52.246,0
1583437902.902,30.762,70.801,57.617,25.879,14.648,0
1583437902.906,33.203,76.660,58.594,27.832,26.855,0
1583437902.903,33.691,73.730,55.176,30.762,35.156,0
1583437902.907,38.086,68.359,45.410,33.203,-2.441,0
1583437902.911,40.527,72.754,39.551,36.133,-33.203,0
1583437902.915,32.227,69.824,43.945,34.180,-25.391,0
1583437902.919,32.715,68.359,40.527,33.691,-17.578,0
1583437902.923,37.109,68.359,34.668,37.598,30.273,0
1583437902.927,34.180,74.219,39.551,42.480,31.738,0
1583437902.930,34.668,67.383,39.062,41.504,14.160,0
1583437902.934,38.574,45.410,42.480,38.574,35.645,0
1583437902.938,36.133,47.363,47.852,40.527,29.785,0
1583437902.942,34.668,54.199,47.363,36.621,-10.254,0
1583437902.946,37.598,48.828,43.945,30.273,7.812,0
1583437902.963,36.133,40.039,42.480,25.391,61.523,0
1583437902.967,26.855,34.668,45.898,20.996,75.195,0
1583437902.971,26.367,28.809,44.922,28.320,80.566,0
1583437902.975,38.086,26.855,29.785,36.621,17.578,0
1583437902.979,41.504,27.832,26.367,32.715,-19.531,0
1583437902.983,33.203,24.902,42.480,31.250,67.871,0
1583437902.987,37.598,25.879,49.316,30.273,77.637,0
1583437902.990,36.621,22.949,51.758,32.227,28.320,0
1583437902.994,36.133,23.438,56.152,33.691,-5.859,0
1583437902.998,41.504,28.320,52.734,30.273,20.996,0
1583437903.002,32.227,23.926,47.363,27.832,105.957,0
1583437903.006,27.832,24.414,42.480,20.996,71.777,0
1583437903.003,38.086,16.602,41.992,19.531,38.086,0
1583437903.007,37.109,14.648,45.410,28.320,69.824,0
1583437903.011,33.691,29.785,40.527,31.738,10.254,0
1583437903.015,38.086,36.621,42.969,34.180,22.461,0
1583437903.019,37.109,33.691,47.852,39.062,96.191,0
1583437903.023,37.109,28.809,44.434,34.180,83.496,0
1583437903.027,36.621,32.227,44.922,28.320,73.730,0
1583437903.030,32.715,34.668,46.875,32.715,21.484,0
1583437903.034,31.250,31.738,38.086,36.133,-3.906,0
1583437903.038,28.809,28.809,32.227,27.344,63.477,0
1583437903.042,24.902,28.809,44.922,29.297,71.777,0
1583437903.046,31.250,34.668,53.711,30.273,66.406,0
1583437903.044,33.691,34.180,49.316,27.344,48.340,0
1583437903.048,29.297,31.250,45.410,28.809,22.461,0
1583437903.052,33.691,31.738,48.340,27.832,32.227,0
1583437903.056,35.156,25.879,48.828,35.156,20.508,0
1583437903.060,35.156,30.273,47.363,36.621,33.691,0
1583437903.064,38.574,32.715,45.898,31.250,51.758,0
1583437903.068,39.551,25.879,42.969,24.414,27.344,0
1583437903.071,38.086,31.250,40.527,18.066,49.805,0
1583437903.075,35.156,33.691,37.109,20.508,47.852,0
1583437903.079,30.273,35.645,35.156,24.414,-31.738,0
1583437903.083,29.785,41.992,35.645,26.367,-44.922,0
1583437903.087,26.855,43.457,37.598,22.949,27.344,0
1583437903.104,20.508,38.574,47.852,19.531,40.039,0
1583437903.108,29.785,36.621,52.734,20.508,19.531,0
1583437903.112,35.645,34.668,51.758,21.973,14.648,0
1583437903.116,35.645,31.250,48.340,28.320,51.270,0
1583437903.120,40.039,37.109,41.016,25.879,104.980,0
1583437903.124,27.344,38.574,40.527,19.531,52.246,0
1583437903.128,19.531,34.668,42.969,19.043,57.617,0
1583437903.131,29.297,35.645,45.898,24.902,68.848,0
1583437903.135,27.344,33.691,47.852,41.016,55.176,0
1583437903.139,27.344,34.180,45.410,41.992,29.785,0
1583437903.143,36.133,39.551,46.875,30.273,37.598,0
1583437903.147,36.621,42.480,48.828,26.855,44.434,0
1583437903.143,37.598,36.621,46.387,24.902,-12.207,0
1583437903.147,34.668,30.762,43.457,34.180,0.000,0
1583437903.151,35.645,39.062,37.109,38.086,20.508,0
1583437903.155,36.621,38.086,33.203,33.691,10.254,0
1583437903.159,34.180,37.598,35.156,30.762,47.852,0
1583437903.163,41.504,41.504,29.785,28.320,63.965,0
1583437903.167,37.598,47.363,35.156,30.762,69.824,0
1583437903.170,34.668,60.547,48.828,25.391,86.914,0
1583437903.174,29.785,56.641,47.852,24.902,40.039,0
1583437903.178,24.414,50.781,47.363,29.297,62.012,0
1583437903.182,33.691,56.152,46.387,33.691,15.137,0
1583437903.186,45.898,53.223,41.504,29.297,-40.527,0
1583437903.184,41.992,49.316,40.527,24.414,15.625,0
1583437903.188,33.203,46.387,47.363,39.062,2.441,0
1583437903.192,35.645,44.434,44.434,45.898,-4.395,0
1583437903.196,33.203,45.410,36.133,40.527,55.664,0
1583437903.200,39.062,47.363,32.715,40.527,69.824,0
1583437903.204,43.945,35.645,24.902,34.668,26.855,0
1583437903.208,32.227,26.367,20.508,40.039,-4.395,0
1583437903.211,34.180,36.133,12.207,39.551,-47.852,0
1583437903.215,41.504,46.387,6.348,27.344,-3.906,0
1583437903.219,33.203,45.898,6.348,34.668,47.363,0
1583437903.223,33.203,41.992,1.953,35.645,28.809,0
1583437903.227,40.527,39.062,-1.953,27.344,38.086,0
1583437903.264,29.297,35.156,-2.441,36.133,39.062,0
1583437903.268,20.996,32.715,0.000,41.016,-2.441,0
1583437903.272,27.832,31.250,0.488,41.016,17.090,0
1583437903.276,32.227,33.203,-3.418,39.062,40.527,0
1583437903.280,40.039,36.621,-10.254,27.344,10.254,0
1583437903.284,44.922,35.156,-10.742,19.043,4.883,0
1583437903.288,37.109,34.668,-7.812,28.320,21.484,0
1583437903.291,39.062,35.645,-13.184,31.738,24.414,0
1583437903.295,41.504,38.086,-13.184,27.344,34.668,0
1583437903.299,35.645,43.945,-6.836,35.156,13.672,0
1583437903.303,40.527,42.480,-7.812,31.738,9.277,0
1583437903.307,42.969,36.621,-6.348,30.762,36.133,0
1583437903.307,33.203,39.062,1.953,43.457,-2.930,0
1583437903.311,31.738,41.016,5.371,38.086,-4.395,0
1583437903.315,42.480,40.039,1.465,26.855,3.418,0
1583437903.319,39.551,40.527,-0.977,28.809,-3.906,0
1583437903.323,34.668,43.945,2.930,36.621,28.320,0
1583437903.327,36.133,48.340,3.418,43.945,20.020,0
1583437903.331,33.203,41.992,0.977,33.203,-8.789,0
1583437903.334,36.621,35.645,5.859,19.531,18.066,0
1583437903.338,45.898,39.551,12.207,28.809,37.109,0
1583437903.342,37.598,41.992,21.484,39.062,58.105,0
1583437903.346,36.621,47.852,23.926,36.621,37.109,0
1583437903.350,43.945,48.828,21.484,34.180,30.273,0
1583437903.324,35.645,40.039,18.555,33.691,31.738,0
1583437903.328,37.598,38.086,20.508,38.574,12.695,0
1583437903.332,37.598,39.062,21.973,35.156,28.320,0
1583437903.336,38.086,39.551,19.043,21.973,42.480,0
1583437903.340,40.039,41.016,22.949,24.902,45.410,0
1583437903.344,36.621,38.574,29.297,38.574,106.445,0
1583437903.348,27.344,37.109,29.785,35.156,60.547,0
1583437903.351,29.297,33.691,30.762,26.367,-65.430,0
1583437903.355,46.387,34.668,28.809,42.480,42.480,0
1583437903.359,45.898,38.574,25.391,40.527,108.398,0
1583437903.363,30.762,36.621,27.832,25.391,8.301,0
1583437903.367,19.531,38.574,27.344,25.391,-8.301,0
1583437903.385,19.531,40.039,28.320,22.949,23.926,0
1583437903.389,21.484,37.598,34.668,23.438,42.969,0
1583437903.393,27.344,40.039,35.156,28.320,12.695,0
1583437903.397,35.645,44.922,31.738,26.855,37.109,0
1583437903.401,29.785,37.598,37.109,32.227,116.699,0
1583437903.405,21.484,28.320,46.387,39.062,73.730,0
1583437903.409,25.391,37.598,40.039,30.273,49.316,0
1583437903.412,30.762,44.434,28.320,27.832,20.020,0
1583437903.416,33.203,35.156,21.973,27.344,-14.160,0
1583437903.420,38.574,32.715,21.973,27.344,26.367,0
1583437903.424,39.062,35.645,28.809,22.461,51.270,0
1583437903.428,33.203,39.551,35.156,18.555,75.195,0
1583437903.425,29.297,48.828,33.203,24.414,52.734,0
1583437903.429,25.391,49.316,26.367,28.320,20.996,0
1583437903.433,22.949,44.922,20.996,34.668,-1.953,0
1583437903.437,31.738,43.945,17.578,31.250,1.465,0
1583437903.441,34.668,44.434,15.625,22.949,39.062,0
1583437903.445,37.109,47.363,15.137,23.438,76.660,0
1583437903.449,47.363,47.363,9.277,30.762,72.266,0
1583437903.452,41.016,43.945,3.418,30.762,40.527,0
1583437903.456,37.598,42.969,13.184,25.391,57.617,0
1583437903.460,42.480,42.480,14.160,27.832,44.922,0
1583437903.464,36.133,40.039,11.719,27.832,19.531,0
1583437903.468,33.203,41.016,15.625,29.785,36.133,0
1583437903.485,39.062,43.945,17.090,27.344,50.781,0
1583437903.489,36.133,38.574,19.531,30.273,32.227,0
1583437903.493,28.320,37.598,17.578,30.762,52.734,0
1583437903.497,30.273,40.039,19.531,27.832,107.910,0
1583437903.501,34.180,41.016,23.438,23.926,34.668,0
1583437903.505,37.109,42.969,22.461,15.625,-11.719,0
1583437903.509,31.738,40.039,21.484,27.832,22.461,0
1583437903.512,21.484,37.109,22.949,35.645,31.738,0
1583437903.516,29.785,42.969,23.438,27.832,63.965,0
1583437903.520,25.879,41.504,17.578,24.902,61.523,0
1583437903.524,15.137,39.062,16.602,22.461,33.203,0
1583437903.528,18.555,39.062,25.391,31.738,48.828,0
1583437903.524,26.855,33.691,25.879,34.668,36.621,0
1583437903.528,23.926,35.156,21.973,29.785,-2.930,0
1583437903.532,27.832,36.621,20.996,28.809,-59.082,0
1583437903.536,41.016,36.133,15.625,41.016,16.602,0
1583437903.540,48.340,41.016,6.348,44.434,39.062,0
1583437903.544,45.898,44.922,4.395,33.691,37.598,0
1583437903.548,40.039,42.480,5.859,36.133,50.293,0
1583437903.551,39.551,40.039,8.301,39.551,41.016,0
1583437903.555,47.363,35.156,7.324,39.551,23.438,0
1583437903.559,46.875,34.668,4.395,39.551,-9.277,0
1583437903.563,31.738,37.109,3.906,28.320,27.832,0
1583437903.567,35.156,34.180,3.418,27.832,66.895,0
1583437903.564,36.133,31.738,3.906,37.109,11.230,0
1583437903.568,29.297,31.250,9.277,37.598,-27.344,0
1583437903.572,34.668,31.250,14.648,34.180,37.598,0
1583437903.576,30.762,38.086,15.625,28.809,54.199,0
1583437903.580,24.414,41.992,11.719,22.949,48.828,0
1583437903.584,28.320,44.434,13.672,22.949,104.004,0
