timestamps,TP9,AF7,AF8,TP10,Right AUX,Marker0
1579288919.852,-207.520,190.430,-18.555,-204.590,40.527,0
1579288919.856,-184.082,187.500,-19.043,-177.734,-10.742,0
1579288919.860,-157.227,172.363,-17.578,-194.336,41.992,0
1579288919.864,-136.230,167.969,-13.184,-190.430,90.332,0
1579288919.868,-142.090,158.203,-13.184,-159.180,108.887,0
1579288919.872,-133.301,161.621,-7.812,-120.605,51.270,0
1579288919.876,-104.980,179.688,-5.371,-95.703,-12.207,0
1579288919.879,-100.098,175.781,-3.418,-111.328,-0.977,0
1579288919.883,-89.844,171.387,4.395,-101.562,-11.719,0
1579288919.887,-54.199,165.527,7.812,-46.387,0.488,0
1579288919.891,-31.250,127.930,16.113,-23.926,2.930,0
1579288919.895,-8.301,86.426,23.438,-19.043,40.527,0
1579288919.892,16.602,54.688,25.391,-2.441,67.383,0
1579288919.896,21.973,46.875,26.855,50.293,48.340,0
1579288919.900,42.480,86.914,29.785,69.824,63.965,0
1579288919.904,63.965,127.930,38.574,55.664,103.027,0
1579288919.908,79.102,148.926,41.504,65.430,82.520,0
1579288919.912,91.797,171.875,43.945,97.656,22.949,0
1579288919.916,91.797,198.242,50.293,129.395,27.344,0
1579288919.919,106.934,181.641,50.781,133.301,45.898,0
1579288919.923,124.023,169.434,55.664,115.723,17.578,0
1579288919.927,130.371,197.754,63.477,123.535,-8.301,0
1579288919.931,135.254,217.285,66.406,145.508,-14.648,0
1579288919.935,127.930,203.613,70.312,143.555,-31.250,0
1579288919.952,139.648,145.020,71.289,120.117,-5.859,0
1579288919.956,148.926,77.148,72.754,123.535,35.645,0
1579288919.960,135.742,25.391,77.148,163.574,41.992,0
1579288919.964,137.207,-25.879,78.125,178.711,45.410,0
1579288919.968,146.973,-81.055,72.266,155.273,70.801,0
1579288919.972,167.480,-131.836,68.359,126.465,64.941,0
1579288919.976,161.621,-118.652,75.195,148.926,50.781,0
1579288919.979,133.789,-51.758,74.219,171.875,79.590,0
1579288919.983,117.676,-7.812,73.730,143.555,34.180,0
1579288919.987,124.512,4.883,78.125,125.977,-1.953,0
1579288919.991,133.301,15.137,70.801,130.371,27.832,0
1579288919.995,130.859,21.484,68.359,136.719,41.504,0
1579288919.992,127.930,-28.809,67.871,125.000,9.766,0
1579288919.996,134.766,-92.285,66.406,100.586,6.836,0
1579288920.000,139.648,-134.766,65.918,101.562,40.039,0
1579288920.004,121.582,-162.109,63.965,117.676,67.871,0
1579288920.008,112.793,-189.941,67.871,119.629,44.922,0
1579288920.012,96.680,-211.914,63.965,85.449,17.090,0
1579288920.016,88.867,-209.961,63.965,69.824,39.062,0
1579288920.019,114.258,-206.543,72.754,98.145,53.223,0
1579288920.023,118.652,-207.031,64.453,95.215,48.340,0
1579288920.027,88.379,-205.566,62.012,71.777,39.062,0
1579288920.031,81.543,-197.266,66.895,69.336,5.859,0
1579288920.035,86.426,-184.082,63.477,77.637,24.902,0
1579288920.032,96.191,-172.363,69.824,92.285,31.738,0
1579288920.036,100.098,-167.480,70.312,89.844,-19.531,0
1579288920.040,89.844,-157.227,66.895,82.031,-24.902,0
1579288920.044,74.707,-141.602,71.289,86.914,30.762,0
1579288920.048,63.477,-131.836,72.754,102.539,51.270,0
1579288920.052,67.383,-125.977,71.777,103.516,35.156,0
1579288920.056,74.707,-112.305,66.895,78.613,35.645,0
1579288920.059,65.918,-96.680,61.523,76.660,71.777,0
1579288920.063,83.496,-96.680,61.523,99.609,52.734,0
1579288920.067,79.102,-104.492,66.895,96.191,25.391,0
1579288920.071,49.316,-113.281,62.988,64.941,50.781,0
1579288920.075,54.199,-107.422,51.270,47.852,37.598,0
1579288920.092,69.336,-84.473,52.734,79.102,7.324,0
1579288920.096,63.965,-66.895,59.570,93.750,18.555,0
1579288920.100,69.336,-14.648,65.918,55.664,19.043,0
1579288920.104,76.660,73.730,64.453,36.133,33.203,0
1579288920.108,40.039,109.863,56.152,53.711,51.758,0
1579288920.112,33.691,121.582,53.711,64.453,26.367,0
1579288920.116,40.527,146.973,52.734,43.945,43.945,0
1579288920.119,39.551,168.457,54.688,28.320,70.801,0
1579288920.123,52.246,185.059,53.223,38.086,51.270,0
1579288920.127,45.898,198.242,52.246,57.129,3.906,0
1579288920.131,35.156,211.914,55.176,67.871,5.859,0
1579288920.135,48.340,230.957,54.199,37.109,-30.762,0
1579288920.132,56.641,240.723,51.758,31.250,4.883,0
1579288920.136,71.777,229.980,52.246,61.035,42.480,0
1579288920.140,60.059,226.562,52.246,64.453,35.645,0
1579288920.144,28.809,228.516,51.270,29.785,57.129,0
1579288920.148,29.297,222.656,56.152,21.484,27.344,0
1579288920.152,45.898,210.449,53.223,64.453,61.523,0
1579288920.156,54.688,203.613,46.875,67.871,50.293,0
1579288920.159,43.945,195.801,50.781,37.109,-24.902,0
1579288920.163,44.434,142.578,46.875,20.020,42.480,0
1579288920.167,46.875,64.941,45.898,37.109,31.738,0
1579288920.171,52.246,13.184,45.898,61.523,-31.738,0
1579288920.175,63.965,-25.391,41.504,54.688,-5.371,0
1579288920.192,48.340,-43.945,43.945,33.691,9.277,0
1579288920.196,38.574,-50.293,46.875,35.156,42.969,0
1579288920.200,60.547,-69.336,47.363,53.711,77.148,0
1579288920.204,62.988,-88.379,44.434,58.594,90.332,0
1579288920.208,49.316,-103.516,45.898,45.410,50.293,0
1579288920.212,38.574,-113.281,48.340,26.367,20.020,0
1579288920.216,49.805,-112.305,47.363,47.852,38.574,0
1579288920.219,73.730,-109.375,45.410,65.918,81.543,0
1579288920.223,80.566,-107.910,43.945,43.457,46.875,0
1579288920.227,72.266,-106.445,44.922,37.598,5.371,0
1579288920.231,60.547,-108.887,49.316,65.430,-6.348,0
1579288920.235,62.988,-102.051,49.316,73.242,-20.508,0
1579288920.232,70.801,-90.332,45.898,54.688,14.648,0
1579288920.236,69.824,-95.215,51.270,43.945,26.855,0
1579288920.240,91.797,-97.168,49.805,62.500,35.645,0
1579288920.244,108.398,-86.914,44.434,76.172,83.008,0
1579288920.248,73.730,-66.895,41.504,61.035,38.086,0
1579288920.252,44.434,-51.758,43.945,37.109,-3.906,0
1579288920.256,43.945,-27.344,44.434,36.133,48.828,0
1579288920.259,50.293,42.969,44.434,56.641,-15.137,0
1579288920.263,49.805,96.680,46.875,56.641,5.371,0
1579288920.267,68.359,109.863,42.969,36.621,75.195,0
1579288920.271,63.965,109.375,41.016,34.180,64.453,0
1579288920.275,36.133,108.398,48.828,59.570,31.738,0
1579288920.272,45.898,114.746,54.199,68.359,17.578,0
1579288920.276,58.594,122.559,47.363,42.969,32.715,0
1579288920.280,61.523,118.164,43.457,41.504,12.207,0
1579288920.284,53.223,114.258,49.316,68.848,-19.043,0
1579288920.288,48.828,117.676,43.945,58.105,-43.457,0
1579288920.292,39.062,117.676,35.645,30.762,32.715,0
1579288920.296,33.691,117.188,35.645,7.324,57.129,0
1579288920.299,42.969,113.281,38.574,19.531,-23.926,0
1579288920.303,38.086,114.746,41.016,41.504,-32.227,0
1579288920.307,35.156,109.375,37.109,35.156,25.879,0
1579288920.311,47.852,63.965,36.133,16.602,23.438,0
1579288920.315,25.879,12.695,37.109,13.672,54.688,0
1579288920.332,20.996,-31.250,36.133,37.598,67.383,0
1579288920.336,23.926,-67.383,37.598,41.504,48.828,0
1579288920.340,30.762,-85.938,41.504,12.207,78.125,0
1579288920.344,46.875,-102.051,37.598,-7.324,61.035,0
1579288920.348,26.367,-119.141,36.133,20.508,38.574,0
1579288920.352,27.344,-127.930,35.645,41.016,17.578,0
1579288920.356,27.344,-129.395,31.738,27.344,31.738,0
1579288920.359,11.719,-132.324,35.156,17.090,2.930,0
1579288920.363,36.621,-132.812,33.691,39.551,48.340,0
1579288920.367,52.734,-133.301,28.809,59.082,69.336,0
1579288920.371,31.250,-140.137,34.668,44.434,-3.418,0
1579288920.375,43.945,-126.465,29.297,20.996,37.598,0
1579288920.372,50.293,-62.500,24.414,20.508,97.656,0
1579288920.376,20.508,-5.859,28.320,37.109,67.871,0
1579288920.380,26.855,19.531,30.762,37.109,23.926,0
1579288920.384,40.039,50.293,27.832,4.395,61.035,0
1579288920.388,41.992,79.590,22.949,1.953,35.645,0
1579288920.392,29.297,91.797,31.250,45.898,6.348,0
1579288920.396,8.301,107.422,38.574,32.227,49.805,0
1579288920.399,3.418,130.859,35.645,-8.789,46.387,0
1579288920.403,22.461,141.113,31.738,-10.254,12.207,0
1579288920.407,33.203,124.512,33.203,35.156,-11.719,0
1579288920.411,41.016,108.887,35.156,52.734,26.855,0
1579288920.415,65.918,105.957,32.715,10.742,44.922,0
1579288920.412,61.523,86.914,33.203,1.465,35.645,0
1579288920.416,28.809,75.195,31.738,19.043,16.113,0
1579288920.420,34.668,72.266,29.297,42.480,-17.578,0
1579288920.424,55.176,66.895,29.297,44.922,25.879,0
1579288920.428,49.805,69.824,24.414,-3.906,61.035,0
1579288920.432,51.758,72.754,22.461,-7.324,33.203,0
1579288920.436,41.504,46.875,28.809,12.695,28.320,0
1579288920.439,20.020,-18.066,29.785,-7.812,22.461,0
1579288920.443,28.809,-83.984,27.344,-29.785,-37.109,0
1579288920.447,25.879,-123.047,27.344,-40.527,-2.441,0
1579288920.451,29.785,-146.484,26.367,-12.695,99.121,0
1579288920.455,42.480,-153.809,27.832,10.254,65.918,0
1579288920.472,40.527,-149.902,26.855,-22.949,-10.254,0
1579288920.476,63.477,-154.785,22.461,-41.016,-15.137,0
1579288920.480,65.918,-162.109,22.949,-21.484,33.691,0
1579288920.484,26.367,-161.621,26.855,-6.836,89.355,0
1579288920.488,28.809,-160.645,27.832,-20.020,63.965,0
1579288920.492,33.691,-158.203,25.879,-34.668,38.574,0
1579288920.496,39.551,-156.250,27.832,-16.113,55.176,0
1579288920.499,52.734,-148.926,28.320,-0.977,104.980,0
1579288920.503,53.711,-108.398,27.344,-15.625,85.938,0
1579288920.507,27.832,-65.918,29.785,-33.691,82.520,0
1579288920.511,13.672,-37.598,32.227,-27.832,64.453,0
1579288920.515,23.926,0.488,30.273,-26.367,19.531,0
1579288920.512,45.898,42.480,31.738,-47.852,52.734,0
1579288920.516,43.945,68.848,32.715,-55.664,15.625,0
1579288920.520,43.945,74.219,29.785,-42.969,-41.504,0
1579288920.524,56.152,91.309,32.227,-22.461,-36.133,0
1579288920.528,39.062,110.352,31.738,-14.160,22.461,0
1579288920.532,28.320,116.699,34.668,-42.480,53.223,0
1579288920.536,33.691,120.117,35.645,-52.246,26.855,0
1579288920.539,34.668,123.535,29.785,-28.320,50.293,0
1579288920.543,35.645,123.047,28.320,-19.531,67.871,0
1579288920.547,52.734,125.488,27.832,-35.156,50.293,0
1579288920.551,48.828,135.742,27.832,-58.594,9.277,0
1579288920.555,27.344,135.742,32.715,-37.109,-36.133,0
1579288920.552,15.137,128.418,30.273,-26.367,-44.922,0
1579288920.556,28.320,136.719,26.855,-41.992,-29.785,0
1579288920.560,29.297,131.348,28.809,-46.387,22.949,0
1579288920.564,29.785,112.793,33.203,-38.086,33.203,0
1579288920.568,55.176,113.770,40.039,0.000,4.395,0
1579288920.572,44.434,117.676,38.086,0.977,14.160,0
1579288920.576,25.391,109.375,36.621,-38.086,20.996,0
1579288920.579,27.344,96.680,38.574,-45.410,12.695,0
1579288920.583,25.391,93.750,36.133,-33.691,-0.977,0
1579288920.587,36.621,97.656,40.039,-41.504,-17.578,0
1579288920.591,29.785,98.145,41.992,-54.688,-15.137,0
1579288920.595,31.738,93.262,38.574,-57.129,28.809,0
1579288920.612,47.852,85.449,39.551,-40.527,6.348,0
1579288920.616,27.344,85.449,37.109,-33.691,-2.441,0
1579288920.620,13.672,59.082,35.645,-44.434,58.594,0
1579288920.624,27.832,-4.395,34.668,-65.430,67.871,0
1579288920.628,22.461,-58.105,33.691,-57.129,40.039,0
1579288920.632,28.320,-99.609,39.062,-31.738,8.301,0
1579288920.636,39.062,-124.512,38.574,-33.691,34.668,0
1579288920.639,28.809,-139.648,38.086,-45.410,63.965,0
1579288920.643,19.531,-159.668,41.016,-41.016,68.359,0
1579288920.647,32.227,-170.410,38.086,-20.508,2.930,0
1579288920.651,34.668,-185.547,34.180,-17.090,-13.672,0
1579288920.655,0.488,-204.102,36.621,-35.645,26.367,0
1579288920.652,9.766,-207.031,47.852,-28.809,-2.930,0
1579288920.656,28.320,-213.379,50.781,-6.348,23.438,0
1579288920.660,32.227,-214.355,46.387,-20.996,22.461,0
1579288920.664,52.246,-194.336,44.922,-44.922,-5.371,0
1579288920.668,49.316,-171.387,39.062,-60.059,46.387,0
1579288920.672,25.879,-173.340,36.621,-43.945,9.277,0
1579288920.676,21.484,-189.453,33.691,-29.785,-42.969,0
1579288920.679,33.691,-183.594,33.203,-17.578,-2.441,0
1579288920.683,33.203,-150.391,43.945,-32.227,43.945,0
1579288920.687,-10.742,-100.098,41.016,-71.289,29.785,0
1579288920.691,-13.184,-42.480,27.832,-65.918,41.504,0
1579288920.695,14.160,-8.789,23.926,-56.641,23.926,0
1579288920.692,-22.461,13.184,21.973,-68.848,-19.043,0
1579288920.696,-48.828,45.410,25.391,-83.008,22.949,0
1579288920.700,-32.227,64.941,26.367,-63.477,62.012,0
1579288920.704,-34.180,82.520,26.855,-51.270,68.848,0
1579288920.708,-29.785,86.914,28.809,-78.125,38.574,0
1579288920.712,-33.203,76.660,25.879,-91.797,-18.555,0
1579288920.716,-44.434,70.312,26.855,-67.871,0.977,0
1579288920.719,-23.438,58.594,27.832,-49.805,18.066,0
1579288920.723,-39.551,54.688,17.578,-67.871,28.809,0
1579288920.727,-51.270,69.824,19.043,-66.406,72.754,0
1579288920.731,-36.133,71.777,27.832,-38.086,62.500,0
1579288920.735,-20.508,71.289,29.785,-21.484,62.988,0
1579288920.752,-10.742,79.102,32.715,-20.996,21.973,0
1579288920.756,4.883,88.379,31.738,-43.945,4.395,0
1579288920.760,0.488,96.680,33.203,-38.086,71.777,0
1579288920.764,-17.090,110.840,37.598,-4.883,66.895,0
1579288920.768,-5.371,119.629,39.062,6.348,45.410,0
1579288920.772,3.906,121.582,37.109,-10.742,41.992,0
1579288920.776,0.488,134.766,40.527,-13.184,-31.738,0
1579288920.779,14.648,150.391,43.457,13.672,18.555,0
1579288920.783,21.484,153.809,35.645,26.855,74.707,0
1579288920.787,3.906,157.227,34.668,6.348,60.547,0
1579288920.791,5.371,162.109,41.504,-9.277,5.371,0
1579288920.795,6.836,150.391,42.480,29.785,-23.438,0
1579288920.792,19.531,152.344,39.062,41.504,10.742,0
1579288920.796,22.949,168.457,38.574,26.855,2.930,0
1579288920.800,20.020,173.340,34.668,14.160,-4.395,0
1579288920.804,41.992,168.945,30.273,11.230,-13.184,0
1579288920.808,26.367,160.156,31.738,40.039,30.762,0
1579288920.812,8.301,155.762,31.250,38.086,6.348,0
1579288920.816,18.066,149.902,33.203,12.207,5.859,0
1579288920.819,22.461,132.324,38.086,18.066,10.742,0
1579288920.823,26.367,86.914,34.180,40.039,-3.906,0
1579288920.827,25.391,17.090,27.832,46.387,22.461,0
1579288920.831,29.785,-46.387,34.668,23.438,-3.906,0
1579288920.835,35.156,-84.961,39.551,19.043,-34.180,0
1579288920.832,34.668,-102.539,36.621,35.156,20.508,0
1579288920.836,46.875,-119.141,32.227,41.016,78.125,0
1579288920.840,33.203,-138.184,32.227,32.227,64.453,0
1579288920.844,13.672,-150.879,36.133,19.531,54.688,0
1579288920.848,19.043,-161.133,40.039,30.762,32.227,0
1579288920.852,25.391,-150.879,37.109,34.668,57.129,0
1579288920.856,10.742,-134.766,34.180,-1.953,101.074,0
1579288920.859,6.836,-138.184,30.762,-51.758,70.801,0
1579288920.863,20.020,-137.207,25.391,-62.500,-4.395,0
1579288920.867,12.207,-129.883,28.809,-22.949,-0.488,0
1579288920.871,10.742,-126.465,30.762,-12.695,45.410,0
1579288920.875,21.973,-129.883,33.203,-35.156,61.523,0
1579288920.892,30.762,-130.859,31.738,-20.020,32.227,0
1579288920.896,36.621,-105.957,24.902,10.742,33.203,0
1579288920.900,40.527,-57.617,31.738,20.020,41.992,0
1579288920.904,24.414,-14.648,40.039,-5.371,71.289,0
1579288920.908,20.996,16.602,41.504,-29.785,32.227,0
1579288920.912,39.551,48.340,42.969,6.348,-24.902,0
1579288920.916,30.273,67.383,40.527,25.879,30.273,0
1579288920.919,15.625,79.102,43.457,-3.906,-20.508,0
1579288920.923,27.832,104.492,53.711,-7.812,-2.930,0
1579288920.927,30.273,124.512,53.223,10.742,20.508,0
1579288920.931,22.461,138.672,49.316,45.898,0.000,0
1579288920.935,36.621,146.973,49.805,43.457,11.230,0
1579288920.932,43.457,137.207,41.992,-3.418,-12.207,0
1579288920.936,19.043,121.582,39.062,2.441,16.113,0
1579288920.940,21.484,113.770,42.969,48.828,22.461,0
1579288920.944,34.180,113.770,41.504,62.012,3.418,0
1579288920.948,40.527,114.258,40.527,39.551,36.133,0
1579288920.952,46.387,116.211,41.992,23.926,9.766,0
1579288920.956,38.574,127.930,40.039,43.457,24.414,0
1579288920.959,51.758,143.066,41.016,57.129,31.250,0
1579288920.963,56.641,147.461,46.875,42.969,-0.977,0
1579288920.967,38.574,134.766,39.062,40.039,27.832,0
1579288920.971,33.203,118.164,32.715,52.246,-6.348,0
1579288920.975,40.039,82.520,43.457,65.430,4.883,0
1579288920.972,47.852,25.391,49.316,51.758,33.203,0
1579288920.976,46.875,-19.531,48.340,46.875,-19.043,0
1579288920.980,47.363,-47.363,47.852,64.453,14.160,0
1579288920.984,61.035,-65.918,50.781,80.078,71.777,0
1579288920.988,55.664,-72.266,45.410,68.359,53.223,0
1579288920.992,52.734,-74.219,39.551,41.016,98.633,0
1579288920.996,64.453,-82.520,41.992,40.527,75.195,0
1579288920.999,43.945,-88.867,38.574,52.734,50.293,0
1579288921.003,31.250,-82.031,38.574,53.711,77.148,0
1579288921.007,40.527,-79.102,45.898,39.551,79.590,0
1579288921.011,57.617,-76.172,43.945,52.246,102.051,0
1579288921.015,73.242,-43.945,43.945,84.473,74.707,0
1579288921.032,53.223,13.672,41.504,89.844,87.891,0
1579288921.036,48.828,64.941,39.062,89.844,79.590,0
1579288921.040,54.688,97.656,47.363,80.566,65.430,0
1579288921.044,42.480,136.230,45.898,84.961,66.895,0
1579288921.048,43.457,185.547,39.551,110.352,12.207,0
1579288921.052,46.875,207.031,35.645,97.168,26.367,0
1579288921.056,41.504,209.473,37.109,82.031,43.945,0
1579288921.059,59.570,208.984,40.039,97.656,49.316,0
1579288921.063,76.172,196.289,35.645,122.070,90.332,0
1579288921.067,44.434,164.062,34.668,116.699,14.648,0
1579288921.071,34.180,127.930,32.715,90.820,14.648,0
1579288921.075,41.992,113.770,24.902,86.426,52.246,0
1579288921.080,35.156,107.910,25.391,88.379,48.340,0
1579288921.084,34.668,93.750,32.227,85.449,26.367,0
1579288921.088,44.434,70.312,35.645,71.289,7.812,0
1579288921.092,44.434,28.320,34.668,64.941,11.230,0
1579288921.096,34.668,-14.648,35.156,85.449,-22.949,0
1579288921.100,41.504,-40.527,36.133,92.285,-30.273,0
1579288921.104,46.875,-61.035,29.297,69.824,10.254,0
1579288921.107,26.367,-67.871,31.250,58.105,81.543,0
1579288921.111,28.809,-75.195,37.109,76.660,41.992,0
1579288921.115,37.598,-76.660,30.273,80.566,31.250,0
1579288921.119,30.762,-68.359,27.832,54.688,44.922,0
1579288921.123,31.250,-72.754,31.738,34.668,27.344,0
1579288921.112,24.414,-88.379,33.691,42.969,52.246,0
1579288921.116,36.133,-98.633,34.668,72.266,51.758,0
1579288921.120,45.898,-105.957,35.645,67.871,41.504,0
1579288921.124,23.438,-104.492,41.016,30.762,42.969,0
1579288921.128,4.883,-83.008,37.598,26.367,25.879,0
1579288921.132,17.578,-74.707,30.273,47.363,13.672,0
1579288921.136,26.855,-81.055,35.156,52.734,17.578,0
1579288921.139,16.602,-68.848,35.156,22.949,9.766,0
1579288921.143,14.160,-48.340,33.691,14.160,39.551,0
1579288921.147,16.113,-52.246,39.062,48.340,-2.930,0
1579288921.151,27.344,-57.617,36.621,42.480,-37.109,0
1579288921.155,23.926,-22.461,34.668,13.672,-1.465,0
1579288921.172,3.906,6.348,36.133,0.000,33.691,0
1579288921.176,7.812,25.391,39.062,14.160,-32.715,0
1579288921.180,7.812,65.918,41.504,35.645,-37.109,0
1579288921.184,19.531,94.238,38.574,24.902,18.066,0
1579288921.188,38.574,106.934,36.133,10.742,-15.137,0
1579288921.192,17.090,119.141,36.621,16.113,19.043,0
1579288921.196,5.371,120.605,34.668,29.785,51.758,0
1579288921.199,17.090,139.648,34.180,34.180,48.828,0
1579288921.203,27.832,153.320,32.715,0.977,36.133,0
1579288921.207,30.273,130.859,32.227,-7.812,31.250,0
1579288921.211,21.484,119.629,32.715,20.020,78.613,0
1579288921.215,15.625,117.676,37.109,27.344,45.410,0
1579288921.212,40.039,92.773,42.969,16.113,41.016,0
1579288921.216,41.504,83.984,41.992,6.836,54.199,0
1579288921.220,10.254,95.703,44.434,6.836,36.621,0
1579288921.224,11.230,83.496,46.387,4.883,20.508,0
1579288921.228,13.672,68.848,41.992,-14.648,60.059,0
1579288921.232,16.602,49.316,37.598,-34.180,58.594,0
1579288921.236,26.367,25.879,35.645,-10.254,-22.949,0
1579288921.239,15.625,19.531,34.668,12.695,-8.789,0
1579288921.243,7.324,9.277,37.109,-14.160,-0.488,0
1579288921.247,16.113,-5.859,31.250,-44.922,18.066,0
1579288921.251,13.672,3.906,29.785,-20.508,70.801,0
1579288921.255,22.949,24.902,37.598,0.488,-0.977,0
1579288921.252,26.855,21.484,39.551,-10.254,23.926,0
1579288921.256,19.531,-5.371,36.133,-21.484,69.824,0
1579288921.260,34.180,-39.551,34.668,-31.250,45.898,0
1579288921.264,41.992,-71.777,32.227,-14.160,59.570,0
1579288921.268,21.973,-106.445,28.320,-10.254,40.527,0
1579288921.272,37.598,-133.789,32.715,-16.113,10.742,0
1579288921.276,44.434,-142.090,39.062,-15.625,-21.484,0
1579288921.279,26.855,-149.414,40.527,-16.113,25.879,0
1579288921.283,16.602,-149.902,41.504,-5.371,7.324,0
1579288921.287,27.344,-144.531,42.969,-5.371,-3.906,0
1579288921.291,42.969,-156.250,42.480,-15.137,29.785,0
1579288921.295,34.180,-155.273,45.410,-4.883,27.344,0
1579288921.312,20.508,-140.625,47.363,16.602,36.133,0
1579288921.316,21.973,-128.418,44.922,16.113,32.715,0
1579288921.320,24.414,-129.395,42.969,-8.301,57.617,0
1579288921.324,18.555,-144.531,40.039,5.371,85.938,0
1579288921.328,30.762,-156.250,39.551,20.996,56.641,0
1579288921.332,46.387,-139.648,42.480,10.254,31.738,0
1579288921.336,25.879,-82.031,39.551,2.930,31.250,0
1579288921.339,9.766,-35.645,40.039,-5.371,30.762,0
1579288921.343,23.926,3.906,42.969,20.020,8.789,0
1579288921.347,26.367,37.598,41.016,25.879,1.465,0
1579288921.351,33.691,47.852,39.062,6.836,39.062,0
1579288921.355,41.992,71.777,40.527,8.301,41.992,0
1579288921.352,27.344,82.031,39.551,24.902,31.250,0
1579288921.356,23.926,83.984,37.109,35.156,-32.715,0
1579288921.360,34.668,100.098,39.551,21.484,-74.219,0
1579288921.364,31.738,110.840,43.945,6.348,24.902,0
1579288921.368,20.996,141.602,43.945,26.855,107.422,0
1579288921.372,24.902,180.176,36.133,54.199,52.246,0
1579288921.376,46.387,185.547,34.180,40.527,-12.207,0
1579288921.379,42.969,166.016,32.715,15.137,-13.672,0
1579288921.383,38.574,146.484,31.250,15.137,45.898,0
1579288921.387,29.785,140.137,31.250,42.480,49.316,0
1579288921.391,23.926,131.348,35.156,47.363,36.621,0
1579288921.395,39.551,122.559,36.621,45.410,51.270,0
1579288921.392,43.457,124.512,38.086,31.738,39.062,0
1579288921.396,53.711,128.906,38.086,29.297,42.480,0
1579288921.400,49.316,157.715,31.738,51.758,-21.973,0
1579288921.404,27.832,172.852,29.297,29.297,-41.016,0
1579288921.408,34.668,166.016,27.832,9.277,45.898,0
1579288921.412,38.086,159.180,26.855,37.598,6.348,0
1579288921.416,26.367,144.531,32.227,62.988,-50.293,0
1579288921.419,29.785,140.137,34.180,48.340,-18.066,0
1579288921.423,30.273,149.414,34.668,27.832,6.836,0
1579288921.427,27.344,140.625,35.645,38.574,52.734,0
1579288921.431,30.762,117.188,34.180,47.852,87.402,0
1579288921.435,45.898,110.840,35.645,39.062,25.391,0
1579288921.452,34.180,98.633,31.738,19.043,41.504,0
1579288921.456,24.902,86.426,33.691,19.531,60.059,0
1579288921.460,42.969,96.191,39.062,54.688,68.359,0
1579288921.464,27.832,106.934,29.785,33.691,84.961,0
1579288921.468,13.672,124.023,20.020,-8.789,38.086,0
1579288921.472,12.207,146.973,15.625,-1.465,7.812,0
1579288921.476,19.531,149.414,10.254,6.348,18.066,0
1579288921.479,22.461,136.719,4.395,19.043,51.758,0
1579288921.483,11.719,128.906,-2.441,3.418,46.875,0
1579288921.487,15.137,131.836,-5.859,-21.973,51.270,0
1579288921.491,22.461,133.789,-10.742,-11.719,27.832,0
1579288921.495,17.090,132.324,-14.648,3.906,0.488,0
1579288921.492,17.090,131.348,-12.695,12.207,2.930,0
1579288921.496,19.531,129.883,-12.695,-0.977,65.430,0
1579288921.500,16.113,144.043,-9.766,-8.301,41.504,0
1579288921.504,15.137,139.648,-12.695,10.254,14.648,0
1579288921.508,31.738,99.609,-10.254,4.395,48.828,0
1579288921.512,34.668,62.988,-4.395,-13.672,49.805,0
1579288921.516,13.184,48.340,-4.395,-15.137,61.523,0
1579288921.519,5.859,47.363,-3.418,-2.930,86.426,0
1579288921.523,11.719,31.250,-3.418,2.930,50.781,0
1579288921.527,9.277,17.090,-0.977,-23.926,-19.531,0
1579288921.531,7.324,24.902,1.465,-36.621,-24.414,0
1579288921.535,12.695,20.020,0.977,-21.973,10.254,0
1579288921.532,15.625,13.672,6.836,13.184,64.941,0
1579288921.536,7.324,33.691,10.254,3.418,28.320,0
1579288921.540,13.672,58.105,8.301,-37.598,-36.621,0
1579288921.544,15.625,72.266,11.230,-20.996,29.785,0
1579288921.548,12.695,73.242,14.160,1.953,40.039,0
1579288921.552,0.977,56.641,9.277,-16.602,-3.418,0
1579288921.556,-1.465,57.129,10.254,-10.254,8.789,0
1579288921.559,9.277,84.961,14.160,-2.441,35.645,0
1579288921.563,2.930,101.562,13.184,-15.625,34.668,0
1579288921.567,29.785,114.746,12.207,-6.836,-1.465,0
1579288921.571,38.574,149.414,12.695,-18.555,21.484,0
1579288921.575,12.207,167.969,13.184,-33.203,44.922,0
1579288921.592,12.695,168.457,16.602,-4.395,26.855,0
1579288921.596,22.949,184.082,20.020,16.113,38.086,0
1579288921.600,23.438,195.312,13.672,-16.113,70.312,0
1579288921.604,18.555,176.758,15.137,-23.438,104.980,0
1579288921.608,23.438,156.250,26.367,11.719,92.285,0
1579288921.612,19.043,152.344,23.438,25.391,62.988,0
1579288921.616,19.531,148.926,20.020,5.371,52.246,0
1579288921.619,26.855,142.578,20.508,-9.766,33.691,0
1579288921.623,19.531,126.953,19.043,-5.371,54.199,0
1579288921.627,21.973,97.168,23.438,11.719,62.012,0
1579288921.631,22.461,76.660,21.973,2.930,60.547,0
1579288921.635,19.531,74.219,20.996,-20.508,89.844,0
1579288921.632,33.691,79.102,25.391,-14.160,60.059,0
1579288921.636,22.949,93.262,32.715,11.719,30.762,0
1579288921.640,6.836,83.984,41.016,20.508,43.457,0
1579288921.644,4.395,54.688,29.785,-7.812,1.953,0
1579288921.648,6.348,56.641,20.508,-24.414,-20.996,0
1579288921.652,3.906,76.660,25.391,-13.184,12.207,0
1579288921.656,-8.301,76.660,20.996,-16.602,28.809,0
1579288921.659,-9.766,80.078,14.160,-40.527,28.809,0
1579288921.663,-1.953,97.656,16.602,-52.734,45.410,0
1579288921.667,-32.715,103.516,15.625,-50.781,62.988,0
1579288921.671,-59.082,92.285,14.648,-49.805,23.438,0
1579288921.675,-51.270,90.820,7.324,-70.801,-1.953,0
1579288921.672,-55.664,104.004,3.906,-115.234,-7.324,0
1579288921.676,-52.734,93.262,-1.465,-109.375,21.973,0
1579288921.680,-66.406,80.078,-9.277,-96.191,100.098,0
1579288921.684,-86.914,91.309,-9.277,-119.141,52.734,0
1579288921.688,-87.402,105.469,-10.254,-148.438,41.992,0
1579288921.692,-96.680,89.844,-16.602,-161.133,72.266,0
1579288921.696,-112.793,69.336,-16.602,-147.461,127.441,0
1579288921.699,-111.816,71.289,-14.648,-139.648,93.750,0
1579288921.703,-105.469,81.055,-14.648,-157.227,10.254,0
1579288921.707,-102.539,89.844,-14.160,-168.457,56.152,0
1579288921.711,-104.980,100.098,-12.207,-147.461,4.395,0
1579288921.715,-109.863,107.910,-11.719,-128.906,-20.996,0
1579288921.732,-83.008,112.793,-16.602,-134.277,33.203,0
1579288921.736,-60.059,110.352,-15.625,-148.438,77.148,0
1579288921.740,-76.660,99.121,-14.648,-131.836,62.988,0
1579288921.744,-78.125,94.238,-11.230,-102.539,45.898,0
1579288921.748,-45.410,100.098,1.465,-89.844,51.270,0
1579288921.752,-28.809,98.145,9.277,-83.008,69.824,0
1579288921.756,-13.672,75.684,13.184,-74.219,85.449,0
1579288921.759,11.230,47.852,22.949,-35.156,-7.324,0
1579288921.763,15.625,40.527,28.809,-7.812,0.000,0
1579288921.767,14.648,47.363,24.414,-13.672,25.391,0
1579288921.771,25.879,36.133,26.855,6.348,-14.648,0
1579288921.775,48.340,31.250,40.039,46.875,38.086,0
1579288921.772,71.289,43.945,44.922,58.105,53.711,0
1579288921.776,76.660,52.246,42.969,57.129,38.574,0
1579288921.780,85.449,41.992,40.527,58.594,31.250,0
1579288921.784,80.566,9.277,38.574,53.223,43.457,0
1579288921.788,96.680,24.414,43.457,67.871,24.902,0
1579288921.792,101.562,63.965,41.504,71.289,-4.883,0
1579288921.796,90.820,65.430,42.969,61.035,-15.625,0
1579288921.799,99.609,87.402,46.387,74.707,-36.621,0
1579288921.803,98.145,113.770,46.387,93.750,28.809,0
1579288921.807,103.027,115.234,47.363,79.102,52.734,0
1579288921.811,117.676,131.836,55.664,80.566,94.238,0
1579288921.815,119.141,141.602,51.758,83.496,67.383,0
1579288921.831,108.887,142.090,45.898,94.727,-21.484,0
1579288921.835,106.445,122.070,44.922,106.445,-22.461,0
1579288921.839,107.422,102.051,44.922,94.727,6.836,0
1579288921.843,102.539,128.906,44.922,79.590,23.926,0
1579288921.847,101.074,145.020,46.875,86.914,-10.742,0
1579288921.851,102.051,137.207,53.711,101.074,9.766,0
1579288921.855,100.098,134.277,53.711,81.055,10.254,0
1579288921.858,120.605,133.789,51.758,54.199,28.320,0
1579288921.862,106.934,128.418,51.270,59.570,32.715,0
1579288921.866,72.266,126.953,48.340,69.336,13.184,0
1579288921.870,73.242,116.699,47.363,47.852,64.941,0
1579288921.874,76.660,94.238,44.434,29.297,67.871,0
1579288921.872,77.637,82.031,44.434,39.551,49.316,0
1579288921.876,83.984,78.125,48.828,49.805,59.570,0
1579288921.880,88.379,78.125,49.316,36.133,60.547,0
1579288921.884,95.215,71.289,50.293,14.160,25.879,0
1579288921.888,87.402,59.082,46.875,12.207,23.438,0
1579288921.892,67.383,58.105,41.504,27.832,59.082,0
1579288921.896,65.918,40.527,48.340,36.133,62.012,0
1579288921.899,68.848,17.578,52.246,23.926,20.508,0
1579288921.903,66.895,17.578,46.387,20.020,30.762,0
1579288921.907,63.965,5.859,41.992,35.156,57.129,0
1579288921.911,86.914,-9.277,43.945,43.945,14.160,0
1579288921.915,72.266,-8.301,45.410,34.668,71.289,0
1579288921.912,45.410,-6.836,40.527,10.742,98.145,0
1579288921.916,68.848,-19.043,39.062,19.043,31.738,0
1579288921.920,70.312,-34.668,38.086,35.156,-39.551,0
1579288921.924,64.941,-36.133,39.551,24.902,-20.020,0
1579288921.928,70.801,-24.414,42.480,12.695,6.348,0
1579288921.932,60.547,1.465,42.480,24.902,-11.230,0
1579288921.936,51.270,29.785,39.062,49.316,20.020,0
1579288921.939,51.758,46.387,34.668,39.062,-10.742,0
1579288921.943,60.059,54.199,31.738,7.812,-19.531,0
1579288921.947,64.941,61.523,35.156,10.254,6.836,0
1579288921.951,60.059,49.805,38.086,23.926,18.555,0
1579288921.955,64.941,55.176,39.551,15.137,80.078,0
1579288921.972,66.895,72.754,34.668,-4.883,70.312,0
1579288921.976,45.898,62.500,26.367,-16.113,20.508,0
1579288921.980,40.039,50.293,29.785,4.395,-2.930,0
1579288921.984,58.105,44.922,33.203,23.926,-20.996,0
1579288921.988,54.688,43.457,37.109,6.836,11.230,0
1579288921.992,56.641,38.086,36.621,-5.859,35.645,0
1579288921.996,52.246,31.250,31.250,7.812,19.043,0
1579288921.999,55.664,29.785,31.738,17.578,17.090,0
1579288922.003,59.082,14.160,33.691,12.695,37.109,0
1579288922.007,41.016,4.395,36.133,0.977,69.824,0
1579288922.011,37.109,11.230,35.156,3.906,64.941,0
1579288922.015,36.621,19.531,32.227,33.691,63.965,0
1579288922.012,53.711,21.484,30.273,37.598,24.414,0
1579288922.016,60.547,13.672,34.668,9.277,-46.387,0
1579288922.020,54.688,25.391,40.527,9.766,-27.832,0
1579288922.024,51.758,29.785,39.551,26.855,-14.160,0
1579288922.028,29.297,15.625,38.574,25.391,20.508,0
1579288922.032,25.391,12.695,31.250,1.953,57.617,0
1579288922.036,33.691,22.949,30.762,-4.883,52.246,0
1579288922.039,40.039,21.484,37.598,26.855,43.945,0
1579288922.043,36.133,9.766,38.086,29.785,23.438,0
1579288922.047,49.316,11.230,32.227,-6.836,21.973,0
1579288922.051,49.316,19.043,25.391,-30.273,-13.672,0
1579288922.055,24.414,16.602,30.762,-17.578,-25.879,0
1579288922.052,29.785,22.949,40.039,12.695,40.039,0
1579288922.056,33.691,43.457,40.527,2.930,58.594,0
1579288922.060,33.691,40.039,34.668,-30.273,34.180,0
1579288922.064,23.926,36.133,31.250,-26.855,36.621,0
1579288922.068,25.879,50.293,34.180,0.000,20.996,0
1579288922.072,36.621,44.922,34.180,14.160,-33.691,0
1579288922.076,37.598,54.199,28.320,-22.461,50.781,0
1579288922.079,35.156,71.289,24.414,-33.691,112.793,0
1579288922.083,22.949,68.359,21.973,-5.859,83.008,0
1579288922.087,41.016,64.941,20.020,-13.672,71.289,0
1579288922.091,65.430,67.871,21.973,-27.832,56.641,0
1579288922.095,41.992,81.055,13.672,-38.086,44.922,0
1579288922.112,27.832,81.543,0.000,-20.020,37.598,0
1579288922.116,21.973,71.777,1.465,1.953,26.855,0
1579288922.120,29.297,76.660,2.930,-19.043,6.348,0
1579288922.124,31.250,75.195,-0.488,-35.645,36.621,0
1579288922.128,19.531,45.898,5.371,-28.320,36.133,0
1579288922.132,43.945,23.926,7.324,-15.625,-26.855,0
1579288922.136,58.105,21.484,12.695,-10.742,43.457,0
1579288922.139,34.180,6.348,21.973,-10.742,74.219,0
1579288922.143,40.039,-4.883,22.949,3.418,30.273,0
1579288922.147,52.246,-2.441,20.996,20.020,40.527,0
1579288922.151,42.480,-19.531,11.230,17.090,72.266,0
1579288922.155,43.945,-29.297,20.508,3.418,113.770,0
1579288922.152,47.852,-26.367,28.320,6.348,55.664,0
1579288922.156,36.621,-17.578,23.926,24.902,-6.348,0
1579288922.160,45.410,9.766,24.414,21.484,53.711,0
1579288922.164,60.059,44.922,22.461,5.371,11.719,0
1579288922.168,27.344,50.781,28.809,2.441,-28.809,0
1579288922.172,19.531,50.293,33.691,26.855,39.551,0
1579288922.176,38.086,77.637,29.785,38.086,31.250,0
1579288922.179,35.156,95.215,26.855,22.949,-11.230,0
1579288922.183,40.527,88.379,35.156,8.301,5.371,0
1579288922.187,44.434,82.520,33.691,19.043,11.719,0
1579288922.191,39.062,80.566,33.203,36.621,15.137,0
1579288922.195,40.527,83.008,39.551,24.902,20.508,0
1579288922.192,45.410,81.055,36.133,0.977,18.066,0
1579288922.196,48.828,56.641,33.691,13.672,23.926,0
1579288922.200,62.500,57.617,30.762,25.391,25.879,0
1579288922.204,51.270,73.730,25.879,19.043,-24.414,0
1579288922.208,27.344,81.543,30.762,8.789,-26.367,0
1579288922.212,31.738,103.027,31.250,-0.488,72.754,0
1579288922.216,36.133,116.211,25.879,19.043,31.738,0
1579288922.219,39.062,112.793,27.344,32.227,-6.348,0
1579288922.223,42.969,96.191,25.391,20.020,37.598,0
1579288922.227,46.875,90.332,24.902,6.836,10.254,0
1579288922.231,39.551,104.004,29.785,12.207,-28.320,0
1579288922.235,63.965,108.398,32.715,40.527,-24.414,0
1579288922.252,65.430,114.258,31.738,34.668,33.203,0
1579288922.256,47.363,104.492,25.879,3.906,69.336,0
1579288922.260,55.664,113.770,29.297,23.438,39.551,0
1579288922.264,38.574,143.555,40.039,52.734,57.617,0
1579288922.268,28.320,149.902,33.203,25.879,38.086,0
1579288922.272,38.574,151.367,32.715,-1.465,9.277,0
1579288922.276,37.109,155.273,33.691,3.906,44.434,0
1579288922.279,23.926,151.367,36.133,32.227,-7.812,0
1579288922.283,24.414,147.949,39.551,57.617,-5.859,0
1579288922.287,33.203,142.578,33.691,32.227,47.363,0
1579288922.291,27.344,125.000,35.645,13.672,41.504,0
1579288922.295,41.992,105.469,36.133,35.645,17.090,0
1579288922.292,54.199,95.215,38.574,46.875,56.641,0
1579288922.296,35.156,73.730,38.086,26.855,81.055,0
1579288922.300,43.945,33.203,35.156,8.301,48.340,0
1579288922.304,57.129,28.320,35.645,22.949,6.348,0
1579288922.308,40.527,26.855,35.156,54.688,42.480,0
1579288922.312,40.527,-4.395,29.297,61.523,49.805,0
1579288922.316,43.945,-41.992,20.508,28.809,29.785,0
1579288922.319,38.574,-62.012,28.320,22.949,59.570,0
1579288922.323,39.551,-68.848,40.527,46.387,12.207,0
1579288922.327,50.293,-81.055,41.504,48.340,-11.230,0
1579288922.331,45.410,-104.492,34.668,28.320,23.926,0
1579288922.335,29.785,-144.531,26.855,19.531,34.668,0
1579288922.332,46.387,-192.383,31.250,42.480,1.465,0
1579288922.336,48.828,-228.516,40.039,50.293,9.277,0
1579288922.340,29.297,-228.516,33.203,29.297,55.176,0
1579288922.344,38.086,-239.258,29.785,10.742,44.434,0
1579288922.348,50.781,-271.484,33.203,33.691,20.996,0
1579288922.352,38.574,-245.605,31.250,72.266,20.508,0
1579288922.356,61.523,-202.637,30.273,68.848,43.457,0
1579288922.359,72.754,-204.590,28.320,30.762,8.301,0
1579288922.363,26.855,-197.754,25.391,27.344,-17.090,0
1579288922.367,21.973,-172.363,31.250,43.945,3.418,0
1579288922.371,31.738,-190.918,32.715,43.945,64.941,0
1579288922.375,29.297,-216.309,27.832,23.926,78.125,0
1579288922.392,36.133,-199.707,31.738,30.762,75.684,0
1579288922.396,40.527,-169.434,37.598,67.383,86.426,0
1579288922.400,35.156,-194.336,37.598,72.754,13.672,0
1579288922.404,54.688,-219.727,34.668,47.852,-29.297,0
1579288922.408,38.086,-211.914,33.203,30.762,2.441,0
1579288922.412,8.789,-215.820,34.668,52.246,-28.320,0
1579288922.416,33.203,-229.004,40.039,68.359,-14.648,0
1579288922.419,30.762,-225.098,41.016,45.410,94.727,0
1579288922.423,29.297,-206.543,46.875,34.180,73.730,0
1579288922.427,38.574,-181.641,54.688,51.758,20.508,0
1579288922.431,22.949,-166.016,45.898,62.988,30.273,0
1579288922.435,41.504,-183.105,37.109,35.156,-3.906,0
1579288922.432,48.828,-198.730,38.574,10.742,34.668,0
1579288922.436,23.438,-180.664,37.109,31.738,102.051,0
1579288922.440,30.762,-145.996,39.551,57.617,68.359,0
1579288922.444,30.762,-139.160,39.062,38.086,24.414,0
1579288922.448,16.602,-164.062,30.762,3.418,90.820,0
1579288922.452,12.207,-186.035,27.832,8.789,78.613,0
1579288922.456,13.672,-178.223,31.738,39.062,44.434,0
1579288922.459,31.738,-164.551,36.621,42.969,50.293,0
1579288922.463,34.668,-163.086,37.598,16.113,42.969,0
1579288922.467,23.926,-168.457,34.180,2.441,63.965,0
1579288922.471,10.254,-141.113,34.668,19.531,21.973,0
1579288922.475,10.742,-127.441,31.738,31.738,-18.555,0
1579288922.472,26.367,-137.695,31.738,28.809,48.828,0
1579288922.476,29.785,-101.074,32.715,25.879,71.289,0
1579288922.480,44.434,-82.031,33.203,39.062,45.898,0
1579288922.484,50.781,-106.445,36.133,67.383,68.359,0
1579288922.488,39.062,-130.859,35.156,56.152,53.223,0
1579288922.492,44.922,-155.762,31.738,12.695,74.707,0
1579288922.496,33.691,-166.992,32.715,20.996,73.242,0
1579288922.499,31.738,-186.035,36.133,43.457,5.371,0
1579288922.503,39.551,-238.281,35.645,28.320,-47.852,0
1579288922.507,39.062,-265.625,38.086,8.301,-40.527,0
1579288922.511,45.410,-275.391,38.574,1.465,-13.184,0
1579288922.515,47.363,-293.457,41.992,20.996,19.531,0
1579288922.532,42.969,-295.410,36.133,29.297,60.059,0
1579288922.536,36.621,-283.203,23.438,3.418,60.059,0
1579288922.540,25.391,-267.578,34.180,-7.324,29.785,0
1579288922.544,29.297,-239.746,41.504,12.207,-4.883,0
1579288922.548,30.273,-203.613,36.621,25.879,-6.836,0
1579288922.552,20.996,-180.176,31.250,-0.977,11.719,0
1579288922.556,24.902,-168.945,30.762,-29.297,46.875,0
1579288922.559,21.484,-173.340,35.156,-10.742,9.277,0
1579288922.563,21.973,-163.086,41.992,15.137,-63.965,0
1579288922.567,42.969,-146.484,41.992,12.695,-14.160,0
1579288922.571,25.391,-150.391,30.273,-20.020,45.410,0
1579288922.575,12.207,-119.629,24.902,-9.277,66.406,0
1579288922.572,41.016,-60.059,34.668,30.762,31.738,0
1579288922.576,38.086,-43.457,41.504,10.742,-7.324,0
1579288922.580,27.832,-26.855,31.738,-26.855,0.977,0
1579288922.584,32.227,46.387,29.297,-22.949,19.043,0
1579288922.588,21.973,103.027,31.250,5.371,2.441,0
1579288922.592,27.832,140.625,40.527,30.273,-1.465,0
1579288922.596,31.250,160.645,41.016,-0.977,16.113,0
1579288922.599,26.367,144.043,28.809,-26.855,38.574,0
1579288922.603,31.250,137.695,37.109,-5.371,64.941,0
1579288922.607,21.484,145.996,33.203,2.441,40.039,0
1579288922.611,12.207,145.508,27.832,-14.160,28.809,0
1579288922.615,9.766,138.184,28.809,-27.344,23.926,0
1579288922.612,16.113,145.996,24.902,-0.488,19.531,0
1579288922.616,20.996,155.273,26.367,32.715,56.641,0
1579288922.620,21.973,155.273,32.715,42.969,57.617,0
1579288922.624,24.902,163.086,33.203,20.508,71.289,0
1579288922.628,40.527,187.500,30.762,20.996,64.453,0
1579288922.632,41.992,169.434,26.367,54.199,55.664,0
1579288922.636,40.039,156.250,17.090,49.316,51.270,0
1579288922.639,48.340,181.152,21.484,30.273,25.391,0
1579288922.643,40.527,156.738,24.902,20.508,28.320,0
1579288922.647,50.781,136.719,23.926,36.621,13.672,0
1579288922.651,42.480,144.531,25.391,46.875,53.711,0
1579288922.655,36.133,106.445,28.320,25.391,90.820,0
1579288922.672,48.828,52.734,35.645,12.207,48.828,0
1579288922.676,36.621,53.223,25.879,28.320,10.254,0
1579288922.680,29.785,39.551,20.020,42.969,0.000,0
1579288922.684,32.227,-2.930,31.250,24.902,32.227,0
1579288922.688,35.645,-10.742,38.574,0.000,-3.418,0
1579288922.692,57.617,-18.555,41.504,23.926,-52.734,0
1579288922.696,56.152,-24.902,28.809,32.227,-11.719,0
1579288922.699,35.645,-5.859,31.738,8.301,26.855,0
1579288922.703,27.832,19.531,38.574,-9.766,21.484,0
1579288922.707,33.691,11.230,38.574,-9.766,29.297,0
1579288922.711,40.039,-44.434,40.039,22.461,35.645,0
1579288922.715,41.504,-113.281,36.621,35.156,13.672,0
1579288922.712,40.039,-136.230,36.621,6.836,2.441,0
1579288922.716,39.551,-126.465,40.039,-3.418,27.344,0
1579288922.720,32.715,-126.953,33.691,18.066,12.207,0
1579288922.724,44.434,-150.391,35.645,36.621,-2.441,0
1579288922.728,44.922,-179.199,42.480,22.461,-21.484,0
1579288922.732,16.602,-166.992,39.551,-8.789,-2.930,0
1579288922.736,34.668,-148.438,36.621,4.883,40.527,0
1579288922.739,61.035,-131.836,40.527,31.250,20.996,0
1579288922.743,39.551,-83.984,42.480,20.508,10.254,0
1579288922.747,23.926,-58.105,41.504,-0.977,51.758,0
1579288922.751,26.367,-70.801,41.504,-4.395,76.660,0
1579288922.755,31.738,-62.012,43.945,18.555,82.520,0
1579288922.752,44.434,-52.734,49.316,29.785,47.852,0
1579288922.756,54.688,-57.129,41.016,6.836,1.465,0
1579288922.760,23.926,-39.551,30.273,-18.066,22.949,0
1579288922.764,-4.395,-33.203,38.086,10.742,8.789,0
1579288922.768,6.836,-45.410,48.340,20.020,-12.207,0
1579288922.772,13.184,-76.660,52.734,-5.859,-2.441,0
1579288922.776,35.156,-101.562,51.758,-7.324,9.277,0
1579288922.779,41.016,-124.512,50.781,22.949,95.215,0
1579288922.783,24.414,-146.973,54.688,38.574,89.355,0
1579288922.787,23.926,-139.160,56.152,9.277,-0.977,0
1579288922.791,21.484,-130.371,48.828,-25.391,21.484,0
1579288922.795,15.137,-129.395,46.387,-10.254,-16.113,0
1579288922.812,15.137,-145.020,42.969,20.508,-5.859,0
1579288922.816,24.902,-155.273,40.039,18.555,10.254,0
1579288922.820,21.484,-138.672,34.668,-12.695,6.836,0
1579288922.824,29.297,-148.438,33.203,-18.555,24.414,0
1579288922.828,47.363,-120.605,41.992,10.742,23.926,0
1579288922.832,27.344,-62.500,35.156,4.883,7.324,0
1579288922.836,14.160,-37.109,29.785,-9.766,4.883,0
1579288922.839,29.297,-39.062,39.551,-12.207,68.359,0
1579288922.843,32.715,-42.969,44.922,-0.977,140.137,0
1579288922.847,32.715,-50.781,40.527,8.789,114.746,0
1579288922.851,29.785,-64.941,35.645,-14.160,90.820,0
1579288922.855,18.555,-60.059,33.203,-24.414,46.387,0
1579288922.852,13.672,-57.129,35.645,10.254,0.977,0
1579288922.856,24.902,-61.035,36.133,25.391,30.273,0
1579288922.860,28.809,-78.125,35.156,21.973,24.902,0
1579288922.864,22.461,-89.355,39.551,27.344,47.363,0
1579288922.868,19.043,-96.191,35.645,38.086,29.297,0
1579288922.872,25.391,-85.449,27.832,41.992,19.531,0
1579288922.876,37.598,-68.359,26.855,29.785,15.137,0
1579288922.879,24.902,-65.918,33.203,23.438,-3.906,0
1579288922.883,8.301,-73.730,36.621,39.062,30.762,0
1579288922.887,14.648,-77.148,27.832,63.965,21.973,0
1579288922.891,23.926,-58.594,30.762,79.590,43.457,0
1579288922.895,23.926,-52.246,37.109,49.805,47.363,0
1579288922.892,35.645,-60.547,29.297,26.855,94.238,0
1579288922.896,39.551,-70.312,22.461,56.641,112.305,0
1579288922.900,24.902,-64.941,26.855,67.383,13.672,0
1579288922.904,25.879,-62.012,29.297,44.434,-6.348,0
1579288922.908,24.414,-39.551,22.949,28.809,62.500,0
1579288922.912,26.855,0.488,24.414,57.617,35.156,0
1579288922.916,27.832,34.668,27.832,78.613,-11.719,0
1579288922.919,18.555,69.336,26.367,58.594,23.926,0
1579288922.923,19.531,96.680,33.691,30.762,41.992,0
1579288922.927,31.738,80.566,36.133,43.457,40.039,0
1579288922.931,36.621,38.086,26.367,64.453,20.020,0
1579288922.935,29.785,9.277,21.973,61.035,5.371,0
1579288922.952,24.902,15.137,20.996,44.434,42.480,0
1579288922.956,35.156,34.180,23.438,32.715,15.137,0
1579288922.960,37.109,31.250,25.391,48.340,-17.578,0
1579288922.964,25.391,32.715,23.926,44.434,21.484,0
1579288922.968,15.137,32.227,25.879,0.000,56.152,0
1579288922.972,16.602,21.484,25.879,-3.418,68.359,0
1579288922.976,21.484,2.441,22.949,19.043,31.250,0
1579288922.979,25.391,1.465,28.320,33.203,39.551,0
1579288922.983,28.809,4.883,30.762,24.902,32.227,0
1579288922.987,28.809,2.930,27.832,6.348,-15.625,0
1579288922.991,19.043,20.508,27.832,26.855,9.766,0
1579288922.995,14.160,33.203,26.367,45.898,60.547,0
1579288922.992,18.066,11.230,20.996,36.133,-39.551,0
1579288922.996,27.832,15.137,20.996,20.996,-26.855,0
1579288923.000,34.180,33.691,25.879,37.598,17.578,0
1579288923.004,29.785,33.691,22.461,54.199,3.906,0
1579288923.008,31.738,64.453,15.625,31.738,44.922,0
1579288923.012,25.391,92.773,20.996,24.414,20.020,0
1579288923.016,26.367,63.477,31.250,50.293,-26.855,0
1579288923.019,29.785,43.457,29.297,48.828,-32.715,0
1579288923.023,23.438,43.945,25.391,41.504,-19.531,0
1579288923.027,18.555,50.293,23.926,12.695,42.969,0
1579288923.031,18.555,37.109,27.832,3.906,47.852,0
1579288923.035,29.785,21.484,28.809,39.062,28.809,0
1579288923.032,32.715,41.992,32.715,56.152,49.805,0
1579288923.036,24.414,36.133,32.715,42.969,52.734,0
1579288923.040,43.945,8.301,26.367,16.113,56.152,0
1579288923.044,60.059,4.883,36.621,42.969,32.227,0
1579288923.048,39.062,3.906,37.598,75.684,20.508,0
1579288923.052,26.855,12.207,31.738,46.387,27.832,0
1579288923.056,25.879,16.113,40.039,14.648,-2.441,0
1579288923.059,20.020,-6.348,39.062,18.555,42.480,0
1579288923.063,16.602,-3.906,38.086,39.062,112.793,0
1579288923.067,25.879,16.602,42.480,47.363,56.152,0
1579288923.071,25.391,6.836,41.016,22.461,-36.133,0
1579288923.075,30.273,3.418,36.133,13.672,-18.066,0
1579288923.092,40.527,12.695,30.273,35.645,84.473,0
1579288923.096,28.809,18.066,29.785,39.551,78.125,0
1579288923.100,10.742,33.203,33.203,29.297,36.133,0
1579288923.104,20.996,41.504,33.203,15.625,17.578,0
1579288923.108,35.645,54.199,33.691,26.855,14.648,0
1579288923.112,29.785,62.500,29.297,41.504,43.457,0
1579288923.116,29.785,61.523,32.227,20.508,22.461,0
1579288923.119,29.785,53.711,38.574,2.441,22.461,0
1579288923.123,20.020,58.594,35.156,17.090,89.844,0
1579288923.127,30.762,51.270,28.809,27.832,103.516,0
1579288923.131,34.180,29.785,28.320,0.977,46.875,0
1579288923.135,21.973,49.805,33.203,-22.949,36.133,0
1579288923.132,25.391,60.547,36.621,-8.301,27.344,0
1579288923.136,30.273,36.621,38.086,12.695,6.836,0
1579288923.140,33.203,40.039,39.551,18.555,41.016,0
1579288923.144,30.762,62.012,34.668,-3.418,74.219,0
1579288923.148,30.273,45.410,29.297,-13.184,29.297,0
1579288923.152,31.738,19.043,29.297,9.766,-0.977,0
1579288923.156,38.574,15.625,29.297,22.461,-47.363,0
1579288923.159,46.387,14.648,31.250,18.555,-56.641,0
1579288923.163,26.855,15.625,29.785,0.977,5.859,0
1579288923.167,23.926,25.879,30.762,19.531,35.156,0
1579288923.171,33.691,27.344,31.738,41.016,38.086,0
1579288923.175,30.273,17.578,32.227,16.602,-7.812,0
1579288923.172,25.879,22.949,31.738,5.371,-31.250,0
1579288923.176,23.926,34.668,27.832,17.090,7.324,0
1579288923.180,27.832,32.227,25.391,36.133,17.090,0
1579288923.184,21.973,28.809,30.273,27.832,30.273,0
1579288923.188,21.484,43.945,31.250,-6.836,24.902,0
1579288923.192,28.809,63.965,28.809,-9.766,41.504,0
1579288923.196,35.156,45.410,26.855,20.020,70.312,0
1579288923.199,40.527,27.344,27.832,47.852,53.223,0
1579288923.203,45.410,21.484,33.203,18.066,37.109,0
1579288923.207,55.664,4.883,32.715,-18.066,58.594,0
1579288923.211,27.344,-4.395,35.156,6.836,23.926,0
1579288923.215,0.977,-13.184,36.621,20.020,21.973,0
1579288923.232,8.789,-10.742,31.250,5.859,9.766,0
1579288923.236,19.043,4.395,34.668,1.953,-20.020,0
1579288923.240,26.855,9.277,39.062,26.855,-3.418,0
1579288923.244,26.367,1.953,34.668,46.875,41.504,0
1579288923.248,23.926,11.719,31.250,29.297,45.410,0
1579288923.252,29.785,40.039,28.320,10.742,31.738,0
1579288923.256,19.531,30.762,31.738,8.301,49.316,0
1579288923.259,24.414,14.648,36.621,20.996,29.785,0
1579288923.263,33.203,-0.488,36.133,12.207,43.457,0
1579288923.267,34.668,-13.184,33.203,-22.461,14.648,0
1579288923.271,29.785,-14.648,24.414,-26.855,-77.637,0
1579288923.275,26.855,-12.695,23.926,-2.441,-36.621,0
1579288923.272,27.344,-10.742,27.344,1.465,54.688,0
1579288923.276,24.414,-13.672,27.832,-13.672,55.176,0
1579288923.280,30.762,-2.930,28.320,-23.438,41.016,0
1579288923.284,29.785,2.930,27.344,-4.395,59.570,0
1579288923.288,35.156,0.000,34.668,13.672,8.789,0
1579288923.292,47.363,10.742,34.180,-6.836,26.855,0
1579288923.296,36.621,11.719,28.809,-15.625,87.402,0
1579288923.299,24.902,-0.488,32.227,16.602,75.684,0
1579288923.303,22.949,-9.766,27.832,41.504,24.414,0
1579288923.307,36.621,-23.438,22.949,37.598,43.457,0
1579288923.311,40.527,-27.832,26.855,26.855,46.387,0
1579288923.315,38.086,-22.461,31.250,42.480,-13.672,0
1579288923.332,37.598,-14.648,31.738,75.684,-32.715,0
1579288923.336,31.250,-18.555,28.320,65.918,62.012,0
1579288923.340,37.109,-31.250,30.273,43.945,125.977,0
1579288923.344,38.574,-24.414,33.691,41.504,59.082,0
1579288923.348,36.621,-8.301,25.879,49.316,51.758,0
1579288923.352,32.715,-6.836,25.391,55.664,58.594,0
1579288923.356,27.344,-14.160,29.785,37.598,57.617,0
1579288923.359,25.879,-12.695,30.762,24.902,95.703,0
1579288923.363,36.133,-7.324,30.273,36.621,65.918,0
1579288923.367,56.641,-9.277,26.367,57.129,15.625,0
1579288923.371,42.969,-8.301,27.832,32.227,4.883,0
1579288923.375,21.973,-3.906,27.344,-1.953,41.016,0
1579288923.372,36.621,8.789,33.691,26.855,83.496,0
1579288923.376,47.852,4.883,37.109,63.477,88.867,0
1579288923.380,35.156,-8.789,28.809,46.387,45.898,0
1579288923.384,21.484,-9.277,30.273,12.695,5.371,0
1579288923.388,23.926,-16.602,33.203,16.602,24.414,0
1579288923.392,35.156,-27.344,33.203,51.270,65.918,0
1579288923.396,45.898,-28.320,34.668,65.430,27.344,0
1579288923.399,58.105,-19.043,38.574,44.434,-4.395,0
1579288923.403,51.270,-11.230,43.457,47.852,46.387,0
1579288923.407,43.457,-14.160,41.016,74.219,61.523,0
1579288923.411,64.453,-23.926,32.227,75.195,50.781,0
1579288923.415,73.242,-20.508,31.738,56.641,26.367,0
1579288923.412,62.500,5.859,33.203,53.223,17.090,0
1579288923.416,75.684,30.273,32.715,74.219,43.457,0
1579288923.420,86.426,45.898,35.645,92.285,11.719,0
1579288923.424,62.988,44.434,36.621,86.426,32.227,0
1579288923.428,45.410,24.414,39.551,64.941,35.156,0
1579288923.432,54.688,10.254,42.480,68.848,25.879,0
1579288923.436,63.965,11.230,42.480,98.145,28.809,0
1579288923.439,64.453,16.113,42.969,83.496,-3.418,0
1579288923.443,48.828,12.695,38.086,41.016,43.945,0
1579288923.447,41.016,3.418,33.691,36.621,47.852,0
1579288923.451,51.758,1.953,36.621,62.988,-16.113,0
1579288923.455,45.410,2.441,39.062,66.895,41.504,0
1579288923.472,47.363,-3.418,41.016,50.781,50.293,0
1579288923.476,58.594,-4.395,34.668,42.969,35.156,0
1579288923.480,62.500,-0.977,35.645,53.223,62.988,0
1579288923.484,39.551,-2.441,38.086,53.223,52.246,0
1579288923.488,33.691,-8.301,36.621,41.016,25.391,0
1579288923.492,46.875,-18.066,36.133,35.156,41.016,0
1579288923.496,43.945,-14.160,31.738,37.109,58.105,0
1579288923.499,41.992,-9.277,34.668,43.945,44.434,0
1579288923.503,48.340,0.977,35.645,31.250,46.387,0
1579288923.507,37.109,19.043,31.250,15.625,35.156,0
1579288923.511,24.902,12.207,25.391,23.926,19.531,0
1579288923.515,28.320,-1.953,22.949,47.363,-1.465,0
1579288923.512,36.621,-14.648,23.926,43.457,-14.648,0
1579288923.516,26.367,-17.090,22.461,10.254,3.418,0
1579288923.520,26.367,-20.996,27.832,11.230,28.320,0
1579288923.524,36.621,-17.578,33.203,47.363,67.383,0
1579288923.528,26.367,-11.719,31.738,49.316,44.922,0
1579288923.532,27.344,-18.555,31.738,32.227,35.645,0
1579288923.536,38.574,-18.555,30.273,20.020,56.152,0
1579288923.539,33.691,-16.602,30.273,33.203,56.152,0
1579288923.543,24.414,-35.156,26.855,61.523,10.742,0
1579288923.547,16.113,-35.156,21.484,41.504,47.852,0
1579288923.551,17.578,-18.066,24.414,15.625,78.613,0
1579288923.555,20.020,-9.766,26.855,32.715,8.301,0
1579288923.552,18.066,-7.812,21.973,46.875,-14.160,0
1579288923.556,27.344,-14.648,22.949,34.180,-6.348,0
1579288923.560,30.273,-21.973,28.320,12.695,7.812,0
1579288923.564,23.926,-23.926,22.461,14.648,42.969,0
1579288923.568,31.250,-15.137,23.926,33.203,48.340,0
1579288923.572,29.297,-2.441,25.879,30.273,4.395,0
1579288923.576,23.926,-2.441,20.996,14.160,-48.340,0
1579288923.579,32.227,1.465,22.949,15.137,-29.297,0
1579288923.583,32.715,1.465,21.973,33.203,26.367,0
1579288923.587,36.133,-10.742,21.484,45.410,38.086,0
1579288923.591,38.574,0.977,27.832,19.043,13.672,0
1579288923.595,11.719,29.785,23.438,-11.230,-5.859,0
1579288923.612,-3.906,34.668,8.301,-6.348,3.906,0
1579288923.616,-6.836,12.695,6.348,-4.883,15.137,0
1579288923.620,-11.230,5.859,12.207,-21.484,31.250,0
1579288923.624,-11.230,6.348,11.719,-42.480,31.738,0
1579288923.628,-16.602,-1.465,8.301,-42.480,25.391,0
1579288923.632,-21.484,1.465,3.418,-43.945,62.500,0
1579288923.636,-32.715,-2.930,-0.977,-67.871,41.992,0
1579288923.639,-46.875,-13.672,-1.465,-85.449,48.828,0
1579288923.643,-47.363,-9.766,3.906,-69.336,37.109,0
1579288923.647,-34.668,-15.137,6.836,-26.367,-2.441,0
1579288923.651,-26.855,-13.184,3.906,-16.602,49.805,0
1579288923.655,-33.691,-11.230,6.348,-34.180,31.250,0
1579288923.652,-24.414,-16.113,13.672,-23.926,60.059,0
1579288923.656,-13.184,-3.906,12.695,14.648,69.824,0
1579288923.660,-11.719,4.395,15.625,22.949,-18.066,0
1579288923.664,-8.301,8.789,18.555,0.977,-40.527,0
1579288923.668,-4.395,11.230,17.578,-10.742,41.992,0
1579288923.672,1.465,1.465,13.672,-13.672,80.566,0
1579288923.676,5.859,0.488,15.137,-10.742,65.918,0
1579288923.679,4.883,7.812,18.066,-26.855,58.105,0
1579288923.683,7.324,15.625,21.484,-47.852,68.359,0
1579288923.687,9.277,32.227,20.996,-36.133,82.520,0
1579288923.691,12.695,30.273,15.137,-24.414,30.762,0
1579288923.695,13.184,14.648,16.113,-24.902,-20.996,0
1579288923.692,12.695,9.766,19.043,-15.625,32.227,0
1579288923.696,15.137,8.789,22.461,0.000,78.125,0
1579288923.700,15.625,12.695,20.508,22.461,46.875,0
1579288923.704,19.531,17.090,20.996,26.367,10.742,0
1579288923.708,26.367,19.043,27.344,6.348,-30.273,0
1579288923.712,35.645,6.348,22.461,9.766,-20.020,0
1579288923.716,35.645,9.766,23.926,35.156,16.113,0
1579288923.719,23.438,15.137,36.133,36.133,15.137,0
1579288923.723,22.461,2.930,33.203,11.230,26.367,0
1579288923.727,15.625,14.160,25.879,-4.883,39.551,0
1579288923.731,12.695,30.273,25.879,15.137,-9.766,0
1579288923.735,12.207,29.785,21.973,25.879,-18.555,0
1579288923.752,16.602,30.273,16.113,28.320,-10.254,0
1579288923.756,20.508,33.691,20.020,18.066,-25.879,0
1579288923.760,18.555,29.785,23.926,6.348,-19.043,0
1579288923.764,25.879,28.320,24.902,29.785,6.348,0
1579288923.768,29.297,28.320,29.297,29.785,61.523,0
1579288923.772,29.297,31.250,32.715,10.742,56.152,0
1579288923.776,21.484,50.293,26.367,3.906,48.340,0
1579288923.779,22.461,58.105,24.902,29.297,38.086,0
1579288923.783,32.227,38.086,25.391,41.992,-20.508,0
1579288923.787,44.434,32.715,25.391,28.320,0.488,0
1579288923.791,53.711,49.316,32.227,41.992,54.688,0
1579288923.795,47.852,48.340,32.715,54.199,10.742,0
1579288923.792,61.035,38.086,28.320,70.312,2.930,0
1579288923.796,70.801,30.273,30.762,77.637,67.383,0
1579288923.800,53.711,46.875,30.762,46.875,37.109,0
1579288923.804,52.734,71.289,30.273,60.547,18.066,0
1579288923.808,52.734,89.844,28.320,88.379,34.180,0
1579288923.812,44.434,87.402,24.414,78.125,20.996,0
1579288923.816,59.082,49.805,24.902,57.617,-7.324,0
1579288923.819,73.242,23.926,27.832,73.730,-20.996,0
1579288923.823,67.383,20.020,30.273,98.145,-0.977,0
1579288923.827,66.895,16.602,25.391,83.496,22.949,0
1579288923.831,58.594,5.859,22.461,59.082,42.969,0
1579288923.835,57.617,2.930,24.414,56.641,0.977,0
1579288923.832,60.547,0.488,25.391,79.102,-13.672,0
1579288923.836,52.246,-0.977,22.461,66.406,36.621,0
1579288923.840,51.270,-5.859,17.090,35.156,89.355,0
1579288923.844,56.641,-12.207,16.602,34.668,15.137,0
1579288923.848,59.082,-4.883,19.531,63.477,-18.555,0
1579288923.852,50.293,-3.906,21.484,70.312,36.621,0
1579288923.856,50.293,-2.441,24.902,45.898,12.695,0
1579288923.859,55.664,-6.348,24.902,33.203,11.230,0
1579288923.863,57.129,-7.324,25.879,48.828,62.988,0
1579288923.867,56.152,3.418,30.273,72.266,56.641,0
1579288923.871,50.781,-6.348,27.832,62.988,-7.812,0
1579288923.875,46.387,-9.277,23.438,27.832,38.574,0
1579288923.892,58.105,-6.836,26.367,31.738,81.055,0
1579288923.896,71.777,-9.766,31.738,62.500,-13.184,0
1579288923.900,50.781,-9.277,34.180,61.523,6.836,0
1579288923.904,37.109,-7.812,30.762,45.898,49.316,0
1579288923.908,40.527,-2.930,32.715,43.945,39.551,0
1579288923.912,41.016,-6.348,35.156,48.828,48.340,0
1579288923.916,47.852,-19.531,33.691,52.246,15.137,0
1579288923.919,47.363,-20.020,36.133,27.832,-39.062,0
1579288923.923,40.039,-13.184,36.621,15.625,-35.645,0
1579288923.927,44.434,-17.578,33.203,42.969,18.066,0
1579288923.931,47.363,-25.391,30.762,52.246,29.785,0
1579288923.935,41.016,-28.809,30.762,21.484,7.324,0
1579288923.932,41.016,-22.461,35.645,4.883,22.461,0
1579288923.936,39.062,-18.555,36.621,33.203,44.434,0
1579288923.940,39.062,-18.066,38.086,52.246,91.797,0
1579288923.944,39.551,-12.695,40.039,27.344,129.883,0
1579288923.948,47.363,-15.137,35.156,8.301,59.570,0
1579288923.952,37.109,-19.043,33.691,20.508,25.879,0
1579288923.956,28.809,-14.160,34.180,52.246,44.922,0
1579288923.959,45.898,-16.602,30.762,53.223,63.477,0
1579288923.963,47.852,-22.461,28.320,29.785,50.781,0
1579288923.967,36.621,-32.715,34.668,31.250,54.199,0
1579288923.971,34.668,-29.785,36.133,38.574,47.363,0
1579288923.975,38.574,-10.742,29.297,52.734,-1.465,0
1579288923.973,43.457,-6.836,29.785,41.504,17.090,0
1579288923.977,38.086,-17.090,32.715,23.438,62.988,0
1579288923.981,14.160,2.441,30.273,25.879,57.129,0
1579288923.985,-1.465,20.996,25.879,24.902,16.113,0
1579288923.989,7.324,8.789,23.926,13.672,52.246,0
1579288923.993,-1.465,5.371,20.020,-2.441,55.664,0
1579288923.997,-22.949,15.625,17.090,-10.254,43.457,0
1579288924.000,-26.855,15.137,15.137,0.000,79.590,0
1579288924.004,-28.320,3.418,19.531,-2.441,66.895,0
1579288924.008,-17.578,9.766,30.762,-24.902,37.109,0
1579288924.012,-16.113,22.461,24.414,-25.879,56.152,0
1579288924.016,-34.668,19.043,17.578,-13.672,35.156,0
1579288924.032,-28.320,14.160,25.879,-4.883,43.457,0
1579288924.036,-18.555,18.066,24.414,-18.066,51.758,0
1579288924.040,-13.672,16.602,23.926,-8.301,48.828,0
1579288924.044,-0.977,15.137,32.715,16.113,80.566,0
1579288924.048,0.977,18.555,25.391,14.160,11.719,0
1579288924.052,0.977,14.160,20.508,5.371,9.766,0
1579288924.056,6.836,24.414,22.461,-7.812,35.156,0
1579288924.059,8.301,31.250,22.949,10.254,-5.859,0
1579288924.063,9.766,32.715,30.273,29.785,17.578,0
1579288924.067,15.625,28.809,34.180,13.672,74.707,0
1579288924.071,19.043,29.297,30.762,-0.488,32.715,0
1579288924.075,21.973,44.434,29.785,12.207,54.199,0
1579288924.072,21.973,36.621,30.273,30.762,42.480,0
1579288924.076,19.043,29.297,32.715,31.250,-0.488,0
1579288924.080,19.531,26.367,37.598,9.766,21.973,0
1579288924.084,14.648,19.043,32.715,9.277,1.465,0
1579288924.088,18.066,18.066,28.320,34.180,-0.488,0
1579288924.092,19.043,16.602,30.273,34.668,-3.418,0
1579288924.096,11.719,20.020,25.391,6.348,-1.953,0
1579288924.099,7.812,27.832,23.438,-3.906,49.316,0
1579288924.103,8.789,29.785,26.855,24.414,63.477,0
1579288924.107,5.371,23.926,29.297,29.297,-14.160,0
1579288924.111,-8.301,20.996,25.391,3.906,5.859,0
1579288924.115,-8.301,25.391,21.973,-20.020,62.500,0
1579288924.112,-10.254,34.668,18.066,-17.090,11.230,0
1579288924.116,-22.461,35.645,19.043,-2.930,25.879,0
1579288924.120,-32.715,32.227,19.043,-26.855,39.551,0
1579288924.124,-35.645,28.320,16.602,-51.270,-4.883,0
1579288924.128,-36.133,33.203,15.137,-51.270,35.156,0
1579288924.132,-45.898,31.250,9.277,-45.410,69.336,0
1579288924.136,-44.922,22.949,8.301,-43.945,35.156,0
1579288924.139,-46.875,23.438,12.207,-67.383,60.547,0
1579288924.143,-67.871,26.367,5.371,-87.402,98.145,0
1579288924.147,-71.289,38.574,-0.977,-72.754,86.426,0
1579288924.151,-66.406,38.574,-1.465,-68.359,61.523,0
1579288924.155,-77.148,43.457,-0.977,-83.496,37.109,0
1579288924.172,-89.844,54.199,1.465,-106.934,53.711,0
1579288924.176,-99.121,41.992,-4.395,-108.887,41.016,0
1579288924.180,-102.051,38.574,-16.602,-106.445,34.180,0
1579288924.184,-107.910,39.062,-20.996,-136.719,66.406,0
1579288924.188,-110.840,27.832,-19.531,-151.855,78.125,0
1579288924.192,-123.535,20.508,-27.344,-138.184,50.781,0
1579288924.196,-134.277,36.133,-29.785,-128.418,23.438,0
1579288924.199,-142.090,52.246,-28.320,-148.438,12.207,0
1579288924.203,-141.113,47.363,-27.832,-166.504,6.836,0
1579288924.207,-144.043,40.527,-25.879,-157.715,-7.812,0
1579288924.211,-156.250,49.316,-27.832,-138.672,35.156,0
1579288924.215,-137.695,55.664,-25.391,-127.930,25.391,0
1579288924.212,-118.164,53.223,-23.438,-147.949,-35.156,0
1579288924.216,-114.746,52.246,-19.043,-147.461,-32.715,0
1579288924.220,-112.793,50.293,-18.555,-103.516,-14.648,0
1579288924.224,-99.121,53.711,-19.531,-76.172,41.016,0
1579288924.228,-87.402,57.129,-15.625,-99.609,72.266,0
1579288924.232,-79.590,45.898,-13.184,-117.676,-17.090,0
1579288924.236,-65.430,37.598,-3.906,-82.520,-35.156,0
1579288924.239,-60.059,54.199,-4.883,-50.781,2.930,0
1579288924.243,-50.293,60.547,-7.324,-58.594,14.648,0
1579288924.247,-39.062,45.410,-1.953,-69.336,-14.648,0
1579288924.251,-23.438,42.969,4.395,-49.316,-50.781,0
1579288924.255,0.000,36.133,12.207,-5.371,8.789,0
1579288924.252,16.113,28.809,20.020,8.789,59.570,0
1579288924.256,23.926,36.133,20.508,-7.324,40.039,0
1579288924.260,28.809,35.156,17.090,1.465,40.039,0
1579288924.264,51.758,24.414,31.250,45.410,22.949,0
1579288924.268,66.406,20.508,41.016,68.359,-15.137,0
1579288924.272,61.035,19.043,38.086,54.688,20.020,0
1579288924.276,66.895,13.672,43.457,57.617,34.180,0
1579288924.279,79.102,1.465,43.457,87.891,52.734,0
1579288924.283,87.891,-3.418,45.410,100.098,88.867,0
1579288924.287,104.980,-0.488,55.664,103.516,17.090,0
1579288924.291,113.281,-1.465,57.617,88.867,15.137,0
1579288924.295,109.375,-7.324,55.664,98.145,50.293,0
1579288924.312,114.746,-12.207,56.152,128.906,49.805,0
1579288924.316,123.535,2.930,61.035,120.605,69.336,0
1579288924.320,127.441,16.113,59.570,105.957,52.734,0
1579288924.324,126.465,8.789,53.711,106.445,36.621,0
1579288924.328,129.883,4.883,52.734,127.930,20.020,0
1579288924.332,127.930,3.906,46.875,127.930,33.203,0
1579288924.336,126.953,-1.953,49.805,100.586,34.180,0
1579288924.339,132.324,-0.977,62.988,109.863,19.531,0
1579288924.343,129.395,5.859,60.059,141.113,50.781,0
1579288924.347,116.699,3.418,55.664,138.184,76.660,0
1579288924.351,107.422,4.395,56.152,108.398,64.941,0
1579288924.355,111.816,10.254,56.152,99.121,40.527,0
1579288924.352,109.375,6.348,56.641,121.582,-13.672,0
1579288924.356,100.098,0.000,52.734,129.395,-30.762,0
1579288924.360,103.027,-10.254,53.711,99.609,16.113,0
1579288924.364,99.609,-7.324,53.223,77.148,40.527,0
1579288924.368,90.332,6.836,55.176,86.426,13.184,0
1579288924.372,89.844,15.137,56.641,95.703,12.695,0
1579288924.376,93.262,9.766,56.152,88.867,54.199,0
1579288924.379,94.238,-6.348,54.688,72.754,88.867,0
1579288924.383,91.797,-2.441,52.734,80.566,66.895,0
1579288924.387,92.773,-4.883,48.340,100.586,-7.324,0
1579288924.391,97.168,-3.418,52.734,93.750,-9.766,0
1579288924.395,99.121,8.301,55.664,70.312,32.715,0
1579288924.392,95.703,8.789,53.711,62.988,27.344,0
1579288924.396,104.492,16.113,63.965,95.215,42.480,0
1579288924.400,102.051,43.945,58.594,100.586,61.035,0
1579288924.404,73.730,52.734,44.434,57.617,34.668,0
1579288924.408,66.406,43.457,44.434,31.738,15.137,0
1579288924.412,67.383,41.016,49.316,41.016,56.152,0
1579288924.416,62.012,38.086,47.852,41.016,95.703,0
1579288924.419,59.082,35.645,40.527,19.043,76.660,0
1579288924.423,59.570,34.180,41.992,-2.441,58.594,0
1579288924.427,63.965,49.805,48.340,26.367,58.105,0
1579288924.431,63.965,83.008,52.734,73.242,44.922,0
1579288924.435,60.547,101.562,50.781,57.129,-1.953,0
1579288924.452,49.805,111.328,45.898,17.090,-34.668,0
1579288924.456,36.621,127.930,42.969,30.273,-21.484,0
1579288924.460,39.551,122.070,49.805,65.918,-16.113,0
1579288924.464,24.902,96.191,54.199,46.875,4.883,0
1579288924.468,18.066,83.496,39.062,13.672,33.203,0
1579288924.472,5.859,67.871,18.066,-12.207,39.062,0
1579288924.476,-12.695,68.848,15.137,-4.883,22.461,0
1579288924.479,-5.859,94.238,32.227,9.766,53.711,0
1579288924.483,-17.578,104.980,33.691,-29.297,56.152,0
1579288924.487,-38.086,82.031,20.020,-57.617,24.414,0
1579288924.491,-51.758,64.453,7.324,-52.246,6.836,0
1579288924.495,-68.848,69.336,4.395,-58.594,19.531,0
1579288924.492,-95.215,65.918,0.000,-100.098,64.453,0
1579288924.496,-112.793,83.984,-2.930,-132.812,63.965,0
1579288924.500,-130.371,99.121,-19.531,-141.602,14.648,0
1579288924.504,-140.625,97.656,-40.527,-142.090,-20.996,0
1579288924.508,-141.113,132.812,-23.926,-138.672,15.625,0
1579288924.512,-153.320,152.344,-22.461,-152.832,36.621,0
1579288924.516,-169.922,145.020,-57.129,-173.828,45.898,0
1579288924.519,-182.617,148.926,-61.035,-185.547,65.430,0
1579288924.523,-164.062,152.832,-28.320,-176.758,39.062,0
1579288924.527,-148.926,150.391,-17.090,-177.246,45.898,0
1579288924.531,-147.461,157.227,-16.602,-181.641,56.641,0
1579288924.535,-143.555,158.691,-14.648,-149.414,41.504,0
1579288924.532,-132.324,153.320,-14.648,-128.906,49.805,0
1579288924.536,-114.258,143.066,-17.578,-128.418,-2.441,0
1579288924.540,-92.773,147.461,-16.602,-114.258,-19.043,0
1579288924.544,-71.289,165.527,-6.348,-94.727,-6.836,0
1579288924.548,-53.223,154.297,0.000,-65.430,-23.438,0
1579288924.552,-37.109,138.184,2.441,-53.223,-47.852,0
1579288924.556,-37.109,137.695,5.859,-67.871,-43.945,0
1579288924.559,-15.625,125.000,2.930,-37.598,-29.297,0
1579288924.563,28.809,114.258,0.977,21.484,40.527,0
1579288924.567,41.992,133.301,15.137,25.391,59.082,0
1579288924.571,29.785,139.160,20.020,-2.441,66.406,0
1579288924.575,38.086,119.141,14.160,15.625,61.035,0
1579288924.592,72.266,101.562,20.508,77.637,2.930,0
1579288924.596,79.102,90.332,31.738,90.820,10.254,0
1579288924.600,73.242,88.379,24.414,59.082,-18.555,0
1579288924.604,83.984,91.309,17.090,64.453,-10.254,0
1579288924.608,104.492,82.520,19.531,99.121,17.578,0
1579288924.612,105.957,57.617,17.578,110.352,6.348,0
1579288924.616,93.262,52.246,31.738,97.168,25.879,0
1579288924.619,105.957,60.059,39.062,92.773,20.996,0
1579288924.623,107.422,61.523,39.062,114.258,23.438,0
1579288924.627,102.051,66.895,41.016,125.488,33.691,0
1579288924.631,107.910,62.012,39.062,105.957,23.438,0
1579288924.635,110.840,41.992,36.621,87.891,-13.184,0
1579288924.632,124.023,49.316,53.223,119.629,-27.832,0
1579288924.636,131.348,78.613,64.453,159.180,46.387,0
1579288924.640,135.254,96.680,51.758,138.672,115.234,0
1579288924.644,121.094,125.488,45.410,112.305,44.922,0
1579288924.648,105.957,148.438,42.480,107.910,-35.156,0
1579288924.652,118.652,144.043,47.852,126.465,-13.184,0
1579288924.656,122.559,132.812,58.105,122.070,51.270,0
1579288924.659,124.512,123.047,58.594,90.820,99.609,0
1579288924.663,120.117,103.516,50.293,83.984,54.688,0
1579288924.667,108.398,75.195,49.316,86.914,10.254,0
1579288924.671,105.957,59.570,58.105,99.609,54.199,0
1579288924.675,105.957,51.758,56.152,95.703,79.102,0
1579288924.679,109.863,45.410,54.688,71.777,74.219,0
1579288924.683,114.258,33.691,56.152,86.426,56.152,0
1579288924.687,101.562,16.602,59.082,112.793,99.121,0
1579288924.691,95.215,17.578,58.594,102.051,71.289,0
1579288924.695,99.121,30.273,51.270,65.430,6.348,0
1579288924.699,94.727,29.785,51.270,61.523,27.344,0
1579288924.703,95.215,25.391,52.734,91.797,46.875,0
1579288924.706,88.867,27.344,46.875,88.867,72.754,0
1579288924.710,87.891,21.973,46.875,61.035,30.273,0
1579288924.714,87.402,28.320,53.711,54.199,25.391,0
1579288924.718,85.938,33.691,50.293,78.125,14.160,0
1579288924.722,88.867,25.879,45.898,94.238,-4.395,0
1579288924.732,88.867,45.410,44.434,66.406,8.789,0
1579288924.736,87.891,43.457,45.898,56.641,10.254,0
1579288924.740,76.172,20.020,41.504,66.406,36.133,0
1579288924.744,70.312,25.879,40.039,71.777,60.547,0
1579288924.748,74.219,23.926,40.039,62.500,39.062,0
1579288924.752,70.801,7.324,35.156,39.551,-20.020,0
1579288924.756,67.871,16.602,35.645,54.199,-21.484,0
1579288924.759,83.984,46.875,41.504,82.031,19.531,0
1579288924.763,92.285,66.895,39.062,77.637,49.805,0
1579288924.767,74.707,76.660,32.715,59.570,15.137,0
1579288924.771,56.152,83.984,34.180,57.129,31.250,0
1579288924.775,61.523,97.656,37.598,69.336,52.734,0
1579288924.772,73.242,117.676,39.551,67.383,63.477,0
1579288924.776,60.059,103.027,36.133,34.180,50.781,0
1579288924.780,56.152,81.543,36.133,35.645,54.199,0
1579288924.784,59.082,75.684,38.086,62.012,79.590,0
1579288924.788,62.988,82.520,38.086,72.266,57.617,0
1579288924.792,63.477,91.309,29.297,39.062,24.414,0
1579288924.796,46.875,59.570,23.926,12.207,-9.277,0
1579288924.799,44.922,43.457,31.250,35.645,40.527,0
1579288924.803,49.805,38.086,25.879,46.875,37.598,0
1579288924.807,52.246,22.461,26.855,36.621,26.367,0
1579288924.811,56.641,9.766,35.645,22.461,60.547,0
1579288924.815,52.734,10.254,42.969,29.297,73.242,0
1579288924.812,54.199,13.184,45.898,55.664,52.246,0
1579288924.816,55.664,12.207,36.133,59.570,44.922,0
1579288924.820,51.270,8.789,31.738,33.203,82.031,0
1579288924.824,45.898,10.742,37.598,27.344,32.227,0
1579288924.828,45.410,20.508,35.645,49.805,-15.625,0
1579288924.832,42.969,23.926,26.367,44.922,37.598,0
1579288924.836,45.898,31.250,33.691,24.902,3.906,0
1579288924.839,59.082,22.949,51.758,26.367,22.949,0
1579288924.843,54.688,18.555,49.316,43.457,73.242,0
1579288924.847,52.734,39.062,39.062,64.941,62.988,0
1579288924.851,68.848,47.852,40.039,62.012,37.598,0
1579288924.855,76.660,51.758,39.062,47.852,-3.418,0
1579288924.872,73.242,39.551,39.062,51.758,12.207,0
1579288924.876,68.848,26.367,42.969,59.570,29.297,0
1579288924.880,80.566,46.875,53.223,47.852,14.160,0
1579288924.884,90.820,76.172,49.805,38.574,37.598,0
1579288924.888,76.660,80.078,35.645,35.156,46.875,0
1579288924.892,66.406,75.195,40.527,46.387,11.230,0
1579288924.896,75.195,73.242,41.992,50.293,7.324,0
1579288924.899,84.473,81.055,42.480,41.016,39.551,0
1579288924.903,87.891,68.848,45.898,41.504,34.668,0
1579288924.907,91.797,35.156,41.016,63.965,47.852,0
1579288924.911,76.660,21.484,39.551,67.383,103.516,0
1579288924.915,67.871,27.832,41.992,46.875,47.363,0
1579288924.912,68.848,32.227,37.109,33.203,-35.156,0
1579288924.916,75.684,15.137,40.527,55.176,-23.926,0
1579288924.920,71.777,0.488,36.621,62.500,22.461,0
1579288924.924,64.453,-4.395,26.855,38.086,37.598,0
1579288924.928,72.266,-16.602,28.320,27.344,29.785,0
1579288924.932,65.918,-21.484,27.832,37.109,62.500,0
1579288924.936,62.012,-11.230,31.250,55.664,50.781,0
1579288924.939,66.406,0.488,33.203,46.875,36.621,0
1579288924.943,57.617,0.488,33.203,11.719,94.727,0
1579288924.947,56.641,-19.531,38.086,8.301,102.539,0
1579288924.951,58.105,-35.645,36.133,34.668,30.762,0
1579288924.955,56.641,-30.762,34.668,36.621,6.836,0
1579288924.972,52.246,-16.602,41.504,0.488,47.363,0
1579288924.976,50.781,8.301,42.969,-9.766,25.879,0
1579288924.980,45.898,48.340,34.668,9.277,51.270,0
1579288924.984,44.434,72.754,30.762,7.324,73.242,0
1579288924.988,51.758,80.078,28.809,-8.789,10.742,0
1579288924.992,46.387,80.078,20.996,-20.020,-29.785,0
1579288924.996,44.922,83.496,21.973,4.883,4.395,0
1579288924.999,56.152,87.402,22.949,18.555,-3.418,0
1579288925.003,45.898,73.242,32.715,-2.441,-33.203,0
1579288925.007,29.297,41.016,37.109,-25.391,-29.297,0
1579288925.011,34.668,6.836,37.598,4.395,20.996,0
1579288925.015,34.180,-12.207,39.551,30.762,47.852,0
1579288925.012,30.273,-25.879,37.109,-1.953,42.480,0
1579288925.016,43.945,-31.738,42.480,-10.254,79.102,0
1579288925.020,52.734,-30.762,46.387,5.859,33.203,0
1579288925.024,46.387,-26.855,33.691,23.926,26.367,0
1579288925.028,35.156,-26.855,31.250,20.020,78.125,0
1579288925.032,26.367,-12.207,39.062,4.395,10.254,0
1579288925.036,40.039,26.855,35.156,-4.395,-48.828,0
1579288925.039,36.621,35.645,34.180,3.906,-22.461,0
1579288925.043,28.809,30.273,29.785,18.555,14.160,0
1579288925.047,47.852,43.457,24.902,1.465,30.273,0
1579288925.051,38.086,53.223,21.484,-12.207,-6.348,0
1579288925.055,53.711,55.176,23.926,30.273,28.320,0
1579288925.052,58.594,56.641,26.367,45.898,9.766,0
1579288925.056,20.508,55.664,26.855,5.371,-31.250,0
1579288925.060,2.930,56.641,32.715,-9.277,3.906,0
1579288925.064,4.395,67.871,28.809,-15.625,36.133,0
1579288925.068,2.441,80.566,28.320,-20.508,28.809,0
1579288925.072,-19.043,81.543,26.855,-20.020,33.691,0
1579288925.076,-26.367,61.523,18.555,-45.898,47.852,0
1579288925.079,-20.508,49.805,23.438,-67.383,13.672,0
1579288925.083,-25.879,34.180,38.086,-27.832,19.043,0
1579288925.087,-29.785,18.555,39.062,-12.695,12.207,0
1579288925.091,-27.832,18.555,26.367,-50.293,25.879,0
1579288925.095,-20.996,6.348,29.297,-34.180,-15.625,0
1579288925.112,-18.066,-3.418,33.691,-0.488,0.977,0
1579288925.116,-4.883,-20.020,26.855,-18.555,89.355,0
1579288925.120,7.812,-9.277,38.574,-37.109,52.734,0
1579288925.124,6.348,19.043,29.785,-31.250,25.879,0
1579288925.128,3.418,26.855,11.230,-3.418,22.949,0
1579288925.132,7.812,57.129,23.438,-1.953,24.902,0
1579288925.136,12.207,78.613,34.180,-12.207,92.773,0
1579288925.139,26.367,97.656,37.109,-24.902,55.176,0
1579288925.143,17.090,110.352,38.574,-23.438,-3.906,0
1579288925.147,4.395,105.957,35.645,3.906,72.266,0
1579288925.151,0.488,112.793,34.180,-12.695,103.516,0
1579288925.155,-0.488,111.328,35.645,-37.109,36.133,0
1579288925.152,22.461,100.098,37.598,-17.090,-26.367,0
1579288925.156,25.879,97.656,29.785,28.320,-36.133,0
1579288925.160,12.695,85.938,25.879,26.367,-4.883,0
1579288925.164,17.578,50.293,27.344,-19.531,8.301,0
1579288925.168,31.738,37.109,30.273,2.930,-41.016,0
1579288925.172,28.809,53.223,28.320,32.227,-21.484,0
1579288925.176,16.602,54.199,29.297,15.137,-3.418,0
1579288925.179,29.785,37.109,31.250,7.324,26.855,0
1579288925.183,38.086,15.625,29.785,-6.836,87.402,0
1579288925.187,41.504,0.488,35.645,16.113,102.539,0
1579288925.191,39.551,-19.043,34.180,20.508,53.711,0
1579288925.195,30.273,-10.254,37.109,11.719,58.594,0
1579288925.192,40.527,23.926,34.180,22.949,41.504,0
1579288925.196,45.898,45.898,33.691,11.230,3.418,0
1579288925.200,32.227,75.195,26.855,26.855,29.297,0
1579288925.204,37.109,88.379,26.367,35.645,33.691,0
1579288925.208,47.852,85.449,40.527,23.438,67.871,0
1579288925.212,45.898,81.055,34.668,20.508,35.645,0
1579288925.216,42.969,62.012,34.180,25.391,-6.348,0
1579288925.219,38.086,49.805,38.574,37.598,-7.812,0
1579288925.223,31.738,50.781,26.855,22.461,6.348,0
1579288925.227,26.367,26.855,30.273,14.160,49.316,0
1579288925.231,29.297,-9.277,40.039,17.578,37.109,0
1579288925.235,45.898,-17.090,38.086,25.391,26.855,0
1579288925.252,51.758,-25.391,34.180,20.996,-7.812,0
1579288925.256,47.852,-34.668,33.203,7.324,5.859,0
1579288925.260,45.410,-19.043,33.691,24.902,71.777,0
1579288925.264,40.039,-4.883,35.645,46.387,12.695,0
1579288925.268,33.691,1.953,33.203,38.574,-20.508,0
1579288925.272,39.551,3.418,27.832,10.742,-16.113,0
1579288925.276,35.645,-0.488,30.273,2.441,-23.438,0
1579288925.279,37.598,2.441,32.715,30.273,19.531,0
1579288925.283,37.109,-3.906,33.203,23.438,53.223,0
1579288925.287,15.625,-14.648,26.855,-1.465,41.992,0
1579288925.291,21.973,-28.320,24.902,4.883,30.273,0
1579288925.295,26.855,-35.645,35.156,34.180,35.156,0
1579288925.292,18.066,-41.504,47.363,47.363,20.020,0
1579288925.296,21.484,-58.105,37.598,7.812,53.223,0
1579288925.300,19.531,-62.988,24.902,-21.484,66.406,0
1579288925.304,5.371,-66.406,26.367,1.953,39.551,0
1579288925.308,12.207,-68.359,25.391,24.414,32.227,0
1579288925.312,32.227,-63.965,24.414,-1.465,-12.695,0
1579288925.316,37.598,-66.406,26.367,-5.371,12.207,0
1579288925.319,33.203,-70.312,32.227,23.438,46.875,0
1579288925.323,21.973,-54.688,36.621,58.594,12.207,0
1579288925.327,32.715,-30.273,31.738,49.805,-17.578,0
1579288925.331,43.945,-11.719,29.297,30.273,-3.418,0
1579288925.335,22.949,4.883,38.086,58.594,21.484,0
1579288925.332,25.879,24.414,27.344,69.336,61.035,0
1579288925.336,23.926,21.973,12.695,50.293,73.242,0
1579288925.340,17.578,21.973,17.578,31.738,31.738,0
1579288925.344,31.738,42.969,32.227,45.898,13.184,0
1579288925.348,37.109,39.551,37.109,71.289,34.668,0
1579288925.352,35.156,14.160,32.227,70.801,9.766,0
1579288925.356,24.902,21.484,25.879,46.387,-28.809,0
1579288925.359,18.066,33.203,23.926,40.039,-17.578,0
1579288925.363,24.414,44.434,22.949,68.848,34.180,0
1579288925.367,41.992,41.016,30.762,82.031,53.223,0
1579288925.371,33.691,27.344,35.645,58.105,6.836,0
1579288925.375,25.879,25.391,30.273,45.898,7.812,0
1579288925.392,25.391,23.438,23.926,57.129,32.715,0
1579288925.396,20.020,21.973,21.973,60.547,51.270,0
1579288925.400,22.949,8.789,25.391,60.547,65.918,0
1579288925.404,29.297,6.836,33.203,52.734,32.715,0
1579288925.408,24.902,12.695,31.250,39.551,37.109,0
1579288925.412,24.902,15.137,22.461,49.805,49.316,0
1579288925.416,29.297,16.602,21.973,57.129,43.457,0
1579288925.419,33.691,6.836,32.227,37.598,27.832,0
1579288925.423,41.504,1.465,37.598,32.227,18.555,0
1579288925.427,32.715,23.438,34.668,69.336,-0.488,0
1579288925.431,28.320,50.293,32.227,84.473,35.156,0
1579288925.435,25.391,33.691,34.180,30.273,60.547,0
1579288925.432,26.367,19.043,35.645,10.254,48.828,0
1579288925.436,23.926,21.484,33.691,37.598,42.480,0
1579288925.440,14.648,3.906,32.227,51.758,20.020,0
1579288925.444,14.160,-17.578,27.832,39.062,23.926,0
1579288925.448,11.719,-24.902,26.855,13.672,62.012,0
1579288925.452,15.625,-15.625,28.320,21.484,113.770,0
1579288925.456,18.555,-15.625,31.250,46.387,110.352,0
1579288925.459,19.531,-20.508,32.715,33.203,69.336,0
1579288925.463,22.949,-17.578,31.250,27.832,29.785,0
1579288925.467,32.715,-25.879,34.180,46.387,43.457,0
1579288925.471,37.598,-38.086,34.668,48.828,71.777,0
1579288925.475,21.973,-61.035,31.250,34.668,60.059,0
1579288925.472,24.414,-73.730,34.668,19.531,74.219,0
1579288925.476,48.828,-78.613,45.410,29.785,34.180,0
1579288925.480,38.086,-88.867,32.227,41.992,-6.836,0
1579288925.484,23.926,-73.242,19.531,36.133,28.320,0
1579288925.488,32.227,-46.875,23.926,-0.488,62.500,0
1579288925.492,35.645,-37.598,29.297,-14.160,89.844,0
1579288925.496,37.109,-26.855,35.645,14.648,6.836,0
1579288925.499,23.438,-26.855,33.691,20.508,1.953,0
1579288925.503,19.531,-30.762,31.250,-10.742,81.055,0
1579288925.507,22.949,-27.344,40.039,-36.133,31.250,0
1579288925.511,24.414,-18.066,44.922,-13.184,36.133,0
1579288925.515,28.809,-17.578,34.180,0.488,35.156,0
1579288925.532,20.020,-25.391,27.344,-27.344,-18.555,0
1579288925.536,11.719,-8.789,27.832,-48.828,-4.395,0
1579288925.540,18.555,-3.418,29.785,-47.363,43.457,0
1579288925.544,23.926,-22.949,38.086,-12.695,31.738,0
1579288925.548,12.695,-30.273,41.016,-9.277,-20.996,0
1579288925.552,16.113,-42.969,33.691,-49.316,4.395,0
1579288925.556,39.062,-52.734,34.668,-51.270,14.160,0
1579288925.559,16.602,-55.176,42.480,-15.625,7.812,0
1579288925.563,3.418,-67.383,43.457,20.508,16.602,0
1579288925.567,22.949,-77.637,45.410,23.926,11.230,0
1579288925.571,20.020,-65.430,43.457,4.395,0.000,0
1579288925.575,12.695,-45.898,38.086,17.578,29.785,0
1579288925.572,29.785,-31.250,42.480,41.016,81.055,0
1579288925.576,18.066,-14.648,45.898,32.227,81.543,0
1579288925.580,10.742,-14.160,44.434,17.578,62.012,0
1579288925.584,31.738,-14.160,43.457,27.832,20.020,0
1579288925.588,32.715,-14.160,45.898,51.270,2.441,0
1579288925.592,32.715,-20.020,42.969,51.758,-17.090,0
1579288925.596,29.785,-30.273,33.691,34.180,24.414,0
1579288925.599,33.203,-32.227,33.203,33.691,79.590,0
1579288925.603,34.668,-26.855,43.457,57.129,27.344,0
1579288925.607,35.156,-31.250,44.434,70.312,10.742,0
1579288925.611,30.762,-42.480,31.738,40.527,2.930,0
1579288925.615,20.020,-53.223,33.691,23.926,-0.977,0
1579288925.612,32.715,-39.551,36.621,52.734,27.832,0
1579288925.616,30.762,-34.668,34.668,68.359,27.832,0
1579288925.620,22.949,-46.875,29.785,43.457,52.734,0
1579288925.624,32.227,-47.363,42.480,24.902,50.293,0
1579288925.628,26.367,-45.410,41.504,45.898,-15.625,0
1579288925.632,30.273,-38.086,21.484,65.430,-19.043,0
1579288925.636,43.945,-34.180,25.879,58.594,7.324,0
1579288925.639,41.992,-36.133,33.691,43.945,50.293,0
1579288925.643,32.227,-20.020,30.273,52.734,73.242,0
1579288925.647,30.273,-0.488,26.855,68.359,32.715,0
1579288925.651,23.438,-22.949,27.344,53.711,23.438,0
1579288925.655,32.227,-47.363,27.344,28.320,-8.301,0
1579288925.672,41.992,-15.625,25.879,8.301,-30.762,0
1579288925.676,49.316,11.230,29.297,30.273,35.645,0
1579288925.680,46.387,11.230,37.109,50.293,35.645,0
1579288925.684,38.574,-6.836,33.203,18.555,7.324,0
1579288925.688,28.320,-20.508,27.832,-5.371,1.953,0
1579288925.692,24.414,-14.160,27.344,11.230,49.316,0
1579288925.696,28.320,-6.348,26.367,20.996,83.984,0
1579288925.699,30.762,15.625,23.926,5.859,70.312,0
1579288925.703,31.250,35.645,25.879,-6.348,49.805,0
1579288925.707,27.344,19.043,29.785,2.930,62.500,0
1579288925.711,30.273,-13.184,27.344,12.207,55.664,0
1579288925.715,31.250,-16.113,29.297,9.766,36.621,0
1579288925.712,23.438,-18.555,23.438,-8.301,71.777,0
1579288925.716,21.973,-35.645,22.949,-13.672,18.066,0
1579288925.720,30.762,-41.016,32.227,14.648,-11.719,0
1579288925.724,25.391,-43.945,24.902,2.441,85.449,0
1579288925.728,14.648,-49.316,18.066,-23.438,124.512,0
1579288925.732,25.391,-48.340,23.438,-19.531,63.477,0
1579288925.736,26.367,-43.457,21.973,-10.254,-3.906,0
1579288925.739,25.391,-38.086,20.508,0.977,11.719,0
1579288925.743,27.832,-30.762,25.391,-10.254,56.641,0
1579288925.747,18.066,-31.250,21.973,-13.184,53.711,0
1579288925.751,16.113,-33.203,22.461,-7.812,36.133,0
1579288925.755,33.203,-20.996,31.250,-1.953,16.113,0
1579288925.752,29.785,-10.742,29.297,-13.672,25.391,0
1579288925.756,14.160,-21.973,20.996,-44.922,64.941,0
1579288925.760,15.625,-28.320,21.973,-37.109,55.176,0
1579288925.764,14.160,-13.672,26.367,-3.906,17.578,0
1579288925.768,21.973,-9.277,26.855,5.371,21.484,0
1579288925.772,16.113,-12.207,32.227,-22.949,31.738,0
1579288925.776,12.695,-8.301,34.180,-31.738,47.363,0
1579288925.779,20.020,-15.137,28.320,9.766,98.145,0
1579288925.783,30.273,-20.996,30.762,35.156,45.410,0
1579288925.787,31.250,-5.371,29.785,8.789,-48.340,0
1579288925.791,26.367,0.977,26.367,-4.395,-4.395,0
1579288925.795,21.484,0.488,25.391,20.020,51.758,0
1579288925.812,25.391,6.836,24.902,41.016,21.973,0
1579288925.816,24.414,-1.465,26.855,29.785,-1.953,0
1579288925.820,7.324,-2.441,21.973,7.324,18.066,0
1579288925.824,11.230,0.488,18.066,21.973,77.637,0
1579288925.828,27.832,-6.348,20.508,57.617,79.590,0
1579288925.832,45.898,-11.230,18.555,51.270,20.020,0
1579288925.836,11.230,-14.648,10.742,6.836,12.207,0
1579288925.839,-2.930,-17.090,18.066,21.484,23.926,0
1579288925.843,26.367,-17.578,28.320,75.684,44.434,0
1579288925.847,30.273,-16.602,33.691,64.453,41.992,0
1579288925.851,23.438,-21.484,33.691,35.645,20.996,0
1579288925.855,27.832,-20.996,34.180,58.594,75.684,0
1579288925.852,33.203,-1.953,35.156,71.777,47.852,0
1579288925.856,25.879,19.043,27.832,60.059,7.324,0
1579288925.860,15.137,38.086,32.715,43.945,53.711,0
1579288925.864,30.762,48.340,38.086,41.016,55.664,0
1579288925.868,31.250,48.340,39.551,65.918,64.941,0
1579288925.872,24.414,46.875,42.480,62.988,59.082,0
1579288925.876,47.363,50.781,48.828,36.621,45.898,0
1579288925.879,50.293,53.223,46.875,18.555,31.738,0
1579288925.883,41.992,37.109,42.480,40.527,-14.648,0
1579288925.887,51.270,14.648,47.363,76.172,-42.480,0
1579288925.891,56.152,-2.441,49.316,58.105,-77.148,0
1579288925.895,54.688,-14.160,51.758,29.297,-27.832,0
1579288925.892,60.059,-30.762,61.523,39.062,44.922,0
1579288925.896,44.922,-33.203,63.477,72.266,14.648,0
1579288925.900,35.645,-11.230,52.246,73.242,14.648,0
1579288925.904,36.133,8.301,48.828,42.480,39.062,0
1579288925.908,41.016,4.395,59.082,34.180,8.789,0
1579288925.912,52.734,-7.324,59.082,60.547,-33.691,0
1579288925.916,53.223,11.230,53.223,73.242,23.438,0
1579288925.919,43.945,46.387,46.387,52.246,66.406,0
1579288925.923,35.645,49.316,47.363,29.297,33.691,0
1579288925.927,38.574,20.508,56.641,42.969,-0.488,0
1579288925.931,42.969,-4.883,54.688,61.523,24.414,0
1579288925.935,43.945,-23.926,48.828,39.551,54.688,0
1579288925.952,41.992,-43.457,48.828,17.090,23.438,0
1579288925.956,26.855,-46.387,48.828,26.855,15.137,0
1579288925.960,34.668,-48.828,48.340,41.992,43.457,0
1579288925.964,50.781,-61.035,48.340,34.668,51.758,0
1579288925.968,40.039,-57.129,49.316,16.113,38.574,0
1579288925.972,35.645,-50.293,46.387,14.648,-4.883,0
1579288925.976,49.805,-51.758,43.457,30.273,-17.578,0
1579288925.979,35.156,-49.805,47.852,25.879,48.828,0
1579288925.983,40.527,-60.059,43.457,-2.441,83.496,0
1579288925.987,59.082,-67.383,41.992,-13.672,65.430,0
1579288925.991,36.621,-51.758,45.410,11.719,51.270,0
1579288925.995,33.203,-39.551,42.480,27.832,73.242,0
1579288925.992,31.250,-35.645,38.086,1.465,30.273,0
1579288925.996,29.297,-30.762,40.527,-19.043,17.090,0
1579288926.000,39.551,-29.297,41.992,1.465,29.785,0
1579288926.004,41.016,-41.992,36.621,23.926,47.363,0
1579288926.008,39.062,-46.387,38.086,7.324,18.066,0
1579288926.012,39.551,-35.645,41.016,-9.277,-39.551,0
1579288926.016,42.969,-21.973,42.969,8.789,24.902,0
1579288926.019,35.645,-5.371,39.551,27.344,51.758,0
1579288926.023,22.949,-6.836,37.109,29.785,35.156,0
1579288926.027,20.508,-18.066,46.387,1.465,34.668,0
1579288926.031,22.461,-25.391,44.434,-13.184,92.773,0
1579288926.035,20.020,-34.668,35.645,8.301,87.402,0
1579288926.032,20.508,-41.992,35.156,14.648,24.414,0
1579288926.036,26.855,-44.434,36.133,-3.906,56.641,0
1579288926.040,34.668,-41.504,34.180,-11.719,60.059,0
1579288926.044,43.457,-36.621,37.109,17.578,18.555,0
1579288926.048,30.273,-42.480,41.016,39.551,30.762,0
1579288926.052,19.531,-46.875,38.574,28.320,-15.625,0
1579288926.056,23.438,-48.828,36.621,20.020,-17.090,0
1579288926.059,30.762,-60.059,36.133,38.574,21.973,0
1579288926.063,34.668,-60.547,39.551,57.129,-20.508,0
1579288926.067,39.062,-52.246,38.574,53.711,-24.414,0
1579288926.071,38.574,-48.828,34.180,39.062,-4.883,0
1579288926.075,38.086,-47.852,34.668,38.086,40.039,0
1579288926.092,27.344,-50.293,33.691,54.199,40.527,0
1579288926.096,42.480,-52.734,36.133,61.035,34.668,0
1579288926.100,51.758,-52.246,36.621,22.461,42.480,0
1579288926.104,27.832,-52.734,35.156,2.930,-1.953,0
1579288926.108,29.297,-45.410,29.785,26.367,17.090,0
1579288926.112,29.297,-44.434,21.484,29.297,61.035,0
1579288926.116,20.020,-43.945,23.926,-0.977,54.199,0
1579288926.119,33.691,-32.227,32.715,3.906,50.781,0
1579288926.123,44.922,-25.391,29.297,37.598,22.949,0
1579288926.127,30.762,-27.832,20.996,26.855,6.836,0
1579288926.131,23.926,-35.645,18.555,0.977,32.715,0
1579288926.135,21.484,-31.738,23.926,-19.531,35.645,0
1579288926.132,26.855,-26.367,26.855,-7.812,-1.953,0
1579288926.136,25.879,-42.969,25.879,20.508,7.812,0
1579288926.140,20.996,-43.457,29.785,14.160,56.152,0
1579288926.144,19.531,-40.527,28.320,-12.695,62.988,0
1579288926.148,20.508,-39.062,24.414,-13.672,27.832,0
1579288926.152,27.832,53.223,26.855,9.766,5.371,0
1579288926.156,36.621,228.027,28.320,16.113,9.277,0
1579288926.159,29.785,341.797,35.156,-5.859,1.953,0
1579288926.163,9.277,387.207,28.809,-4.395,4.883,0
1579288926.167,12.695,405.273,24.414,18.555,65.430,0
1579288926.171,29.297,434.082,35.156,20.508,74.219,0
1579288926.175,26.367,473.633,35.156,3.418,32.715,0
1579288926.172,28.320,469.238,34.180,-10.254,13.184,0
1579288926.176,41.992,461.426,30.762,5.371,12.207,0
1579288926.180,31.738,470.703,27.344,11.230,64.453,0
1579288926.184,39.062,455.566,29.297,-5.371,66.895,0
1579288926.188,41.992,413.574,27.344,-14.160,131.836,0
1579288926.192,11.230,370.605,24.902,-2.930,138.672,0
1579288926.196,9.766,341.797,26.855,20.020,66.895,0
1579288926.199,24.414,267.578,31.250,19.043,11.230,0
1579288926.203,31.738,91.797,37.598,20.020,-18.555,0
1579288926.207,28.809,-110.352,34.180,37.109,60.059,0
1579288926.211,27.344,-275.879,27.832,39.062,77.148,0
1579288926.215,37.109,-415.039,28.809,32.227,31.738,0
1579288926.232,34.668,-494.629,28.809,12.695,42.480,0
1579288926.236,32.227,-528.320,35.156,1.953,52.734,0
1579288926.240,28.320,-559.570,37.598,20.996,45.410,0
1579288926.244,33.203,-601.562,25.879,23.438,-21.973,0
1579288926.248,29.297,-633.301,23.438,1.953,-36.621,0
1579288926.252,21.484,-646.973,27.344,-10.254,29.785,0
1579288926.256,25.879,-655.762,29.785,0.000,4.395,0
1579288926.259,25.879,-656.250,33.691,20.996,-41.016,0
1579288926.263,28.320,-637.207,30.273,16.602,-31.738,0
1579288926.267,26.855,-625.488,24.414,-8.789,45.898,0
1579288926.271,31.250,-608.398,23.926,-5.371,46.387,0
1579288926.275,38.574,-584.473,21.973,22.461,48.828,0
1579288926.272,34.668,-585.449,23.926,23.438,47.363,0
1579288926.276,29.785,-602.051,29.785,5.859,16.602,0
1579288926.280,34.668,-610.352,33.203,9.766,61.523,0
1579288926.284,31.738,-610.352,29.785,24.414,54.199,0
1579288926.288,21.973,-599.609,27.344,19.043,-3.418,0
1579288926.292,23.926,-580.566,28.809,6.348,19.531,0
1579288926.296,46.875,-559.082,26.367,-0.977,48.828,0
1579288926.299,53.223,-546.387,29.297,27.344,58.594,0
1579288926.303,37.598,-547.363,29.297,47.363,85.449,0
1579288926.307,25.879,-529.785,20.996,12.695,81.543,0
1579288926.311,19.531,-490.723,17.090,-4.883,25.879,0
1579288926.315,19.043,-473.633,20.508,14.648,-28.320,0
1579288926.332,5.371,-460.449,23.438,30.273,-9.766,0
1579288926.336,-11.719,-449.219,13.672,-6.348,28.320,0
1579288926.340,0.488,-433.105,21.484,-23.926,53.711,0
1579288926.344,14.160,-418.457,22.949,2.930,4.883,0
1579288926.348,-13.672,-423.340,2.441,3.906,-18.066,0
1579288926.352,-16.602,-416.992,2.441,-13.672,-10.742,0
1579288926.356,-9.277,-418.457,5.859,-40.039,29.297,0
1579288926.359,-15.137,-406.250,4.883,-39.551,82.031,0
1579288926.363,-15.625,-386.230,7.324,-12.207,47.852,0
1579288926.367,0.977,-372.070,22.949,12.207,31.250,0
1579288926.371,9.766,-362.793,34.668,5.859,31.250,0
1579288926.375,-3.418,-364.746,24.414,-14.648,33.691,0
1579288926.372,0.977,-352.539,19.043,11.230,41.992,0
1579288926.376,4.395,-334.961,23.438,21.973,35.156,0
1579288926.380,7.324,-346.191,19.531,3.906,59.082,0
1579288926.384,15.625,-330.566,24.414,-8.301,51.758,0
1579288926.388,24.414,-313.477,28.809,-0.977,25.391,0
1579288926.392,23.438,-364.258,26.855,37.109,23.438,0
1579288926.396,19.531,-419.922,22.949,41.504,8.301,0
1579288926.399,18.066,-480.469,24.414,12.207,40.039,0
1579288926.403,20.996,-581.543,33.203,17.090,56.641,0
1579288926.407,29.297,-674.316,35.156,45.410,-8.301,0
1579288926.411,32.227,-715.332,28.320,46.875,-22.949,0
1579288926.415,28.809,-717.285,29.785,17.090,23.926,0
1579288926.412,35.645,-706.055,35.156,18.066,91.797,0
1579288926.416,24.902,-688.477,31.738,48.828,47.363,0
1579288926.420,16.113,-685.059,31.250,65.430,24.414,0
1579288926.424,28.320,-684.082,26.855,55.176,34.180,0
1579288926.428,36.133,-660.645,28.809,38.574,64.453,0
1579288926.432,37.598,-645.996,33.691,55.664,67.871,0
1579288926.436,36.133,-647.949,34.180,75.195,37.109,0
1579288926.439,37.598,-645.996,34.668,58.594,20.996,0
1579288926.443,17.578,-637.207,28.320,31.738,-13.184,0
1579288926.447,29.785,-631.348,27.344,43.945,-0.488,0
1579288926.451,41.504,-629.883,31.250,68.359,31.250,0
1579288926.455,24.902,-621.582,33.203,63.477,-34.668,0
1579288926.472,27.832,-609.375,37.598,47.852,0.000,0
1579288926.476,29.297,-590.820,31.738,58.105,57.129,0
1579288926.480,41.016,-551.758,29.297,75.684,20.020,0
1579288926.484,35.156,-497.070,32.715,76.172,58.594,0
1579288926.488,32.715,-451.172,28.320,53.711,11.230,0
1579288926.492,36.133,-417.969,30.762,30.762,-27.832,0
1579288926.496,29.785,-394.531,36.621,46.387,19.043,0
1579288926.499,40.527,-367.188,35.645,53.711,6.836,0
1579288926.503,30.273,-319.824,35.156,32.227,-17.578,0
1579288926.507,17.578,-270.508,35.156,21.973,15.625,0
1579288926.511,28.320,-235.352,35.156,44.922,9.766,0
1579288926.515,29.785,-197.266,33.691,65.918,16.602,0
1579288926.512,32.227,-170.898,32.715,47.852,19.043,0
1579288926.516,26.367,-155.762,34.668,30.762,29.785,0
1579288926.520,25.879,-144.531,35.645,43.457,56.152,0
1579288926.524,42.969,-106.445,31.738,51.270,18.555,0
1579288926.528,32.715,-41.016,26.367,49.316,13.672,0
1579288926.532,17.090,7.812,26.855,40.527,-13.184,0
1579288926.536,20.020,41.992,30.762,26.367,-28.320,0
1579288926.539,21.484,61.035,28.320,31.250,86.426,0
1579288926.543,16.602,71.289,25.391,20.020,76.172,0
1579288926.547,30.762,102.539,26.855,9.766,19.531,0
1579288926.551,24.414,128.418,25.391,7.324,51.758,0
1579288926.555,6.836,164.551,27.344,12.207,69.336,0
1579288926.553,22.949,366.211,30.762,16.113,49.805,0
1579288926.557,29.297,608.887,28.320,-3.906,40.039,0
1579288926.561,20.020,741.211,26.855,-22.949,35.645,0
1579288926.565,32.227,843.262,29.297,-2.930,39.551,0
1579288926.569,41.016,920.410,35.156,28.809,72.266,0
1579288926.573,34.180,966.309,36.133,35.156,61.523,0
1579288926.577,36.133,997.070,25.879,16.113,1.953,0
1579288926.580,17.578,-999.512,13.672,-5.859,-21.484,0
1579288926.584,11.230,987.305,17.090,19.531,-3.906,0
1579288926.588,6.836,-989.258,16.602,19.043,14.648,0
1579288926.592,12.207,895.508,10.742,-8.301,24.414,0
1579288926.596,23.926,504.883,8.789,-5.371,40.039,0
1579288926.612,18.555,187.988,0.977,5.859,3.906,0
1579288926.616,37.109,95.215,0.977,22.461,41.016,0
1579288926.620,36.133,89.355,1.953,15.137,109.375,0
1579288926.624,25.391,82.031,2.441,3.418,84.961,0
1579288926.628,21.484,80.566,0.488,15.625,45.898,0
1579288926.632,16.113,89.355,-5.371,27.344,48.340,0
1579288926.636,26.367,135.254,1.953,19.531,53.711,0
1579288926.639,25.391,113.770,3.906,-3.418,11.719,0
1579288926.643,26.855,-33.203,6.836,-0.977,45.898,0
1579288926.647,17.578,-99.609,8.789,22.949,48.340,0
1579288926.651,26.855,-119.629,-0.977,31.250,21.484,0
1579288926.655,36.621,-165.039,5.859,15.625,-6.836,0
1579288926.652,23.926,-202.148,17.090,13.672,-7.812,0
1579288926.656,21.484,-226.074,18.555,28.809,20.508,0
1579288926.660,34.180,-246.094,15.625,36.621,-2.930,0
1579288926.664,36.133,-266.113,16.602,28.320,-3.418,0
1579288926.668,29.785,-279.297,20.508,22.461,1.465,0
1579288926.672,39.062,-295.898,22.461,48.828,41.504,0
1579288926.676,36.621,-360.352,26.367,58.105,41.016,0
1579288926.679,38.086,-425.781,25.879,36.621,19.043,0
1579288926.683,39.551,-478.027,22.949,25.391,-9.277,0
1579288926.687,40.039,-550.781,26.367,48.340,-12.207,0
1579288926.691,36.621,-611.816,26.367,60.547,-20.020,0
1579288926.695,34.180,-659.180,23.438,34.668,-27.344,0
1579288926.692,42.969,-680.664,18.555,20.508,-17.090,0
1579288926.696,31.250,-690.430,17.578,39.551,27.344,0
1579288926.700,23.926,-704.590,22.949,63.477,32.227,0
1579288926.704,22.461,-704.590,25.879,45.410,30.762,0
1579288926.708,26.367,-703.613,25.879,10.742,90.820,0
1579288926.712,33.203,-717.773,28.809,15.625,83.496,0
1579288926.716,33.691,-715.820,34.180,45.898,56.641,0
1579288926.719,37.109,-716.309,30.273,47.363,53.711,0
1579288926.723,38.086,-720.703,23.438,22.461,-0.488,0
1579288926.727,43.945,-699.219,26.855,21.973,-6.836,0
1579288926.731,44.434,-662.598,27.832,54.199,49.805,0
1579288926.735,27.344,-628.906,22.461,58.594,40.039,0
1579288926.752,28.809,-589.355,23.438,41.992,57.617,0
1579288926.756,44.434,-554.199,28.320,36.621,75.195,0
1579288926.760,32.227,-511.230,32.227,41.504,44.434,0
1579288926.764,23.926,-421.875,27.832,56.641,58.594,0
1579288926.768,34.668,-312.988,28.809,50.781,33.691,0
1579288926.772,33.691,-221.191,30.273,30.273,19.531,0
1579288926.776,29.785,-149.414,23.926,37.598,35.645,0
1579288926.779,31.738,-101.074,24.902,51.270,36.133,0
1579288926.783,36.133,-56.641,34.180,51.758,26.367,0
1579288926.787,48.828,-20.508,31.738,40.039,8.789,0
1579288926.791,40.527,-3.418,26.367,33.203,5.859,0
1579288926.795,20.508,2.930,30.762,53.223,71.777,0
1579288926.792,17.578,15.137,31.250,47.852,83.008,0
1579288926.796,27.832,32.715,28.320,20.996,9.766,0
1579288926.800,36.133,44.434,28.320,20.508,-17.578,0
1579288926.804,28.320,47.852,28.809,38.574,36.621,0
1579288926.808,23.438,46.875,25.879,43.457,5.371,0
1579288926.812,24.414,45.410,23.438,19.043,-12.695,0
1579288926.816,30.762,41.016,28.320,11.719,25.391,0
1579288926.819,29.297,39.551,29.785,35.156,9.766,0
1579288926.823,25.879,40.527,29.785,45.410,41.992,0
1579288926.827,34.180,34.668,28.320,31.250,0.000,0
1579288926.831,34.180,31.250,22.949,2.441,-32.227,0
1579288926.835,35.156,43.457,28.809,12.207,16.602,0
1579288926.831,41.992,49.316,30.762,43.457,34.668,0
1579288926.835,50.781,45.898,31.738,49.805,21.484,0
1579288926.839,34.668,51.758,36.133,29.297,-26.855,1
1579288926.843,16.113,61.035,35.156,20.996,-59.570,0
1579288926.847,22.461,64.941,33.203,41.992,22.461,0
1579288926.851,22.461,60.059,30.762,40.527,53.711,0
1579288926.855,26.855,49.805,35.156,21.973,41.016,0
1579288926.858,27.832,41.016,38.086,12.207,9.277,0
1579288926.862,26.367,39.062,30.273,25.391,-1.953,0
1579288926.866,34.668,43.457,33.203,41.504,21.484,0
1579288926.870,48.828,55.664,40.039,42.969,52.246,0
1579288926.874,48.828,59.082,39.551,23.926,99.609,0
1579288926.892,43.457,50.781,38.086,24.902,64.453,0
1579288926.896,41.504,58.594,37.109,41.504,61.523,0
1579288926.900,33.203,66.895,32.227,28.809,91.309,0
1579288926.904,29.297,60.059,27.832,4.395,68.848,0
1579288926.908,36.133,46.875,27.832,7.812,26.855,0
1579288926.912,29.297,36.621,28.320,29.297,46.387,0
1579288926.916,24.414,32.227,28.809,33.203,24.902,0
1579288926.919,24.414,22.461,32.715,14.648,22.949,0
1579288926.923,29.785,-1.465,35.645,14.160,53.223,0
1579288926.927,32.227,-23.926,34.668,31.738,58.105,0
1579288926.931,26.367,-33.691,35.156,32.715,80.566,0
1579288926.935,28.320,-42.969,30.273,0.488,40.039,0
1579288926.931,27.344,-43.457,28.320,-23.926,-14.160,0
1579288926.935,24.414,-38.086,31.250,-3.418,19.531,0
1579288926.939,17.578,-36.133,26.367,0.488,38.086,0
1579288926.943,17.578,-33.203,25.391,-25.391,30.762,0
1579288926.947,21.973,-40.039,24.414,-47.852,37.598,0
1579288926.951,21.973,-44.922,14.648,-41.992,23.438,0
1579288926.955,14.648,-41.992,11.719,-28.809,31.250,0
1579288926.958,9.277,-40.039,15.625,-48.340,58.105,0
1579288926.962,7.324,-20.996,17.578,-83.984,40.527,0
1579288926.966,-0.977,11.230,12.207,-74.707,27.832,0
1579288926.970,-0.488,35.156,11.230,-42.480,79.102,0
1579288926.974,5.371,46.875,14.160,-45.898,33.203,0
1579288926.972,3.418,58.105,11.230,-72.266,-10.254,0
1579288926.976,-8.301,55.664,11.230,-80.566,22.949,0
1579288926.980,-12.207,32.715,8.789,-72.754,30.273,0
1579288926.984,0.488,18.066,1.465,-78.125,10.742,0
1579288926.988,11.719,8.789,2.441,-86.426,33.691,0
1579288926.992,19.531,0.488,9.277,-98.633,61.035,0
1579288926.996,28.809,4.883,11.230,-79.102,12.695,0
1579288926.999,34.180,4.883,9.766,-42.969,64.453,0
1579288927.003,34.180,-8.301,13.672,-57.617,126.465,0
1579288927.007,41.504,-23.438,21.484,-76.660,82.520,0
1579288927.011,47.852,-16.602,28.320,-40.039,44.434,0
1579288927.015,49.805,26.855,27.832,0.488,7.324,0
1579288927.032,61.035,52.734,25.391,5.859,12.207,0
1579288927.036,75.195,54.199,30.273,3.906,28.320,0
1579288927.040,87.891,63.477,38.086,33.691,60.547,0
1579288927.044,101.074,76.660,42.969,70.801,50.781,0
1579288927.048,110.352,95.703,44.922,70.312,4.395,0
1579288927.052,110.352,110.840,48.340,58.594,-50.781,0
1579288927.056,118.652,96.191,57.617,74.707,-11.230,0
1579288927.059,135.254,74.707,62.012,103.027,31.250,0
1579288927.063,138.184,71.777,65.430,122.070,23.926,0
1579288927.067,142.090,63.965,69.336,121.094,15.625,0
1579288927.071,144.043,65.430,70.312,108.887,13.672,0
1579288927.075,148.438,68.848,72.754,125.488,80.078,0
1579288927.072,156.738,73.242,75.195,160.645,89.355,0
1579288927.076,151.367,85.449,73.730,150.879,45.410,0
1579288927.080,150.391,177.734,76.172,126.953,39.062,0
1579288927.084,158.203,421.875,78.613,144.043,13.672,0
1579288927.088,152.344,669.434,81.055,168.945,-19.043,0
1579288927.092,152.832,840.332,84.961,165.527,16.113,0
1579288927.096,159.668,948.242,84.961,147.949,13.672,0
1579288927.099,161.621,996.094,86.914,151.367,40.039,0
1579288927.103,161.133,998.535,87.402,168.945,37.598,0
1579288927.107,158.203,998.535,82.031,175.293,-13.184,0
1579288927.111,160.645,999.512,81.055,151.367,-20.996,0
1579288927.115,159.180,999.512,84.473,151.367,-6.836,0
1579288927.112,148.438,999.512,83.008,163.574,21.973,0
1579288927.116,145.996,999.512,82.031,144.531,-11.719,0
1579288927.120,145.020,999.512,82.031,129.883,10.742,0
1579288927.124,142.578,999.512,80.566,115.723,37.598,0
1579288927.128,143.555,999.512,78.125,130.371,40.527,0
1579288927.132,141.602,-1000.000,75.195,138.184,25.879,0
1579288927.136,139.160,988.770,74.707,126.953,15.625,0
1579288927.139,129.883,-987.793,72.754,108.887,31.250,0
1579288927.143,118.164,892.090,68.848,93.750,6.836,0
1579288927.147,108.398,562.500,67.871,102.539,-6.836,0
1579288927.151,107.422,322.754,67.383,106.934,35.156,0
1579288927.155,107.910,229.980,63.965,90.332,47.852,0
1579288927.172,103.027,242.676,59.570,84.961,10.742,0
1579288927.176,99.609,274.414,61.035,102.051,27.832,0
1579288927.180,97.168,349.609,61.523,116.699,37.109,0
1579288927.184,91.797,323.242,60.059,90.820,34.180,0
1579288927.188,86.914,102.051,60.059,67.871,33.691,0
1579288927.192,82.520,-74.219,54.199,86.426,10.742,0
1579288927.196,77.637,-189.941,50.781,96.191,11.719,0
1579288927.199,76.660,-304.688,56.641,81.543,21.973,0
1579288927.203,70.801,-391.113,57.617,63.965,34.180,0
1579288927.207,65.430,-439.453,55.176,74.219,44.434,0
1579288927.211,68.848,-479.004,55.664,82.031,0.000,0
1579288927.215,69.824,-507.324,53.223,65.918,-29.297,0
1579288927.212,63.477,-528.320,51.758,48.340,-0.488,0
1579288927.216,63.477,-564.941,52.246,48.340,23.438,0
1579288927.220,60.059,-602.539,52.734,65.430,-25.879,0
1579288927.224,60.059,-609.375,50.781,74.219,-1.465,0
1579288927.228,57.129,-608.887,43.945,48.340,37.598,0
1579288927.232,56.152,-594.238,40.527,38.574,-9.766,0
1579288927.236,59.082,-559.082,39.551,59.570,41.504,0
1579288927.239,52.246,-536.621,39.062,61.523,78.125,0
1579288927.243,45.410,-506.348,37.598,37.598,60.059,0
1579288927.247,41.992,-480.957,32.227,17.578,44.434,0
1579288927.251,43.945,-478.516,35.645,43.945,55.176,0
1579288927.255,36.133,-467.773,42.969,54.688,41.504,0
1579288927.252,31.250,-455.566,41.504,28.809,29.297,0
1579288927.256,36.621,-447.754,40.527,17.090,-14.648,0
1579288927.260,38.574,-435.059,39.062,27.832,-41.504,0
1579288927.264,34.668,-421.387,34.180,33.691,-17.090,0
1579288927.268,33.203,-401.855,35.156,28.320,18.555,0
1579288927.272,31.738,-378.906,34.668,8.789,66.895,0
1579288927.276,28.320,-364.258,33.203,19.043,91.309,0
1579288927.279,33.691,-358.398,32.227,42.969,89.355,0
1579288927.283,27.344,-346.680,32.715,41.504,-39.062,0
1579288927.287,22.461,-326.172,37.109,20.020,20.020,0
1579288927.291,18.066,-298.828,36.621,13.184,74.707,0
1579288927.295,12.207,-284.180,35.156,43.945,-1.953,0
1579288927.312,18.555,-278.320,34.180,46.387,46.875,0
1579288927.316,17.578,-273.438,32.227,15.625,46.387,0
1579288927.320,17.578,-272.949,29.297,0.488,23.926,0
1579288927.324,13.672,-272.461,30.762,18.555,64.453,0
1579288927.328,15.625,-272.949,29.297,42.969,51.758,0
1579288927.332,13.672,-270.508,28.809,29.785,-7.324,0
1579288927.336,6.348,-267.578,30.273,11.719,-0.488,0
1579288927.339,5.859,-270.020,31.738,27.344,60.547,0
1579288927.343,11.230,-269.531,35.156,54.199,100.098,0
1579288927.347,8.789,-255.859,34.180,43.945,71.777,0
1579288927.351,-4.395,-235.352,28.809,15.625,56.641,0
1579288927.355,-5.371,-207.520,27.344,14.160,46.387,0
1579288927.352,-7.812,-186.035,29.785,27.832,74.707,0
1579288927.356,-18.066,-173.828,27.344,28.320,66.406,0
1579288927.360,-18.066,-161.621,27.832,21.973,1.465,0
1579288927.364,-12.695,-151.367,29.297,14.648,-43.457,0
1579288927.368,-12.207,-150.879,27.832,27.832,8.789,0
1579288927.372,-11.719,-164.551,29.785,47.363,-11.230,0
1579288927.376,-1.953,-182.617,33.691,37.598,-52.734,0
1579288927.379,7.812,-200.684,36.621,16.113,39.551,0
1579288927.383,3.906,-213.867,29.785,25.391,41.016,0
1579288927.387,-5.859,-221.680,21.973,43.945,16.602,0
1579288927.391,2.441,-222.656,24.414,33.203,45.898,0
1579288927.395,12.207,-208.496,26.855,13.184,1.465,0
1579288927.392,12.207,-193.848,29.297,21.973,1.465,0
1579288927.396,14.648,-192.871,32.715,51.270,50.293,0
1579288927.400,15.625,-181.641,30.762,57.617,15.137,0
1579288927.404,18.555,-162.109,29.785,21.484,62.500,0
1579288927.408,22.949,-150.391,27.344,3.906,20.508,0
1579288927.412,20.996,-138.672,27.832,39.062,-12.207,0
1579288927.416,19.531,-127.930,31.250,55.664,49.316,0
1579288927.419,21.484,-110.840,30.762,19.043,50.781,0
1579288927.423,24.414,-96.191,31.250,-2.441,25.879,0
1579288927.427,31.250,-86.426,32.227,21.973,-13.672,0
1579288927.431,18.555,-78.613,31.738,34.180,-32.227,0
1579288927.435,13.672,-68.359,30.762,14.160,15.137,0
1579288927.452,13.672,-60.547,27.832,-11.719,69.336,0
1579288927.456,10.742,-55.176,28.320,-4.395,76.660,0
1579288927.460,29.297,-36.133,29.297,24.414,52.734,0
1579288927.464,31.738,32.715,28.809,23.438,22.949,0
1579288927.468,27.832,200.195,26.855,-5.371,25.879,0
1579288927.472,30.273,334.961,22.461,-8.789,46.387,0
1579288927.476,28.809,414.551,21.973,5.371,28.809,0
1579288927.479,23.926,562.500,28.809,2.930,35.645,0
1579288927.483,32.227,703.125,29.297,-10.742,38.086,0
1579288927.487,30.762,799.805,25.391,-6.836,22.949,0
1579288927.491,25.391,877.930,26.367,20.020,22.949,0
1579288927.495,28.320,943.359,24.414,23.926,58.105,0
1579288927.492,36.133,989.258,25.391,5.371,63.477,0
1579288927.496,25.879,999.512,23.926,-0.977,46.875,0
1579288927.500,8.301,998.535,22.461,-1.465,42.969,0
1579288927.504,20.020,999.512,21.973,8.301,52.734,0
1579288927.508,21.973,999.512,22.461,9.766,35.156,0
1579288927.512,19.531,-999.512,27.344,-19.531,-11.230,0
1579288927.516,26.855,987.793,27.832,-15.137,-9.766,0
1579288927.519,30.273,-987.793,29.785,10.254,26.367,0
1579288927.523,31.250,897.461,31.738,16.602,70.801,0
1579288927.527,38.086,528.320,25.879,-10.742,49.316,0
1579288927.531,48.340,221.191,27.832,-20.996,61.523,0
1579288927.535,56.641,22.949,28.809,13.672,8.789,0
1579288927.532,59.570,-140.137,28.320,27.344,-4.395,0
1579288927.536,62.988,-246.094,27.832,16.602,41.016,0
1579288927.540,69.824,-320.312,25.391,11.230,55.664,0
1579288927.544,65.918,-380.859,28.320,19.043,-2.441,0
1579288927.548,65.918,-418.945,30.762,27.832,-12.695,0
1579288927.552,70.312,-448.242,30.273,12.207,-9.277,0
1579288927.556,61.035,-465.332,26.367,-6.836,-15.625,0
1579288927.559,61.523,-468.262,25.391,9.766,35.645,0
1579288927.563,59.082,-463.379,27.832,34.668,-14.160,0
1579288927.567,55.664,-458.496,31.250,30.273,-21.973,0
1579288927.571,54.199,-453.613,31.250,19.531,52.734,0
1579288927.575,52.734,-441.895,29.785,27.832,79.590,0
1579288927.592,49.316,-432.617,29.785,31.738,39.551,0
1579288927.596,52.246,-425.293,34.668,16.113,4.395,0
1579288927.600,46.875,-409.668,38.574,1.953,-9.766,0
1579288927.604,36.621,-387.695,33.203,11.719,9.766,0
1579288927.608,30.273,-375.977,28.320,21.484,-4.883,0
1579288927.612,19.043,-369.141,28.809,12.207,-32.227,0
1579288927.616,15.625,-352.051,32.227,-9.766,2.930,0
1579288927.619,15.137,-341.797,36.133,-11.719,38.086,0
1579288927.623,18.066,-341.797,38.086,12.207,64.453,0
1579288927.627,8.789,-340.820,35.645,11.719,72.266,0
1579288927.631,5.371,-334.473,30.273,-2.930,43.457,0
1579288927.635,7.812,-317.383,29.297,-8.789,16.113,0
1579288927.632,-2.441,-294.434,32.715,-3.906,16.113,0
1579288927.636,4.395,-271.973,36.621,16.602,4.395,0
1579288927.640,6.836,-262.695,39.551,13.184,28.809,0
1579288927.644,4.883,-260.254,32.715,-5.859,25.879,0
1579288927.648,4.395,-250.000,23.438,4.395,48.340,0
1579288927.652,4.883,-229.004,21.484,31.250,103.027,0
1579288927.656,13.184,-204.590,23.926,23.926,58.105,0
1579288927.659,24.414,-182.617,25.391,-16.113,80.078,0
1579288927.663,20.508,-169.922,23.926,-14.160,74.707,0
1579288927.667,2.441,-166.992,23.438,6.348,5.859,0
1579288927.671,-7.324,-156.250,27.344,12.207,25.879,0
1579288927.675,-8.789,-145.508,27.832,-3.906,19.043,0
1579288927.672,-24.414,-102.051,29.785,-16.113,40.527,0
1579288927.676,-29.297,-12.695,27.832,7.812,84.961,0
1579288927.680,-30.762,53.223,19.043,24.902,85.449,0
1579288927.684,-43.945,88.379,23.438,22.461,46.387,0
1579288927.688,-46.387,134.277,27.832,8.789,7.812,0
1579288927.692,-35.156,184.082,26.367,12.207,43.457,0
1579288927.696,-32.715,218.750,23.926,29.785,70.801,0
1579288927.699,-28.320,270.020,22.949,34.180,63.477,0
1579288927.703,-17.090,337.891,29.297,5.371,85.938,0
1579288927.707,-10.254,417.480,30.762,-3.906,78.125,0
1579288927.711,0.000,530.273,30.762,14.648,23.926,0
1579288927.715,11.719,674.316,33.691,2.930,36.133,0
1579288927.732,4.395,821.777,30.762,-28.320,25.391,0
1579288927.736,7.324,933.105,33.203,-39.062,25.879,0
1579288927.740,24.902,985.840,29.785,-22.949,47.852,0
1579288927.744,11.230,998.535,20.996,-23.438,11.230,0
1579288927.748,-1.465,998.535,20.996,-39.062,27.344,0
1579288927.752,-4.395,999.512,21.484,-52.246,53.711,0
1579288927.756,-25.879,998.535,21.973,-61.523,35.645,0
1579288927.759,-50.293,991.699,14.160,-80.078,-31.738,0
1579288927.763,-67.383,-991.211,-0.488,-136.230,-52.246,0
1579288927.767,-92.773,868.164,-7.812,-179.199,37.598,0
1579288927.771,-118.164,585.449,-11.230,-173.828,20.020,0
1579288927.775,-133.789,407.715,-7.812,-166.504,-21.484,0
1579288927.772,-144.531,244.629,-16.602,-195.801,28.809,0
1579288927.776,-165.039,57.129,-28.320,-234.375,50.781,0
1579288927.780,-185.547,-40.039,-34.668,-254.883,50.293,0
1579288927.784,-200.195,-71.777,-43.457,-257.812,34.180,0
1579288927.788,-228.027,-97.656,-50.781,-269.531,14.160,0
1579288927.792,-250.977,-120.605,-55.176,-305.664,29.785,0
1579288927.796,-250.977,-170.410,-54.199,-331.055,24.902,0
1579288927.799,-251.953,-185.059,-58.105,-319.824,0.000,0
1579288927.803,-267.578,-171.875,-55.176,-302.734,-1.465,0
1579288927.807,-269.043,-169.434,-51.270,-311.035,-10.254,0
1579288927.811,-254.395,-180.176,-49.316,-325.195,13.184,0
1579288927.815,-265.137,-212.402,-52.734,-312.012,44.434,0
1579288927.812,-260.254,-225.098,-59.570,-291.504,65.430,0
1579288927.816,-245.605,-206.055,-52.246,-290.039,54.199,0
1579288927.820,-248.535,-207.031,-51.758,-299.805,54.199,0
1579288927.824,-239.746,-234.863,-62.988,-277.832,16.602,0
1579288927.828,-221.680,-211.426,-50.781,-236.328,33.691,0
1579288927.832,-193.359,-200.195,-35.645,-216.797,24.902,0
1579288927.836,-171.387,-215.820,-24.414,-212.891,-42.969,0
1579288927.839,-160.156,-217.773,-20.020,-205.566,20.508,0
1579288927.843,-114.258,-204.102,-9.766,-155.762,34.180,0
1579288927.847,-87.891,-182.129,-10.254,-131.348,-5.859,0
1579288927.851,-90.820,-181.641,-22.949,-146.973,37.109,0
1579288927.855,-87.891,-202.148,-14.648,-138.184,36.133,0
1579288927.872,-63.965,-168.945,1.465,-86.426,-19.531,0
1579288927.876,-44.434,-132.324,5.859,-62.500,11.719,0
1579288927.880,-35.645,-140.625,9.277,-75.684,56.152,0
1579288927.884,-12.207,-146.973,13.672,-59.570,47.852,0
1579288927.888,-5.371,-134.277,10.742,-28.320,-27.832,0
1579288927.892,4.883,-118.164,11.719,-4.395,-10.742,0
1579288927.896,23.438,-127.441,17.578,3.906,25.879,0
1579288927.899,29.297,-139.648,27.344,-7.812,7.324,0
1579288927.903,46.387,-115.723,33.203,14.648,18.066,0
1579288927.907,70.801,-91.797,34.180,65.430,53.223,0
1579288927.911,83.496,-88.379,37.109,78.613,39.062,0
1579288927.915,93.750,-101.562,40.527,59.570,-27.344,0
1579288927.912,97.168,-95.703,38.086,61.035,10.742,0
1579288927.916,102.051,-76.172,39.062,93.262,-0.488,0
1579288927.920,107.422,-93.262,44.922,105.957,14.648,0
1579288927.924,110.840,-118.164,42.480,85.938,31.250,0
1579288927.928,113.281,-90.820,43.945,79.102,-1.465,0
1579288927.932,103.027,-39.551,47.852,98.145,62.988,0
1579288927.936,114.258,-40.039,58.594,118.164,41.016,3
1579288927.939,121.094,-81.543,57.129,105.957,36.133,0
1579288927.943,108.398,-90.332,42.969,73.242,53.223,0
1579288927.947,104.004,-71.777,43.457,91.309,42.480,0
1579288927.951,100.098,-68.848,43.945,115.234,69.824,0
1579288927.955,102.051,-107.422,45.898,101.562,34.180,0
1579288927.972,120.605,-155.273,49.316,84.961,59.082,0
1579288927.976,125.977,-152.832,35.645,90.820,56.152,0
1579288927.980,115.234,-104.980,26.367,111.816,36.133,0
1579288927.984,107.422,-85.938,38.086,98.633,31.250,0
1579288927.988,100.586,-114.258,58.105,76.660,1.465,0
1579288927.992,93.750,-153.809,64.453,72.754,38.086,0
1579288927.996,87.891,-148.438,54.199,84.473,47.363,0
1579288927.999,89.844,-88.867,46.875,86.914,9.766,0
1579288928.003,84.961,-19.043,50.293,66.406,14.160,0
1579288928.007,78.613,4.883,47.363,59.082,61.035,0
1579288928.011,71.289,-4.883,44.434,78.613,24.902,0
1579288928.015,72.754,20.996,42.969,98.145,-37.109,0
1579288928.012,92.285,54.688,45.410,92.285,12.695,0
1579288928.016,90.332,62.012,49.316,67.871,26.855,0
1579288928.020,77.637,27.832,43.945,71.289,16.113,0
1579288928.024,73.730,-3.418,40.527,92.773,5.859,0
1579288928.028,73.242,33.691,40.527,85.938,21.973,0
1579288928.032,71.777,103.516,41.504,66.406,75.684,0
1579288928.036,66.406,141.113,41.504,63.965,104.492,0
1579288928.039,60.059,127.930,37.598,74.219,68.359,0
1579288928.043,54.199,106.934,37.109,80.566,56.152,0
1579288928.047,45.410,131.348,39.062,57.617,24.414,0
1579288928.051,47.852,165.527,38.574,46.387,38.574,0
1579288928.055,50.781,172.363,41.016,67.871,51.270,0
1579288928.052,52.734,126.953,43.457,78.613,13.184,0
1579288928.056,61.035,55.664,45.898,65.430,10.742,0
1579288928.060,65.430,18.066,43.457,53.711,-2.441,0
1579288928.064,63.477,39.062,43.457,62.012,4.883,0
1579288928.068,65.918,78.125,45.898,62.988,20.996,0
1579288928.072,64.941,85.449,42.480,48.340,30.762,0
1579288928.076,53.223,57.129,37.598,20.508,13.184,0
1579288928.079,58.105,76.660,39.062,25.879,13.672,0
1579288928.083,58.594,125.977,41.992,56.641,89.844,0
1579288928.087,43.945,130.371,38.086,46.387,45.410,0
1579288928.091,45.898,93.262,43.457,29.785,-19.531,0
1579288928.095,53.223,56.152,44.434,35.645,-0.488,0
1579288928.112,48.828,49.316,36.133,44.922,49.316,0
1579288928.116,42.480,89.844,40.039,32.715,39.062,0
1579288928.120,41.992,148.438,47.852,0.488,13.184,0
1579288928.124,37.598,198.242,51.758,-9.766,12.695,0
1579288928.128,40.039,242.676,52.734,10.742,8.789,0
1579288928.132,46.387,272.461,52.734,24.414,30.762,0
1579288928.136,41.016,282.227,50.293,3.418,7.324,0
1579288928.139,38.086,276.367,49.316,-19.043,-18.066,0
1579288928.143,36.621,264.160,54.199,-3.906,-21.973,0
1579288928.147,28.320,264.648,53.711,13.672,20.508,0
1579288928.151,28.320,256.836,48.828,-9.277,20.020,0
1579288928.155,31.250,255.859,48.340,-30.762,94.727,0
1579288928.152,41.504,255.371,49.316,-17.578,85.449,0
1579288928.156,51.758,198.730,55.176,5.859,-2.441,0
1579288928.160,52.246,191.895,55.176,5.859,12.695,0
1579288928.164,44.922,248.047,45.898,-19.531,24.414,0
1579288928.168,37.109,219.238,40.527,-28.320,71.777,0
1579288928.172,30.273,173.340,40.039,-7.812,115.723,0
1579288928.176,28.320,204.590,44.922,0.488,55.664,0
1579288928.179,20.508,222.656,41.992,-20.996,-16.113,0
1579288928.183,19.531,169.434,39.551,-29.785,26.367,0
1579288928.187,27.344,104.004,37.109,-12.695,-17.578,0
1579288928.191,31.250,138.184,43.945,8.789,19.043,0
1579288928.195,38.086,225.098,47.852,7.812,51.758,0
1579288928.192,30.273,312.500,45.410,-7.812,15.137,0
1579288928.196,28.320,404.297,43.945,6.348,54.688,0
1579288928.200,25.391,502.930,32.227,23.438,43.945,0
1579288928.204,31.250,649.902,27.832,8.301,-1.465,0
1579288928.208,47.852,844.727,36.621,0.488,7.324,0
1579288928.212,41.992,911.621,40.527,7.812,26.855,0
1579288928.216,22.949,740.723,41.992,18.555,29.297,0
1579288928.219,28.809,503.418,43.457,18.555,3.418,0
1579288928.223,36.621,394.043,37.598,-4.883,-14.648,0
1579288928.227,40.527,384.766,40.039,-12.695,51.758,0
1579288928.231,49.805,375.488,47.852,25.391,110.840,0
1579288928.235,46.387,302.734,44.434,45.898,130.371,0
1579288928.252,45.898,218.750,40.039,7.812,21.484,0
1579288928.256,45.410,220.215,41.016,-5.859,-24.902,0
1579288928.260,39.062,253.906,45.410,22.949,22.461,0
1579288928.264,32.227,219.238,52.246,36.621,-5.371,0
1579288928.268,31.250,144.531,52.734,26.855,7.324,0
1579288928.272,32.715,143.555,48.828,4.883,79.102,0
1579288928.276,34.180,188.965,49.316,7.324,35.156,0
1579288928.279,39.551,170.898,48.828,35.645,-12.695,0
1579288928.283,37.598,120.605,48.828,28.320,-6.836,0
1579288928.287,31.250,140.137,52.246,12.207,90.332,0
1579288928.291,35.156,160.156,49.316,10.254,81.543,0
1579288928.295,43.457,127.441,50.781,32.227,38.574,0
1579288928.292,48.340,103.027,50.293,42.969,48.828,0
1579288928.296,39.062,136.230,43.457,6.836,-37.598,0
1579288928.300,37.109,155.273,44.434,-0.488,12.207,0
1579288928.304,38.574,136.230,44.434,20.020,76.660,0
1579288928.308,37.109,159.668,42.969,21.484,52.246,0
1579288928.312,38.574,239.746,37.598,5.859,54.199,0
1579288928.316,38.086,277.344,32.227,-9.277,38.574,0
1579288928.319,39.551,261.719,34.668,12.207,58.105,0
1579288928.323,53.223,291.016,43.457,32.227,44.922,0
1579288928.327,59.082,344.727,43.945,25.391,59.082,0
1579288928.331,46.387,320.801,30.762,1.953,38.086,0
1579288928.335,38.086,230.957,27.344,-1.465,29.297,0
1579288928.332,37.598,181.152,30.273,14.160,77.637,0
1579288928.336,31.738,176.270,33.691,0.488,35.156,0
1579288928.340,25.391,154.785,34.180,-20.020,26.855,0
1579288928.344,26.855,115.234,30.762,-16.113,58.105,0
1579288928.348,34.180,129.883,30.762,4.395,14.648,0
1579288928.352,34.180,169.434,30.762,17.578,7.812,0
1579288928.356,26.855,187.500,29.785,-1.953,41.016,0
1579288928.359,28.320,165.039,31.738,-19.043,37.109,0
1579288928.363,27.832,144.531,29.785,0.977,41.016,0
1579288928.367,30.762,172.363,27.344,15.625,44.434,0
1579288928.371,33.691,194.824,31.250,3.906,23.926,0
1579288928.375,42.480,209.961,29.785,-14.160,-7.812,0
1579288928.392,44.434,184.082,26.367,-3.418,27.832,0
1579288928.396,39.062,168.457,30.762,25.879,25.879,0
1579288928.400,47.852,187.012,25.879,14.160,-8.301,0
1579288928.404,54.688,208.496,22.949,-15.137,31.738,0
1579288928.408,42.969,213.379,26.367,-5.371,80.566,0
1579288928.412,41.016,179.688,20.996,17.578,37.598,0
1579288928.416,41.992,173.828,23.438,14.648,28.320,0
1579288928.419,40.527,183.105,28.320,-12.207,-2.441,0
1579288928.423,40.527,208.496,29.785,-5.859,-23.438,0
1579288928.427,47.363,215.820,26.367,20.020,-6.348,0
1579288928.431,45.898,182.617,27.344,23.926,18.066,0
1579288928.435,43.457,193.848,37.598,7.324,32.227,0
1579288928.432,59.570,241.699,39.062,-1.953,7.812,0
1579288928.436,53.711,248.047,27.832,14.160,-35.645,0
1579288928.440,40.527,198.242,27.344,26.855,-42.480,0
1579288928.444,50.781,178.711,30.762,15.625,-36.621,0
1579288928.448,41.992,212.891,28.809,-3.418,-14.160,0
1579288928.452,40.039,257.324,29.785,6.348,20.996,0
1579288928.456,28.320,276.855,27.832,16.113,19.043,0
1579288928.459,16.602,249.512,31.738,0.000,57.129,0
1579288928.463,26.855,239.746,34.180,-18.555,-11.719,0
1579288928.467,38.086,268.066,29.785,0.488,15.625,0
1579288928.471,39.062,280.273,30.273,15.625,36.133,0
1579288928.475,32.227,249.023,36.133,6.348,11.230,0
1579288928.472,36.621,229.004,29.297,-10.742,13.184,0
1579288928.476,30.273,257.812,22.949,-3.418,9.277,0
1579288928.480,25.879,280.273,24.902,13.184,64.453,0
1579288928.484,24.902,247.559,19.531,9.766,58.105,0
1579288928.488,31.738,213.867,16.113,2.441,90.820,0
1579288928.492,30.762,220.703,22.461,-2.930,99.121,0
1579288928.496,26.855,247.070,28.809,10.254,49.316,0
1579288928.499,48.340,229.492,30.273,32.227,6.836,0
