timestamps,TP9,AF7,AF8,TP10,Right AUX,Marker0
1579272606.637,27.344,32.715,55.664,41.992,-0.977,0
1579272606.641,30.273,36.133,60.059,35.645,61.035,0
1579272606.645,20.508,26.367,46.875,23.438,74.707,0
1579272606.649,17.090,17.090,49.316,37.109,72.266,0
1579272606.653,23.438,18.555,52.734,33.691,42.969,0
1579272606.657,36.133,24.902,47.852,44.922,24.414,0
1579272606.661,33.691,25.391,47.852,53.223,46.387,0
1579272606.664,40.039,25.391,46.875,41.992,95.215,0
1579272606.668,41.504,26.855,38.574,40.039,62.012,0
1579272606.672,38.574,26.367,50.781,41.016,-2.441,0
1579272606.676,42.480,29.785,64.941,36.621,57.617,0
1579272606.680,37.109,31.738,56.641,41.016,71.289,0
1579272606.676,30.273,28.809,51.758,44.922,32.227,0
1579272606.680,32.227,30.762,46.387,42.969,51.758,0
1579272606.684,28.320,32.715,39.062,36.621,36.621,0
1579272606.688,30.273,31.738,49.805,42.969,19.043,0
1579272606.692,35.645,36.621,54.688,45.898,33.203,0
1579272606.696,34.668,31.738,48.340,38.086,4.395,0
1579272606.700,30.762,26.855,50.293,35.156,-20.508,0
1579272606.703,29.785,32.227,44.434,24.902,-0.977,0
1579272606.707,29.297,34.180,36.133,19.043,69.336,0
1579272606.711,19.531,29.297,30.273,27.344,47.363,0
1579272606.715,12.695,28.809,33.691,29.297,3.418,0
1579272606.719,19.043,32.227,39.551,22.949,49.805,0
1579272606.736,24.902,34.180,36.621,18.066,16.602,0
1579272606.740,31.738,33.691,43.945,25.391,21.973,0
1579272606.744,32.227,31.738,46.875,39.551,14.160,0
1579272606.748,34.180,33.691,38.086,28.809,8.789,0
1579272606.752,36.621,37.109,25.879,25.391,43.945,0
1579272606.756,27.832,35.156,29.785,39.551,60.059,0
1579272606.760,35.645,40.039,41.504,40.527,77.637,0
1579272606.763,38.086,39.551,40.039,32.227,70.801,0
1579272606.767,34.668,32.227,29.297,30.762,53.711,0
1579272606.771,32.715,34.180,23.926,36.133,27.832,0
1579272606.775,35.156,34.180,29.785,36.133,-4.395,0
1579272606.779,33.691,32.715,41.504,33.691,-10.742,0
1579272606.777,29.297,34.668,43.457,32.227,27.344,0
1579272606.781,28.320,35.645,41.992,42.969,67.383,0
1579272606.785,29.785,31.738,35.645,44.434,28.809,0
1579272606.789,35.645,32.715,24.902,35.156,-2.441,0
1579272606.793,44.434,40.527,30.762,33.691,67.383,0
1579272606.797,46.387,40.039,34.668,37.598,69.824,0
1579272606.801,40.039,28.809,38.086,55.664,34.668,0
1579272606.804,43.945,29.297,36.621,57.617,20.996,0
1579272606.808,34.668,41.992,31.250,31.738,-7.324,0
1579272606.812,20.020,47.363,29.785,13.184,-18.066,0
1579272606.816,20.996,46.875,27.344,20.996,45.410,0
1579272606.820,22.461,44.922,27.344,22.461,52.246,0
1579272606.817,16.113,44.434,24.414,6.348,62.500,0
1579272606.821,16.113,49.805,24.414,2.930,93.262,0
1579272606.825,20.020,48.828,26.855,5.371,72.266,0
1579272606.829,19.043,41.504,20.996,1.465,50.293,0
1579272606.833,15.625,41.504,21.484,7.324,76.660,0
1579272606.837,16.602,44.922,21.973,13.184,87.891,0
1579272606.841,20.996,44.434,18.066,13.184,98.633,0
1579272606.844,19.531,38.086,18.555,4.883,32.715,0
1579272606.848,15.137,32.715,21.484,6.836,30.762,0
1579272606.852,15.137,34.180,23.926,15.625,92.773,0
1579272606.856,19.043,38.086,23.926,20.020,45.410,0
1579272606.860,14.648,39.062,26.367,25.391,27.344,0
1579272606.876,19.531,40.039,24.414,18.555,47.363,0
1579272606.880,25.391,38.574,26.367,16.602,17.090,0
1579272606.884,18.066,41.016,31.738,21.484,-21.484,0
1579272606.888,24.902,45.410,28.809,26.367,2.930,0
1579272606.892,35.156,41.016,33.203,33.203,26.855,0
1579272606.896,30.273,36.621,38.574,29.785,55.176,0
1579272606.900,33.203,38.574,35.156,23.926,59.570,0
1579272606.903,28.320,38.574,24.414,29.297,24.902,0
1579272606.907,23.438,35.645,27.344,31.250,-6.348,0
1579272606.911,28.320,35.156,36.621,24.414,-25.879,0
1579272606.915,23.926,37.109,37.598,22.461,21.484,0
1579272606.919,20.996,37.109,35.156,28.320,84.473,0
1579272606.917,17.578,34.668,39.551,30.762,80.078,0
1579272606.921,27.832,38.574,36.621,26.367,30.762,0
1579272606.925,36.621,48.340,33.203,27.832,15.625,0
1579272606.929,28.809,47.363,47.852,35.156,8.301,0
1579272606.933,22.461,32.227,50.293,29.785,1.465,0
1579272606.937,12.695,28.320,49.316,24.902,57.617,0
1579272606.941,17.578,30.762,48.340,30.273,82.520,0
1579272606.944,28.320,32.715,39.062,29.785,48.828,0
1579272606.948,25.391,35.645,39.551,31.738,73.730,0
1579272606.952,30.762,35.156,48.828,42.480,22.949,0
1579272606.956,32.715,33.203,50.293,35.156,-30.273,0
1579272606.960,39.551,35.156,41.016,20.996,5.371,0
1579272606.957,39.062,37.598,33.691,28.320,-14.648,0
1579272606.961,33.691,40.527,41.016,41.992,-2.930,0
1579272606.965,26.367,41.504,46.387,32.227,45.410,0
1579272606.969,19.531,36.621,44.434,29.297,28.320,0
1579272606.973,21.484,34.668,49.316,36.621,33.691,0
1579272606.977,28.809,35.645,47.363,30.273,56.641,0
1579272606.981,30.762,39.062,51.270,29.785,41.992,0
1579272606.984,18.555,35.645,59.082,23.438,49.316,0
1579272606.988,19.043,33.203,47.852,12.695,37.598,0
1579272606.992,21.973,35.156,42.480,17.578,46.387,0
1579272606.996,6.348,31.250,45.410,26.367,87.402,0
1579272607.000,13.672,32.715,51.758,27.832,48.340,0
1579272607.017,32.227,38.086,54.688,29.297,10.742,0
1579272607.021,31.738,34.668,50.781,30.762,60.547,0
1579272607.025,20.020,33.691,43.945,26.367,81.543,0
1579272607.029,15.137,35.645,44.434,27.344,33.691,0
1579272607.033,21.973,33.691,54.199,32.715,25.879,0
1579272607.037,28.809,37.598,48.340,25.391,54.688,0
1579272607.041,37.109,40.039,37.598,13.184,41.504,0
1579272607.044,43.457,36.621,46.875,18.555,18.066,0
1579272607.048,39.551,37.598,48.828,37.109,27.832,0
1579272607.052,20.508,38.086,46.387,27.832,54.688,0
1579272607.056,6.836,36.133,42.969,13.184,78.613,0
1579272607.060,9.277,36.133,35.156,20.508,51.758,0
1579272607.056,16.113,35.156,43.457,19.043,42.480,0
1579272607.060,16.602,34.180,51.758,17.090,13.184,0
1579272607.064,26.367,42.969,56.152,21.484,46.875,0
1579272607.068,36.133,47.363,55.176,24.902,69.336,0
1579272607.072,22.461,38.086,47.363,17.090,47.363,0
1579272607.076,20.508,33.691,45.410,22.461,98.145,0
1579272607.080,28.320,37.109,44.434,31.250,77.637,0
1579272607.083,22.461,38.574,45.410,21.484,3.906,0
1579272607.087,11.719,35.645,46.387,14.160,61.523,0
1579272607.091,22.461,37.109,46.875,10.742,109.863,0
1579272607.095,22.949,37.598,45.898,20.996,56.641,0
1579272607.099,17.090,39.062,42.480,27.344,56.152,0
1579272607.097,32.715,41.504,40.039,25.391,11.230,0
1579272607.101,37.598,40.039,38.086,31.250,22.461,0
1579272607.105,30.762,39.062,31.250,25.391,47.363,0
1579272607.109,24.414,37.109,37.109,35.156,20.020,0
1579272607.113,27.344,42.480,45.410,44.922,37.109,0
1579272607.117,35.156,40.527,48.340,34.668,56.641,0
1579272607.121,26.855,37.109,52.734,24.414,38.574,0
1579272607.124,23.438,35.156,51.270,32.715,20.996,0
1579272607.128,35.645,32.227,46.875,41.016,-36.133,0
1579272607.132,25.879,35.645,50.781,31.738,-87.402,0
1579272607.136,29.785,35.645,52.734,25.391,-44.434,0
1579272607.140,33.691,34.180,46.387,31.250,4.395,0
1579272607.156,15.137,31.250,48.828,44.922,46.875,0
1579272607.160,21.484,33.203,51.758,39.062,71.777,0
1579272607.164,36.133,40.039,53.223,26.855,62.988,0
1579272607.168,41.016,39.551,57.129,29.297,52.246,0
1579272607.172,26.855,29.785,45.898,33.203,-1.465,0
1579272607.176,13.184,28.809,34.668,29.297,37.598,0
1579272607.180,19.531,32.227,45.410,28.320,24.414,0
1579272607.183,23.926,31.738,56.641,30.762,16.602,0
1579272607.187,23.926,31.250,48.828,31.738,33.203,0
1579272607.191,28.809,31.738,43.457,31.250,46.875,0
1579272607.195,25.391,35.645,42.480,19.043,70.801,0
1579272607.199,25.391,36.621,45.410,20.508,23.926,0
1579272607.197,36.621,36.621,42.480,34.668,5.371,0
1579272607.201,32.715,36.621,40.039,33.203,42.969,0
1579272607.205,18.066,37.109,51.758,19.531,72.266,0
1579272607.209,23.926,36.133,55.176,8.301,122.070,0
1579272607.213,35.156,34.180,54.688,15.625,77.637,0
1579272607.217,25.391,36.621,53.223,29.785,-21.484,0
1579272607.221,20.020,37.598,50.293,25.879,-23.438,0
1579272607.224,18.555,33.691,39.062,20.020,3.906,0
1579272607.228,24.902,36.133,34.180,15.625,25.879,0
1579272607.232,24.414,38.574,43.945,15.137,22.949,0
1579272607.236,18.555,36.133,45.410,39.551,20.020,0
1579272607.240,23.438,37.598,44.922,42.480,84.961,0
1579272607.236,31.738,39.062,51.270,30.273,64.941,0
1579272607.240,24.414,38.086,52.734,36.621,-17.090,0
1579272607.244,22.949,38.086,44.922,36.133,32.227,0
1579272607.248,31.250,39.062,41.504,22.949,23.438,0
1579272607.252,27.832,37.109,40.527,21.973,32.227,0
1579272607.256,28.320,37.598,32.715,30.273,64.941,0
1579272607.260,30.762,36.621,36.133,36.621,-4.883,0
1579272607.263,22.461,37.598,47.363,43.457,8.789,0
1579272607.267,15.625,38.574,50.781,40.039,39.551,0
1579272607.271,22.949,37.109,41.504,28.809,32.715,0
1579272607.275,26.367,36.621,38.574,19.531,43.457,0
1579272607.279,18.066,36.621,43.945,11.230,10.254,0
1579272607.297,1.953,33.691,45.898,15.625,25.391,0
1579272607.301,-0.488,33.691,46.387,21.973,47.852,0
1579272607.305,4.883,33.203,46.875,32.227,55.176,0
1579272607.309,0.488,28.320,47.852,39.551,44.434,0
1579272607.313,-0.977,30.762,40.527,15.625,18.555,0
1579272607.317,2.930,33.691,37.109,-8.301,33.691,0
1579272607.321,11.230,36.621,35.156,0.000,0.000,0
1579272607.324,0.977,37.598,32.227,1.465,30.273,0
1579272607.328,-1.465,39.062,29.785,3.906,47.363,0
1579272607.332,2.441,41.504,26.367,12.695,29.297,0
1579272607.336,-15.625,37.109,37.598,-2.441,67.871,0
1579272607.340,-20.996,38.086,52.734,-12.695,76.660,0
1579272607.337,-6.836,44.434,55.664,-12.207,39.062,0
1579272607.341,-11.230,43.457,47.852,-5.859,36.133,0
1579272607.345,-13.672,39.062,41.016,2.930,57.129,0
1579272607.349,2.441,41.504,45.410,18.555,101.074,0
1579272607.353,7.324,38.086,48.340,26.367,102.539,0
1579272607.357,9.766,32.227,41.992,13.184,87.402,0
1579272607.361,5.859,32.715,40.039,20.996,87.402,0
1579272607.364,10.742,34.668,38.574,31.738,21.973,0
1579272607.368,32.715,36.621,32.227,32.715,0.977,0
1579272607.372,33.203,37.598,33.691,34.668,38.086,0
1579272607.376,36.621,41.992,36.133,36.133,70.801,0
1579272607.380,42.969,42.480,31.250,52.246,35.156,0
1579272607.377,26.855,36.621,39.551,59.082,-13.184,0
1579272607.381,28.320,28.809,49.316,50.781,15.137,0
1579272607.385,49.805,34.180,36.621,52.246,10.254,0
1579272607.389,46.875,37.598,24.414,49.316,16.602,0
1579272607.393,50.781,34.668,29.785,58.105,30.762,0
1579272607.397,55.664,35.156,36.621,68.848,-27.344,0
1579272607.401,41.016,34.180,33.691,56.641,17.578,0
1579272607.404,34.180,33.203,36.133,44.434,59.570,0
1579272607.408,36.133,32.715,38.574,61.035,19.531,0
1579272607.412,42.969,34.668,35.156,57.129,9.277,0
1579272607.416,44.434,36.621,36.621,49.316,35.156,0
1579272607.420,43.945,33.691,36.133,57.617,46.875,0
1579272607.437,38.574,32.715,36.133,53.711,58.594,0
1579272607.441,30.762,34.180,34.180,39.551,112.793,0
1579272607.445,42.969,35.156,29.297,31.250,120.605,0
1579272607.449,35.156,33.203,37.109,38.086,90.820,0
1579272607.453,6.348,36.133,44.922,41.992,23.438,0
1579272607.457,2.930,34.180,46.387,25.391,-16.113,0
1579272607.461,4.883,25.391,35.645,15.137,11.719,0
1579272607.464,16.113,29.297,29.297,38.086,13.184,0
1579272607.468,51.758,33.691,35.156,53.711,32.227,0
1579272607.472,56.641,30.273,39.062,34.180,43.945,0
1579272607.476,20.508,28.320,41.016,17.578,25.879,0
1579272607.480,27.832,34.180,36.621,33.691,81.543,0
1579272607.476,42.480,37.598,30.762,35.156,60.059,0
1579272607.480,53.711,35.645,36.133,38.086,27.832,0
1579272607.484,50.293,32.715,41.992,51.758,28.809,0
1579272607.488,42.969,31.738,45.410,50.781,54.199,0
1579272607.492,57.617,38.574,44.434,44.922,36.621,0
1579272607.496,88.379,41.016,38.086,69.336,37.598,0
1579272607.500,86.426,37.109,42.480,83.984,79.102,0
1579272607.503,44.922,34.180,53.711,62.012,14.648,0
1579272607.507,26.855,30.273,52.734,48.828,-9.766,0
1579272607.511,42.969,30.762,50.293,50.293,24.902,0
1579272607.515,45.898,28.809,55.664,38.574,11.719,0
1579272607.519,51.758,25.879,59.570,51.270,24.902,0
1579272607.536,60.059,23.438,62.988,77.637,44.922,0
1579272607.540,38.086,21.484,65.430,79.102,30.762,0
1579272607.544,50.293,27.344,62.988,65.918,7.324,0
1579272607.548,77.637,25.879,60.547,62.012,10.742,0
1579272607.552,73.730,24.902,62.012,60.547,-1.465,0
1579272607.556,72.754,30.762,58.594,73.242,15.137,0
1579272607.560,72.266,29.785,61.523,102.051,48.828,0
1579272607.563,56.641,27.832,66.895,90.820,82.031,0
1579272607.567,50.293,30.273,59.570,53.711,96.680,0
1579272607.571,65.918,32.227,56.641,51.270,76.172,0
1579272607.575,87.402,32.715,60.547,75.195,41.992,0
1579272607.579,79.102,36.133,58.105,86.426,45.410,0
1579272607.577,49.805,33.691,52.246,46.387,20.508,0
1579272607.581,32.227,25.391,53.223,42.969,-2.930,0
1579272607.585,51.270,25.879,55.664,61.035,73.730,0
1579272607.589,50.293,28.320,52.246,50.781,62.012,0
1579272607.593,44.922,29.785,50.781,51.758,69.824,0
1579272607.597,52.246,29.785,57.617,41.504,49.805,0
1579272607.601,51.758,29.297,63.477,50.293,66.895,0
1579272607.604,43.457,27.832,66.406,61.035,108.887,0
1579272607.608,32.715,28.320,61.523,37.109,43.945,0
1579272607.612,30.273,31.738,54.199,32.715,58.105,0
1579272607.616,50.293,33.691,55.664,43.457,64.941,0
1579272607.620,54.688,33.203,59.082,45.898,32.227,0
1579272607.617,30.273,34.668,55.664,34.668,13.672,0
1579272607.621,20.508,36.133,54.688,37.598,0.000,0
1579272607.625,30.762,34.668,57.129,47.363,16.602,0
1579272607.629,37.109,41.992,57.129,39.062,11.719,0
1579272607.633,46.875,44.922,55.664,42.480,-44.434,0
1579272607.637,53.711,38.574,54.688,56.152,-34.668,0
1579272607.641,40.039,36.621,55.176,57.617,26.367,0
1579272607.644,48.828,38.086,56.152,56.641,39.551,0
1579272607.648,57.129,41.504,51.270,51.270,21.484,0
1579272607.652,50.293,42.969,47.852,34.180,44.922,0
1579272607.656,46.387,40.039,47.852,35.645,78.125,0
1579272607.660,27.344,38.086,50.781,37.598,48.340,0
1579272607.676,32.715,40.527,45.410,22.949,11.719,0
1579272607.680,39.062,42.969,41.016,27.344,1.465,0
1579272607.684,38.574,41.992,47.852,39.062,26.367,0
1579272607.688,41.016,41.992,45.898,55.176,40.039,0
1579272607.692,21.973,41.992,39.062,41.504,4.395,0
1579272607.696,12.207,39.062,39.062,19.043,66.895,0
1579272607.700,23.926,40.527,43.945,24.414,56.641,0
1579272607.703,23.926,42.969,40.527,10.254,8.789,0
1579272607.707,8.789,38.574,38.574,13.184,46.875,0
1579272607.711,26.855,37.598,45.898,21.484,62.988,0
1579272607.715,21.973,35.156,49.316,25.879,82.520,0
1579272607.719,0.000,36.133,49.805,9.277,91.309,0
1579272607.716,16.113,40.039,47.852,20.020,94.238,0
1579272607.720,31.250,38.086,47.363,26.855,72.754,0
1579272607.724,25.879,35.156,48.828,20.020,51.270,0
1579272607.728,28.320,36.621,45.410,21.484,57.617,0
1579272607.732,21.484,34.668,43.457,17.578,51.758,0
1579272607.736,16.113,33.691,46.387,24.902,19.043,0
1579272607.740,44.922,37.598,42.480,15.137,60.547,0
1579272607.743,41.016,38.574,42.969,7.324,49.316,0
1579272607.747,24.414,36.621,44.434,28.320,51.758,0
1579272607.751,34.180,36.133,42.480,38.086,81.055,0
1579272607.755,26.367,33.203,46.387,27.832,53.223,0
1579272607.759,45.410,31.250,54.199,51.270,0.000,0
1579272607.757,28.809,40.039,50.293,41.992,2.930,0
1579272607.761,6.348,41.992,41.016,-8.301,2.441,0
1579272607.765,21.973,37.598,44.922,5.859,0.000,0
1579272607.769,7.324,39.551,48.828,14.648,51.758,0
1579272607.773,-1.465,41.504,41.504,0.488,21.973,0
1579272607.777,6.348,39.551,41.016,2.441,-32.227,0
1579272607.781,23.438,39.551,45.898,11.230,-0.977,0
1579272607.784,18.066,41.992,48.828,30.762,-10.254,0
1579272607.788,-1.465,41.016,47.363,11.230,19.043,0
1579272607.792,15.625,41.992,45.410,-8.301,63.965,0
1579272607.796,32.715,43.945,48.828,22.949,51.270,0
1579272607.800,14.648,40.527,46.387,21.973,41.992,0
1579272607.817,14.160,39.551,44.434,8.301,-28.809,0
1579272607.821,24.414,42.480,45.410,4.395,7.324,0
1579272607.825,14.648,40.527,48.340,24.902,44.434,0
1579272607.829,18.066,39.062,47.852,26.855,19.043,0
1579272607.833,28.320,41.016,44.922,19.531,37.598,0
1579272607.837,39.062,42.969,43.457,28.809,18.555,0
1579272607.841,35.156,41.992,46.387,21.484,42.969,0
1579272607.844,22.949,35.645,55.176,32.715,33.203,0
1579272607.848,18.066,38.086,55.664,25.879,15.137,0
1579272607.852,29.785,43.945,50.293,13.184,31.250,0
1579272607.856,28.809,41.992,54.688,30.762,31.250,0
1579272607.860,16.113,40.039,54.688,31.250,60.059,0
1579272607.857,29.297,39.062,42.969,28.809,53.223,0
1579272607.861,33.203,39.551,42.480,29.785,18.066,0
1579272607.865,16.113,39.062,54.688,19.043,12.207,0
1579272607.869,15.625,38.574,53.223,16.113,-3.906,0
1579272607.873,20.508,39.062,47.852,29.785,47.852,0
1579272607.877,20.020,37.109,53.223,26.855,97.168,0
1579272607.881,19.043,34.668,60.547,24.414,8.301,0
1579272607.884,23.438,37.109,61.035,21.973,-9.277,0
1579272607.888,18.066,36.133,56.641,14.160,50.293,0
1579272607.892,9.277,32.715,56.641,33.691,56.152,0
1579272607.896,24.414,37.109,50.781,24.902,81.543,0
1579272607.900,28.320,35.645,45.898,22.461,40.527,0
1579272607.897,20.996,33.691,44.434,27.344,17.090,0
1579272607.901,21.973,38.574,40.527,20.996,5.859,0
1579272607.905,21.973,35.645,39.062,30.273,8.789,0
1579272607.909,27.344,30.273,34.180,33.691,40.039,0
1579272607.913,32.227,31.738,33.691,28.320,33.203,0
1579272607.917,15.137,32.227,46.875,32.227,44.922,0
1579272607.921,13.184,33.691,57.617,26.367,20.508,0
1579272607.924,22.949,34.668,54.688,16.113,36.133,0
1579272607.928,15.137,32.227,51.758,26.855,44.922,0
1579272607.932,19.531,33.691,54.688,22.949,8.301,0
1579272607.936,24.414,36.133,55.664,20.996,62.500,0
1579272607.940,11.230,37.109,53.223,26.855,69.336,0
1579272607.957,12.695,37.109,53.223,27.832,56.641,0
1579272607.961,23.438,36.621,54.688,26.855,59.082,0
1579272607.965,29.297,37.109,53.711,21.973,48.340,0
1579272607.969,22.461,33.203,55.664,33.203,78.613,0
1579272607.973,18.066,30.273,55.664,33.203,59.082,0
1579272607.977,20.020,35.156,49.316,28.320,24.414,0
1579272607.981,21.973,37.109,42.480,24.902,54.688,0
1579272607.984,23.926,37.109,45.410,15.625,61.523,0
1579272607.988,21.484,34.668,51.270,21.484,82.031,0
1579272607.992,21.484,35.645,51.758,25.879,73.242,0
1579272607.996,22.949,38.086,50.781,17.578,53.223,0
1579272608.000,29.785,37.109,57.129,22.949,46.875,0
1579272607.997,21.484,36.133,62.012,39.062,65.918,0
1579272608.001,19.531,36.621,47.852,33.691,77.637,0
1579272608.005,25.391,41.504,47.852,27.832,45.898,0
1579272608.009,13.184,33.691,55.664,29.297,23.926,0
1579272608.013,12.695,25.879,54.199,33.691,43.945,0
1579272608.017,14.648,29.297,53.223,34.180,81.055,0
1579272608.021,19.531,32.227,50.293,29.297,71.777,0
1579272608.024,30.762,34.180,50.781,28.809,51.270,0
1579272608.028,23.926,35.645,52.246,30.762,-3.906,0
1579272608.032,22.949,36.621,50.781,35.156,33.691,0
1579272608.036,31.738,40.527,50.293,33.203,16.113,0
1579272608.040,30.273,43.457,48.340,28.809,-4.395,0
1579272608.037,23.438,42.480,41.992,28.809,45.410,0
1579272608.041,20.020,39.551,35.645,28.320,28.320,0
1579272608.045,19.043,37.109,44.922,25.391,-24.414,0
1579272608.049,22.461,38.086,63.477,24.414,-9.766,0
1579272608.053,29.297,42.480,61.523,19.531,41.992,0
1579272608.057,26.367,38.574,52.246,28.320,16.602,0
1579272608.061,23.926,38.086,48.828,34.668,14.160,0
1579272608.064,34.180,42.480,50.781,22.461,20.996,0
1579272608.068,35.645,40.039,54.199,28.320,41.016,0
1579272608.072,33.203,37.598,50.781,29.297,55.176,0
1579272608.076,32.227,38.086,50.781,28.320,35.645,0
1579272608.080,31.250,40.527,55.176,34.180,83.496,0
1579272608.096,33.691,41.504,54.688,22.949,72.754,0
1579272608.100,32.715,40.527,53.223,19.043,25.879,0
1579272608.104,28.320,39.062,54.688,26.367,40.039,0
1579272608.108,28.809,39.062,56.641,23.926,21.973,0
1579272608.112,31.250,41.016,57.129,26.367,-2.441,0
1579272608.116,23.438,38.574,55.664,28.809,14.648,0
1579272608.120,24.414,35.156,55.176,26.367,55.176,0
1579272608.123,27.832,34.668,58.105,28.320,104.004,0
1579272608.127,18.066,31.738,57.617,24.902,63.477,0
1579272608.131,16.602,32.227,49.805,19.531,-3.418,0
1579272608.135,18.555,33.691,38.086,23.438,-25.391,0
1579272608.139,16.602,34.668,42.969,25.879,42.969,0
1579272608.136,15.625,36.133,58.105,28.809,51.270,0
1579272608.140,19.043,35.645,63.965,29.785,11.719,0
1579272608.144,20.020,35.156,60.059,27.344,94.727,0
1579272608.148,15.137,33.203,55.664,26.855,102.539,0
1579272608.152,19.043,33.691,55.176,27.832,52.734,0
1579272608.156,24.902,32.715,54.688,28.320,43.945,0
1579272608.160,18.555,31.738,49.316,27.832,37.109,0
1579272608.163,17.090,35.645,47.852,30.273,17.090,0
1579272608.167,22.461,39.062,48.828,37.109,-27.832,0
1579272608.171,27.344,41.016,45.898,31.250,-14.648,0
1579272608.175,29.297,39.551,43.945,23.926,-7.812,0
1579272608.179,30.273,37.598,41.992,30.762,18.066,0
1579272608.177,31.738,40.527,36.621,33.203,18.066,0
1579272608.181,24.902,43.457,47.852,29.297,9.277,0
1579272608.185,29.785,41.992,57.617,22.949,40.039,0
1579272608.189,30.762,36.621,58.105,22.949,39.062,0
1579272608.193,31.738,38.086,55.664,31.738,-11.719,0
1579272608.197,31.250,38.086,49.316,36.133,-32.715,0
1579272608.201,35.156,42.969,52.734,39.551,26.367,0
1579272608.204,38.574,44.922,53.223,36.621,89.844,0
1579272608.208,28.809,37.109,48.828,31.250,54.688,0
1579272608.212,30.273,35.156,46.387,34.180,-20.508,0
1579272608.216,35.156,36.133,44.922,32.227,-8.789,0
1579272608.220,32.715,37.109,48.828,30.762,21.973,0
1579272608.236,30.762,35.156,49.805,32.715,58.105,0
1579272608.240,30.273,37.109,43.457,35.645,90.332,0
1579272608.244,25.879,40.039,37.598,31.738,65.430,0
1579272608.248,24.414,40.527,37.109,25.391,52.246,0
1579272608.252,27.832,44.922,44.434,27.832,2.441,0
1579272608.256,26.855,41.504,45.898,27.832,-5.859,0
1579272608.260,25.879,35.645,39.551,22.461,11.230,0
1579272608.263,24.902,36.621,46.875,19.043,23.438,0
1579272608.267,19.043,35.156,54.688,21.484,17.578,0
1579272608.271,19.043,34.180,50.781,24.902,26.367,0
1579272608.275,24.902,35.645,48.828,27.344,59.082,0
1579272608.279,24.414,35.156,53.711,25.391,11.719,0
1579272608.277,24.902,36.621,48.828,27.832,13.184,0
1579272608.281,26.855,41.016,43.457,30.762,24.902,0
1579272608.285,25.879,39.062,49.316,31.738,-34.180,0
1579272608.289,25.879,39.062,49.805,37.598,42.480,0
1579272608.293,21.484,39.062,41.992,33.203,73.730,0
1579272608.297,18.555,31.738,39.062,26.367,1.465,0
1579272608.301,25.391,33.691,46.387,31.250,30.273,0
1579272608.304,29.297,36.133,50.781,32.227,67.871,0
1579272608.308,24.414,30.762,53.223,30.762,48.828,0
1579272608.312,23.926,31.738,54.199,32.227,32.715,0
1579272608.316,28.320,36.133,47.363,29.785,9.277,0
1579272608.320,25.391,34.668,43.457,23.926,-12.695,0
1579272608.316,12.207,31.738,47.363,19.043,25.879,0
1579272608.320,14.160,29.785,52.734,17.578,49.316,0
1579272608.324,25.879,30.762,48.828,22.949,17.090,0
1579272608.328,29.785,33.691,39.551,28.809,58.105,0
1579272608.332,30.273,30.762,44.922,24.902,73.730,0
1579272608.336,28.809,29.785,51.758,23.438,50.293,0
1579272608.340,34.180,32.227,50.293,26.367,71.289,0
1579272608.343,34.180,33.691,41.504,29.297,58.594,0
1579272608.347,34.180,34.180,39.062,30.273,66.406,0
1579272608.351,37.598,35.645,44.434,33.691,35.645,0
1579272608.355,38.574,35.156,44.434,40.527,1.465,0
1579272608.359,38.574,31.738,45.898,40.527,1.465,0
1579272608.377,37.598,31.738,48.340,40.527,2.441,0
1579272608.381,40.039,36.621,48.340,40.527,-6.836,0
1579272608.385,35.156,37.598,46.387,36.621,-22.461,0
1579272608.389,26.367,33.691,44.434,35.645,0.488,0
1579272608.393,33.203,37.598,47.363,41.016,43.457,0
1579272608.397,35.645,42.480,50.293,40.527,28.320,0
1579272608.401,29.297,37.598,41.992,31.250,27.344,0
1579272608.404,31.250,35.645,33.203,28.320,35.156,0
1579272608.408,28.809,38.574,36.133,29.297,-0.488,0
1579272608.412,26.367,38.086,38.574,28.320,10.742,0
1579272608.416,32.715,33.691,33.203,27.832,-0.488,0
1579272608.420,34.180,31.738,42.969,31.250,-6.348,0
1579272608.418,36.621,35.645,49.316,33.691,-1.953,0
1579272608.422,36.133,36.621,44.434,34.668,0.000,0
1579272608.426,32.715,33.691,48.828,31.250,21.973,0
1579272608.430,35.156,34.180,55.664,34.668,43.457,0
1579272608.434,35.156,32.715,56.152,38.574,56.152,0
1579272608.438,36.621,30.762,51.270,39.062,47.852,0
1579272608.442,35.645,31.738,48.340,40.527,77.637,0
1579272608.445,35.645,35.156,52.246,35.156,92.773,0
1579272608.449,39.062,33.203,54.688,40.039,33.691,0
1579272608.453,39.551,31.250,53.711,46.387,15.137,0
1579272608.457,32.715,31.250,55.664,40.527,-4.883,0
1579272608.461,31.738,29.297,51.270,41.504,11.230,0
1579272608.457,37.109,31.250,38.574,41.992,75.195,0
1579272608.461,36.133,34.180,35.156,37.109,60.547,0
1579272608.465,35.645,36.621,48.340,35.645,8.301,0
1579272608.469,38.086,42.480,59.082,37.598,55.176,0
1579272608.473,28.320,41.016,52.734,36.621,99.609,0
1579272608.477,21.973,33.203,44.434,26.367,63.965,0
1579272608.481,25.879,29.297,46.387,18.555,30.762,0
1579272608.484,27.344,35.645,43.457,17.090,24.414,0
1579272608.488,23.438,41.016,39.062,15.137,44.922,0
1579272608.492,20.020,38.086,47.363,17.578,40.527,0
1579272608.496,26.855,39.062,50.293,20.508,25.879,0
1579272608.500,27.832,40.039,46.875,20.508,4.883,0
1579272608.519,26.855,39.062,42.969,18.555,0.977,0
1579272608.523,31.738,41.992,39.062,20.508,21.484,0
1579272608.527,32.227,39.062,39.062,30.762,61.523,0
1579272608.531,30.762,36.133,45.410,30.762,46.875,0
1579272608.535,30.273,36.133,54.688,24.414,-19.531,0
1579272608.539,30.762,33.691,55.664,27.832,-10.254,0
1579272608.543,31.738,32.715,49.316,28.809,16.602,0
1579272608.546,31.250,38.086,47.363,30.273,47.852,0
1579272608.550,33.203,44.922,50.781,32.715,57.129,0
1579272608.554,28.809,39.551,45.410,26.855,48.828,0
1579272608.558,23.438,32.715,37.598,23.926,27.832,0
1579272608.562,25.391,34.180,35.156,20.508,62.988,0
1579272608.556,28.320,37.598,40.039,13.672,62.988,0
1579272608.560,22.461,35.645,38.086,13.184,2.930,0
1579272608.564,22.461,31.250,34.668,22.461,24.414,0
1579272608.568,30.273,34.668,49.316,27.832,28.809,0
1579272608.572,28.320,36.621,50.781,22.949,85.938,0
1579272608.576,21.973,32.227,42.969,19.531,87.891,0
1579272608.580,22.949,31.738,49.316,21.973,50.293,0
1579272608.583,21.484,34.180,53.711,22.461,59.082,0
1579272608.587,16.113,36.133,52.246,20.508,27.832,0
1579272608.591,18.066,37.598,51.270,19.531,-2.930,0
1579272608.595,20.996,38.086,48.340,22.949,44.434,0
1579272608.599,22.461,35.156,51.758,24.414,51.270,0
1579272608.597,27.344,40.527,54.199,29.297,14.648,0
1579272608.601,24.902,37.598,42.969,27.344,84.473,0
1579272608.605,23.438,32.227,44.922,20.996,61.035,0
1579272608.609,26.367,36.133,52.246,25.391,0.000,0
1579272608.613,28.320,36.133,53.223,25.879,-19.531,0
1579272608.617,28.320,36.133,51.270,21.484,6.348,0
1579272608.621,29.297,41.016,45.410,22.949,48.828,0
1579272608.624,25.391,40.527,44.922,23.926,57.129,0
1579272608.628,20.508,35.645,47.363,19.531,28.320,0
1579272608.632,28.320,38.574,38.086,18.066,-30.273,0
1579272608.636,28.809,40.527,33.691,20.508,27.832,0
1579272608.640,26.855,40.039,48.828,28.809,63.477,0
1579272608.656,29.297,40.527,55.176,29.297,10.742,0
1579272608.660,24.414,42.480,49.316,22.949,35.156,0
1579272608.664,24.414,42.480,41.992,18.066,33.691,0
1579272608.668,29.297,39.062,44.434,19.043,-31.250,0
1579272608.672,30.273,40.039,39.551,22.461,-1.465,0
1579272608.676,27.832,40.527,32.715,19.531,-8.789,0
1579272608.680,29.297,40.527,41.016,18.066,23.926,0
1579272608.683,32.715,45.898,47.363,27.344,54.199,0
1579272608.687,24.414,37.598,41.992,33.691,-4.395,0
1579272608.691,18.555,31.738,37.598,30.762,-9.277,0
1579272608.695,15.137,30.762,34.668,19.531,44.922,0
1579272608.699,12.207,25.391,27.344,10.742,113.770,0
1579272608.696,11.719,24.414,19.531,15.137,68.848,0
1579272608.700,11.719,25.391,20.508,20.508,47.852,0
1579272608.704,15.137,23.926,24.902,16.602,5.371,0
1579272608.708,16.113,27.344,31.250,13.184,18.066,0
1579272608.712,18.555,28.320,34.180,14.160,109.375,0
1579272608.716,20.020,25.879,34.180,16.113,34.180,0
1579272608.720,21.484,28.320,32.715,18.066,-10.742,0
1579272608.723,21.973,29.297,28.809,15.137,7.812,0
1579272608.727,23.926,30.273,27.344,15.137,9.766,0
1579272608.731,31.250,34.180,29.785,17.090,5.371,0
1579272608.735,31.738,33.203,32.227,16.113,36.133,0
1579272608.739,30.273,32.715,29.297,13.184,21.973,0
1579272608.737,37.598,39.062,30.273,20.508,17.090,0
1579272608.741,39.062,39.551,35.156,24.902,20.508,0
1579272608.745,30.762,32.227,31.250,11.230,-0.488,0
1579272608.749,28.320,33.691,32.715,9.277,2.930,0
1579272608.753,31.738,39.551,31.738,14.648,0.000,0
1579272608.757,25.391,36.133,26.367,10.742,14.160,0
1579272608.761,25.391,37.109,22.949,11.719,54.688,0
1579272608.764,26.367,39.062,23.438,12.207,92.285,0
1579272608.768,22.949,35.645,34.180,6.836,65.430,0
1579272608.772,28.809,34.180,42.480,10.254,24.902,0
1579272608.776,31.738,33.203,41.504,19.531,68.359,0
1579272608.780,25.879,33.203,37.598,17.090,74.219,0
1579272608.797,22.461,34.668,44.922,12.695,9.277,0
1579272608.801,23.926,34.668,48.828,17.090,-4.883,0
1579272608.805,23.438,34.180,46.875,20.020,0.488,0
1579272608.809,23.438,34.668,42.480,19.043,16.113,0
1579272608.813,24.902,31.738,42.480,14.648,-0.488,0
1579272608.817,32.227,37.598,56.152,18.066,-13.184,0
1579272608.821,30.762,38.574,55.176,21.484,34.180,0
1579272608.824,21.484,31.250,37.598,13.672,20.508,0
1579272608.828,25.391,34.180,41.504,17.090,2.441,0
1579272608.832,20.996,37.598,53.711,17.578,11.230,0
1579272608.836,20.508,34.668,52.246,13.184,56.152,0
1579272608.840,27.344,33.691,49.316,12.695,98.145,0
1579272608.837,27.832,35.156,51.270,16.602,33.203,0
1579272608.841,27.832,35.156,52.734,17.090,-28.320,0
1579272608.845,25.391,35.156,52.734,17.090,-4.395,0
1579272608.849,32.227,35.645,51.758,23.438,54.199,0
1579272608.853,39.062,34.180,47.363,25.879,78.613,0
1579272608.857,39.062,35.645,40.039,27.344,73.730,0
1579272608.861,38.574,38.086,41.016,28.320,75.195,0
1579272608.864,35.645,36.133,53.711,26.367,49.316,0
1579272608.868,34.668,37.109,57.617,30.762,1.465,0
1579272608.872,37.109,39.062,57.129,31.250,-3.418,0
1579272608.876,34.668,38.086,59.082,25.879,34.668,0
1579272608.880,40.527,42.480,61.035,32.715,27.344,0
1579272608.877,42.969,42.969,56.641,36.621,17.090,0
1579272608.881,35.645,36.133,42.969,28.320,24.902,0
1579272608.885,34.668,39.062,41.992,26.367,4.395,0
1579272608.889,26.367,38.086,46.387,22.949,31.738,0
1579272608.893,24.902,30.762,46.387,20.020,60.059,0
1579272608.897,29.297,33.691,53.223,22.461,45.410,0
1579272608.901,30.273,35.156,50.293,23.438,24.414,0
1579272608.904,30.762,37.109,40.527,21.973,54.688,0
1579272608.908,31.250,41.504,39.551,25.879,49.805,0
1579272608.912,31.250,41.016,41.016,26.367,25.879,0
1579272608.916,31.738,37.598,46.387,20.020,24.414,0
1579272608.920,34.180,32.715,53.223,24.414,53.711,0
1579272608.936,35.156,33.691,50.293,30.273,60.059,0
1579272608.940,31.738,34.180,42.480,22.949,26.855,0
1579272608.944,43.945,40.039,49.805,25.391,28.320,0
1579272608.948,52.734,42.480,51.270,34.668,21.973,0
1579272608.952,40.527,34.668,42.480,32.227,19.531,0
1579272608.956,37.598,34.668,31.738,30.273,41.992,0
1579272608.960,39.551,37.109,30.762,28.320,13.672,0
1579272608.963,38.574,35.156,49.316,31.250,-15.137,0
1579272608.967,31.250,34.668,53.223,26.367,17.090,0
1579272608.971,26.855,37.109,46.875,25.391,39.062,0
1579272608.975,32.227,36.621,48.340,28.320,19.531,0
1579272608.979,35.645,33.691,41.016,26.367,62.012,0
1579272608.979,34.668,35.645,28.320,25.391,114.746,0
1579272608.983,29.785,37.598,24.414,25.391,40.039,0
1579272608.987,25.391,37.109,20.996,24.902,40.039,0
1579272608.991,23.438,39.551,23.438,23.438,66.895,0
1579272608.995,30.762,37.109,35.156,33.203,7.812,0
1579272608.999,39.551,30.273,40.527,44.922,-1.465,0
1579272609.003,39.551,41.016,33.203,39.062,34.668,0
1579272609.006,33.691,54.688,27.832,23.926,81.055,0
1579272609.010,25.391,50.293,22.461,9.277,68.359,0
1579272609.014,17.090,46.387,20.508,6.836,3.906,0
1579272609.018,17.578,51.270,21.484,6.836,14.648,0
1579272609.022,24.414,59.570,22.461,4.883,34.668,0
1579272609.017,22.461,62.012,20.508,0.000,22.461,0
1579272609.021,22.949,67.871,11.230,-5.371,46.875,0
1579272609.025,23.438,70.312,8.789,-4.883,-5.859,0
1579272609.029,24.414,65.430,9.277,-3.418,29.297,0
1579272609.033,25.391,68.359,6.836,-5.859,89.844,0
1579272609.037,23.926,73.242,4.883,-10.742,60.059,0
1579272609.041,21.973,70.801,0.977,-12.695,56.641,0
1579272609.044,18.066,67.383,-1.953,-19.531,42.480,0
1579272609.048,12.695,73.730,-5.371,-30.762,33.691,0
1579272609.052,10.254,73.730,-8.789,-28.320,54.199,0
1579272609.056,8.301,74.707,-8.789,-26.855,70.312,0
1579272609.060,7.324,80.078,-7.812,-30.762,40.039,0
1579272609.077,19.531,81.055,-4.883,-20.020,14.648,0
1579272609.081,21.973,81.543,-3.906,-11.230,29.297,0
1579272609.085,19.531,82.520,-0.488,-5.371,53.711,0
1579272609.089,28.320,79.590,2.930,-1.465,82.031,0
1579272609.093,32.715,79.102,-1.465,-1.953,52.246,0
1579272609.097,39.551,76.172,3.418,8.789,23.438,0
1579272609.101,47.852,70.801,9.277,22.461,20.020,0
1579272609.104,42.480,69.336,16.113,20.996,41.992,0
1579272609.108,51.270,71.777,27.832,21.484,51.758,0
1579272609.112,53.711,71.777,35.156,30.762,45.898,0
1579272609.116,37.109,61.035,29.297,26.855,86.426,0
1579272609.120,32.227,53.711,18.066,24.414,41.992,0
1579272609.117,34.180,49.316,20.020,30.273,-64.941,0
1579272609.121,37.598,41.992,24.414,27.832,-33.203,0
1579272609.125,43.457,42.969,21.973,30.762,23.926,0
1579272609.129,47.852,46.875,26.855,40.039,18.555,0
1579272609.133,49.316,46.875,28.809,39.551,17.090,0
1579272609.137,49.316,43.457,27.832,35.645,26.855,0
1579272609.141,52.246,44.434,30.762,34.668,22.949,0
1579272609.144,53.711,42.480,26.367,37.598,41.016,0
1579272609.148,52.246,40.039,27.832,40.039,48.340,0
1579272609.152,56.152,42.969,37.109,35.645,15.625,0
1579272609.156,60.547,42.480,42.480,35.156,-3.906,0
1579272609.160,64.941,40.039,42.480,40.527,-10.254,0
1579272609.157,62.012,39.551,39.062,41.992,-12.207,0
1579272609.161,52.734,40.039,41.504,40.039,34.668,0
1579272609.165,53.711,36.133,38.086,36.621,13.184,0
1579272609.169,53.223,33.691,38.086,42.480,32.715,0
1579272609.173,50.293,33.203,45.898,48.828,113.281,0
1579272609.177,51.758,33.691,50.293,46.875,89.355,0
1579272609.181,49.805,36.133,45.410,43.457,52.246,0
1579272609.184,37.598,36.133,41.016,38.086,-2.930,0
1579272609.188,25.391,32.715,41.992,38.086,7.812,0
1579272609.192,27.344,31.250,41.992,43.457,51.758,0
1579272609.196,39.062,36.133,58.105,48.340,7.324,0
1579272609.200,41.992,30.762,58.594,41.504,5.371,0
1579272609.217,35.645,22.461,45.898,39.062,15.137,0
1579272609.221,30.762,27.832,48.340,44.434,2.930,0
1579272609.225,26.367,29.785,45.410,42.969,28.809,0
1579272609.229,28.809,29.297,43.945,41.504,38.086,0
1579272609.233,26.855,27.832,42.480,43.457,-4.395,0
1579272609.237,20.996,30.762,41.016,43.457,-1.465,0
1579272609.241,19.531,34.668,48.340,37.598,14.160,0
1579272609.244,25.391,32.715,46.387,33.203,49.316,0
1579272609.248,21.484,37.598,41.016,34.180,49.805,0
1579272609.252,21.973,39.551,40.039,41.504,41.504,0
1579272609.256,31.250,33.691,39.551,38.574,58.594,0
1579272609.260,24.902,34.668,43.945,31.738,33.203,0
1579272609.256,22.461,36.621,45.898,33.691,14.160,0
1579272609.260,22.461,31.250,41.992,33.203,-7.812,0
1579272609.264,11.719,30.762,42.969,34.668,2.930,0
1579272609.268,12.695,34.668,44.922,34.668,5.859,0
1579272609.272,16.602,37.598,43.945,32.227,23.438,0
1579272609.276,19.043,38.574,48.340,35.156,16.113,0
1579272609.280,16.113,32.227,47.852,33.203,6.836,0
1579272609.283,5.859,27.832,40.039,24.414,-5.371,0
1579272609.287,10.254,34.668,37.598,26.855,-14.648,0
1579272609.291,9.277,36.133,32.227,24.414,20.508,0
1579272609.295,0.488,28.809,26.367,18.555,29.785,0
1579272609.299,3.418,27.344,26.367,20.508,47.363,0
1579272609.316,3.418,26.367,29.297,18.066,49.805,0
1579272609.320,4.883,31.250,33.203,19.043,86.914,0
1579272609.324,6.348,35.156,36.621,23.926,59.082,0
1579272609.328,3.906,30.273,38.086,24.902,81.055,0
1579272609.332,9.277,31.738,33.203,28.320,79.590,0
1579272609.336,11.230,30.273,28.320,32.227,11.719,0
1579272609.340,4.883,30.273,24.902,29.785,59.570,0
1579272609.343,8.789,35.645,25.391,30.273,91.309,0
1579272609.347,20.020,39.062,34.180,35.645,15.625,0
1579272609.351,13.672,36.133,38.086,35.156,9.277,0
1579272609.355,15.137,37.109,25.879,31.738,19.043,0
1579272609.359,46.875,41.016,20.020,55.664,13.184,0
1579272609.356,52.246,32.227,36.621,71.289,-5.371,0
1579272609.360,23.438,24.902,50.781,47.852,2.930,0
1579272609.364,3.418,23.438,55.176,27.832,-4.395,0
1579272609.368,-1.465,20.020,63.965,35.156,-11.719,0
1579272609.372,-4.883,17.578,71.777,32.715,-26.855,0
1579272609.376,-8.789,16.602,74.219,23.926,-10.742,0
1579272609.380,-11.230,11.719,75.684,28.320,40.527,0
1579272609.383,-10.254,10.254,82.031,35.645,40.039,0
1579272609.387,-11.230,7.324,84.473,33.203,68.359,0
1579272609.391,-23.438,-0.977,82.031,20.020,48.828,0
1579272609.395,-19.531,0.000,87.402,24.414,41.504,0
1579272609.399,-6.836,1.465,88.379,38.086,24.414,0
1579272609.396,-3.418,1.953,80.078,47.363,0.488,0
1579272609.400,-7.812,5.859,74.219,46.875,45.410,0
1579272609.404,-16.602,6.836,75.195,36.621,37.598,0
1579272609.408,-9.766,12.207,73.730,41.016,64.453,0
1579272609.412,0.488,14.160,82.520,54.199,58.105,0
1579272609.416,-0.488,4.883,83.008,49.805,21.973,0
1579272609.420,-6.348,7.812,62.988,37.598,54.688,0
1579272609.423,-5.371,15.137,72.266,42.969,31.738,0
1579272609.427,0.000,16.602,88.379,48.340,51.270,0
1579272609.431,-4.395,8.301,79.590,37.109,61.035,0
1579272609.435,1.465,6.836,71.289,33.203,33.691,0
1579272609.439,2.441,13.184,67.383,26.855,59.570,0
1579272609.457,6.836,16.602,58.105,30.762,77.637,0
1579272609.461,5.859,15.137,53.223,36.621,56.152,0
1579272609.465,8.301,18.066,63.477,32.227,42.480,0
1579272609.469,13.184,19.531,66.406,34.668,24.414,0
1579272609.473,10.742,19.043,59.082,36.621,44.922,0
1579272609.477,16.602,23.926,61.523,34.180,26.855,0
1579272609.481,10.254,21.973,63.477,28.320,20.996,0
1579272609.484,6.836,19.531,59.082,26.855,-0.977,0
1579272609.488,10.254,20.508,57.617,30.273,8.301,0
1579272609.492,6.836,21.973,57.129,32.715,56.641,0
1579272609.496,7.324,24.902,55.664,35.156,55.664,0
1579272609.500,10.742,32.227,57.129,34.180,83.984,0
1579272609.497,9.766,27.344,59.082,32.715,9.766,0
1579272609.501,6.836,20.020,48.828,36.621,-16.113,0
1579272609.505,11.719,26.367,44.434,36.621,27.344,0
1579272609.509,15.137,28.320,53.711,34.668,5.859,0
1579272609.513,8.789,26.855,56.152,36.621,27.832,0
1579272609.517,15.137,27.832,52.246,39.551,46.875,0
1579272609.521,25.879,32.715,54.688,40.527,28.809,0
1579272609.524,24.414,30.762,56.641,37.598,18.555,0
1579272609.528,21.484,30.273,45.898,35.156,-15.625,0
1579272609.532,24.902,35.156,40.527,33.203,-20.508,0
1579272609.536,21.973,30.762,42.969,31.738,36.621,0
1579272609.540,20.508,31.250,44.922,31.738,67.383,0
1579272609.537,31.250,37.109,46.875,35.156,8.789,0
1579272609.541,34.180,34.668,49.316,36.133,-15.137,0
1579272609.545,33.203,34.180,48.340,37.598,26.367,0
1579272609.549,34.180,38.574,40.039,40.527,66.895,0
1579272609.553,34.180,41.016,41.504,46.387,62.500,0
1579272609.557,31.738,34.180,45.410,44.434,27.344,0
1579272609.561,38.086,28.809,32.715,41.992,20.508,0
1579272609.564,39.062,32.227,27.344,40.527,123.535,0
1579272609.568,34.180,40.527,38.086,35.645,99.609,0
1579272609.572,40.527,42.480,45.410,36.133,-11.719,0
1579272609.576,39.551,34.668,48.340,36.621,19.043,0
1579272609.580,34.668,34.668,41.016,38.086,62.988,0
1579272609.596,42.969,41.016,34.180,35.156,84.473,0
1579272609.600,47.852,37.598,40.527,32.227,18.555,0
1579272609.604,41.504,34.180,39.551,34.180,20.020,0
1579272609.608,46.387,39.551,29.785,35.156,77.637,0
1579272609.612,63.477,41.992,29.785,45.410,72.754,0
1579272609.616,60.547,38.086,38.574,49.316,57.617,0
1579272609.620,41.016,37.598,50.781,37.109,63.965,0
1579272609.623,28.320,29.297,53.711,28.809,23.926,0
1579272609.627,20.508,19.043,57.617,28.809,-4.883,0
1579272609.631,20.996,20.020,60.547,32.227,57.129,0
1579272609.635,20.996,21.484,60.059,35.645,94.727,0
1579272609.639,18.555,22.949,62.012,32.715,13.672,0
1579272609.637,19.531,20.996,50.781,32.227,11.719,0
1579272609.641,22.461,16.602,39.551,28.809,26.855,0
1579272609.645,20.996,19.043,41.016,24.414,-7.812,0
1579272609.649,22.949,22.461,46.387,31.250,3.906,0
1579272609.653,26.855,23.438,48.340,33.691,-15.137,0
1579272609.657,22.949,22.461,43.457,25.879,-21.973,0
1579272609.661,23.926,25.879,33.203,28.320,41.016,0
1579272609.664,25.879,25.391,30.762,33.203,-7.324,0
1579272609.668,26.855,20.020,42.480,30.273,-61.035,0
1579272609.672,29.785,25.879,46.387,30.273,11.230,0
1579272609.676,27.832,27.344,41.992,28.320,69.336,0
1579272609.680,25.391,24.902,45.410,30.762,54.688,0
1579272609.677,34.180,34.180,47.363,41.016,88.379,0
1579272609.681,33.203,31.738,38.574,37.598,121.094,0
1579272609.685,26.855,26.367,26.367,33.203,24.414,0
1579272609.689,25.879,29.785,23.438,33.203,-2.930,0
1579272609.693,27.832,28.809,32.227,32.715,20.020,0
1579272609.697,37.598,31.250,35.645,38.086,34.180,0
1579272609.701,30.273,30.273,35.645,29.785,20.508,0
1579272609.704,27.832,27.832,39.062,23.926,-10.254,0
1579272609.708,29.785,29.297,38.086,30.273,3.418,0
1579272609.712,28.320,27.832,31.738,35.156,-19.531,0
1579272609.716,26.855,28.320,22.461,36.133,3.418,0
1579272609.720,30.273,28.809,23.926,35.156,16.602,0
1579272609.737,33.691,32.227,30.273,37.109,11.719,0
1579272609.741,36.133,31.738,33.203,38.574,52.734,0
1579272609.745,40.527,33.691,33.691,40.039,42.969,0
1579272609.749,42.969,38.574,31.250,40.039,51.270,0
1579272609.753,43.945,41.016,36.621,42.969,77.148,0
1579272609.757,41.504,41.992,33.691,49.805,107.910,0
1579272609.761,32.715,30.762,19.043,35.645,100.586,0
1579272609.764,32.227,26.855,24.414,20.508,32.227,0
1579272609.768,36.621,31.738,36.133,27.832,9.766,0
1579272609.772,33.691,32.227,33.691,32.227,18.066,0
1579272609.776,27.832,33.203,30.273,27.344,14.648,0
1579272609.780,26.855,35.645,35.645,27.344,85.938,0
1579272609.777,29.297,34.180,41.504,29.785,66.895,0
1579272609.781,33.203,33.203,42.480,32.227,20.020,0
1579272609.785,36.621,34.668,38.086,33.203,58.594,0
1579272609.789,39.551,37.598,36.621,28.320,52.734,0
1579272609.793,40.527,39.062,36.133,22.949,36.133,0
1579272609.797,41.504,35.156,36.621,29.297,31.250,0
1579272609.801,45.898,41.504,42.480,37.598,82.031,0
1579272609.804,45.410,51.758,49.316,34.668,53.223,0
1579272609.808,40.527,46.387,35.645,24.902,2.930,0
1579272609.812,40.039,37.598,27.344,23.926,49.805,0
1579272609.816,40.039,35.156,32.715,21.973,-21.484,0
1579272609.820,40.039,35.156,29.297,26.855,-108.398,0
1579272609.816,39.062,35.156,32.715,30.762,-17.090,0
1579272609.820,37.598,30.762,36.621,26.367,22.461,0
1579272609.824,38.086,31.250,45.410,27.344,-14.160,0
1579272609.828,39.551,39.551,48.340,29.297,-0.977,0
1579272609.832,40.039,40.039,44.434,30.273,26.855,0
1579272609.836,47.363,39.062,49.805,40.527,99.609,0
1579272609.840,38.574,38.086,61.035,46.387,61.523,0
1579272609.843,17.090,33.203,64.941,30.273,21.973,0
1579272609.847,10.742,27.344,59.570,13.672,23.438,0
1579272609.851,26.855,30.762,62.500,25.879,83.008,0
1579272609.855,38.086,33.203,57.617,34.180,81.055,0
1579272609.859,30.762,27.832,46.875,26.855,30.762,0
1579272609.876,22.461,28.320,50.781,22.461,110.352,0
1579272609.880,25.879,32.227,51.270,22.461,80.078,0
1579272609.884,32.227,36.133,48.340,27.344,71.777,0
1579272609.888,31.250,37.109,42.480,34.668,59.082,0
1579272609.892,30.762,29.785,39.551,34.180,37.109,0
1579272609.896,25.879,28.320,46.875,30.762,81.055,0
1579272609.900,24.902,30.762,58.105,30.273,106.934,0
1579272609.903,30.273,26.855,60.059,28.809,115.723,0
1579272609.907,29.785,30.762,57.129,31.738,24.902,0
1579272609.911,32.715,38.574,62.500,35.645,-3.906,0
1579272609.915,32.227,31.250,53.711,23.926,50.781,0
1579272609.919,31.250,27.344,40.039,25.879,44.434,0
1579272609.917,30.762,28.320,42.480,31.738,64.453,0
1579272609.921,31.738,27.832,46.875,28.809,69.336,0
1579272609.925,29.297,28.320,53.223,29.297,80.078,0
1579272609.929,27.344,29.297,54.199,30.762,21.484,0
1579272609.933,31.738,29.785,51.270,37.598,-37.598,0
1579272609.937,35.156,35.156,54.688,41.016,13.672,0
1579272609.941,35.645,38.574,57.129,40.527,30.762,0
1579272609.944,34.180,31.738,41.504,36.621,26.855,0
1579272609.948,41.016,37.598,37.598,41.504,22.461,0
1579272609.952,39.551,40.039,53.711,39.062,62.988,0
1579272609.956,35.645,29.785,54.199,29.297,71.289,0
1579272609.960,38.086,30.273,54.688,26.367,-15.137,0
1579272609.956,36.133,30.762,54.688,27.832,-15.137,0
1579272609.960,39.062,31.250,49.805,36.621,15.137,0
1579272609.964,37.598,35.156,49.805,30.273,21.973,0
1579272609.968,30.273,36.621,49.805,20.508,24.902,0
1579272609.972,36.133,38.086,48.828,30.273,-3.906,0
1579272609.976,38.574,37.598,51.270,34.668,-29.297,0
1579272609.980,36.621,34.180,50.293,29.297,14.160,0
1579272609.983,43.457,34.668,51.758,33.203,46.875,0
1579272609.987,42.480,31.250,54.199,30.273,102.051,0
1579272609.991,36.133,26.855,49.316,22.949,55.664,0
1579272609.995,35.645,31.738,47.852,26.367,-28.809,0
1579272609.999,27.344,31.250,41.992,24.902,6.348,0
1579272610.017,29.785,31.738,37.109,22.949,-4.883,0
1579272610.021,40.039,36.133,50.293,25.391,25.391,0
1579272610.025,38.574,36.621,55.664,28.809,80.566,0
1579272610.029,35.156,37.109,49.805,27.832,71.777,0
1579272610.033,36.133,33.203,47.363,22.949,69.824,0
1579272610.037,35.156,32.227,47.363,23.926,41.016,0
1579272610.041,36.133,39.062,54.199,27.832,6.836,0
1579272610.044,43.457,41.504,51.758,29.297,-11.230,0
1579272610.048,40.039,33.691,46.387,25.879,0.977,0
1579272610.052,36.133,28.809,47.363,22.949,-10.742,0
1579272610.056,36.133,29.297,46.387,27.344,-7.812,0
1579272610.060,33.691,32.227,47.363,28.809,47.852,0
1579272610.057,37.109,35.156,43.945,28.320,-10.742,0
1579272610.061,33.203,33.691,43.457,31.250,-23.438,0
1579272610.065,27.832,32.715,34.180,32.227,95.703,0
1579272610.069,30.762,33.691,25.879,32.227,123.047,0
1579272610.073,31.250,35.645,29.785,23.438,89.355,0
1579272610.077,31.250,35.645,35.645,23.926,77.637,0
1579272610.081,34.180,39.551,41.992,38.574,42.969,0
1579272610.084,33.203,37.109,33.203,32.715,42.480,0
1579272610.088,34.668,33.203,22.461,26.855,72.266,0
1579272610.092,37.598,37.598,24.902,28.809,116.211,0
1579272610.096,34.180,32.227,33.203,28.809,77.637,0
1579272610.100,30.273,27.344,29.297,33.691,28.320,0
1579272610.096,33.203,31.250,26.367,35.156,60.547,0
1579272610.100,35.156,35.156,41.016,29.297,39.551,0
1579272610.104,32.715,32.715,50.781,28.809,7.812,0
1579272610.108,40.039,25.391,62.012,53.711,-7.812,0
1579272610.112,48.828,34.668,60.547,63.965,29.297,0
1579272610.116,47.363,48.340,48.828,46.387,47.852,0
1579272610.120,37.598,46.387,40.527,27.344,48.340,0
1579272610.123,25.879,41.504,32.227,10.742,75.195,0
1579272610.127,26.367,46.875,31.738,5.859,45.898,0
1579272610.131,27.344,50.293,25.391,6.348,23.926,0
1579272610.135,25.879,55.176,21.484,0.488,10.254,0
1579272610.139,23.926,56.152,19.043,-1.953,-16.602,0
1579272610.156,30.762,56.152,12.207,-3.418,13.672,0
1579272610.160,41.016,59.570,12.695,0.977,65.918,0
1579272610.164,34.668,53.223,14.648,12.207,48.828,0
1579272610.168,32.715,52.246,20.996,18.066,75.195,0
1579272610.172,37.109,56.641,33.691,23.438,58.105,0
1579272610.176,30.762,48.828,32.715,18.555,80.566,0
1579272610.180,28.809,43.945,30.762,10.742,114.746,0
1579272610.183,23.926,42.969,31.738,15.625,0.000,0
1579272610.187,26.855,40.527,38.574,20.508,13.184,0
1579272610.191,34.668,45.898,31.738,20.508,92.285,0
1579272610.195,31.738,50.293,23.438,16.602,54.199,0
1579272610.199,29.297,48.340,35.156,16.113,29.785,0
1579272610.197,32.227,48.828,48.828,24.414,48.340,0
1579272610.201,36.621,48.828,54.199,29.785,8.301,0
1579272610.205,38.086,46.875,43.457,26.367,-19.043,0
1579272610.209,39.062,43.457,39.551,26.855,-32.227,0
1579272610.213,41.992,45.898,46.387,35.156,-7.324,0
1579272610.217,36.621,44.434,40.039,29.785,18.555,0
1579272610.221,26.367,36.621,38.574,20.996,-1.953,0
1579272610.224,28.320,33.691,47.363,21.973,-35.156,0
1579272610.228,29.785,36.621,45.898,23.438,-8.789,0
1579272610.232,33.691,44.434,45.410,23.926,45.410,0
1579272610.236,36.133,42.480,40.039,23.438,-2.441,0
1579272610.240,28.320,41.992,34.668,25.391,-3.906,0
1579272610.236,28.809,45.898,43.457,25.879,68.848,0
1579272610.240,29.297,43.457,43.457,26.367,62.500,0
1579272610.244,33.691,47.852,49.316,31.250,51.270,0
1579272610.248,41.016,48.340,52.246,29.785,48.340,0
1579272610.252,33.203,41.016,26.855,19.531,15.625,0
1579272610.256,26.367,37.598,22.461,17.578,48.340,0
1579272610.260,28.320,34.668,40.527,18.555,58.105,0
1579272610.263,28.809,35.156,49.805,19.043,18.066,0
1579272610.267,28.320,34.668,45.410,16.602,9.277,0
1579272610.271,31.250,37.109,41.504,21.973,17.090,0
1579272610.275,39.062,39.551,42.969,32.227,60.059,0
1579272610.279,39.551,39.062,41.016,32.715,68.848,0
1579272610.296,38.086,42.480,41.504,34.668,11.230,0
1579272610.300,40.527,41.504,41.016,39.062,8.789,0
1579272610.304,40.039,38.086,36.621,37.109,-3.418,0
1579272610.308,43.457,41.992,36.621,38.086,-34.180,0
1579272610.312,49.316,45.410,44.434,42.480,-20.020,0
1579272610.316,42.969,40.527,39.551,37.598,-27.344,0
1579272610.320,38.086,35.645,35.156,33.691,2.441,0
1579272610.323,40.039,37.598,44.922,37.109,33.691,0
1579272610.327,39.551,37.598,48.828,34.180,33.691,0
1579272610.331,33.691,32.715,40.527,30.273,39.062,0
1579272610.335,33.691,32.715,35.156,33.203,26.367,0
1579272610.339,37.598,38.086,40.039,33.203,51.270,0
1579272610.337,36.133,40.039,48.340,28.809,75.195,0
1579272610.341,35.156,37.109,54.688,26.855,72.266,0
1579272610.345,42.969,40.039,58.594,36.621,8.789,0
1579272610.349,41.504,41.992,50.293,38.086,-8.789,0
1579272610.353,30.273,36.133,41.016,26.367,-7.324,0
1579272610.357,26.367,29.297,42.969,21.484,-31.738,0
1579272610.361,25.391,29.785,43.945,23.926,24.414,0
1579272610.364,22.949,34.180,41.992,28.320,54.199,0
1579272610.368,25.879,36.621,42.969,33.203,50.293,0
1579272610.372,34.180,40.527,50.293,32.227,26.367,0
1579272610.376,35.156,35.645,42.969,31.250,-22.461,0
1579272610.380,32.227,34.668,36.133,36.133,15.137,0
1579272610.378,35.156,38.574,43.457,36.621,31.250,0
1579272610.382,40.527,37.598,45.898,34.180,-18.555,0
1579272610.386,44.922,40.527,52.734,38.086,32.715,0
1579272610.390,43.457,37.109,40.527,36.133,60.059,0
1579272610.394,30.762,34.180,35.156,28.809,59.570,0
1579272610.398,31.738,37.109,50.293,25.391,64.941,0
1579272610.402,32.715,35.156,53.711,21.973,56.641,0
1579272610.405,31.250,36.133,49.316,22.949,62.012,0
1579272610.409,39.062,38.086,42.969,29.297,-0.977,0
1579272610.413,39.062,38.086,46.875,34.180,70.312,0
1579272610.417,36.133,37.109,50.293,27.344,96.191,0
1579272610.421,40.527,43.945,52.246,27.832,17.090,0
1579272610.436,43.945,45.410,57.129,36.133,62.012,0
1579272610.440,46.875,41.504,56.641,36.621,50.293,0
1579272610.444,38.574,42.969,46.875,36.133,14.648,0
1579272610.448,28.809,35.156,43.457,31.250,38.574,0
1579272610.452,31.738,28.320,52.246,32.227,60.059,0
1579272610.456,35.156,36.133,55.664,33.203,40.039,0
1579272610.460,36.133,41.992,48.828,28.320,35.156,0
1579272610.463,32.227,43.457,43.457,25.879,68.848,0
1579272610.467,31.250,42.969,43.945,27.832,76.172,0
1579272610.471,29.297,39.062,39.551,29.297,59.570,0
1579272610.475,27.344,38.574,36.133,25.879,18.555,0
1579272610.479,24.414,37.598,42.969,22.461,45.410,0
1579272610.476,33.691,44.922,54.199,31.250,69.336,0
1579272610.480,35.156,42.969,59.082,37.598,62.988,0
1579272610.484,27.344,32.227,53.223,30.273,52.734,0
1579272610.488,23.926,34.180,42.480,23.926,18.066,0
1579272610.492,24.414,31.738,41.016,26.855,30.762,0
1579272610.496,25.879,32.227,48.340,30.273,22.461,0
1579272610.500,27.344,33.691,50.293,29.785,-7.812,0
1579272610.503,29.785,33.203,47.852,30.273,31.250,0
1579272610.507,29.297,31.738,50.293,33.691,34.668,0
1579272610.511,34.180,30.762,54.199,35.645,56.641,0
1579272610.515,33.203,37.109,63.477,33.691,10.254,0
1579272610.519,31.738,37.598,59.082,35.645,-35.645,0
1579272610.517,29.785,33.203,45.410,30.762,4.395,0
1579272610.521,30.762,30.762,44.922,31.738,-31.250,0
1579272610.525,32.227,29.297,41.016,35.645,-21.484,0
1579272610.529,30.273,30.273,43.457,32.715,47.363,0
1579272610.533,30.762,30.762,48.340,30.273,42.480,0
1579272610.537,34.180,34.180,48.340,36.133,-6.836,0
1579272610.541,36.133,38.574,47.852,42.480,14.160,0
1579272610.544,32.227,34.180,42.969,36.133,50.781,0
1579272610.548,25.879,26.855,40.527,26.855,41.992,0
1579272610.552,23.438,26.855,44.922,29.785,56.641,0
1579272610.556,22.461,23.438,48.828,35.156,69.824,0
1579272610.560,22.949,28.809,49.805,32.715,64.941,0
1579272610.577,30.762,41.992,46.875,37.598,-6.348,0
1579272610.581,28.320,35.156,41.504,33.691,-6.836,0
1579272610.585,22.461,25.879,38.574,23.438,25.391,0
1579272610.589,26.855,26.855,36.133,30.762,28.809,0
1579272610.593,29.785,31.738,43.457,34.668,30.273,0
1579272610.597,26.367,33.203,48.828,26.855,7.324,0
1579272610.601,26.855,35.156,47.852,26.367,19.531,0
1579272610.604,27.344,39.062,43.945,33.203,15.625,0
1579272610.608,28.320,39.062,38.086,32.715,20.508,0
1579272610.612,28.809,36.133,43.945,30.273,33.203,0
1579272610.616,28.809,35.645,46.875,30.273,22.461,0
1579272610.620,32.715,41.016,44.922,32.715,14.648,0
1579272610.617,30.762,34.180,46.875,27.344,28.809,0
1579272610.621,24.414,26.855,49.316,24.902,13.184,0
1579272610.625,21.973,33.691,48.828,29.297,46.875,0
1579272610.629,21.973,38.086,46.875,31.250,37.109,0
1579272610.633,27.344,38.574,48.828,30.762,64.453,0
1579272610.637,25.879,38.086,49.805,24.414,59.570,0
1579272610.641,20.508,33.203,47.852,20.996,30.762,0
1579272610.644,26.855,33.203,40.039,26.367,59.082,0
1579272610.648,28.320,33.691,31.738,30.273,34.180,0
1579272610.652,21.973,31.738,36.621,26.367,79.102,0
1579272610.656,21.484,31.738,40.527,28.809,82.520,0
1579272610.660,31.250,33.203,46.875,38.574,50.293,0
1579272610.677,32.715,32.715,47.363,33.691,84.473,0
1579272610.681,27.832,30.273,38.574,29.785,65.430,0
1579272610.685,22.461,30.273,32.715,25.879,34.668,0
1579272610.689,26.367,33.203,27.344,21.973,-19.531,0
1579272610.693,48.340,37.109,30.762,40.527,30.762,0
1579272610.697,50.781,33.691,41.992,49.805,96.680,0
1579272610.701,20.508,31.250,43.457,27.832,99.609,0
1579272610.704,5.859,28.320,40.527,11.230,68.848,0
1579272610.708,16.113,23.926,43.945,21.484,-0.977,0
1579272610.712,20.996,29.785,42.480,35.156,7.324,0
1579272610.716,18.066,27.832,41.016,30.762,10.254,0
1579272610.720,18.555,23.926,36.621,21.484,-4.395,0
1579272610.717,28.320,28.809,37.109,27.832,26.367,0
1579272610.721,33.203,32.227,43.457,34.668,-15.137,0
1579272610.725,32.715,31.250,38.574,33.691,-20.996,0
1579272610.729,34.668,32.715,40.039,35.156,43.945,0
1579272610.733,30.762,30.273,48.340,36.621,37.598,0
1579272610.737,22.949,25.391,49.316,33.691,34.668,0
1579272610.741,21.484,27.832,47.363,30.273,94.238,0
1579272610.744,26.855,33.203,51.758,28.809,64.941,0
1579272610.748,31.738,31.738,54.688,34.180,37.598,0
1579272610.752,33.203,31.738,54.688,41.016,31.738,0
1579272610.756,36.621,41.016,56.152,41.992,-3.418,0
1579272610.760,30.762,36.133,41.992,28.320,31.738,0
1579272610.757,26.367,29.297,32.715,20.996,82.031,0
1579272610.761,23.926,25.391,39.551,24.414,45.898,0
1579272610.765,29.297,21.973,39.551,23.926,28.809,0
1579272610.769,30.273,31.738,45.898,21.973,71.289,0
1579272610.773,26.855,34.668,56.641,24.902,51.270,0
1579272610.777,28.809,27.832,54.199,26.367,-11.719,0
1579272610.781,27.344,28.320,48.340,24.414,22.949,0
1579272610.784,30.273,28.809,50.781,26.855,30.762,0
1579272610.788,31.250,30.273,51.270,23.438,21.484,0
1579272610.792,36.133,35.645,43.945,25.391,-24.414,0
1579272610.796,41.992,33.691,43.457,34.668,-21.484,0
1579272610.800,40.039,34.180,48.340,37.109,39.062,0
1579272610.817,34.668,33.691,47.852,31.738,16.602,0
1579272610.821,31.738,30.762,42.969,30.273,20.020,0
1579272610.825,33.691,31.250,38.574,37.109,45.410,0
1579272610.829,38.574,36.133,37.109,39.062,12.695,0
1579272610.833,41.992,37.598,34.180,36.621,-16.113,0
1579272610.837,34.668,32.227,28.809,36.133,4.395,0
1579272610.841,31.738,32.715,40.039,36.621,22.461,0
1579272610.844,35.645,38.086,44.922,41.016,20.996,0
1579272610.848,34.668,36.621,41.016,35.156,57.617,0
1579272610.852,37.598,34.180,48.828,31.250,49.805,0
1579272610.856,41.992,35.156,47.363,38.086,14.648,0
1579272610.860,36.133,32.715,50.781,41.504,20.020,0
1579272610.857,38.086,37.598,62.500,40.527,51.270,0
1579272610.861,36.621,37.598,56.641,33.691,12.695,0
1579272610.865,27.832,31.738,42.969,30.273,28.320,0
1579272610.869,26.855,32.227,41.016,28.809,40.039,0
1579272610.873,26.855,34.180,40.039,22.949,22.461,0
1579272610.877,26.855,36.621,39.551,22.949,61.035,0
1579272610.881,31.250,33.203,44.922,28.320,97.656,0
1579272610.884,32.715,33.691,39.551,34.180,86.914,0
1579272610.888,31.250,34.668,31.738,30.273,18.066,0
1579272610.892,25.879,31.250,39.551,21.973,17.090,0
1579272610.896,24.902,31.738,46.875,23.438,79.102,0
1579272610.900,22.949,32.715,45.898,24.902,109.863,0
1579272610.897,22.949,33.203,41.016,24.902,13.184,0
1579272610.901,26.367,36.621,42.480,28.320,-20.508,0
1579272610.905,22.461,35.645,41.992,22.949,21.973,0
1579272610.909,22.949,28.320,36.621,21.973,82.031,0
1579272610.913,28.320,32.715,33.203,28.809,108.398,0
1579272610.917,25.879,41.016,23.926,30.273,93.750,0
1579272610.921,28.320,36.133,32.227,27.344,120.605,0
1579272610.924,30.762,33.203,49.316,29.297,85.449,0
1579272610.928,32.227,36.621,50.293,30.762,64.453,0
1579272610.932,33.203,37.598,52.246,31.250,0.488,0
1579272610.936,30.762,34.180,47.852,31.250,-13.672,0
1579272610.940,30.273,35.645,44.434,32.715,34.180,0
1579272610.956,33.203,36.621,45.898,35.645,39.062,0
1579272610.960,38.574,39.551,50.293,31.738,34.668,0
1579272610.964,39.062,37.109,49.805,25.391,-13.672,0
1579272610.968,29.785,25.879,41.016,17.090,-40.527,0
1579272610.972,28.320,30.273,39.551,20.508,46.875,0
1579272610.976,33.203,37.109,35.156,24.902,78.125,0
1579272610.980,39.062,37.109,36.133,20.020,8.301,0
1579272610.983,38.574,35.645,33.691,17.090,27.344,0
1579272610.987,27.832,37.109,28.320,25.879,44.434,0
1579272610.991,21.484,34.180,36.621,33.691,3.418,0
1579272610.995,19.043,31.250,40.527,32.227,9.766,0
1579272610.999,20.508,31.250,39.062,31.250,17.090,0
1579272610.996,32.227,36.621,34.180,37.598,-30.273,0
1579272611.000,35.156,39.062,26.367,41.992,27.832,0
1579272611.004,26.855,36.133,26.367,33.691,15.625,0
1579272611.008,28.320,34.668,34.668,24.902,-32.227,0
1579272611.012,32.227,33.691,35.156,25.391,-17.578,0
1579272611.016,32.715,33.203,31.738,28.809,-25.391,0
1579272611.020,31.738,29.785,39.551,26.855,20.508,0
1579272611.023,32.227,31.738,48.828,25.391,97.168,0
1579272611.027,37.598,34.668,48.340,29.785,71.777,0
1579272611.031,35.156,34.668,49.316,33.691,49.805,0
1579272611.035,33.203,34.180,54.199,28.320,79.590,0
1579272611.039,38.574,37.109,54.199,26.855,70.312,0
1579272611.036,39.551,39.551,56.152,31.250,72.754,0
1579272611.040,42.969,42.480,58.594,35.156,35.645,0
1579272611.044,37.109,36.621,54.199,33.203,55.176,0
1579272611.048,22.949,27.344,43.457,22.461,21.484,0
1579272611.052,25.879,30.273,43.457,21.484,-6.836,0
1579272611.056,33.203,32.227,50.293,28.809,26.367,0
1579272611.060,32.715,31.738,49.805,31.250,15.625,0
1579272611.063,31.250,33.203,49.805,31.250,43.457,0
1579272611.067,34.668,32.715,50.781,28.320,13.672,0
1579272611.071,35.156,34.180,45.410,25.879,-11.719,0
1579272611.075,31.738,35.156,47.363,26.367,43.945,0
1579272611.079,30.273,34.668,52.734,25.879,49.316,0
1579272611.097,37.109,36.621,51.270,29.297,30.273,0
1579272611.101,43.457,41.016,53.711,33.691,15.137,0
1579272611.105,36.621,37.109,46.875,31.738,-6.348,0
1579272611.109,30.273,33.691,41.016,28.320,54.199,0
1579272611.113,31.738,34.668,43.457,23.926,62.988,0
1579272611.117,32.227,28.809,44.434,20.996,32.227,0
1579272611.121,36.133,28.809,40.527,28.809,52.246,0
1579272611.124,41.016,34.668,33.203,31.738,-3.418,0
1579272611.128,35.156,33.203,37.598,23.438,11.230,0
1579272611.132,34.668,30.762,43.945,22.461,27.832,0
1579272611.136,38.086,29.297,46.387,28.809,-20.020,0
1579272611.140,37.598,25.391,48.340,32.715,-1.465,0
1579272611.137,39.062,25.879,48.340,33.691,31.738,0
1579272611.141,41.016,32.227,43.457,33.203,73.730,0
1579272611.145,45.898,41.504,41.016,35.645,77.637,0
1579272611.149,39.551,34.668,35.645,33.691,54.688,0
1579272611.153,33.691,22.949,40.039,29.297,59.570,0
1579272611.157,34.668,25.879,49.805,28.809,41.992,0
1579272611.161,38.086,28.809,47.852,27.832,-9.766,0
1579272611.164,36.621,29.785,47.852,25.879,31.250,0
1579272611.168,31.250,34.180,53.223,24.902,73.242,0
1579272611.172,37.109,34.180,52.734,25.879,80.078,0
1579272611.176,36.133,36.133,46.875,22.949,47.852,0
1579272611.180,32.227,35.645,44.434,20.996,84.961,0
1579272611.176,32.227,31.738,40.527,27.832,98.145,0
1579272611.180,32.715,34.668,38.086,31.250,20.508,0
1579272611.184,32.715,37.109,43.945,25.391,31.738,0
1579272611.188,35.156,38.086,48.828,26.855,2.441,0
1579272611.192,38.574,41.504,48.828,37.598,-37.109,0
1579272611.196,26.855,32.715,42.969,31.738,11.230,0
1579272611.200,24.902,22.461,37.109,22.461,24.902,0
1579272611.203,26.855,26.367,31.738,19.531,59.570,0
1579272611.207,27.832,29.785,30.273,22.949,80.078,0
1579272611.211,31.738,28.320,32.715,28.809,9.277,0
1579272611.215,28.809,33.691,33.203,29.785,-15.137,0
1579272611.219,33.203,36.621,34.180,30.273,33.691,0
1579272611.237,32.715,35.156,32.715,31.738,52.734,0
1579272611.241,29.785,36.621,27.832,29.785,37.109,0
1579272611.245,35.645,36.621,20.996,30.273,63.965,0
1579272611.249,42.969,39.062,28.809,34.668,49.805,0
1579272611.253,32.227,39.062,33.691,31.250,39.062,0
1579272611.257,25.391,31.738,30.273,27.832,30.762,0
1579272611.261,35.156,32.227,29.297,35.645,-5.371,0
1579272611.264,41.016,25.879,22.949,43.457,21.973,0
1579272611.268,40.527,25.879,20.996,41.016,24.902,0
1579272611.272,31.738,40.527,20.996,25.879,53.223,0
1579272611.276,19.531,44.922,19.531,10.254,90.820,0
1579272611.280,15.625,45.410,22.461,11.230,50.293,0
1579272611.277,23.438,43.945,16.602,20.020,71.777,0
1579272611.281,25.879,46.387,8.301,24.902,64.453,0
1579272611.285,25.391,50.781,7.812,21.484,20.508,0
1579272611.289,26.367,56.641,8.789,13.184,39.551,0
1579272611.293,20.020,56.641,9.277,2.441,68.848,0
1579272611.297,20.020,50.293,0.000,2.441,-7.324,0
1579272611.301,27.832,58.105,0.977,10.742,-10.254,0
1579272611.304,16.113,50.293,-5.371,-3.418,33.203,0
1579272611.308,43.945,66.406,10.742,16.113,28.809,0
1579272611.312,96.191,121.094,63.965,69.824,35.645,0
1579272611.316,19.043,57.617,-2.930,-4.395,46.875,0
1579272611.320,-17.090,23.438,-44.434,-48.340,20.508,0
1579272611.316,8.301,56.152,-13.184,-23.438,20.508,0
1579272611.320,13.672,55.664,-21.484,-23.438,51.758,0
1579272611.324,13.672,59.082,-22.461,-25.391,80.078,0
1579272611.328,14.160,60.547,-14.160,-20.020,38.086,0
1579272611.332,23.926,66.406,-13.184,-13.184,43.945,0
1579272611.336,16.602,69.824,-5.859,-17.578,80.566,0
1579272611.340,19.043,65.918,-2.930,-11.719,67.871,0
1579272611.343,22.949,70.801,-6.348,-14.160,81.543,0
1579272611.347,19.531,68.359,-6.836,-21.973,28.809,0
1579272611.351,27.832,64.941,-4.395,-8.789,11.719,0
1579272611.355,29.785,67.383,-10.254,-1.953,52.734,0
1579272611.359,32.715,65.430,-18.066,9.277,29.785,0
1579272611.377,37.109,66.406,-15.137,16.113,31.250,0
1579272611.381,38.574,60.547,-6.836,15.625,28.809,0
1579272611.385,43.945,57.129,1.953,24.414,32.715,0
1579272611.389,46.875,56.152,4.883,28.809,17.578,0
1579272611.393,48.828,57.129,4.883,30.273,38.574,0
1579272611.397,55.664,62.988,11.719,33.203,67.383,0
1579272611.401,53.223,51.270,18.066,29.785,46.875,0
1579272611.404,47.852,37.109,17.578,30.762,17.578,0
1579272611.408,45.898,38.086,14.648,34.180,26.855,0
1579272611.412,44.434,39.551,21.484,31.250,2.930,0
1579272611.416,52.246,41.992,29.297,38.086,-7.812,0
1579272611.420,51.758,41.016,22.949,40.527,80.078,0
1579272611.417,45.410,34.668,17.090,37.598,81.055,0
1579272611.421,114.258,94.727,83.496,104.980,24.414,0
1579272611.425,82.520,63.965,54.199,75.195,18.555,0
1579272611.429,7.812,-5.371,-18.066,1.953,52.246,0
1579272611.433,40.527,20.508,13.672,31.738,33.203,0
1579272611.437,44.922,23.438,24.414,37.109,-14.160,0
1579272611.441,37.598,26.855,27.832,37.109,67.383,0
1579272611.444,39.551,32.227,31.738,41.504,45.898,0
1579272611.448,49.316,32.227,36.621,43.945,26.367,0
1579272611.452,50.293,34.180,33.203,40.039,78.125,0
1579272611.456,49.805,34.180,32.715,34.668,94.727,0
1579272611.460,50.293,31.738,42.969,41.992,41.016,0
1579272611.457,51.758,30.762,40.039,51.270,4.395,0
1579272611.461,43.457,24.902,32.227,41.504,46.387,0
1579272611.465,36.621,22.949,33.691,37.598,70.312,0
1579272611.469,43.457,26.367,36.133,44.434,56.152,0
1579272611.473,48.828,29.785,40.527,52.734,33.203,0
1579272611.477,29.785,15.137,24.414,37.109,-12.207,0
1579272611.481,103.516,78.125,93.262,105.957,11.230,0
1579272611.484,98.633,77.637,93.262,102.051,31.250,0
1579272611.488,-5.371,-13.672,-9.277,-3.906,4.883,0
1579272611.492,21.484,3.418,12.695,21.973,34.180,0
1579272611.496,36.133,18.066,37.598,41.016,34.180,0
1579272611.500,34.668,23.438,42.969,39.551,81.543,0
1579272611.516,41.016,29.297,50.781,47.852,94.727,0
1579272611.520,45.898,32.227,53.711,52.734,43.457,0
1579272611.524,47.363,35.156,57.617,54.688,37.598,0
1579272611.528,46.875,35.156,59.570,52.734,43.457,0
1579272611.532,45.898,32.715,57.129,49.316,20.996,0
1579272611.536,46.387,32.227,58.105,50.781,20.020,0
1579272611.540,46.875,31.738,58.594,50.781,32.715,0
1579272611.543,42.969,30.762,57.617,47.852,37.109,0
1579272611.547,40.039,30.762,59.082,48.828,1.465,0
1579272611.551,49.316,32.715,62.988,55.176,-5.371,0
1579272611.555,32.715,17.578,48.828,40.039,0.977,0
1579272611.559,95.703,78.125,111.328,102.051,-44.922,0
1579272611.556,89.844,75.195,105.957,93.750,10.742,0
1579272611.560,-12.207,-12.207,11.230,-6.348,37.598,0
1579272611.564,12.695,10.254,30.273,18.555,15.625,0
1579272611.568,30.762,18.555,45.410,38.574,85.938,0
1579272611.572,34.668,18.066,51.270,44.922,93.750,0
1579272611.576,40.527,29.297,54.199,49.805,-13.672,0
1579272611.580,35.645,38.086,53.711,41.016,18.555,0
1579272611.583,24.902,36.133,58.594,28.320,50.293,0
1579272611.587,26.855,31.738,61.523,30.762,-26.855,0
1579272611.591,30.273,35.156,56.641,31.738,21.973,0
1579272611.595,22.461,38.086,53.223,24.414,69.336,0
1579272611.599,26.367,37.109,55.664,31.250,35.156,0
1579272611.597,33.691,35.645,60.547,32.227,13.672,0
1579272611.601,22.949,25.391,48.340,16.113,32.715,0
1579272611.605,93.262,81.055,109.863,88.379,63.965,0
1579272611.609,68.359,57.617,87.402,66.895,41.504,0
1579272611.613,-16.602,-14.160,7.812,-10.742,51.270,0
1579272611.617,17.090,15.625,35.156,22.461,88.379,0
1579272611.621,29.297,24.414,42.969,30.762,82.031,0
1579272611.624,37.109,29.297,53.223,35.645,68.848,0
1579272611.628,42.480,29.785,59.570,37.109,64.941,0
1579272611.632,41.992,25.879,57.129,35.645,30.273,0
1579272611.636,44.434,29.297,62.500,38.574,54.688,0
1579272611.640,43.945,35.645,68.848,48.340,74.219,0
1579272611.657,39.551,28.809,63.965,45.898,41.504,0
1579272611.661,37.598,25.879,58.594,39.062,49.316,0
1579272611.665,33.203,27.344,57.617,41.504,39.062,0
1579272611.669,36.133,26.367,57.617,43.945,68.848,0
1579272611.673,35.645,30.273,57.617,44.434,48.828,0
1579272611.677,38.574,30.762,58.594,42.969,38.574,0
1579272611.681,46.387,35.156,63.965,42.480,13.672,0
1579272611.684,21.484,22.949,47.363,25.879,-15.625,0
1579272611.688,73.242,68.848,93.262,76.172,70.312,0
1579272611.692,90.332,83.984,109.375,92.773,44.922,0
1579272611.696,-5.859,0.488,7.324,-1.465,0.000,0
1579272611.700,-2.441,3.418,-0.977,5.859,50.293,0
1579272611.696,19.043,18.066,17.578,32.715,35.156,0
1579272611.700,23.926,20.508,13.672,33.691,53.223,0
1579272611.704,25.391,25.879,11.230,33.203,57.617,0
1579272611.708,27.344,30.273,17.578,36.133,12.207,0
1579272611.712,33.691,32.715,22.461,41.992,5.371,0
1579272611.716,38.574,32.227,25.879,45.410,20.020,0
1579272611.720,23.926,21.484,17.578,29.297,7.812,0
1579272611.723,80.078,80.566,70.312,89.844,-16.113,0
1579272611.727,53.711,58.594,48.340,67.383,3.418,0
1579272611.731,-21.484,-16.113,-19.043,-16.113,-4.883,0
1579272611.735,15.137,16.602,19.531,12.695,2.441,0
1579272611.739,23.438,25.879,33.203,20.996,33.203,0
1579272611.736,26.367,29.297,37.598,29.297,54.688,0
1579272611.740,30.273,34.180,42.969,36.133,104.980,0
1579272611.744,34.180,33.203,41.992,34.180,80.566,0
1579272611.748,27.344,32.227,34.180,31.738,20.996,0
1579272611.752,23.438,31.250,29.297,32.715,14.648,0
1579272611.756,28.809,31.738,29.297,35.156,15.625,0
1579272611.760,27.344,34.668,30.273,38.574,9.277,0
1579272611.763,24.902,33.691,30.273,31.250,41.016,0
1579272611.767,29.297,33.203,33.691,24.902,-2.930,0
1579272611.771,33.203,34.180,35.645,26.855,-19.043,0
1579272611.775,35.645,31.738,40.039,28.809,8.301,0
1579272611.779,37.598,30.762,40.039,29.297,-9.766,0
1579272611.797,32.227,30.273,38.574,28.320,29.785,0
1579272611.801,21.484,26.855,37.598,28.320,48.340,0
1579272611.805,21.973,30.273,41.504,38.086,33.691,0
1579272611.809,9.766,16.113,28.809,27.344,49.316,0
1579272611.813,51.270,57.129,70.801,69.824,25.391,0
1579272611.817,72.266,83.984,99.121,92.285,10.742,0
1579272611.821,-18.066,-0.488,17.090,-3.906,11.719,0
1579272611.824,-13.672,-5.371,16.602,-7.324,41.992,0
1579272611.828,8.789,18.555,39.551,18.555,46.875,0
1579272611.832,6.836,18.555,41.016,20.996,19.531,0
1579272611.836,14.648,23.438,46.875,30.762,-11.230,0
1579272611.840,24.414,27.344,52.246,36.621,-4.883,0
1579272611.837,31.738,28.809,53.711,35.156,68.359,0
1579272611.841,29.785,31.738,53.711,35.156,67.383,0
1579272611.845,30.273,31.250,52.734,39.062,17.578,0
1579272611.849,26.367,27.832,51.270,37.598,16.602,0
1579272611.853,20.996,29.297,51.758,29.297,22.949,0
1579272611.857,27.832,30.273,45.898,29.297,43.457,0
1579272611.861,20.996,21.973,38.086,22.949,83.984,0
1579272611.864,85.449,81.055,96.191,82.031,58.105,0
1579272611.868,58.594,57.129,59.570,53.711,37.109,0
1579272611.872,-21.973,-13.184,-19.531,-29.785,62.988,0
1579272611.876,7.812,14.648,-3.418,0.977,92.285,0
1579272611.880,17.578,24.902,4.883,18.066,74.707,0
1579272611.877,27.344,32.715,25.391,20.508,30.762,0
1579272611.881,33.691,35.156,35.156,24.414,33.203,0
1579272611.885,36.621,33.203,38.574,27.832,-5.859,0
1579272611.889,36.621,32.227,37.109,26.367,-48.828,0
1579272611.893,40.527,36.133,40.527,32.715,2.930,0
1579272611.897,29.785,28.320,24.902,22.461,98.633,0
1579272611.901,50.781,47.363,41.992,44.434,58.594,0
1579272611.904,93.262,83.984,85.449,88.867,12.695,0
1579272611.908,20.020,12.695,20.020,16.602,20.508,0
1579272611.912,-1.465,-8.789,6.348,-8.301,26.367,0
1579272611.916,26.367,22.461,45.410,24.902,26.367,0
1579272611.920,23.926,23.926,51.270,31.738,38.086,0
1579272611.936,30.273,26.855,56.152,37.598,35.645,0
1579272611.940,35.645,31.250,60.059,39.551,71.289,0
1579272611.944,33.691,31.250,63.965,41.992,90.332,0
1579272611.948,37.109,29.297,66.406,46.875,41.992,0
1579272611.952,37.109,31.738,59.082,47.852,48.340,0
1579272611.956,40.039,38.574,62.500,54.688,52.246,0
1579272611.960,29.297,26.367,49.316,36.621,47.363,0
1579272611.963,67.871,57.617,79.590,65.918,92.773,0
1579272611.967,93.262,81.543,105.469,104.004,80.566,0
1579272611.971,4.395,8.301,22.461,17.090,20.508,0
1579272611.975,4.883,6.348,16.602,1.465,20.020,0
1579272611.979,25.879,21.484,34.668,20.508,49.316,0
1579272611.979,92.285,83.496,91.797,88.379,64.453,0
1579272611.983,49.316,44.922,47.852,51.270,42.969,0
1579272611.987,42.969,35.645,36.621,41.992,28.320,0
1579272611.991,61.035,55.176,58.105,60.547,20.020,0
1579272611.995,19.531,17.090,20.996,21.484,6.836,0
1579272611.999,60.059,50.293,63.477,62.012,28.320,0
1579272612.003,41.992,37.109,55.664,46.387,6.348,0
1579272612.006,29.785,28.809,48.828,37.598,10.742,0
1579272612.010,29.297,26.855,47.852,38.574,59.570,0
1579272612.014,-15.137,-19.043,0.488,-9.766,56.641,0
1579272612.018,-12.695,-15.137,-4.883,-10.742,75.195,0
1579272612.022,28.809,24.902,27.344,35.645,96.680,0
1579272612.017,36.133,28.320,31.250,41.504,15.137,0
1579272612.021,37.109,32.227,43.457,45.410,-17.578,0
1579272612.025,39.062,32.715,53.711,49.316,33.203,0
1579272612.029,41.016,33.691,58.594,47.363,18.066,0
1579272612.033,38.574,36.133,59.082,47.852,-26.367,0
1579272612.037,42.480,40.039,64.941,56.641,-3.418,0
1579272612.041,28.320,30.273,55.664,43.457,61.523,0
1579272612.044,91.309,88.379,117.188,98.145,101.074,0
1579272612.048,74.707,72.266,101.562,75.684,56.152,0
1579272612.052,25.879,30.762,58.105,37.109,25.879,0
1579272612.056,9.277,17.578,43.457,25.879,40.527,0
1579272612.060,-15.625,-8.301,15.137,-8.301,47.852,0
1579272612.077,32.715,26.367,55.664,30.273,58.594,0
1579272612.081,40.527,31.250,60.547,36.133,29.297,0
1579272612.085,39.062,34.180,61.035,42.969,1.953,0
1579272612.089,33.203,32.715,62.500,44.434,39.062,0
1579272612.093,31.738,36.133,65.918,40.039,52.734,0
1579272612.097,36.621,40.039,66.406,37.109,70.801,0
1579272612.101,40.039,40.527,63.965,39.551,100.098,0
1579272612.104,40.039,41.992,62.500,39.551,80.566,0
1579272612.108,44.434,43.457,60.547,40.527,22.461,0
1579272612.112,46.875,45.410,61.035,41.016,23.438,0
1579272612.116,48.828,46.875,65.918,38.574,63.477,0
1579272612.120,40.527,41.504,63.477,39.062,37.109,0
1579272612.117,33.691,41.504,62.012,42.480,-0.977,0
1579272612.121,83.984,83.496,110.840,88.379,-28.320,0
1579272612.125,39.062,37.598,67.871,41.016,19.043,0
1579272612.129,-2.930,-2.930,21.484,-2.441,43.457,0
1579272612.133,28.809,30.273,43.457,31.738,6.348,0
1579272612.137,28.320,34.180,39.062,30.762,14.648,0
1579272612.141,20.508,28.320,30.762,20.508,59.570,0
1579272612.144,89.355,87.402,95.703,86.426,32.227,0
1579272612.148,61.523,62.012,67.871,55.664,-51.270,0
1579272612.152,-17.578,-12.207,-14.160,-27.344,-36.621,0
1579272612.156,18.066,20.020,21.484,16.113,40.039,0
1579272612.160,24.414,31.250,36.133,31.738,20.996,0
1579272612.157,28.809,33.691,44.434,31.738,-7.324,0
1579272612.161,34.180,35.645,44.922,30.273,60.547,0
1579272612.165,36.621,36.621,39.062,33.203,35.645,0
1579272612.169,35.156,37.598,37.109,34.668,39.551,0
1579272612.173,36.621,37.109,40.039,34.180,72.754,0
1579272612.177,39.062,36.621,43.457,34.668,67.871,0
1579272612.181,34.668,33.203,44.434,33.691,52.734,0
1579272612.184,32.227,33.203,47.363,32.227,18.066,0
1579272612.188,30.273,38.574,50.293,36.133,42.969,0
1579272612.192,32.227,35.156,52.246,37.598,78.613,0
1579272612.196,27.344,34.180,53.223,32.227,98.633,0
1579272612.200,26.855,34.180,53.223,33.203,50.781,0
1579272612.216,26.367,29.785,57.129,34.180,50.781,0
1579272612.220,22.949,31.250,56.641,31.738,99.609,0
1579272612.224,22.949,31.738,55.664,26.367,51.270,0
1579272612.228,24.902,30.273,59.570,21.484,30.273,0
1579272612.232,24.414,32.715,58.105,25.879,62.012,0
1579272612.236,20.508,33.203,50.781,25.879,55.664,0
1579272612.240,23.438,33.691,50.781,21.484,31.738,0
1579272612.243,22.461,37.598,56.641,21.484,-10.254,0
1579272612.247,17.578,37.109,62.012,18.066,-13.184,0
1579272612.251,19.531,30.762,63.477,17.090,21.973,0
1579272612.255,19.531,30.273,62.500,19.043,24.902,0
1579272612.259,25.879,34.180,60.547,17.578,2.930,0
1579272612.256,31.738,33.203,60.059,21.973,-4.395,0
1579272612.260,25.879,35.156,63.477,21.973,41.992,0
1579272612.264,22.949,32.715,65.918,22.949,58.594,0
1579272612.268,21.484,32.227,63.965,25.879,73.242,0
1579272612.272,22.461,35.156,62.988,22.461,75.684,0
1579272612.276,23.926,34.668,63.965,23.926,16.602,0
1579272612.280,21.973,37.109,62.988,23.926,40.039,0
1579272612.283,22.949,36.621,62.500,23.438,30.762,0
1579272612.287,24.902,35.156,63.477,21.973,18.066,0
1579272612.291,21.973,34.180,64.453,14.160,64.453,0
1579272612.295,32.227,35.156,53.711,22.461,46.875,0
1579272612.299,44.434,39.062,50.293,32.715,64.941,0
1579272612.317,21.973,33.203,59.082,21.484,65.918,0
1579272612.321,-7.324,21.484,60.547,2.930,34.668,0
1579272612.325,-10.742,22.461,59.570,-10.742,45.898,0
1579272612.329,-14.160,26.855,62.500,-11.719,-3.906,0
1579272612.333,-34.180,20.508,66.895,-25.391,-30.273,0
1579272612.337,-45.898,15.625,71.777,-36.621,-28.809,0
1579272612.341,-54.199,12.695,76.172,-38.086,-1.465,0
1579272612.344,-65.430,10.254,76.660,-41.504,43.457,0
1579272612.348,-79.102,10.254,79.102,-53.223,33.203,0
1579272612.352,-83.496,5.371,79.590,-64.453,30.273,0
1579272612.356,-75.684,11.230,84.473,-54.688,11.230,0
1579272612.360,-81.055,12.207,91.309,-58.594,14.160,0
1579272612.357,-83.984,2.930,86.426,-65.918,38.574,0
1579272612.361,-95.703,0.977,81.543,-69.824,41.992,0
1579272612.365,-93.750,-1.465,79.102,-68.359,0.488,0
1579272612.369,-76.660,3.418,85.938,-59.082,22.949,0
1579272612.373,-78.613,9.277,90.820,-62.988,20.508,0
1579272612.377,-67.871,11.719,87.402,-55.664,1.953,0
1579272612.381,-48.828,16.113,86.426,-43.945,55.664,0
1579272612.384,-43.945,15.137,84.961,-33.203,54.199,0
1579272612.388,-40.527,15.137,82.520,-22.949,-26.855,0
1579272612.392,-27.344,16.113,82.031,-20.020,-41.504,0
1579272612.396,-15.625,18.066,81.543,-9.766,54.688,0
1579272612.400,-2.930,24.414,79.590,-0.977,46.875,0
1579272612.397,1.953,24.414,78.125,2.441,4.395,0
1579272612.401,-2.441,26.855,74.219,6.348,41.504,0
1579272612.405,1.465,31.738,72.266,11.719,52.246,0
1579272612.409,8.789,28.320,71.777,21.484,20.020,0
1579272612.413,18.555,32.227,72.754,27.832,29.297,0
1579272612.417,25.391,35.156,71.777,23.438,47.852,0
1579272612.421,20.996,27.344,64.453,15.137,21.484,0
1579272612.424,24.414,23.926,62.012,28.320,63.965,0
1579272612.428,38.574,21.484,64.941,45.410,68.848,0
1579272612.432,23.438,30.762,60.059,30.762,61.035,0
1579272612.436,6.348,35.156,56.641,16.113,40.039,0
1579272612.440,16.113,34.180,60.059,25.879,18.066,0
1579272612.456,18.066,38.086,61.523,28.320,19.043,0
1579272612.460,11.719,36.621,63.965,22.949,-12.207,0
1579272612.464,9.277,33.203,59.082,17.090,18.555,0
1579272612.468,15.625,33.203,50.293,21.973,21.484,0
1579272612.472,26.855,37.109,46.875,37.109,64.941,0
1579272612.476,31.250,42.969,50.293,39.062,55.664,0
1579272612.480,27.832,41.016,45.898,23.926,53.223,0
1579272612.483,33.691,42.480,46.387,25.879,90.820,0
1579272612.487,91.309,91.797,102.051,87.402,8.789,0
1579272612.491,37.598,43.457,51.270,40.527,26.367,0
1579272612.495,-20.020,-7.812,-7.812,-17.578,59.570,0
1579272612.499,15.137,24.414,24.414,10.254,6.348,0
1579272612.496,21.484,27.832,37.109,17.090,21.973,0
1579272612.500,16.113,25.879,39.062,21.973,57.129,0
1579272612.504,19.531,32.227,39.551,24.414,42.969,0
1579272612.508,32.715,34.180,39.062,25.879,62.012,0
1579272612.512,34.668,29.785,39.062,24.414,70.312,0
1579272612.516,29.297,35.645,38.574,32.715,34.668,0
1579272612.520,22.461,30.762,18.555,28.320,63.965,0
1579272612.523,41.992,39.062,11.230,33.203,80.078,0
1579272612.527,98.145,89.355,43.945,84.473,18.555,0
1579272612.531,21.973,30.273,-30.762,25.391,21.973,0
1579272612.535,-23.926,-14.160,-80.566,-19.043,85.938,0
1579272612.539,18.555,20.996,-56.152,10.254,89.355,0
1579272612.536,21.973,28.809,-55.176,14.160,17.090,0
1579272612.540,27.344,32.715,-49.805,24.414,2.930,0
1579272612.544,22.949,31.738,-48.828,34.180,42.480,0
1579272612.548,28.809,31.738,-41.504,30.762,44.922,0
1579272612.552,34.668,35.156,-31.738,27.832,-4.395,0
1579272612.556,18.555,31.250,-30.762,24.902,-19.043,0
1579272612.560,96.191,86.914,28.320,96.191,-9.277,0
1579272612.563,60.059,52.734,-10.742,64.941,-5.859,0
1579272612.567,-37.109,-10.742,-85.938,-29.785,38.086,0
1579272612.571,-10.254,17.090,-55.176,-4.395,15.137,0
1579272612.575,-1.465,20.508,-45.898,10.254,-25.879,0
1579272612.579,3.906,31.738,-45.898,11.719,-22.949,0
1579272612.597,-2.441,33.203,-55.664,11.230,9.766,0
1579272612.601,-8.301,25.879,-63.477,9.277,73.242,0
1579272612.605,1.465,25.879,-67.383,20.508,77.148,0
1579272612.609,6.348,28.320,-83.008,19.043,36.621,0
1579272612.613,9.277,35.156,-89.844,14.648,35.645,0
1579272612.617,18.066,34.180,-90.332,23.438,59.570,0
1579272612.621,25.879,33.691,-98.145,29.297,67.383,0
1579272612.624,19.531,35.156,-103.027,27.832,70.801,0
1579272612.628,19.531,36.621,-102.051,27.344,29.785,0
1579272612.632,17.090,37.598,-104.492,27.344,5.371,0
1579272612.636,8.789,38.086,-111.816,23.926,20.996,0
1579272612.640,16.602,40.039,-118.652,22.461,60.547,0
1579272612.637,25.879,38.086,-111.816,25.391,12.207,0
1579272612.641,23.926,33.203,-105.957,24.902,2.930,0
1579272612.645,17.578,36.133,-104.004,20.020,18.555,0
1579272612.649,-4.883,25.391,-117.188,11.719,36.621,0
1579272612.653,35.156,60.059,-75.195,53.223,113.281,0
1579272612.657,84.961,93.750,-38.574,75.684,41.016,0
1579272612.661,-2.930,6.348,-129.883,-5.859,-29.297,0
1579272612.664,-19.043,-6.836,-143.555,-12.695,-13.184,0
1579272612.668,8.301,20.508,-106.445,12.207,20.020,0
1579272612.672,3.906,21.484,-86.914,22.461,11.230,0
1579272612.676,9.766,32.715,-72.266,26.367,25.391,0
1579272612.680,9.277,29.297,-52.246,27.832,28.809,0
1579272612.678,13.672,27.832,-27.344,38.086,24.414,0
1579272612.682,20.996,35.156,-22.461,34.180,79.102,0
1579272612.686,23.438,36.133,-19.043,34.668,77.637,0
1579272612.690,25.879,34.180,-31.250,31.738,42.480,0
1579272612.694,17.578,32.227,-37.109,17.090,16.602,0
1579272612.698,70.801,85.449,40.039,78.613,4.395,0
1579272612.702,33.691,44.922,18.555,41.016,25.879,0
1579272612.705,-29.785,-14.648,-29.297,-28.809,70.801,0
1579272612.709,5.371,25.391,22.461,11.230,104.004,0
1579272612.713,19.043,35.156,46.875,25.391,114.746,0
1579272612.717,26.855,33.691,54.199,27.832,65.430,0
1579272612.721,21.973,33.691,38.086,22.949,13.184,0
1579272612.738,25.879,39.062,25.391,30.762,51.270,0
1579272612.742,47.363,47.363,33.691,40.527,104.492,0
1579272612.746,40.527,43.945,42.969,25.391,47.852,0
1579272612.750,24.902,35.156,41.504,11.230,-82.520,0
1579272612.754,23.438,32.227,37.109,17.090,-20.020,0
1579272612.758,81.055,85.938,86.914,86.426,76.172,0
1579272612.762,32.227,46.875,30.762,40.039,0.977,0
1579272612.765,-22.949,-6.348,-50.781,-30.273,0.488,0
1579272612.769,17.090,26.367,-28.320,11.230,-9.766,0
1579272612.773,13.184,31.738,-19.043,21.973,-37.598,0
1579272612.777,15.625,35.156,-10.254,26.367,15.625,0
1579272612.781,22.461,37.109,-2.930,19.531,18.066,0
1579272612.776,27.832,40.527,2.930,19.043,49.805,0
1579272612.780,23.926,38.086,9.766,27.832,31.250,0
1579272612.784,31.738,36.133,18.066,29.785,10.742,0
1579272612.788,31.738,38.086,20.020,19.531,68.848,0
1579272612.792,23.926,38.574,23.438,19.531,66.406,0
1579272612.796,31.738,39.062,30.273,32.227,51.270,0
1579272612.800,38.086,39.062,21.484,28.809,76.172,0
1579272612.803,38.574,38.086,3.418,20.508,80.566,0
1579272612.807,27.832,38.086,-3.906,20.996,57.617,0
1579272612.811,30.273,41.504,0.000,24.414,47.363,0
1579272612.815,28.809,42.480,-6.348,23.438,-0.488,0
1579272612.819,29.785,34.668,1.953,19.043,-15.625,0
1579272612.816,32.715,32.227,35.156,20.996,33.691,0
1579272612.820,25.879,35.156,54.199,27.832,32.227,0
1579272612.824,25.879,33.691,69.336,26.855,35.645,0
1579272612.828,33.203,39.551,86.914,23.438,58.105,0
1579272612.832,29.297,42.969,93.262,20.996,43.945,0
1579272612.836,14.160,31.250,81.055,15.625,13.184,0
1579272612.840,18.555,29.297,71.777,17.090,32.227,0
1579272612.843,19.531,29.785,79.590,21.484,41.992,0
1579272612.847,19.043,31.250,84.473,16.113,41.992,0
1579272612.851,22.461,34.668,83.496,14.160,87.402,0
1579272612.855,25.879,32.715,79.590,21.484,107.422,0
1579272612.859,21.973,28.809,75.684,22.949,56.641,0
1579272612.876,21.484,30.273,75.684,22.461,83.008,0
1579272612.880,20.020,31.250,76.172,22.949,108.398,0
1579272612.884,15.625,32.227,74.707,24.414,67.383,0
1579272612.888,15.625,29.297,65.918,24.414,47.852,0
1579272612.892,22.461,27.832,57.129,19.531,86.426,0
1579272612.896,30.762,35.645,54.688,21.484,30.273,0
1579272612.900,16.113,30.273,48.340,12.695,54.688,0
1579272612.903,73.242,90.820,126.465,75.195,88.379,0
1579272612.907,51.270,70.801,115.723,56.152,36.133,0
1579272612.911,-29.785,-18.066,33.203,-33.691,66.895,0
1579272612.915,-3.906,8.789,67.383,-3.906,111.816,0
1579272612.919,1.953,23.438,84.473,12.207,47.852,0
1579272612.916,13.672,29.297,89.355,15.137,3.906,0
1579272612.920,22.461,32.227,95.215,18.555,-14.160,0
1579272612.924,21.973,30.273,99.609,17.578,-14.648,0
1579272612.928,33.203,40.527,101.562,23.438,41.504,0
1579272612.932,20.508,35.645,89.844,14.648,23.438,0
1579272612.936,29.297,56.641,108.887,33.203,-12.695,0
1579272612.940,66.895,91.309,129.883,69.824,-31.738,0
1579272612.943,-7.812,17.090,29.785,-13.184,-4.883,0
1579272612.947,-20.508,-6.348,-2.441,-30.273,-51.270,0
1579272612.951,11.719,26.855,30.762,7.324,-27.832,0
1579272612.955,18.066,32.715,26.367,0.000,46.387,0
1579272612.959,18.066,35.156,26.855,9.766,29.785,0
1579272612.956,15.137,32.227,33.203,20.020,66.895,0
1579272612.960,27.832,41.016,34.668,24.414,57.617,0
1579272612.964,35.156,49.316,12.207,34.180,-16.602,0
1579272612.968,13.184,22.461,-41.992,10.254,-48.340,0
1579272612.972,85.938,76.660,-10.742,68.848,34.180,0
1579272612.976,81.055,87.402,-36.133,78.613,83.496,0
1579272612.980,-33.691,-5.371,-149.414,-29.297,57.129,0
1579272612.983,-15.625,3.418,-91.797,-11.230,43.457,0
1579272612.987,3.418,22.949,-11.230,19.531,11.230,0
1579272612.991,12.207,30.273,8.301,17.578,8.301,0
1579272612.995,19.531,32.715,14.648,18.555,-22.949,0
1579272612.999,25.879,30.273,19.531,27.832,-19.531,0
1579272613.018,24.902,30.762,19.531,28.320,41.992,0
1579272613.022,33.691,36.621,16.602,24.414,23.438,0
1579272613.026,18.555,37.598,8.789,22.461,67.871,0
1579272613.030,9.766,33.203,-25.879,15.625,130.371,0
1579272613.034,14.160,32.715,-73.730,7.812,46.875,0
1579272613.038,0.488,34.668,-88.379,4.883,40.039,0
1579272613.042,-3.906,34.180,-74.707,5.371,73.730,0
1579272613.045,-2.930,29.297,-117.188,4.883,17.578,0
1579272613.049,6.348,30.762,-198.730,3.418,43.945,0
1579272613.053,-2.441,40.039,-185.059,-4.395,60.059,0
1579272613.057,-13.672,45.898,-102.539,-12.207,13.184,0
1579272613.061,-20.508,41.992,-58.105,-21.484,20.020,0
1579272613.057,-27.832,35.645,-35.645,-27.832,23.926,0
1579272613.061,-26.367,33.691,-19.043,-30.273,22.461,0
1579272613.065,-38.086,33.691,-29.785,-39.062,58.594,0
1579272613.069,-45.410,33.203,-32.227,-34.180,38.086,0
1579272613.073,-49.805,27.344,-24.902,-34.668,23.438,0
1579272613.077,-48.828,27.344,-62.012,-50.293,20.508,0
1579272613.081,-29.297,29.785,-143.555,-47.852,8.789,0
1579272613.084,-34.668,29.785,-203.125,-45.898,21.484,0
1579272613.088,-42.969,34.180,-223.633,-56.641,56.152,0
1579272613.092,-32.227,33.203,-214.355,-47.363,82.031,0
1579272613.096,-35.645,26.367,-155.762,-41.504,11.230,0
1579272613.100,31.250,82.031,-59.570,20.020,-35.156,0
1579272613.097,-9.766,48.340,-92.773,-18.555,0.488,0
1579272613.101,-84.473,-11.230,-136.230,-83.496,70.312,0
1579272613.105,-22.949,18.066,-87.891,-30.273,57.129,0
1579272613.109,-11.230,16.602,-83.984,-20.996,54.688,0
1579272613.113,-23.926,19.043,-80.078,-16.602,45.898,0
1579272613.117,-6.836,24.414,-81.543,0.000,-18.066,0
1579272613.121,13.672,33.691,-99.121,9.766,-26.855,0
1579272613.124,13.672,37.109,-106.934,15.137,42.480,0
1579272613.128,14.160,35.645,-105.469,20.996,51.270,0
1579272613.132,25.879,34.668,-103.516,19.531,25.391,0
1579272613.136,34.180,35.156,-73.730,25.879,-8.301,0
1579272613.140,41.504,41.992,-43.945,37.598,-36.621,0
1579272613.157,50.781,41.504,-45.898,43.945,14.648,0
1579272613.161,44.922,28.809,-70.801,29.297,89.844,0
1579272613.165,119.629,95.215,-8.301,93.262,108.887,0
1579272613.169,101.562,82.520,-16.602,89.844,61.035,0
1579272613.173,-1.465,-16.602,-115.723,-4.395,20.508,0
1579272613.177,28.320,7.324,-89.844,16.113,-35.645,0
1579272613.181,53.711,21.973,-67.871,38.574,-11.230,0
1579272613.184,61.523,26.855,-72.266,54.688,44.922,0
1579272613.188,56.152,34.668,-43.457,57.617,25.391,0
1579272613.192,57.129,37.109,2.930,50.781,56.641,0
1579272613.196,60.059,39.551,17.090,51.270,89.355,0
1579272613.200,56.641,38.086,31.250,59.570,68.848,0
1579272613.196,59.082,34.668,41.016,65.430,98.145,0
1579272613.200,59.570,33.203,31.250,63.477,33.691,0
1579272613.204,62.988,41.992,22.461,62.988,-1.465,0
1579272613.208,61.523,42.480,15.625,55.664,23.926,0
1579272613.212,53.223,33.691,21.973,50.781,-7.812,0
1579272613.216,51.270,37.598,20.508,50.781,-32.715,0
1579272613.220,41.992,29.297,-27.344,39.062,27.832,0
1579272613.223,72.266,54.199,-17.090,66.895,46.875,0
1579272613.227,109.863,88.867,10.254,110.352,42.969,0
1579272613.231,35.156,18.066,-97.168,24.902,38.086,0
1579272613.235,14.160,-2.930,-130.371,-2.441,17.090,0
1579272613.239,30.273,25.879,-83.984,34.180,22.461,0
1579272613.236,42.480,30.762,-47.363,44.434,20.020,0
1579272613.240,64.453,36.621,-3.418,56.152,21.973,0
1579272613.244,62.012,37.109,21.484,53.223,30.273,0
1579272613.248,52.734,35.156,46.875,46.387,43.457,0
1579272613.252,60.059,41.016,63.965,52.246,78.613,0
1579272613.256,60.059,39.062,24.902,54.199,66.895,0
1579272613.260,52.734,28.320,-3.906,52.246,2.930,0
1579272613.263,50.781,24.902,19.531,47.852,3.906,0
1579272613.267,43.945,25.879,44.434,47.852,6.348,0
1579272613.271,32.227,27.832,71.289,59.082,2.441,0
1579272613.275,38.574,31.738,50.781,61.035,7.324,0
1579272613.279,37.598,32.715,-26.855,51.758,15.625,0
1579272613.297,24.414,30.273,-94.238,39.062,60.547,0
1579272613.301,33.691,31.250,-119.629,38.086,45.898,0
1579272613.305,40.527,35.645,-132.324,46.875,4.883,0
1579272613.309,36.133,38.574,-158.203,48.340,19.531,0
1579272613.313,41.992,32.715,-120.117,43.457,-6.348,0
1579272613.317,48.340,33.691,-35.645,51.270,-8.301,0
1579272613.321,49.805,35.156,-60.059,41.504,32.227,0
1579272613.324,77.637,54.688,-87.402,51.758,10.254,0
1579272613.328,85.938,82.520,-90.332,88.379,3.906,0
1579272613.332,0.000,13.672,-157.715,20.020,44.434,0
1579272613.336,-10.254,-7.324,-173.340,-3.906,94.238,0
1579272613.340,13.672,22.461,-166.504,19.531,96.680,0
1579272613.337,12.695,26.855,-164.062,17.090,43.945,0
1579272613.341,32.715,28.320,-165.527,28.809,19.531,0
1579272613.345,25.879,31.738,-129.883,32.227,89.355,0
1579272613.349,12.695,31.250,-172.852,29.785,126.465,0
1579272613.353,23.438,27.832,-174.805,30.273,86.914,0
1579272613.357,35.645,29.297,-84.961,23.926,31.738,0
1579272613.361,37.109,33.203,-96.191,25.391,5.859,0
1579272613.364,27.832,36.621,-112.305,27.344,18.066,0
1579272613.368,33.203,38.086,-32.715,21.484,37.109,0
1579272613.372,15.625,34.668,15.137,13.184,50.293,0
1579272613.376,-12.695,29.785,52.734,3.906,67.871,0
1579272613.380,-7.812,28.320,88.867,8.789,34.180,0
1579272613.377,-6.836,25.879,111.328,11.230,48.828,0
1579272613.381,-3.906,28.809,116.699,-7.324,67.871,0
1579272613.385,-3.906,31.738,103.516,-7.324,27.344,0
1579272613.389,-11.719,30.273,114.258,0.000,8.301,0
1579272613.393,-25.391,32.715,141.602,-21.973,-1.465,0
1579272613.397,-31.250,35.156,137.695,-32.715,37.109,0
1579272613.401,-33.691,32.227,95.215,-41.016,39.062,0
1579272613.404,-35.645,24.902,95.703,-35.645,29.785,0
1579272613.408,-25.391,31.250,95.215,-24.902,43.457,0
1579272613.412,-38.574,22.461,33.203,-54.688,14.648,0
1579272613.416,11.719,77.637,28.320,0.000,48.828,0
1579272613.420,13.184,77.148,-52.734,14.160,48.828,0
1579272613.437,-88.867,-9.766,-190.430,-75.195,46.875,0
1579272613.441,-67.383,2.441,-181.641,-54.199,104.004,0
1579272613.445,-36.621,15.137,-144.043,-42.480,53.711,0
1579272613.449,-39.551,24.902,-110.840,-42.480,19.043,0
1579272613.453,-36.621,28.320,-79.102,-27.832,21.973,0
1579272613.457,-41.992,25.391,-45.410,-26.855,-21.973,0
1579272613.461,-36.133,25.391,-48.340,-28.320,-5.859,0
1579272613.464,-4.395,27.832,-56.641,-4.883,20.996,0
1579272613.468,9.277,27.344,-53.223,7.812,86.426,0
1579272613.472,6.348,30.762,-44.922,-10.254,92.285,0
1579272613.476,23.926,32.715,0.488,-0.977,15.625,0
1579272613.480,27.832,31.738,36.133,16.602,-10.254,0
1579272613.477,17.090,36.133,37.598,14.160,-10.254,0
1579272613.481,25.391,31.738,51.270,27.832,27.832,0
1579272613.485,37.109,28.809,21.484,34.180,56.641,0
1579272613.489,103.516,93.262,22.949,95.215,57.129,0
1579272613.493,56.152,51.758,-7.324,52.246,53.711,0
1579272613.497,-7.812,-22.949,-113.770,-19.531,13.184,0
1579272613.501,29.785,13.184,-164.062,30.273,-44.922,0
1579272613.504,46.875,25.879,-182.617,38.574,-23.926,0
1579272613.508,62.012,32.227,-183.594,42.969,15.137,0
1579272613.512,56.152,38.574,-159.180,46.387,81.055,0
1579272613.516,50.781,38.574,-132.324,46.387,63.965,0
1579272613.520,55.176,34.668,-127.441,59.570,39.551,0
1579272613.517,62.012,34.180,-134.277,64.453,62.012,0
1579272613.521,62.012,37.109,-127.441,65.430,1.953,0
1579272613.525,52.246,37.598,-85.449,61.523,-24.902,0
1579272613.529,55.176,35.645,-59.082,59.082,-6.836,0
1579272613.533,67.871,38.086,-28.809,58.594,-34.180,0
1579272613.537,77.637,43.457,10.254,69.336,-31.738,0
1579272613.541,82.520,39.062,-25.391,83.496,73.242,0
1579272613.544,61.523,32.227,-22.461,62.988,96.680,0
1579272613.548,63.965,34.668,-38.574,64.941,7.812,0
1579272613.552,61.035,31.250,-108.887,80.078,-2.441,0
1579272613.556,57.129,29.297,-126.465,76.172,20.996,0
1579272613.560,85.938,32.715,-89.844,75.684,41.504,0
1579272613.577,85.449,34.180,-36.133,65.430,41.504,0
1579272613.581,78.125,37.109,-21.973,68.848,9.277,0
1579272613.585,74.707,36.621,-15.625,77.637,36.133,0
1579272613.589,64.453,34.180,-8.789,80.078,89.355,0
1579272613.593,65.918,31.738,-17.090,88.379,88.867,0
1579272613.597,77.637,33.203,-28.320,88.867,69.824,0
1579272613.601,91.797,36.133,-64.453,73.242,31.250,0
1579272613.604,83.984,32.227,-108.887,60.059,63.477,0
1579272613.608,63.477,33.691,-116.211,78.613,83.984,0
1579272613.612,77.148,38.086,-114.258,85.938,57.617,0
1579272613.616,79.102,35.645,-104.004,85.449,47.363,0
1579272613.620,64.941,35.156,-90.332,93.262,59.082,0
1579272613.617,71.289,35.645,-96.191,76.172,50.781,0
1579272613.621,64.453,34.180,-97.656,70.312,13.184,0
1579272613.625,50.293,35.156,-93.262,83.496,-0.488,0
1579272613.629,72.754,34.180,-95.215,76.660,0.488,0
1579272613.633,83.984,33.691,-101.562,71.289,31.738,0
1579272613.637,85.938,35.645,-104.004,73.730,53.223,0
1579272613.641,78.613,38.086,-104.004,74.707,49.316,0
1579272613.644,70.801,41.504,-100.098,88.867,69.824,0
1579272613.648,76.660,32.227,-104.492,89.844,58.105,0
1579272613.652,71.777,27.344,-106.445,78.125,39.062,0
1579272613.656,68.848,31.250,-102.051,76.660,40.527,0
1579272613.660,78.613,31.738,-79.102,83.008,66.406,0
1579272613.657,77.148,35.645,-73.242,76.172,53.711,0
1579272613.661,71.777,38.574,-102.539,80.566,28.809,0
1579272613.665,73.730,36.133,-105.957,87.891,36.133,0
1579272613.669,81.055,30.762,-36.621,82.031,51.270,0
1579272613.673,75.684,31.250,40.527,81.543,7.812,0
1579272613.677,62.012,31.250,75.195,68.848,-0.977,0
1579272613.681,64.941,33.203,100.586,64.453,6.348,0
1579272613.684,76.660,38.574,128.906,62.988,9.277,0
1579272613.688,92.285,41.016,144.531,63.965,23.926,0
1579272613.692,74.707,40.527,146.484,55.664,-2.441,0
1579272613.696,64.941,34.180,156.250,57.129,-1.953,0
1579272613.700,63.477,29.785,158.691,57.617,9.766,0
1579272613.717,75.195,32.227,151.367,56.152,-17.578,0
1579272613.721,87.891,35.645,163.086,70.801,-6.836,0
1579272613.725,76.660,39.551,163.574,64.453,1.953,0
1579272613.729,83.496,39.551,163.574,56.641,-0.488,0
1579272613.733,86.914,37.109,161.133,70.312,54.688,0
1579272613.737,78.125,37.109,156.250,68.359,48.828,0
1579272613.741,65.918,33.691,169.922,67.871,62.500,0
1579272613.744,77.148,35.645,177.246,70.801,29.297,0
1579272613.748,89.355,34.668,186.523,71.777,-27.344,0
1579272613.752,83.496,29.785,188.477,75.684,-11.719,0
1579272613.756,72.754,31.738,169.922,59.570,-29.297,0
1579272613.760,83.984,38.086,166.504,72.266,-1.953,0
1579272613.756,94.727,40.527,170.898,81.543,42.969,0
1579272613.760,85.938,33.691,157.227,71.289,21.973,0
1579272613.764,74.707,34.180,157.715,53.711,10.742,0
1579272613.768,79.590,34.668,164.551,40.527,24.902,0
1579272613.772,78.613,33.691,167.480,62.500,15.625,0
1579272613.776,64.453,33.203,169.922,69.336,27.832,0
1579272613.780,83.008,34.180,162.598,62.012,5.859,0
1579272613.783,83.496,35.156,129.883,50.293,72.266,0
1579272613.787,69.336,31.738,127.441,53.711,152.344,0
1579272613.791,61.523,26.367,146.484,59.082,77.148,0
1579272613.795,80.078,33.203,146.973,79.102,19.531,0
1579272613.799,96.680,40.527,154.785,90.820,42.969,0
1579272613.816,75.195,36.133,158.691,60.059,64.941,0
1579272613.820,92.285,38.574,162.109,56.152,43.457,0
1579272613.824,103.027,42.480,168.945,85.938,72.266,0
1579272613.828,75.195,34.180,161.621,76.660,104.004,0
1579272613.832,60.059,31.738,154.785,41.504,52.734,0
1579272613.836,81.543,34.180,154.785,55.664,33.203,0
1579272613.840,83.008,35.645,151.367,66.895,67.383,0
1579272613.843,60.547,35.645,150.391,57.129,55.176,0
1579272613.847,69.824,33.691,156.738,66.406,-24.902,0
1579272613.851,85.449,31.250,159.180,77.148,0.000,0
1579272613.855,87.402,33.203,148.438,67.871,66.895,0
1579272613.859,65.430,34.180,141.602,62.988,58.594,0
1579272613.856,56.641,35.156,147.949,57.129,54.688,0
1579272613.860,70.312,36.621,147.461,50.781,58.105,0
1579272613.864,62.500,35.156,143.555,66.895,41.992,0
1579272613.868,67.383,34.180,140.625,91.309,19.043,0
1579272613.872,67.383,34.180,145.020,70.801,-0.977,0
1579272613.876,53.711,35.645,140.137,34.668,1.465,0
1579272613.880,56.641,34.668,128.418,43.457,43.457,0
1579272613.883,51.758,30.762,128.906,46.875,16.602,0
1579272613.887,38.086,31.738,128.418,41.504,-9.277,3
1579272613.891,39.062,33.691,126.953,30.273,38.574,0
1579272613.895,35.156,31.738,127.930,28.809,43.457,0
1579272613.899,28.809,30.762,125.000,33.203,3.418,0
1579272613.896,41.016,34.180,122.559,23.438,44.922,0
1579272613.900,23.926,34.180,121.582,32.227,28.809,0
1579272613.904,28.320,31.738,111.328,33.203,45.898,0
1579272613.908,21.484,28.320,96.680,15.137,71.777,0
1579272613.912,17.578,28.809,81.055,13.184,38.574,0
1579272613.916,29.297,29.297,74.219,16.113,47.852,0
1579272613.920,26.855,26.367,83.984,16.113,29.785,0
1579272613.923,43.945,34.668,92.285,24.902,31.250,0
1579272613.927,33.203,38.086,94.238,19.531,87.402,0
1579272613.931,29.785,33.691,92.285,12.695,53.223,0
1579272613.935,49.316,36.133,90.332,8.789,-10.254,0
1579272613.939,32.715,38.086,86.426,9.766,-23.926,0
1579272613.956,12.207,33.691,85.449,17.578,16.602,0
1579272613.960,8.301,29.785,89.355,19.043,23.926,0
1579272613.964,17.578,32.227,95.215,17.090,17.578,0
1579272613.968,28.809,34.180,94.238,26.855,11.230,0
1579272613.972,31.250,34.668,89.355,29.297,18.066,0
1579272613.976,41.992,34.180,92.773,18.555,21.484,0
1579272613.980,28.809,34.668,90.820,14.648,38.574,0
1579272613.983,20.996,41.504,90.332,13.184,80.078,0
1579272613.987,22.461,36.621,96.680,13.672,80.078,0
1579272613.991,20.020,33.691,100.586,9.277,67.871,0
1579272613.995,23.438,42.480,98.145,4.883,41.504,0
1579272613.999,12.695,36.621,85.938,5.371,44.434,0
1579272613.996,15.137,28.809,80.078,8.789,78.125,0
1579272614.000,31.250,24.902,83.496,27.344,83.496,0
1579272614.004,39.551,32.715,82.031,41.016,42.480,0
1579272614.008,29.297,46.387,78.125,20.020,-0.977,0
1579272614.012,19.531,47.852,79.590,4.395,-0.488,0
1579272614.016,15.137,45.410,77.637,1.953,62.988,0
1579272614.020,33.691,42.480,76.172,13.184,39.062,0
1579272614.023,44.434,49.805,73.242,20.508,8.301,0
1579272614.027,44.434,54.688,67.871,19.531,22.461,0
1579272614.031,53.711,57.129,55.176,16.602,5.859,0
1579272614.035,44.922,58.105,48.340,9.277,12.207,0
1579272614.039,48.340,55.176,45.410,14.648,18.555,0
1579272614.036,64.453,62.988,38.574,20.020,-32.715,0
1579272614.040,71.289,62.988,38.086,25.391,0.977,0
1579272614.044,65.430,60.547,41.992,25.879,92.285,0
1579272614.048,62.988,64.453,41.992,27.832,85.938,0
1579272614.052,58.594,64.941,41.504,30.762,21.484,0
1579272614.056,60.547,63.477,43.945,32.227,19.531,0
1579272614.060,67.871,60.547,46.875,28.320,23.438,0
1579272614.063,60.547,53.711,49.805,23.926,41.016,0
1579272614.067,49.805,53.223,53.711,20.996,102.051,0
1579272614.071,55.664,55.176,55.176,27.832,49.805,0
1579272614.075,53.711,53.711,54.199,31.738,6.836,0
1579272614.079,49.316,54.688,53.711,27.832,30.273,0
1579272614.096,49.805,52.734,57.129,27.344,29.785,0
1579272614.100,44.434,51.270,60.059,25.879,43.457,0
1579272614.104,40.527,51.758,60.059,28.320,41.992,0
1579272614.108,40.527,51.270,58.105,23.438,63.965,0
1579272614.112,47.363,55.664,67.383,26.855,51.758,0
1579272614.116,47.363,55.664,71.777,29.785,-1.953,0
1579272614.120,37.109,46.387,62.500,22.949,45.410,0
1579272614.123,38.574,46.387,60.547,19.531,25.879,0
1579272614.127,38.574,45.410,66.406,19.043,-35.645,0
1579272614.131,34.180,44.434,66.406,19.531,54.199,0
1579272614.135,44.434,51.270,63.965,23.926,104.004,0
1579272614.139,47.852,51.758,65.430,30.273,42.969,0
1579272614.137,40.039,47.852,65.430,21.484,37.598,0
1579272614.141,43.457,46.875,65.430,17.090,65.918,0
1579272614.145,43.457,49.316,65.918,20.996,52.734,0
1579272614.149,42.480,48.828,69.824,26.367,2.930,0
1579272614.153,43.945,46.875,69.824,21.484,41.504,0
1579272614.157,51.758,48.828,57.617,20.020,79.590,0
1579272614.161,75.684,48.340,62.500,49.805,57.129,0
1579272614.164,62.988,38.574,83.008,56.152,76.172,0
1579272614.168,22.949,36.133,88.867,28.320,32.715,0
1579272614.172,1.953,31.738,89.355,3.418,-1.465,0
1579272614.176,-19.531,21.484,92.773,-17.090,69.336,0
1579272614.180,-29.785,15.137,96.191,-17.578,92.773,0
1579272614.179,-42.480,8.789,96.680,-24.902,67.871,0
1579272614.183,-50.781,4.883,104.980,-32.715,37.109,0
1579272614.187,-48.828,5.859,113.770,-27.832,20.996,0
1579272614.191,-56.641,2.930,114.258,-34.668,15.137,0
1579272614.195,-58.594,-1.465,115.234,-29.785,-29.297,0
1579272614.199,-43.945,0.000,114.746,-17.578,16.113,0
1579272614.203,-32.227,0.488,117.188,-7.324,81.543,0
1579272614.206,-35.645,0.977,110.352,-13.184,38.086,0
1579272614.210,-33.203,5.371,94.238,-21.973,38.086,0
1579272614.214,-25.879,10.742,96.191,-14.648,77.637,0
1579272614.218,-22.461,8.301,100.586,-7.324,83.496,0
1579272614.222,-16.113,7.812,93.262,0.977,40.039,0
1579272614.236,-10.742,9.766,91.797,6.836,11.230,0
1579272614.240,-4.395,14.648,94.727,14.648,58.105,0
1579272614.244,-4.883,13.672,87.891,10.742,61.523,0
1579272614.248,-5.371,8.789,82.031,3.418,50.293,0
1579272614.252,6.348,11.230,83.496,15.625,-27.832,0
1579272614.256,9.277,16.602,79.590,20.996,-61.035,0
1579272614.260,3.418,19.531,84.961,9.277,51.758,0
1579272614.263,2.441,19.043,84.473,7.324,101.074,0
1579272614.267,0.488,23.438,78.125,16.113,80.078,0
1579272614.271,1.465,24.902,83.496,15.625,-29.297,0
1579272614.275,3.418,23.438,84.961,12.695,-24.902,0
1579272614.279,5.371,24.902,83.008,10.742,73.242,0
1579272614.278,11.719,25.879,81.055,17.090,18.555,0
1579272614.282,16.602,25.879,79.102,23.926,3.418,0
1579272614.286,19.531,27.832,78.125,19.043,55.664,0
1579272614.290,25.879,26.855,77.148,14.160,30.273,0
1579272614.294,20.996,27.832,74.219,14.648,41.992,0
1579272614.298,19.043,32.227,70.801,26.855,32.227,0
1579272614.302,21.484,28.320,64.453,23.438,4.883,0
1579272614.305,22.949,26.367,63.477,18.066,7.324,0
1579272614.309,22.949,29.297,66.895,20.996,52.734,0
1579272614.313,28.809,32.715,66.895,17.578,100.586,0
1579272614.317,35.645,35.645,69.336,24.902,30.762,0
1579272614.321,30.762,35.645,67.383,31.250,22.949,0
1579272614.317,25.391,34.668,58.105,24.902,37.598,0
1579272614.321,30.762,31.250,62.988,16.602,20.996,0
1579272614.325,31.738,32.715,70.801,15.625,22.461,0
1579272614.329,31.738,40.039,77.148,19.043,-0.977,0
1579272614.333,24.414,34.668,73.242,14.648,-5.371,0
1579272614.337,20.020,26.367,62.012,16.602,-7.812,0
1579272614.341,23.438,25.391,60.547,17.578,-5.371,0
1579272614.344,26.367,28.320,63.477,14.648,20.508,0
1579272614.348,25.879,30.273,69.824,18.555,54.688,0
1579272614.352,17.090,29.297,69.824,11.719,19.043,0
1579272614.356,17.578,30.762,67.871,17.090,4.395,0
1579272614.360,18.066,32.227,65.430,21.973,33.691,0
1579272614.377,24.902,33.203,58.594,13.672,48.340,0
1579272614.381,26.367,36.133,59.082,6.348,33.203,0
1579272614.385,20.020,35.645,65.430,14.648,31.738,0
1579272614.389,14.160,31.250,68.359,24.414,55.176,0
1579272614.393,10.742,31.738,63.477,15.625,64.453,0
1579272614.397,11.719,32.715,63.477,9.766,27.344,0
1579272614.401,12.695,31.738,68.848,14.160,45.410,0
1579272614.404,25.391,31.250,66.895,18.555,79.590,0
1579272614.408,26.855,33.203,62.988,14.160,12.695,0
1579272614.412,25.391,32.227,66.406,18.066,-30.762,0
1579272614.416,28.320,30.273,68.359,21.973,10.254,0
1579272614.420,20.996,34.180,61.523,13.672,60.547,0
1579272614.417,20.508,35.645,61.035,16.113,50.293,0
1579272614.421,21.484,34.180,66.895,15.137,58.594,0
1579272614.425,23.926,32.227,67.383,10.254,47.363,0
1579272614.429,26.367,35.645,63.965,9.277,25.879,0
1579272614.433,31.738,38.086,66.406,17.578,44.434,0
1579272614.437,33.691,34.668,69.336,21.973,34.668,0
1579272614.441,17.090,35.156,68.359,16.113,50.781,0
1579272614.444,12.207,34.668,67.871,14.648,33.691,0
1579272614.448,28.320,35.645,65.918,16.602,11.719,0
1579272614.452,26.367,39.062,69.336,21.973,80.078,0
1579272614.456,30.762,39.062,66.895,19.531,43.457,0
1579272614.460,40.527,38.574,60.059,12.695,11.719,0
1579272614.456,21.484,37.109,61.523,18.066,53.711,0
1579272614.460,21.973,33.203,64.453,17.578,54.688,0
1579272614.464,29.785,31.738,61.035,10.742,1.953,0
1579272614.468,9.766,31.250,59.082,0.977,-7.812,0
1579272614.472,14.648,30.762,62.012,10.742,10.254,0
1579272614.476,30.273,34.180,62.500,18.066,-1.465,0
1579272614.480,18.555,35.645,62.012,17.090,34.180,0
1579272614.483,15.137,32.715,63.965,23.438,71.289,0
1579272614.487,15.625,32.227,63.965,15.625,67.871,0
1579272614.491,17.578,33.203,58.105,12.207,20.020,0
1579272614.495,23.926,32.715,60.059,19.531,5.859,0
1579272614.499,17.090,31.250,63.477,24.414,2.441,0
1579272614.517,8.789,32.227,60.059,19.043,8.301,0
1579272614.521,20.020,32.227,61.523,25.391,33.691,0
1579272614.525,51.758,36.133,62.988,17.578,44.434,0
1579272614.529,19.531,35.645,59.570,3.906,31.250,0
1579272614.533,1.465,30.762,63.477,5.859,9.766,0
1579272614.537,13.184,33.203,63.965,6.348,11.230,0
1579272614.541,2.930,34.668,62.988,4.395,24.902,0
1579272614.544,4.883,32.715,63.965,-3.418,27.832,0
1579272614.548,11.230,33.203,55.664,-8.789,-23.438,0
1579272614.552,3.906,38.574,55.176,3.906,-9.766,0
1579272614.556,-0.977,33.203,61.035,0.000,28.320,0
1579272614.560,8.789,24.902,62.500,-5.859,45.410,0
1579272614.557,3.906,35.156,58.594,4.883,44.922,0
1579272614.561,17.090,43.457,53.223,-7.324,-12.695,0
1579272614.565,19.043,40.039,53.223,-4.883,4.395,0
1579272614.569,-11.719,33.203,52.246,0.977,31.250,0
1579272614.573,-18.555,31.250,54.688,-7.324,-25.391,0
1579272614.577,7.324,33.691,52.734,-2.441,15.137,0
1579272614.581,30.273,33.203,52.246,-5.371,31.250,0
1579272614.584,22.461,34.180,54.199,-3.418,-11.230,0
1579272614.588,35.156,37.598,53.711,-3.906,-6.836,0
1579272614.592,31.250,38.574,49.316,-19.043,33.691,0
1579272614.596,10.742,38.086,53.223,5.859,67.871,0
1579272614.600,24.414,35.645,59.082,37.598,32.715,0
1579272614.596,17.578,36.133,54.688,19.531,-32.227,0
1579272614.600,24.902,39.551,52.734,17.578,23.438,0
1579272614.604,36.133,39.062,52.246,21.973,58.105,0
1579272614.608,18.066,41.016,50.293,21.484,23.438,0
1579272614.612,25.879,39.551,47.852,38.574,-2.441,0
1579272614.616,48.828,37.109,53.711,36.133,34.668,0
1579272614.620,41.016,38.086,54.199,12.207,37.598,0
1579272614.623,37.598,39.551,49.316,31.738,3.418,0
1579272614.627,27.344,34.668,50.293,39.062,68.359,0
1579272614.631,42.969,38.574,53.711,29.297,33.691,0
1579272614.635,75.195,42.969,58.594,50.781,22.461,0
1579272614.639,68.848,32.715,53.711,53.711,91.309,0
1579272614.658,39.062,32.715,48.828,41.016,20.996,0
1579272614.662,33.203,35.156,47.363,52.246,-47.363,0
1579272614.666,43.457,35.156,46.387,56.152,-23.438,0
1579272614.670,71.777,37.598,43.945,45.410,-0.488,0
1579272614.674,86.914,35.645,44.922,36.621,27.344,0
1579272614.678,66.406,37.109,48.828,36.133,52.246,0
1579272614.682,57.617,38.086,54.688,49.805,36.621,0
1579272614.685,65.430,38.574,53.711,66.895,85.938,0
1579272614.689,74.219,39.062,51.270,76.172,120.605,0
1579272614.693,62.500,35.645,53.711,58.594,71.777,0
1579272614.697,78.125,40.527,47.363,47.363,40.039,0
1579272614.701,99.609,42.969,47.363,63.965,47.852,0
1579272614.697,69.824,36.621,51.270,60.547,36.133,0
1579272614.701,59.570,38.086,51.758,40.527,47.363,0
1579272614.705,76.172,43.457,54.199,60.547,51.758,0
1579272614.709,81.543,41.992,55.664,76.172,-26.367,0
1579272614.713,96.191,43.945,52.246,63.477,-8.789,0
1579272614.717,86.914,42.480,50.781,53.711,83.008,0
1579272614.721,67.383,39.551,53.223,44.922,50.781,0
1579272614.724,69.336,39.062,53.223,51.270,24.414,0
1579272614.728,62.988,37.109,51.270,62.988,17.578,0
1579272614.732,63.477,36.621,54.688,68.359,24.414,0
1579272614.736,68.848,36.133,55.664,51.758,15.625,0
1579272614.740,59.082,34.180,53.223,46.875,43.457,0
1579272614.737,52.734,35.645,53.223,57.129,86.426,0
1579272614.741,58.594,35.156,55.176,56.641,82.031,0
1579272614.745,63.965,37.109,55.664,47.363,7.324,0
1579272614.749,61.035,38.086,53.711,44.922,-26.367,0
1579272614.753,52.734,36.621,56.152,43.457,25.391,0
1579272614.757,36.621,36.621,56.641,50.293,42.480,0
1579272614.761,31.738,34.668,47.363,57.617,-4.395,0
1579272614.764,42.969,34.180,45.410,45.410,-2.930,0
1579272614.768,56.152,34.668,50.293,36.621,26.855,0
1579272614.772,46.387,36.133,51.758,46.387,14.648,0
1579272614.776,47.363,36.133,50.293,42.480,44.434,0
1579272614.780,52.246,31.250,50.293,36.133,55.176,0
1579272614.796,22.461,27.832,53.223,60.059,7.324,0
1579272614.800,29.297,31.738,52.734,51.758,-23.438,0
1579272614.804,49.805,33.203,51.270,45.898,-19.531,0
1579272614.808,41.016,32.227,51.270,45.410,31.738,0
1579272614.812,37.109,31.250,51.758,25.391,16.113,0
1579272614.816,17.090,31.738,52.734,36.133,-2.441,0
1579272614.820,28.809,34.668,51.270,46.875,-5.859,0
1579272614.823,35.156,35.645,46.387,30.273,20.996,0
1579272614.827,20.020,32.227,45.410,28.320,97.656,0
1579272614.831,29.785,29.785,50.781,27.832,71.289,0
1579272614.835,20.508,31.738,48.828,32.715,36.133,0
1579272614.839,35.645,35.156,45.898,51.758,28.809,0
1579272614.836,48.340,36.133,50.781,34.668,29.297,0
1579272614.840,41.992,33.203,54.688,33.691,15.625,0
1579272614.844,24.414,33.691,53.711,42.969,53.223,0
1579272614.848,7.812,35.645,46.875,32.715,83.984,0
1579272614.852,26.855,36.621,45.410,19.043,65.918,0
1579272614.856,24.902,34.180,49.316,39.551,21.973,0
1579272614.860,31.250,34.180,50.781,56.152,5.371,0
1579272614.863,59.570,38.086,44.922,27.344,32.227,0
1579272614.867,47.363,34.668,46.387,29.297,45.898,0
1579272614.871,17.578,32.227,50.781,31.250,56.152,0
1579272614.875,23.438,33.691,47.852,22.461,30.762,0
1579272614.879,30.273,32.715,47.852,43.457,42.969,0
1579272614.876,14.160,33.203,47.363,35.156,45.898,0
1579272614.880,21.973,31.738,48.340,32.227,40.527,0
1579272614.884,35.645,36.621,52.246,46.387,56.641,0
1579272614.888,28.320,35.645,53.711,43.457,55.176,0
1579272614.892,38.086,37.109,49.805,14.648,100.586,0
1579272614.896,53.223,41.992,49.316,13.672,76.172,0
1579272614.900,38.574,36.621,53.223,34.180,17.578,0
1579272614.903,17.578,34.180,52.734,19.531,2.930,0
1579272614.907,8.789,34.180,51.270,20.996,20.996,0
1579272614.911,15.137,32.715,48.828,27.344,68.359,0
1579272614.915,22.461,36.133,47.852,11.230,71.289,0
1579272614.919,19.531,34.180,48.828,12.695,42.969,0
1579272614.936,20.508,31.250,52.246,32.227,43.457,0
1579272614.940,10.742,31.738,54.688,33.691,70.801,0
1579272614.944,12.207,30.273,52.246,25.391,47.363,0
1579272614.948,25.879,32.227,49.805,21.484,26.855,0
1579272614.952,10.254,33.691,47.363,23.438,46.387,0
1579272614.956,-0.977,32.227,53.223,26.855,52.734,0
1579272614.960,19.043,37.109,52.734,19.531,28.320,0
1579272614.963,35.645,40.527,48.340,18.555,19.043,0
1579272614.967,37.598,37.598,53.223,36.621,10.254,0
1579272614.971,41.504,39.062,54.199,41.504,20.020,0
1579272614.975,27.344,39.551,57.617,51.270,36.133,0
1579272614.979,27.344,37.109,55.176,29.297,43.945,0
1579272614.978,33.691,35.156,50.781,14.648,69.824,0
1579272614.982,20.508,31.250,47.363,37.109,89.355,0
1579272614.986,30.273,31.738,46.875,25.391,24.414,0
1579272614.990,37.598,32.227,50.781,20.508,21.484,0
1579272614.994,21.973,34.668,53.711,32.715,56.641,1
1579272614.998,9.277,40.039,59.570,25.879,17.090,0
1579272615.002,11.719,32.227,52.246,23.926,-16.113,0
1579272615.005,36.621,28.809,46.387,23.926,12.207,0
1579272615.009,25.391,29.297,50.781,32.227,79.590,0
1579272615.013,20.508,31.250,51.270,16.113,73.730,0
1579272615.017,8.301,32.227,50.293,20.020,37.109,0
1579272615.021,1.953,30.762,49.805,28.320,73.242,0
1579272615.016,25.391,35.156,43.945,8.789,53.223,0
1579272615.020,22.949,34.668,44.922,25.391,15.137,0
1579272615.024,21.484,34.180,44.434,32.715,44.922,0
1579272615.028,27.832,33.203,37.109,21.973,33.203,0
1579272615.032,24.902,29.785,35.645,28.320,52.734,0
1579272615.036,20.508,30.273,35.156,30.762,57.129,0
1579272615.040,13.184,30.273,40.039,33.203,25.391,0
1579272615.043,26.367,33.203,51.758,28.320,33.203,0
1579272615.047,36.621,34.180,54.199,21.484,48.340,0
1579272615.051,38.574,33.203,51.758,35.645,38.574,0
1579272615.055,33.203,36.133,55.176,51.270,21.484,0
1579272615.059,24.902,41.504,59.570,46.875,67.871,0
1579272615.077,27.344,34.180,54.688,29.297,53.223,0
1579272615.081,11.230,23.926,45.898,35.156,16.602,0
1579272615.085,9.766,27.832,47.363,36.621,91.797,0
1579272615.089,23.438,33.691,52.246,15.625,38.086,0
1579272615.093,21.973,32.715,47.363,12.207,-5.859,0
1579272615.097,15.625,30.273,41.016,13.672,60.547,0
1579272615.101,16.113,29.297,48.340,12.695,64.453,0
1579272615.104,13.672,32.227,53.711,12.207,32.227,0
1579272615.108,3.906,33.203,50.781,12.695,20.996,0
1579272615.112,10.742,34.668,50.781,13.672,12.207,0
1579272615.116,11.719,34.180,52.246,14.648,55.664,0
1579272615.120,7.812,31.738,49.805,14.648,36.133,0
1579272615.117,13.184,30.762,46.875,9.766,13.672,0
1579272615.121,12.695,33.203,50.781,9.277,46.875,0
1579272615.125,16.602,35.156,56.152,10.254,28.809,0
1579272615.129,16.602,33.203,56.152,12.695,30.762,0
1579272615.133,13.672,29.785,54.199,23.926,32.715,0
1579272615.137,11.230,27.344,50.293,20.996,47.852,0
1579272615.141,14.160,29.785,50.781,16.113,13.672,0
1579272615.144,18.555,30.762,53.711,20.020,-8.301,0
1579272615.148,10.742,29.785,54.688,18.555,6.836,0
1579272615.152,14.648,34.668,57.617,15.137,2.441,0
1579272615.156,18.066,36.621,59.570,16.113,-8.789,0
1579272615.160,2.441,31.738,52.734,11.230,-9.766,0
1579272615.157,-0.977,30.273,52.246,14.648,48.828,0
1579272615.161,3.418,32.715,54.688,10.742,49.805,0
1579272615.165,-8.789,28.809,48.340,-2.930,64.941,0
1579272615.169,-12.695,26.855,40.039,-5.859,66.406,0
1579272615.173,-13.184,26.367,37.598,-6.836,15.625,0
1579272615.177,-13.672,28.320,41.992,-12.695,20.020,0
1579272615.181,-16.113,30.762,46.875,-19.043,66.406,0
1579272615.184,-23.438,29.785,48.340,-15.137,24.414,0
1579272615.188,-16.602,30.762,49.316,-12.695,-7.812,0
1579272615.192,-13.672,31.250,45.898,-18.555,29.785,0
1579272615.196,-20.508,28.320,40.039,-14.160,43.457,0
1579272615.200,-14.160,29.785,38.574,-13.672,67.383,0
1579272615.216,-15.625,29.297,40.039,-18.555,41.504,0
1579272615.220,-16.113,27.832,41.992,-9.766,-6.836,0
1579272615.224,-4.883,32.227,48.340,-10.742,38.574,0
1579272615.228,-3.418,35.156,46.387,-14.160,41.992,0
1579272615.232,-8.789,32.715,36.621,-12.695,-49.316,0
1579272615.236,-5.859,29.785,34.668,-15.137,-31.250,0
1579272615.240,-3.906,26.855,35.645,-15.137,68.359,0
1579272615.243,-1.953,25.391,36.133,-13.184,76.172,0
1579272615.247,-3.906,26.855,43.945,-2.930,-5.371,0
1579272615.251,-3.418,32.227,53.223,6.836,-13.672,0
1579272615.255,-9.277,29.785,48.340,-7.324,62.988,0
1579272615.259,-21.973,24.902,40.527,-16.113,66.406,0
1579272615.256,-19.043,24.902,38.574,-10.742,48.340,0
1579272615.260,-6.836,26.367,39.062,0.977,73.242,0
1579272615.264,7.324,26.367,43.945,15.137,62.500,0
1579272615.268,-6.348,25.391,50.781,0.488,34.668,0
1579272615.272,-24.902,23.438,52.246,-12.695,10.742,0
1579272615.276,-16.602,20.020,47.363,-5.371,23.926,0
1579272615.280,-11.719,20.020,44.434,-9.766,43.945,0
1579272615.283,-14.648,24.902,45.410,-18.066,42.480,0
1579272615.287,-13.184,26.855,48.828,-5.859,52.246,0
1579272615.291,-3.418,28.320,45.410,3.418,5.371,0
1579272615.295,2.441,28.809,42.969,-1.953,10.254,0
1579272615.299,-4.395,24.902,44.434,-6.836,43.945,0
1579272615.296,-0.977,26.367,49.316,0.000,11.719,0
1579272615.300,12.207,36.621,55.176,10.254,24.414,0
1579272615.304,5.859,36.621,44.922,6.836,45.410,0
1579272615.308,7.812,29.297,43.457,4.395,45.898,0
1579272615.312,3.906,27.832,44.434,2.441,51.270,0
1579272615.316,0.977,31.250,41.016,0.977,28.809,0
1579272615.320,11.230,33.691,48.828,9.766,24.902,0
1579272615.323,19.531,34.668,48.340,3.906,42.480,0
1579272615.327,12.207,34.180,46.387,-1.465,57.617,0
1579272615.331,9.277,31.738,48.340,11.230,43.945,0
1579272615.335,6.348,28.809,46.875,9.766,18.555,0
1579272615.339,0.977,29.785,45.898,2.930,19.043,0
1579272615.357,5.371,33.203,52.734,9.277,43.945,0
1579272615.361,5.371,29.297,50.781,16.113,84.961,0
1579272615.365,9.277,27.832,45.410,12.695,71.777,0
1579272615.369,14.160,30.762,50.293,10.254,72.266,0
1579272615.373,11.230,28.809,48.828,7.324,88.379,0
1579272615.377,11.719,36.133,53.223,14.648,35.645,0
1579272615.381,20.020,41.504,54.199,20.508,25.391,0
1579272615.384,21.484,30.273,44.922,14.160,78.125,0
1579272615.388,13.184,29.297,46.387,15.137,127.930,0
1579272615.392,9.766,28.809,41.016,13.672,41.016,0
1579272615.396,9.277,24.902,32.227,8.789,39.551,0
1579272615.400,5.371,26.855,40.527,10.254,47.363,0
1579272615.397,11.230,30.762,48.828,12.207,42.480,0
1579272615.401,12.207,31.250,45.898,9.277,86.426,0
1579272615.405,20.996,32.715,41.016,15.625,-1.953,0
1579272615.409,17.090,31.738,43.945,13.672,-13.672,0
1579272615.413,6.836,31.738,40.527,14.648,19.043,0
1579272615.417,20.508,32.715,38.574,17.578,-30.273,0
1579272615.421,16.113,30.273,45.410,16.113,-27.832,0
1579272615.424,14.160,31.250,40.527,15.625,40.527,0
1579272615.428,20.508,31.250,42.480,19.043,27.832,0
1579272615.432,16.602,30.273,48.340,18.555,-13.672,0
1579272615.436,18.555,32.227,45.898,13.184,34.668,0
