timestamps,TP9,AF7,AF8,TP10,Right AUX,Marker0
1579294521.642,35.156,35.645,32.227,5.859,10.742,0
1579294521.646,38.086,35.645,33.691,11.719,60.547,0
1579294521.650,35.645,38.086,34.180,14.648,81.543,0
1579294521.654,35.645,38.574,35.156,12.695,89.355,0
1579294521.658,37.109,37.109,33.691,8.789,93.262,0
1579294521.662,35.645,41.016,32.227,13.184,37.598,0
1579294521.666,31.250,41.504,33.691,15.137,23.438,0
1579294521.669,29.297,37.598,35.156,8.301,-1.953,0
1579294521.673,27.832,35.645,33.691,6.348,-12.207,0
1579294521.677,22.461,32.715,34.180,9.277,17.578,0
1579294521.681,21.973,34.180,35.156,18.555,-3.418,0
1579294521.685,26.367,36.621,34.180,21.484,-38.086,0
1579294521.683,27.344,35.156,32.715,18.066,24.902,0
1579294521.687,24.902,37.109,33.691,21.973,24.414,0
1579294521.691,21.484,35.645,33.691,24.414,53.223,0
1579294521.695,18.555,34.180,35.156,19.531,10.254,0
1579294521.699,20.996,33.691,36.621,12.695,-62.500,0
1579294521.703,21.973,34.180,33.691,4.883,7.812,0
1579294521.707,19.043,34.180,30.273,9.277,11.719,0
1579294521.710,22.949,34.180,32.227,21.484,27.344,0
1579294521.714,27.832,35.645,33.691,17.578,53.223,0
1579294521.718,27.832,37.109,33.691,8.789,107.422,0
1579294521.722,25.879,39.551,35.156,6.836,66.895,0
1579294521.726,28.809,38.574,38.086,12.207,-36.133,0
1579294521.723,33.203,36.133,39.062,18.066,3.418,0
1579294521.727,33.691,36.621,36.621,16.113,32.227,0
1579294521.731,33.203,37.598,37.109,18.066,16.113,0
1579294521.735,35.156,37.109,39.062,18.066,22.461,0
1579294521.739,34.180,36.621,36.621,16.602,34.180,0
1579294521.743,31.738,38.086,36.133,19.531,65.918,0
1579294521.747,32.227,39.062,39.062,15.625,67.871,0
1579294521.750,35.156,40.039,35.645,21.484,38.086,0
1579294521.754,32.715,39.062,33.203,28.809,30.762,0
1579294521.758,29.785,35.645,36.133,23.926,18.066,0
1579294521.762,32.715,35.645,37.598,22.461,38.574,0
1579294521.766,31.738,35.645,38.086,23.438,44.922,0
1579294521.783,27.344,35.645,37.598,26.855,31.738,0
1579294521.787,29.785,32.715,35.156,29.785,65.430,0
1579294521.791,31.250,31.250,35.645,33.203,67.871,0
1579294521.795,30.762,34.180,37.109,36.133,67.871,0
1579294521.799,34.180,36.621,38.086,35.645,64.453,0
1579294521.803,36.621,37.109,38.086,41.504,33.203,0
1579294521.807,31.250,35.156,35.156,39.062,25.391,0
1579294521.810,24.414,33.691,34.668,32.715,73.242,0
1579294521.814,27.832,33.203,35.645,38.574,74.707,0
1579294521.818,35.645,36.621,34.668,41.016,9.766,0
1579294521.822,31.250,39.062,35.645,32.715,25.879,0
1579294521.826,27.344,39.062,33.691,30.762,31.250,0
1579294521.823,24.902,38.574,30.762,39.062,31.738,0
1579294521.827,20.020,39.551,31.250,33.203,11.719,0
1579294521.831,19.531,40.527,31.250,28.320,20.996,0
1579294521.835,18.555,37.598,31.250,27.832,51.758,0
1579294521.839,17.578,37.109,32.715,24.414,28.809,0
1579294521.843,20.508,38.086,33.691,29.785,5.371,0
1579294521.847,25.391,38.086,33.203,28.320,57.129,0
1579294521.850,32.227,39.551,33.203,21.484,26.367,0
1579294521.854,33.203,40.039,32.715,25.391,-1.953,0
1579294521.858,33.203,39.062,33.203,32.715,43.457,0
1579294521.862,34.668,39.062,34.180,37.109,9.766,0
1579294521.866,32.227,39.551,31.738,29.785,20.996,0
1579294521.862,33.691,40.527,30.273,25.879,36.133,0
1579294521.866,34.668,41.016,31.250,34.668,13.672,0
1579294521.870,33.203,41.992,29.297,34.180,18.555,0
1579294521.874,35.645,41.992,27.832,23.438,89.844,0
1579294521.878,34.668,41.504,27.832,16.602,72.754,0
1579294521.882,35.156,41.992,26.367,24.414,64.941,0
1579294521.886,34.668,40.039,29.297,31.738,64.941,0
1579294521.889,27.832,39.062,30.762,33.691,39.551,0
1579294521.893,29.297,38.086,27.832,31.738,55.176,0
1579294521.897,34.668,38.086,29.785,28.320,96.680,0
1579294521.901,33.203,38.086,32.715,29.297,40.527,0
1579294521.905,32.227,38.086,34.668,33.691,33.203,0
1579294521.923,39.551,40.527,33.691,32.715,30.273,0
1579294521.927,42.480,42.969,33.203,34.668,19.043,0
1579294521.931,41.016,41.504,33.691,39.062,71.289,0
1579294521.935,42.480,41.016,30.273,35.645,41.016,0
1579294521.939,41.016,39.551,28.809,30.762,-1.953,0
1579294521.943,40.039,40.527,31.250,32.227,20.020,0
1579294521.947,39.551,40.527,33.203,36.621,-3.418,0
1579294521.950,36.621,39.062,35.156,36.621,20.020,0
1579294521.954,36.133,38.086,36.133,31.738,31.738,0
1579294521.958,33.691,38.086,35.156,30.762,0.000,0
1579294521.962,32.715,38.086,35.645,33.203,40.527,0
1579294521.966,35.156,39.062,37.109,36.621,44.434,0
1579294521.963,33.203,38.086,36.621,31.250,41.504,0
1579294521.967,30.273,37.109,36.621,28.809,105.957,0
1579294521.971,33.691,37.109,38.574,33.203,85.938,0
1579294521.975,36.133,35.645,37.598,38.574,16.602,0
1579294521.979,31.250,37.109,35.156,35.156,39.062,0
1579294521.983,36.133,39.062,34.180,29.297,54.199,0
1579294521.987,41.016,38.086,32.715,29.297,28.809,0
1579294521.990,38.086,33.203,34.180,28.320,-5.859,0
1579294521.994,38.574,34.668,33.691,31.738,19.043,0
1579294521.998,42.480,39.062,33.691,24.902,10.742,0
1579294522.002,43.457,36.621,37.109,18.555,15.625,0
1579294522.006,44.922,36.621,38.574,31.250,34.668,0
1579294522.004,49.316,39.062,39.062,33.203,39.551,0
1579294522.008,49.316,40.039,37.598,24.902,6.836,0
1579294522.012,42.480,39.062,34.668,22.949,9.277,0
1579294522.016,37.598,36.621,33.691,23.438,105.957,0
1579294522.020,39.551,37.598,32.715,27.344,94.727,0
1579294522.024,43.457,39.551,33.691,24.414,22.461,0
1579294522.028,41.504,39.551,35.156,21.484,0.000,0
1579294522.031,38.086,38.086,34.668,24.902,32.715,0
1579294522.035,35.645,37.598,36.621,30.762,24.902,0
1579294522.039,32.227,35.156,36.621,37.598,32.227,0
1579294522.043,33.203,33.203,34.180,33.203,-30.273,0
1579294522.047,33.691,33.691,35.645,29.785,-26.367,0
1579294522.062,27.832,32.227,37.109,36.621,15.625,0
1579294522.066,25.391,33.203,36.133,35.156,5.859,0
1579294522.070,25.391,34.180,36.133,25.879,48.340,0
1579294522.074,24.414,34.668,38.086,20.996,10.742,0
1579294522.078,21.973,34.180,37.598,22.949,37.109,0
1579294522.082,24.414,33.203,37.109,27.344,75.684,0
1579294522.086,32.227,30.273,38.574,26.855,42.480,0
1579294522.089,32.227,30.273,39.062,22.949,19.043,0
1579294522.093,28.809,32.227,39.062,27.832,23.438,0
1579294522.097,26.367,30.762,37.598,33.691,18.066,0
1579294522.101,22.949,32.715,39.551,27.832,24.414,0
1579294522.105,22.949,34.668,38.574,16.602,14.648,0
1579294522.103,20.020,29.297,36.621,16.602,5.859,0
1579294522.107,18.066,25.879,38.086,23.438,32.227,0
1579294522.111,19.043,29.297,40.039,26.855,39.551,0
1579294522.115,22.949,30.762,40.039,21.973,77.148,0
1579294522.119,24.902,30.762,38.574,20.996,67.383,0
1579294522.123,23.438,35.645,39.551,28.320,6.836,0
1579294522.127,23.926,37.598,37.598,22.949,54.199,0
1579294522.130,26.855,36.133,36.133,16.602,82.520,0
1579294522.134,29.297,36.621,36.621,19.043,75.684,0
1579294522.138,31.250,39.062,32.227,21.973,48.828,0
1579294522.142,29.297,38.574,29.785,26.855,21.973,0
1579294522.146,26.855,37.109,31.738,28.320,33.203,0
1579294522.142,26.367,35.645,33.691,25.879,-1.465,0
1579294522.146,28.809,35.156,34.668,30.273,32.715,0
1579294522.150,31.738,35.156,32.715,35.156,72.266,0
1579294522.154,33.691,31.738,32.715,39.062,68.848,0
1579294522.158,35.156,30.762,34.180,31.738,75.195,0
1579294522.162,30.762,33.203,36.133,31.250,78.125,0
1579294522.166,24.414,33.691,37.598,37.598,46.387,0
1579294522.169,22.461,34.668,34.668,29.785,14.160,0
1579294522.173,22.461,34.668,35.156,26.367,5.371,0
1579294522.177,24.902,34.180,36.621,27.344,42.480,0
1579294522.181,21.973,32.715,35.645,28.809,40.527,0
1579294522.185,26.855,30.273,34.180,32.715,47.363,0
1579294522.203,34.180,30.273,34.668,25.879,46.387,0
1579294522.207,32.715,33.203,35.156,21.484,-20.996,0
1579294522.211,33.691,35.156,35.156,23.926,-22.949,0
1579294522.215,32.227,35.156,33.691,22.949,35.645,0
1579294522.219,31.250,36.133,32.715,18.555,48.340,0
1579294522.223,33.691,36.133,33.203,11.719,31.738,0
1579294522.227,31.738,35.645,31.738,18.555,26.855,0
1579294522.230,31.738,37.109,32.227,25.879,27.344,0
1579294522.234,35.645,39.551,32.715,23.926,31.738,0
1579294522.238,39.551,40.527,31.250,19.531,17.578,0
1579294522.242,40.039,41.992,33.691,18.066,53.711,0
1579294522.246,32.227,38.086,33.203,23.926,57.617,0
1579294522.243,21.484,34.180,32.227,20.020,25.391,0
1579294522.247,15.137,34.668,35.156,14.160,15.137,0
1579294522.251,11.719,33.691,37.598,22.461,46.875,0
1579294522.255,11.230,35.156,40.039,31.738,58.105,0
1579294522.259,15.137,35.156,40.527,38.086,36.133,0
1579294522.263,20.020,37.109,39.062,32.715,9.277,0
1579294522.267,19.043,37.109,38.574,24.414,24.414,0
1579294522.270,14.648,35.156,37.109,25.879,64.453,0
1579294522.274,14.160,38.086,35.156,29.785,20.996,0
1579294522.278,9.277,36.621,33.691,21.484,32.715,0
1579294522.282,3.418,35.645,35.156,0.977,93.750,0
1579294522.286,-2.441,37.109,33.691,-15.625,60.547,0
1579294522.303,0.000,37.109,31.738,-13.184,10.742,0
1579294522.307,11.230,37.109,33.203,-1.465,30.762,0
1579294522.311,18.555,35.645,35.645,7.324,-6.836,0
1579294522.315,26.367,33.691,38.086,20.996,-41.016,0
1579294522.319,34.180,35.645,32.715,27.344,22.461,0
1579294522.323,38.086,35.156,32.227,26.367,15.137,0
1579294522.327,35.645,31.738,40.527,22.949,25.391,0
1579294522.330,30.762,31.738,41.992,14.648,18.066,0
1579294522.334,26.855,30.762,40.039,17.578,-29.297,0
1579294522.338,28.320,31.250,39.062,23.926,5.859,0
1579294522.342,28.320,31.738,37.109,17.578,95.703,0
1579294522.346,23.438,31.250,37.598,14.160,87.402,0
1579294522.342,17.578,32.227,40.527,18.555,-4.883,0
1579294522.346,20.996,33.203,40.039,22.461,-19.531,0
1579294522.350,26.855,35.156,39.062,23.438,-42.969,0
1579294522.354,27.344,36.621,39.551,16.113,-16.113,0
1579294522.358,26.367,36.621,36.133,16.602,26.855,0
1579294522.362,27.344,36.133,34.180,26.855,6.348,0
1579294522.366,26.367,35.645,37.598,38.086,36.133,0
1579294522.369,28.320,36.133,39.062,39.062,60.059,0
1579294522.373,28.809,35.156,39.062,32.227,47.852,0
1579294522.377,28.809,32.227,38.574,36.133,56.641,0
1579294522.381,34.668,32.715,36.133,45.410,55.664,0
1579294522.385,36.133,31.738,37.598,45.410,91.797,0
1579294522.383,34.180,32.227,37.598,48.828,76.660,0
1579294522.387,32.715,33.691,35.156,50.781,29.297,0
1579294522.391,32.715,32.715,35.645,49.805,46.875,0
1579294522.395,26.855,34.180,33.203,46.875,21.484,0
1579294522.399,20.996,35.156,31.738,41.016,24.902,0
1579294522.403,22.461,34.180,32.715,42.480,59.082,0
1579294522.407,20.996,33.691,33.203,47.852,49.805,0
1579294522.410,22.461,32.227,33.691,50.293,5.371,0
1579294522.414,31.250,32.227,35.645,45.410,-0.977,0
1579294522.418,33.203,34.180,39.062,36.621,31.738,0
1579294522.422,32.227,33.203,39.551,38.574,8.301,0
1579294522.426,31.250,31.250,36.621,41.016,51.270,0
1579294522.443,30.273,32.715,33.203,33.691,35.156,0
1579294522.447,33.203,34.668,31.250,29.785,12.695,0
1579294522.451,36.621,35.645,32.715,32.227,37.598,0
1579294522.455,33.691,35.156,35.156,35.645,9.766,0
1579294522.459,30.762,35.645,35.645,27.832,0.000,0
1579294522.463,32.227,37.109,35.645,23.438,4.395,0
1579294522.467,34.180,38.086,34.668,26.367,46.875,0
1579294522.470,32.715,39.551,37.598,31.250,82.031,0
1579294522.474,34.180,40.039,39.551,34.180,46.387,0
1579294522.478,40.039,39.551,40.039,31.250,68.359,0
1579294522.482,40.039,36.621,40.039,32.715,60.059,0
1579294522.486,39.551,38.086,38.574,39.551,25.391,0
1579294522.483,37.109,39.062,38.574,38.086,19.531,0
1579294522.487,35.156,37.598,39.551,31.738,58.105,0
1579294522.491,35.156,36.621,38.574,26.855,94.238,0
1579294522.495,29.785,37.109,37.598,26.855,40.039,0
1579294522.499,27.832,37.598,38.574,29.297,38.086,0
1579294522.503,29.297,37.109,39.062,23.438,83.008,0
1579294522.507,24.902,37.109,41.504,20.996,44.434,0
1579294522.510,24.902,39.551,42.480,25.879,41.992,0
1579294522.514,26.367,39.062,42.480,32.227,67.871,0
1579294522.518,26.367,36.621,42.480,30.273,55.664,0
1579294522.522,27.344,36.133,41.016,22.461,43.945,0
1579294522.526,23.926,35.645,42.480,23.926,64.453,0
1579294522.523,19.043,34.668,42.480,23.926,97.168,0
1579294522.527,19.531,34.180,38.574,20.020,62.988,0
1579294522.531,20.508,34.180,41.016,21.484,71.289,0
1579294522.535,17.578,32.715,40.039,29.785,76.660,0
1579294522.539,15.137,29.785,38.086,35.156,48.828,0
1579294522.543,21.973,29.785,40.039,34.668,41.016,0
1579294522.547,24.902,28.320,39.551,32.715,25.879,0
1579294522.550,27.832,30.762,40.039,30.762,21.484,0
1579294522.554,30.273,32.715,39.551,29.297,33.203,0
1579294522.558,27.832,31.738,37.598,21.484,46.387,0
1579294522.562,29.785,33.203,38.574,15.137,23.926,0
1579294522.566,31.250,35.156,36.621,16.602,23.926,0
1579294522.582,35.645,35.156,35.156,22.461,24.414,0
1579294522.586,36.133,35.645,36.133,29.785,3.906,0
1579294522.590,38.086,38.086,35.645,31.250,-16.602,0
1579294522.594,40.527,37.598,35.156,29.297,5.859,0
1579294522.598,37.598,36.133,34.668,32.227,-22.949,0
1579294522.602,35.645,35.156,34.668,36.621,-41.992,0
1579294522.606,35.645,36.621,37.109,35.156,29.785,0
1579294522.609,35.645,37.598,41.016,29.297,50.781,0
1579294522.613,32.715,36.621,41.504,28.320,1.953,0
1579294522.617,34.180,38.086,39.551,32.227,8.301,0
1579294522.621,36.133,39.551,36.133,32.227,25.391,0
1579294522.625,37.598,40.527,34.668,26.855,20.020,0
1579294522.623,37.109,38.086,33.691,22.461,54.688,0
1579294522.627,36.621,36.621,34.668,28.320,33.691,0
1579294522.631,36.621,34.668,35.645,34.668,12.695,0
1579294522.635,35.645,33.203,34.668,33.691,29.297,0
1579294522.639,35.156,35.645,38.086,25.391,41.992,0
1579294522.643,32.715,35.645,40.039,23.926,81.543,0
1579294522.647,32.715,35.645,39.062,27.344,37.598,0
1579294522.650,32.715,37.598,38.574,23.438,37.598,0
1579294522.654,29.785,36.621,38.086,23.438,43.945,0
1579294522.658,28.809,36.621,37.598,27.832,-12.207,0
1579294522.662,30.273,37.598,36.621,28.809,19.531,0
1579294522.666,32.715,34.668,35.645,22.461,45.410,0
1579294522.663,34.180,32.715,37.598,20.996,21.484,0
1579294522.667,33.203,33.691,35.645,23.926,-6.836,0
1579294522.671,31.250,33.691,33.691,26.367,27.832,0
1579294522.675,28.809,32.227,36.133,24.414,48.828,0
1579294522.679,28.320,32.227,34.180,18.066,50.781,0
1579294522.683,29.785,34.668,33.203,17.578,47.852,0
1579294522.687,34.180,35.156,36.133,22.461,-3.906,0
1579294522.690,36.621,36.621,37.598,24.414,-50.293,0
1579294522.694,37.598,39.062,38.574,23.438,57.617,0
1579294522.698,35.156,37.109,38.574,24.414,108.887,0
1579294522.702,36.133,34.668,35.645,29.785,32.227,0
1579294522.706,36.133,34.180,36.133,31.738,-1.465,0
1579294522.722,36.133,33.691,38.574,32.227,-27.832,0
1579294522.726,34.180,33.203,38.086,27.832,27.832,0
1579294522.730,26.367,33.203,38.086,25.391,104.004,0
1579294522.734,23.438,34.668,37.109,28.320,107.910,0
1579294522.738,22.949,36.621,33.691,28.809,104.980,0
1579294522.742,23.438,35.645,32.715,25.391,88.867,0
1579294522.746,22.949,34.668,33.203,18.066,28.809,0
1579294522.749,19.043,36.133,32.227,9.277,1.465,0
1579294522.753,17.578,35.156,31.250,8.301,28.809,0
1579294522.757,18.555,33.691,33.691,11.230,30.273,0
1579294522.761,17.090,33.203,34.180,14.648,-5.859,0
1579294522.765,20.020,34.180,32.715,21.973,3.418,0
1579294522.762,23.438,34.668,34.668,24.902,57.617,0
1579294522.766,25.391,34.180,37.598,23.926,46.875,0
1579294522.770,31.738,32.715,40.039,26.367,21.973,0
1579294522.774,35.645,33.691,38.086,28.809,62.012,0
1579294522.778,34.668,37.109,36.133,31.250,112.793,0
1579294522.782,34.180,37.109,38.574,29.297,15.625,0
1579294522.786,29.785,35.156,39.551,21.973,-36.133,0
1579294522.789,28.320,36.133,36.621,22.461,9.766,0
1579294522.793,25.879,34.668,36.621,25.879,15.625,0
1579294522.797,22.461,32.227,39.551,25.391,53.223,0
1579294522.801,25.391,34.180,37.598,20.508,54.199,0
1579294522.805,30.762,34.668,37.109,23.926,10.254,0
1579294522.803,36.133,35.645,35.645,34.180,25.879,0
1579294522.807,36.133,34.668,35.645,37.598,-3.418,0
1579294522.811,38.574,33.203,38.086,36.621,-1.953,0
1579294522.815,41.016,34.668,38.086,33.691,10.254,0
1579294522.819,38.574,34.668,39.062,38.574,47.852,0
1579294522.823,37.598,34.180,40.527,43.945,51.758,0
1579294522.827,35.156,33.691,40.527,37.598,-4.395,0
1579294522.830,36.133,35.156,39.062,27.832,-5.371,0
1579294522.834,36.621,36.133,38.574,23.438,-12.695,0
1579294522.838,31.738,33.691,36.621,27.344,0.488,0
1579294522.842,34.180,30.762,33.691,30.762,47.363,0
1579294522.846,32.715,35.156,35.156,25.879,61.035,0
1579294522.862,23.926,37.598,33.203,18.555,70.801,0
1579294522.866,22.461,34.668,33.691,19.531,65.918,0
1579294522.870,18.066,36.133,33.691,20.020,47.852,0
1579294522.874,14.160,35.645,30.273,15.625,54.688,0
1579294522.878,17.090,34.668,30.762,12.695,64.941,0
1579294522.882,18.066,34.668,31.250,13.672,68.359,0
1579294522.886,17.578,33.203,30.273,10.254,87.891,0
1579294522.889,19.531,33.691,31.250,8.789,83.008,0
1579294522.893,21.973,34.668,33.691,7.812,62.012,0
1579294522.897,23.438,34.668,32.227,14.160,42.480,0
1579294522.901,25.391,33.203,28.320,18.555,23.438,0
1579294522.905,24.902,30.762,26.855,16.602,33.203,0
1579294522.902,24.902,29.785,28.809,17.090,0.977,0
1579294522.906,27.832,33.691,30.273,22.461,-14.160,0
1579294522.910,30.762,36.621,32.227,32.715,64.453,0
1579294522.914,31.738,36.133,34.668,31.250,26.855,0
1579294522.918,31.738,34.180,36.133,28.320,-2.441,0
1579294522.922,32.715,32.715,37.598,35.645,61.035,0
1579294522.926,33.203,32.227,39.551,39.062,19.043,0
1579294522.929,32.715,30.762,40.039,40.039,-1.465,0
1579294522.933,31.738,32.227,39.062,34.668,30.273,0
1579294522.937,31.250,36.621,36.621,35.156,15.625,0
1579294522.941,31.738,39.062,33.203,31.738,28.809,0
1579294522.945,36.133,37.109,30.273,22.949,57.617,0
1579294522.944,37.598,37.598,31.738,23.438,52.246,0
1579294522.948,32.715,39.551,33.691,18.066,52.246,0
1579294522.952,30.273,39.551,34.180,21.973,-18.066,0
1579294522.956,31.738,36.621,34.180,27.344,-54.688,0
1579294522.960,34.668,32.715,33.691,24.414,16.602,0
1579294522.964,36.133,33.203,36.621,20.508,40.527,0
1579294522.968,32.715,33.691,37.109,24.902,40.527,0
1579294522.971,31.250,35.156,35.645,27.344,39.062,0
1579294522.975,31.250,36.621,34.180,21.484,26.367,0
1579294522.979,26.855,38.086,32.715,14.160,41.016,0
1579294522.983,26.367,38.574,34.180,7.324,38.086,0
1579294522.987,22.949,39.062,33.691,4.395,20.508,0
1579294523.002,16.113,38.574,32.715,-4.883,17.578,0
1579294523.006,12.695,40.039,36.133,-18.066,33.203,0
1579294523.010,15.625,40.527,37.598,-18.066,29.785,0
1579294523.014,20.996,39.551,35.645,0.977,-15.137,0
1579294523.018,22.949,38.086,35.156,6.348,14.160,0
1579294523.022,21.973,34.668,33.691,4.883,69.336,0
1579294523.026,22.949,37.109,32.715,9.277,48.828,0
1579294523.029,24.902,38.574,32.715,16.602,32.227,0
1579294523.033,25.391,36.133,32.227,27.832,71.289,0
1579294523.037,27.344,35.156,33.691,26.855,58.105,0
1579294523.041,32.715,37.109,36.621,25.391,33.691,0
1579294523.045,35.156,38.086,37.598,30.762,53.223,0
1579294523.043,36.621,36.621,35.156,36.621,55.176,0
1579294523.047,40.039,38.086,35.156,38.574,52.246,0
1579294523.051,45.410,38.574,35.156,30.762,57.617,0
1579294523.055,42.480,36.621,37.598,34.668,35.645,0
1579294523.059,37.109,35.645,38.086,41.992,40.039,0
1579294523.063,36.621,34.668,36.133,41.504,82.031,0
1579294523.067,38.086,35.156,35.156,36.621,103.516,0
1579294523.070,39.551,34.180,34.180,29.785,99.121,0
1579294523.074,36.621,32.715,33.691,37.109,52.734,0
1579294523.078,35.156,36.133,37.109,42.969,9.766,0
1579294523.082,34.180,38.086,38.574,34.180,54.199,0
1579294523.086,28.809,35.645,35.156,28.809,58.105,0
1579294523.083,22.949,36.133,32.227,30.762,65.430,0
1579294523.087,23.438,38.086,33.203,35.156,45.410,0
1579294523.091,18.555,38.086,32.715,36.621,0.488,0
1579294523.095,21.973,38.086,31.738,34.668,45.410,0
1579294523.099,33.691,40.039,34.668,41.992,14.648,0
1579294523.103,36.621,42.480,36.621,46.875,-3.906,0
1579294523.107,40.527,41.504,36.621,43.457,40.039,0
1579294523.110,41.016,40.039,35.156,39.551,51.758,0
1579294523.114,37.109,39.062,31.250,34.180,16.113,0
1579294523.118,32.715,37.598,30.273,33.691,36.133,0
1579294523.122,34.668,36.133,30.273,34.180,23.926,0
1579294523.126,34.668,36.621,31.738,28.809,35.645,0
1579294523.142,29.297,38.574,31.738,31.738,62.988,0
1579294523.146,30.762,38.086,32.227,33.691,25.391,0
1579294523.150,31.738,35.645,34.668,33.203,77.637,0
1579294523.154,31.738,35.645,33.691,24.902,54.688,0
1579294523.158,29.297,36.133,32.715,18.555,-2.930,0
1579294523.162,30.273,38.574,34.180,26.367,3.906,0
1579294523.166,32.227,39.551,33.203,29.297,2.441,0
1579294523.169,24.414,37.598,30.762,26.855,55.664,0
1579294523.173,24.902,38.086,32.227,20.996,62.500,0
1579294523.177,26.855,37.109,32.715,16.602,13.184,0
1579294523.181,22.461,39.551,30.273,25.879,-5.859,0
1579294523.185,16.113,37.598,30.762,27.832,11.719,0
1579294523.182,14.648,33.691,32.715,13.672,-0.977,0
1579294523.186,19.531,34.180,31.738,15.137,8.789,0
1579294523.190,24.414,33.691,31.738,24.414,57.617,0
1579294523.194,24.902,34.180,31.738,22.949,35.645,0
1579294523.198,30.273,35.645,32.715,24.414,30.273,0
1579294523.202,31.738,35.645,34.180,22.949,56.152,0
1579294523.206,27.832,36.621,33.203,25.879,91.797,0
1579294523.209,26.367,37.109,30.762,31.250,61.523,0
1579294523.213,21.973,35.645,30.762,25.879,65.918,0
1579294523.217,22.461,39.062,32.715,19.043,89.355,0
1579294523.221,22.461,40.039,32.227,21.973,47.363,0
1579294523.225,24.414,37.109,34.180,30.273,23.438,0
1579294523.223,34.180,39.551,32.715,33.203,16.113,0
1579294523.227,40.039,40.039,30.762,34.180,-1.465,0
1579294523.231,41.992,40.039,30.762,36.133,-24.902,0
1579294523.235,40.527,39.062,33.203,39.551,13.672,0
1579294523.239,41.504,37.109,34.668,37.109,9.277,0
1579294523.243,42.969,39.062,32.227,32.227,22.461,0
1579294523.247,31.250,36.133,33.203,31.738,26.855,0
1579294523.250,22.461,37.598,34.668,30.762,47.852,0
1579294523.254,17.090,38.574,32.227,19.043,95.215,0
1579294523.258,6.836,29.785,29.785,5.859,34.668,0
1579294523.262,3.418,30.273,33.691,10.254,17.578,0
1579294523.266,1.465,33.203,37.109,13.672,-3.418,0
1579294523.282,-3.418,34.668,37.598,10.254,15.625,0
1579294523.286,-3.906,38.574,39.551,6.836,90.820,0
1579294523.290,-2.441,41.992,40.039,-4.883,34.180,0
1579294523.294,-6.836,42.969,38.086,-10.742,-9.277,0
1579294523.298,-6.836,44.434,38.574,-4.395,6.836,0
1579294523.302,-7.324,47.363,41.504,-3.906,24.414,0
1579294523.306,-15.137,45.410,47.363,-15.625,75.684,0
1579294523.309,-17.090,40.527,49.316,-20.508,52.246,0
1579294523.313,-25.879,37.109,49.316,-21.973,41.016,0
1579294523.317,-30.762,35.645,49.316,-28.320,23.438,0
1579294523.321,-28.320,40.039,47.363,-33.691,39.551,0
1579294523.325,-33.691,46.387,48.828,-41.016,26.367,0
1579294523.323,-40.527,45.410,49.805,-43.457,27.344,0
1579294523.327,-44.922,46.387,48.828,-36.621,79.590,0
1579294523.331,-44.434,47.852,46.875,-44.434,29.785,0
1579294523.335,-41.992,46.387,44.922,-54.199,37.598,0
1579294523.339,-44.922,44.434,42.969,-52.246,43.457,0
1579294523.343,-49.316,43.457,41.016,-45.410,48.340,0
1579294523.347,-47.363,41.504,40.039,-46.387,26.367,0
1579294523.350,-45.898,39.551,40.039,-52.246,-27.344,0
1579294523.354,-43.457,39.551,41.504,-51.270,-31.250,0
1579294523.358,-35.645,39.062,40.527,-43.457,1.465,0
1579294523.362,-31.250,38.574,40.039,-36.621,45.898,0
1579294523.366,-25.391,38.574,39.062,-31.738,9.766,0
1579294523.362,-19.531,37.598,39.062,-20.020,11.230,0
1579294523.366,-11.719,36.621,39.062,-12.695,83.008,0
1579294523.370,2.441,39.062,37.109,-13.184,94.238,0
1579294523.374,12.207,40.527,35.645,-7.812,57.129,0
1579294523.378,19.043,39.062,35.645,-0.488,28.320,0
1579294523.382,28.809,38.574,36.133,11.230,3.418,0
1579294523.386,32.227,36.621,37.109,22.461,13.672,0
1579294523.389,34.180,36.133,37.109,24.902,1.953,0
1579294523.393,41.016,37.598,35.156,27.344,8.301,0
1579294523.397,48.340,36.133,32.715,40.039,60.059,0
1579294523.401,49.805,36.133,32.227,51.270,78.613,0
1579294523.405,45.410,34.668,34.668,54.688,86.426,0
1579294523.422,43.945,33.203,32.715,52.734,67.383,0
1579294523.426,49.805,33.691,31.250,54.688,36.133,0
1579294523.430,51.758,31.250,34.180,64.453,85.938,0
1579294523.434,51.758,27.344,34.668,67.871,51.758,0
1579294523.438,50.781,26.367,35.645,62.012,28.320,0
1579294523.442,47.852,27.344,36.133,56.152,86.914,0
1579294523.446,47.852,29.785,33.203,54.199,82.031,0
1579294523.449,50.293,30.273,28.809,57.129,77.637,0
1579294523.453,54.688,31.250,27.832,53.711,60.059,0
1579294523.457,58.594,32.227,29.297,44.434,65.918,0
1579294523.461,58.594,34.668,30.762,43.457,58.594,0
1579294523.465,57.617,32.715,29.785,45.898,14.648,0
1579294523.462,56.641,30.762,28.809,43.457,60.059,0
1579294523.466,55.664,31.250,27.832,38.574,94.238,0
1579294523.470,53.711,29.785,25.879,41.504,59.570,0
1579294523.474,55.664,30.273,26.367,38.574,40.527,0
1579294523.478,52.246,30.273,28.320,33.203,45.410,0
1579294523.482,55.176,34.180,26.367,35.156,53.711,0
1579294523.486,56.641,34.668,27.344,36.621,18.555,0
1579294523.489,50.293,33.203,28.809,46.387,30.273,0
1579294523.493,48.828,33.203,27.344,52.734,58.594,0
1579294523.497,46.387,30.762,26.855,50.293,44.434,0
1579294523.501,45.898,31.738,27.344,55.176,-4.395,0
1579294523.505,50.781,32.227,30.762,61.035,45.410,0
1579294523.503,51.758,29.785,32.715,64.941,94.238,0
1579294523.507,47.363,28.809,32.227,62.012,43.945,0
1579294523.511,47.363,29.785,31.738,55.664,1.953,0
1579294523.515,45.898,29.297,32.227,58.105,27.832,0
1579294523.519,45.410,29.297,34.668,58.594,61.523,0
1579294523.523,42.480,30.762,33.203,54.199,34.180,0
1579294523.527,38.574,31.738,31.738,44.434,34.180,0
1579294523.530,38.086,34.668,33.691,38.574,27.832,0
1579294523.534,40.527,36.133,34.180,44.434,22.949,0
1579294523.538,44.922,33.203,31.738,47.363,51.758,0
1579294523.542,41.016,33.203,31.250,40.527,58.594,0
1579294523.546,39.551,35.645,33.203,36.133,78.613,0
1579294523.562,40.039,36.133,31.738,39.551,19.043,0
1579294523.566,37.109,35.645,29.297,38.574,38.574,0
1579294523.570,38.574,34.668,28.320,33.691,74.707,0
1579294523.574,41.016,36.133,30.273,30.762,50.781,0
1579294523.578,40.527,35.156,34.180,30.762,17.090,0
1579294523.582,41.992,35.156,34.668,36.133,8.301,0
1579294523.586,44.434,34.668,32.227,36.133,31.738,0
1579294523.589,45.898,34.668,31.250,34.668,27.344,0
1579294523.593,48.828,39.062,32.715,41.504,57.617,0
1579294523.597,53.711,40.527,33.203,45.410,30.762,0
1579294523.601,52.734,39.062,33.203,42.480,-83.984,0
1579294523.605,48.340,39.062,33.203,37.109,-56.641,0
1579294523.602,42.480,35.645,32.227,35.156,38.574,0
1579294523.606,38.086,33.691,32.715,39.551,52.246,0
1579294523.610,38.086,36.133,33.203,39.062,30.762,0
1579294523.614,40.039,36.621,32.227,29.297,33.203,0
1579294523.618,36.133,35.156,34.180,27.344,49.805,0
1579294523.622,33.691,34.180,34.180,35.645,35.156,0
1579294523.626,38.086,36.133,33.691,37.109,12.695,0
1579294523.629,35.645,35.645,35.156,29.297,55.664,0
1579294523.633,33.203,36.621,36.133,29.297,54.199,0
1579294523.637,33.691,37.598,37.598,34.668,19.531,0
1579294523.641,35.156,36.133,36.133,30.762,36.621,0
1579294523.645,35.156,35.156,34.668,24.902,50.293,0
1579294523.662,28.809,33.203,34.668,20.508,25.391,0
1579294523.666,22.461,34.180,34.180,22.461,46.875,0
1579294523.670,22.949,34.668,33.203,24.414,36.621,0
1579294523.674,24.902,34.180,34.668,21.973,44.922,0
1579294523.678,26.367,34.180,33.203,20.020,63.477,0
1579294523.682,28.320,33.203,30.273,17.578,11.230,0
1579294523.686,26.855,34.180,30.762,22.949,-9.766,0
1579294523.689,27.344,36.133,31.738,29.785,22.949,0
1579294523.693,26.367,33.691,34.180,29.297,-5.859,0
1579294523.697,29.785,34.668,33.203,33.203,-13.184,0
1579294523.701,33.691,38.086,33.691,39.062,34.180,0
1579294523.705,32.227,37.598,35.645,44.434,1.953,0
1579294523.702,36.621,38.086,35.645,36.621,0.488,0
1579294523.706,41.504,40.039,34.668,28.320,-9.277,0
1579294523.710,47.852,41.016,34.180,33.691,13.184,0
1579294523.714,51.758,42.969,34.668,38.086,104.492,0
1579294523.718,47.852,42.969,32.715,35.156,22.461,0
1579294523.722,44.434,39.551,31.250,27.832,13.672,0
1579294523.726,39.551,38.574,31.738,28.320,25.879,0
1579294523.729,33.691,39.551,27.832,35.156,-0.488,0
1579294523.733,34.180,39.551,25.879,37.109,53.711,0
1579294523.737,36.621,41.016,27.344,28.809,21.484,0
1579294523.741,36.133,41.504,28.809,29.297,7.812,0
1579294523.745,32.715,40.527,29.297,31.738,41.016,0
1579294523.742,31.738,37.598,31.738,28.809,65.430,0
1579294523.746,34.180,33.691,32.227,27.832,82.520,0
1579294523.750,35.645,33.691,35.645,28.320,87.402,0
1579294523.754,34.668,34.180,38.086,37.598,53.223,0
1579294523.758,37.109,34.180,33.203,37.598,17.578,0
1579294523.762,40.527,37.109,34.180,33.691,34.668,0
1579294523.766,40.527,39.551,37.109,33.203,27.832,0
1579294523.769,33.691,36.621,36.133,33.691,39.551,0
1579294523.773,33.691,37.598,34.668,32.715,-1.953,0
1579294523.777,35.645,39.551,32.715,22.949,3.418,0
1579294523.781,25.879,36.133,28.809,20.508,3.906,0
1579294523.785,23.438,36.621,32.227,22.949,3.906,0
1579294523.803,26.855,40.039,34.180,26.855,19.043,0
1579294523.807,25.391,40.039,33.691,28.809,26.367,0
1579294523.811,25.879,40.039,34.180,20.996,1.465,0
1579294523.815,23.438,38.086,33.203,19.531,-6.836,0
1579294523.819,20.996,39.062,33.203,24.902,57.129,0
1579294523.823,21.973,40.039,31.738,31.738,48.828,0
1579294523.827,26.855,38.086,33.203,29.785,35.156,0
1579294523.830,29.297,38.086,33.203,18.066,34.180,0
1579294523.834,29.785,36.621,34.180,21.484,23.926,0
1579294523.838,27.832,36.621,34.668,30.762,29.297,0
1579294523.842,27.832,39.062,33.203,27.344,32.715,0
1579294523.846,28.809,37.598,34.668,26.367,0.488,0
1579294523.843,31.250,36.621,38.574,36.133,24.414,0
1579294523.847,36.621,36.133,41.016,41.992,75.684,0
1579294523.851,36.621,35.645,38.086,41.992,114.258,0
1579294523.855,36.621,36.133,38.086,38.574,66.406,0
1579294523.859,40.527,37.598,38.574,36.133,36.133,0
1579294523.863,42.969,39.551,38.574,42.969,66.406,0
1579294523.867,45.410,41.504,39.062,46.387,54.688,0
1579294523.870,42.969,41.016,36.621,35.645,25.391,0
1579294523.874,41.504,41.992,33.203,30.273,33.691,0
1579294523.878,39.551,45.410,32.715,35.645,13.672,0
1579294523.882,31.738,46.875,33.203,33.203,20.996,0
1579294523.886,30.273,44.922,31.250,20.020,50.293,0
1579294523.882,30.273,42.969,32.227,13.672,42.969,0
1579294523.886,23.926,41.992,36.621,12.695,41.504,0
1579294523.890,18.066,41.016,36.621,5.859,31.250,0
1579294523.894,4.395,39.551,36.621,-0.977,48.340,0
1579294523.898,-5.859,43.945,40.527,-8.789,52.734,0
1579294523.902,-11.719,45.898,41.504,-10.742,25.879,0
1579294523.906,-18.555,40.527,38.086,-2.930,19.531,0
1579294523.909,-21.973,41.016,37.598,-8.301,40.527,0
1579294523.913,-20.996,41.992,42.969,-15.137,29.297,0
1579294523.917,-19.531,45.410,47.852,-11.230,49.316,0
1579294523.921,-25.391,44.434,46.387,-16.113,34.668,0
1579294523.925,-31.250,40.527,48.828,-20.508,13.672,0
1579294523.942,-28.320,43.457,52.246,-22.949,53.711,0
1579294523.946,-28.320,44.922,49.805,-32.715,69.336,0
1579294523.950,-35.645,41.016,50.781,-41.016,32.715,0
1579294523.954,-40.527,39.551,50.781,-43.945,27.832,0
1579294523.958,-35.645,42.480,49.805,-46.387,30.273,0
1579294523.962,-32.715,46.875,49.316,-46.387,2.441,0
1579294523.966,-41.504,47.363,47.852,-48.340,26.367,0
1579294523.969,-42.969,44.922,48.340,-52.246,49.805,0
1579294523.973,-41.992,41.016,52.734,-49.805,40.527,0
1579294523.977,-41.016,44.434,50.293,-50.781,49.316,0
1579294523.981,-41.504,43.945,44.922,-52.246,16.602,0
1579294523.985,-41.992,42.480,46.387,-46.875,1.465,0
1579294523.982,-42.480,44.434,49.805,-43.457,69.336,0
1579294523.986,-40.527,44.434,47.852,-44.434,66.895,0
1579294523.990,-37.598,45.410,45.898,-41.992,19.531,0
1579294523.994,-31.738,44.922,41.504,-30.273,8.301,0
1579294523.998,-21.973,44.434,41.016,-17.578,44.922,0
1579294524.002,-15.625,44.922,43.945,-20.020,80.566,0
1579294524.006,-2.441,43.945,38.086,-20.020,69.336,0
1579294524.009,8.301,39.062,33.203,-0.488,33.203,0
1579294524.013,18.555,36.133,32.227,6.836,10.254,0
1579294524.017,31.738,39.062,30.273,7.812,27.344,0
1579294524.021,37.598,38.574,30.762,16.113,58.105,0
1579294524.025,40.527,36.133,29.297,26.367,56.152,0
1579294524.022,41.016,32.715,26.855,41.504,17.578,0
1579294524.026,41.992,28.320,30.762,44.434,51.270,0
1579294524.030,49.805,27.344,29.785,47.363,48.340,0
1579294524.034,57.129,31.250,26.855,54.688,-18.555,0
1579294524.038,61.035,34.180,25.879,58.594,-19.043,0
1579294524.042,65.918,34.668,25.879,66.895,15.625,0
1579294524.046,67.383,34.180,27.832,69.336,-19.043,0
1579294524.049,69.336,32.227,29.785,73.242,-63.965,0
1579294524.053,70.312,29.785,30.273,76.172,18.555,0
1579294524.057,70.312,30.273,30.273,71.777,51.270,0
1579294524.061,71.777,30.762,29.785,74.707,7.812,0
1579294524.065,70.801,31.250,31.738,73.242,17.578,0
1579294524.082,69.824,34.180,33.691,75.684,86.914,0
1579294524.086,67.871,35.156,34.180,72.754,117.188,0
1579294524.090,62.500,31.738,34.668,59.082,48.828,0
1579294524.094,61.523,31.250,31.738,56.641,56.152,0
1579294524.098,63.477,34.668,30.273,62.012,83.984,0
1579294524.102,64.453,34.180,30.762,65.430,65.430,0
1579294524.106,69.824,35.645,30.762,62.500,33.691,0
1579294524.109,71.777,36.621,33.691,57.617,53.223,0
1579294524.113,70.801,32.715,33.691,64.453,66.895,0
1579294524.117,72.266,33.691,31.250,72.266,51.758,0
1579294524.121,75.195,33.691,31.250,68.359,46.875,0
1579294524.125,72.754,33.691,32.227,56.641,32.227,0
1579294524.122,69.824,37.109,28.320,57.617,15.625,0
1579294524.126,69.336,37.109,25.879,59.570,14.648,0
1579294524.130,62.012,35.156,28.320,50.293,-0.977,0
1579294524.134,53.711,35.645,31.738,48.340,8.789,0
1579294524.138,52.246,36.621,29.785,43.457,41.504,0
1579294524.142,50.781,36.621,24.902,46.387,22.461,0
1579294524.146,47.363,33.691,28.320,54.199,-35.645,0
1579294524.149,48.828,31.250,31.250,48.828,-6.836,0
1579294524.153,46.875,32.227,31.250,46.387,48.340,0
1579294524.157,45.898,33.691,34.668,51.270,54.199,0
1579294524.161,44.922,35.156,35.645,55.176,79.102,0
1579294524.165,38.086,34.668,31.738,50.781,51.758,0
1579294524.162,32.227,34.668,29.297,42.969,60.059,0
1579294524.166,27.344,32.715,30.273,41.016,53.223,0
1579294524.170,25.879,33.203,31.738,40.527,31.738,0
1579294524.174,25.879,35.156,32.227,40.039,88.379,0
1579294524.178,25.391,33.203,32.227,36.133,89.844,0
1579294524.182,29.785,33.203,30.273,35.156,53.711,0
1579294524.186,37.109,35.156,27.344,43.457,10.742,0
1579294524.189,44.434,35.645,27.832,46.875,52.734,0
1579294524.193,51.270,37.598,30.762,38.086,58.105,0
1579294524.197,49.316,41.992,30.762,31.738,-50.293,0
1579294524.201,47.852,41.016,31.738,33.691,25.879,0
1579294524.205,52.246,37.109,34.180,35.645,94.727,0
1579294524.222,48.828,37.109,32.227,31.250,41.504,0
1579294524.226,41.504,38.574,32.227,29.785,5.371,0
1579294524.230,37.109,38.574,31.250,19.531,-24.414,0
1579294524.234,36.621,38.086,28.809,10.254,30.273,0
1579294524.238,38.086,39.062,27.832,13.184,54.688,0
1579294524.242,37.109,39.551,25.879,5.371,41.992,0
1579294524.246,31.250,40.039,28.320,-1.465,45.410,0
1579294524.249,27.344,40.527,30.273,4.395,25.391,0
1579294524.253,25.879,38.574,31.250,8.301,0.000,0
1579294524.257,21.484,38.086,31.738,6.348,12.207,0
1579294524.261,20.996,37.109,28.320,7.324,46.387,0
1579294524.265,22.949,38.574,27.832,10.742,36.133,0
1579294524.262,18.066,41.016,31.250,8.789,55.176,0
1579294524.266,18.555,39.062,33.203,6.348,40.527,0
1579294524.270,20.508,38.574,29.785,7.812,-7.324,0
1579294524.274,17.578,39.551,30.762,10.742,48.340,0
1579294524.278,20.020,37.598,32.227,16.113,58.594,0
1579294524.282,22.949,36.133,33.691,15.625,35.645,0
1579294524.286,25.879,36.133,35.156,14.160,37.598,0
1579294524.289,21.973,36.133,33.203,14.160,14.648,0
1579294524.293,25.391,36.621,30.762,16.113,30.273,0
1579294524.297,34.180,38.574,30.273,18.555,57.129,0
1579294524.301,35.645,38.574,30.762,19.043,60.059,0
1579294524.305,39.551,36.133,30.273,21.973,22.949,0
1579294524.302,43.457,34.668,26.367,28.809,-31.738,0
1579294524.306,40.039,34.180,26.855,35.156,13.672,0
1579294524.310,38.086,34.180,34.180,29.785,72.266,0
1579294524.314,41.992,36.133,38.086,21.973,33.691,0
1579294524.318,44.922,34.668,38.086,28.320,-13.184,0
1579294524.322,42.480,33.691,37.109,29.785,-39.062,0
1579294524.326,31.250,34.180,36.621,17.578,19.043,0
1579294524.329,26.367,35.156,38.086,2.930,57.129,0
1579294524.333,26.367,36.621,37.598,7.812,8.301,0
1579294524.337,17.090,32.227,35.156,11.230,8.789,0
1579294524.341,11.230,32.715,33.203,2.441,7.324,0
1579294524.345,9.766,37.109,32.227,-4.395,29.297,0
1579294524.362,7.812,35.645,32.715,-2.441,9.277,0
1579294524.366,5.371,34.180,29.785,6.348,27.832,0
1579294524.370,3.906,34.180,30.762,9.277,67.871,0
1579294524.374,12.695,33.691,34.668,6.348,30.273,0
1579294524.378,21.484,31.738,34.668,6.836,2.930,0
1579294524.382,22.949,30.762,36.621,23.438,20.996,0
1579294524.386,21.973,33.203,37.109,32.227,-19.531,0
1579294524.389,18.555,30.273,36.621,28.320,-41.504,0
1579294524.393,15.137,29.785,36.133,30.762,48.340,0
1579294524.397,20.508,31.738,35.156,33.203,21.973,0
1579294524.401,25.391,32.227,35.645,33.203,3.906,0
1579294524.405,26.855,33.203,32.227,35.156,36.621,0
1579294524.402,32.715,34.180,32.715,36.133,42.969,0
1579294524.406,44.922,37.109,32.715,35.156,48.828,0
1579294524.410,53.223,36.133,35.645,45.410,75.195,0
1579294524.414,52.734,34.180,38.574,52.246,60.059,0
1579294524.418,47.852,34.180,37.598,42.969,25.879,0
1579294524.422,39.551,33.691,39.062,41.992,33.691,0
1579294524.426,38.086,31.738,41.016,49.316,34.180,0
1579294524.429,39.062,32.227,40.527,47.363,-6.348,0
1579294524.433,36.621,32.715,39.062,35.645,17.090,0
1579294524.437,35.645,34.668,40.039,27.344,0.000,0
1579294524.441,34.180,37.109,39.062,30.273,14.160,0
1579294524.445,32.715,37.598,37.598,25.879,-2.930,0
1579294524.442,31.250,39.062,36.133,13.672,34.180,0
1579294524.446,22.461,38.574,33.691,5.371,112.305,0
1579294524.450,20.508,40.527,31.250,6.348,55.176,0
1579294524.454,24.902,41.504,29.297,6.836,62.988,0
1579294524.458,22.461,39.062,29.297,0.000,100.586,0
1579294524.462,22.461,38.086,30.762,-1.465,91.797,0
1579294524.466,22.949,36.621,30.762,6.836,75.684,0
1579294524.469,26.367,34.668,29.785,22.949,46.875,0
1579294524.473,28.809,33.203,32.715,26.367,-2.441,0
1579294524.477,24.902,30.762,36.133,20.508,19.043,0
1579294524.481,24.902,29.297,39.551,34.180,57.129,0
1579294524.485,30.273,29.785,42.969,52.246,19.531,0
1579294524.502,33.691,31.738,43.945,57.617,-31.250,0
1579294524.506,36.133,34.180,43.945,58.594,-1.953,0
1579294524.510,41.504,36.133,43.457,54.688,57.617,0
1579294524.514,45.410,35.645,42.969,46.875,85.938,0
1579294524.518,47.852,37.598,41.992,44.434,104.492,0
1579294524.522,50.781,41.992,37.109,38.574,72.754,0
1579294524.526,56.152,43.945,33.203,27.344,56.152,0
1579294524.529,57.129,43.457,28.809,27.832,53.711,0
1579294524.533,49.805,40.527,32.715,38.574,30.762,0
1579294524.537,37.109,36.621,40.527,39.062,38.086,0
1579294524.541,35.645,34.668,41.992,35.156,38.574,0
1579294524.545,36.621,33.691,42.969,32.715,23.926,0
1579294524.542,30.762,30.273,41.992,32.715,15.137,0
1579294524.546,25.391,26.367,43.457,40.039,-3.418,0
1579294524.550,19.043,27.344,43.457,39.551,-6.836,0
1579294524.554,20.996,27.344,41.504,44.434,0.000,0
1579294524.558,25.879,24.902,43.457,57.129,28.320,0
1579294524.562,24.902,25.391,45.410,53.711,62.988,0
1579294524.566,27.832,26.367,46.875,47.363,53.711,0
1579294524.569,30.762,25.391,47.852,48.340,36.621,0
1579294524.573,28.320,24.414,48.340,54.688,7.324,0
1579294524.577,30.273,28.320,46.387,59.082,13.184,0
1579294524.581,34.668,33.691,44.434,47.363,52.246,0
1579294524.585,38.574,36.621,41.504,35.645,27.832,0
1579294524.582,42.969,41.504,37.598,37.598,35.156,0
1579294524.586,41.992,43.457,34.668,39.551,21.484,0
1579294524.590,30.762,42.480,29.785,32.227,45.898,0
1579294524.594,19.531,42.480,27.832,19.531,39.062,0
1579294524.598,11.230,41.016,29.785,19.043,-17.578,0
1579294524.602,11.719,37.109,33.203,24.414,5.859,0
1579294524.606,16.113,34.668,37.109,22.949,27.344,0
1579294524.609,17.090,33.691,39.551,24.414,57.129,0
1579294524.613,22.949,32.227,41.992,30.762,62.500,0
1579294524.617,31.250,29.297,43.945,36.621,69.336,0
1579294524.621,37.598,28.809,43.457,43.457,61.035,0
1579294524.625,44.922,30.762,41.504,49.805,31.250,0
1579294524.642,48.340,32.715,40.527,51.270,58.105,0
1579294524.646,45.410,34.668,40.039,50.293,48.340,0
1579294524.650,44.434,35.645,38.574,48.828,13.672,0
1579294524.654,45.410,37.598,38.086,46.875,25.879,0
1579294524.658,43.457,38.086,37.598,41.504,40.039,0
1579294524.662,47.363,39.062,37.109,44.434,71.289,0
1579294524.666,53.223,42.480,34.180,42.969,64.941,0
1579294524.669,54.688,44.434,30.762,40.039,67.383,0
1579294524.673,56.152,44.434,29.785,39.551,68.359,0
1579294524.677,58.594,47.363,27.832,34.668,-1.465,0
1579294524.681,55.664,49.805,23.438,36.133,-2.441,0
1579294524.685,51.758,47.852,23.438,30.762,-40.039,0
1579294524.683,42.969,45.898,27.344,18.066,-32.227,0
1579294524.687,36.621,45.410,24.414,13.184,40.039,0
1579294524.691,35.645,43.457,22.461,20.020,64.453,0
1579294524.695,28.809,42.969,24.902,24.902,61.035,0
1579294524.699,26.855,40.527,25.879,19.531,-12.695,0
1579294524.703,26.855,37.109,27.344,16.602,-7.324,0
1579294524.707,27.832,37.598,27.832,27.344,15.137,0
1579294524.710,27.344,36.621,28.320,36.621,-11.719,0
1579294524.714,29.785,37.109,29.297,38.086,13.672,0
1579294524.718,34.180,39.551,29.297,30.762,17.578,0
1579294524.722,34.180,37.109,27.344,31.250,8.301,0
1579294524.726,33.691,35.156,29.785,40.527,20.020,0
1579294524.722,28.809,37.109,33.203,36.621,32.227,0
1579294524.726,30.273,35.645,35.645,36.133,41.016,0
1579294524.730,28.809,34.180,36.621,39.062,24.902,0
1579294524.734,35.645,35.156,34.668,45.410,25.391,0
1579294524.738,49.805,37.109,34.668,60.059,81.055,0
1579294524.742,53.711,40.039,37.109,50.781,57.129,0
1579294524.746,53.223,42.969,37.109,40.527,36.621,0
1579294524.749,58.105,44.434,32.227,51.758,70.801,0
1579294524.753,57.129,43.457,31.250,53.711,65.918,0
1579294524.757,50.293,41.504,33.691,44.922,98.145,0
1579294524.761,39.551,40.039,29.785,34.180,96.680,0
1579294524.765,31.250,41.504,28.320,30.762,112.793,0
1579294524.783,32.227,38.574,28.320,29.785,102.539,0
1579294524.787,26.367,33.203,26.367,22.461,-3.418,0
1579294524.791,21.973,33.203,27.832,19.531,12.207,0
1579294524.795,20.508,33.691,30.273,21.973,43.945,0
1579294524.799,20.508,31.250,32.227,26.367,56.152,0
1579294524.803,17.090,33.203,34.180,23.926,73.242,0
1579294524.807,18.066,34.668,34.180,16.602,50.781,0
1579294524.810,24.902,32.715,33.203,24.902,25.391,0
1579294524.814,20.508,35.645,34.668,35.156,31.738,0
1579294524.818,18.066,35.645,35.645,35.645,20.020,0
1579294524.822,19.531,33.691,36.133,34.668,13.672,0
1579294524.826,12.207,32.227,37.109,34.668,41.504,0
1579294524.823,7.812,34.668,37.598,37.598,7.812,0
1579294524.827,15.625,36.133,39.551,44.922,-13.672,0
1579294524.831,21.973,34.180,42.480,47.852,1.465,0
1579294524.835,19.531,34.180,39.551,40.039,32.227,0
1579294524.839,18.555,34.180,37.598,35.645,36.621,0
1579294524.843,20.020,34.668,38.086,34.668,4.395,0
1579294524.847,17.090,38.574,38.086,29.785,48.340,0
1579294524.850,19.531,35.645,38.086,25.879,60.547,0
1579294524.854,15.625,31.250,36.621,23.926,127.930,0
1579294524.858,13.184,33.691,37.598,22.949,106.934,0
1579294524.862,19.043,32.715,35.156,25.879,-3.418,0
1579294524.866,14.648,30.762,36.621,21.484,70.312,0
1579294524.864,17.578,29.297,40.039,21.484,84.961,0
1579294524.868,21.484,30.762,39.062,35.645,42.969,0
1579294524.872,31.250,34.668,41.992,41.992,23.438,0
1579294524.876,41.992,37.109,41.992,39.551,20.996,0
1579294524.880,41.504,37.109,42.969,37.598,47.852,0
1579294524.884,47.363,37.109,42.480,41.992,55.176,0
1579294524.888,39.062,37.109,38.574,42.480,28.809,0
1579294524.891,27.344,33.691,39.551,36.133,-0.488,0
1579294524.895,20.020,32.227,37.598,26.367,-8.301,0
1579294524.899,22.949,30.762,33.691,28.809,-8.789,0
1579294524.903,21.484,27.832,33.203,33.691,41.504,0
1579294524.907,10.742,28.320,32.227,23.926,22.949,0
1579294524.922,7.812,29.785,29.785,14.160,-13.672,0
1579294524.926,7.324,30.762,29.297,16.602,25.879,0
1579294524.930,16.113,35.156,26.367,19.043,21.973,0
1579294524.934,23.438,40.039,25.879,16.602,21.484,0
1579294524.938,21.484,41.992,27.832,9.766,-23.926,0
1579294524.942,20.508,40.039,29.785,5.859,-1.465,0
1579294524.946,25.391,40.039,30.273,11.719,6.836,0
1579294524.949,34.180,41.016,27.832,21.484,-39.551,0
1579294524.953,38.574,38.574,32.715,21.484,55.176,0
1579294524.957,31.250,36.133,36.621,20.020,73.730,0
1579294524.961,31.738,37.109,34.668,28.320,23.926,0
1579294524.965,32.227,37.598,37.109,22.461,67.871,0
1579294524.964,26.367,35.645,35.156,15.625,62.988,0
1579294524.968,35.156,37.598,32.227,16.602,101.562,0
1579294524.972,41.992,40.527,30.273,18.555,26.367,0
1579294524.976,39.551,37.598,29.785,23.926,-31.738,0
1579294524.980,39.551,37.109,28.809,27.832,89.355,0
1579294524.984,48.340,41.016,27.832,31.738,91.797,0
1579294524.988,51.758,42.969,30.762,36.621,21.484,0
1579294524.991,46.875,41.504,33.203,39.062,-32.227,0
1579294524.995,44.922,41.504,34.668,40.527,-7.324,0
1579294524.999,42.969,39.551,35.156,33.691,10.742,0
1579294525.003,39.062,38.574,34.180,25.391,1.953,0
1579294525.007,34.180,40.039,32.715,21.484,47.363,0
1579294525.003,28.320,39.551,30.762,20.508,41.504,0
1579294525.007,35.645,41.504,30.273,22.461,-15.625,0
1579294525.011,38.086,43.945,30.762,17.578,4.883,0
1579294525.015,42.480,41.992,32.227,23.926,35.156,0
1579294525.019,46.875,43.457,34.668,30.273,26.855,0
1579294525.023,39.062,42.969,35.645,27.344,50.293,0
1579294525.027,38.574,40.527,32.715,26.367,37.598,0
1579294525.030,41.504,41.016,29.785,29.785,44.434,0
1579294525.034,43.457,40.527,29.785,34.668,73.730,0
1579294525.038,45.898,39.551,32.715,31.738,63.965,0
1579294525.042,48.828,40.527,33.691,28.320,-24.902,0
1579294525.046,54.199,41.504,31.738,24.902,-70.312,0
1579294525.062,53.711,43.457,30.273,22.461,-0.488,0
1579294525.066,46.875,44.434,28.809,20.020,-29.785,0
1579294525.070,47.363,41.504,30.762,17.578,-14.648,0
1579294525.074,48.340,38.574,32.715,13.672,51.270,0
1579294525.078,41.016,37.598,33.691,19.043,26.855,0
1579294525.082,33.203,37.598,35.645,25.879,13.672,0
1579294525.086,32.227,39.551,33.203,27.344,56.641,0
1579294525.089,35.156,41.504,32.227,26.367,61.523,0
1579294525.093,35.156,40.527,32.715,26.367,15.625,0
1579294525.097,33.203,38.086,34.668,35.156,38.086,0
1579294525.101,34.668,37.598,38.086,33.203,1.953,0
1579294525.105,31.738,37.598,39.062,27.344,36.621,0
1579294525.102,27.344,36.621,39.551,27.344,100.586,0
1579294525.106,27.832,35.645,38.574,29.785,18.555,0
1579294525.110,34.668,36.133,41.992,29.785,-15.137,0
1579294525.114,44.434,37.109,44.922,29.785,44.922,0
1579294525.118,37.598,37.109,39.551,25.879,103.027,0
1579294525.122,30.273,35.156,38.086,24.902,107.422,0
1579294525.126,35.156,34.668,40.039,33.203,54.199,0
1579294525.129,38.574,37.598,37.598,31.738,43.945,0
1579294525.133,39.062,40.527,40.527,29.785,17.578,0
1579294525.137,32.715,38.574,39.551,32.715,-1.953,0
1579294525.141,27.344,36.133,35.156,26.855,47.363,0
1579294525.145,27.832,39.062,35.156,20.996,107.422,0
1579294525.162,29.785,40.527,33.203,19.531,74.219,0
1579294525.166,33.203,41.504,31.738,24.414,8.301,0
1579294525.170,30.273,44.434,31.738,24.414,2.930,0
1579294525.174,32.227,41.992,30.273,20.996,-20.508,0
1579294525.178,39.551,38.086,31.250,28.320,-27.344,0
1579294525.182,40.527,38.086,33.203,29.297,-23.438,0
1579294525.186,42.480,41.504,34.668,31.738,-9.766,0
1579294525.189,38.086,41.504,36.621,31.738,43.945,0
1579294525.193,32.715,38.086,34.180,27.832,85.938,0
1579294525.197,30.762,38.574,33.691,27.344,85.938,0
1579294525.201,31.738,38.086,34.668,22.461,62.500,0
1579294525.205,32.227,39.551,34.180,19.043,31.738,0
1579294525.203,28.320,41.016,34.180,19.043,41.504,0
1579294525.207,25.879,37.598,33.691,15.625,77.637,0
1579294525.211,25.879,35.645,33.203,16.602,51.270,0
1579294525.215,31.738,37.109,32.227,24.902,4.883,0
1579294525.219,37.109,39.062,31.738,26.367,53.223,0
1579294525.223,37.598,38.574,32.227,23.926,76.172,0
1579294525.227,32.227,38.086,31.738,25.879,15.625,0
1579294525.230,27.832,37.598,31.738,32.227,8.789,0
1579294525.234,23.438,36.621,30.762,31.738,41.992,0
1579294525.238,22.461,36.133,30.273,23.926,31.738,0
1579294525.242,27.344,39.551,32.715,23.438,52.246,0
1579294525.246,24.414,41.016,33.203,18.555,51.270,0
1579294525.242,21.973,39.551,32.715,16.113,5.371,0
1579294525.246,22.949,41.504,32.715,13.672,11.230,0
1579294525.250,23.926,40.039,32.715,10.742,20.020,0
1579294525.254,23.926,39.551,31.738,15.625,48.340,0
1579294525.258,26.855,42.480,30.762,20.020,39.551,0
1579294525.262,34.180,40.527,31.250,21.484,0.000,0
1579294525.266,34.668,41.016,35.645,19.043,47.852,0
1579294525.269,31.250,42.969,37.109,20.996,51.758,0
1579294525.273,33.691,40.039,37.109,26.367,67.871,0
1579294525.277,31.250,39.551,35.156,26.367,28.809,0
1579294525.281,22.461,38.574,33.691,21.973,57.617,0
1579294525.285,22.949,38.086,35.645,20.508,111.328,0
1579294525.303,27.344,41.016,33.203,23.926,46.875,0
1579294525.307,28.320,42.969,28.809,22.461,-15.625,0
1579294525.311,30.762,43.945,28.320,15.625,-42.969,0
1579294525.315,24.902,42.969,27.832,14.160,-67.871,0
1579294525.319,13.672,41.992,29.297,18.066,13.184,0
1579294525.323,14.160,41.992,29.785,21.484,64.453,0
1579294525.327,21.973,40.527,31.250,22.949,26.855,0
1579294525.330,17.578,35.645,35.156,17.090,19.531,0
1579294525.334,14.648,34.180,36.621,21.484,85.938,0
1579294525.338,21.484,35.156,35.645,28.320,87.891,0
1579294525.342,22.461,32.227,35.645,22.949,14.648,0
1579294525.346,24.902,33.203,37.598,24.414,12.207,0
1579294525.342,29.785,38.086,39.062,29.785,13.672,0
1579294525.346,27.832,36.621,36.621,29.297,11.230,0
1579294525.350,22.461,36.621,37.598,25.391,20.996,0
1579294525.354,21.973,37.598,40.039,19.043,15.137,0
1579294525.358,21.484,40.527,39.062,18.555,65.918,0
1579294525.362,21.484,43.457,39.062,22.461,73.242,0
1579294525.366,23.438,41.992,37.109,22.461,32.715,0
1579294525.369,20.020,41.504,33.691,12.207,48.828,0
1579294525.373,15.625,40.527,33.203,4.395,62.500,0
1579294525.377,19.043,41.504,34.180,13.672,80.078,0
1579294525.381,20.996,42.969,34.180,20.996,41.504,0
1579294525.385,17.090,37.109,39.062,16.113,26.367,0
1579294525.382,15.625,34.180,40.527,16.602,58.105,0
1579294525.386,11.719,36.133,36.621,25.391,23.438,0
1579294525.390,6.836,33.691,36.133,28.809,45.410,0
1579294525.394,11.230,34.668,35.156,26.367,69.824,0
1579294525.398,11.719,36.133,31.250,13.672,50.781,0
1579294525.402,10.742,34.668,31.738,11.719,-43.945,0
1579294525.406,12.695,36.133,33.203,15.137,-48.340,0
1579294525.409,16.113,38.574,29.297,10.254,89.355,0
1579294525.413,20.996,40.039,29.785,4.883,113.770,0
1579294525.417,24.902,40.039,31.250,8.301,47.852,0
1579294525.421,24.902,37.598,30.273,20.996,36.621,0
1579294525.425,20.508,34.668,32.227,23.438,65.918,0
1579294525.442,19.531,33.203,32.715,16.113,68.359,0
1579294525.446,19.531,32.227,31.250,13.672,-3.418,0
1579294525.450,17.578,29.785,31.738,19.531,-9.277,0
1579294525.454,13.184,31.250,30.273,22.461,52.246,0
1579294525.458,15.625,34.668,29.297,16.602,6.348,0
1579294525.462,14.648,36.133,29.297,9.277,19.531,0
1579294525.466,15.625,36.133,27.344,17.090,63.965,0
1579294525.469,21.973,38.086,29.297,25.391,43.457,0
1579294525.473,23.438,38.086,30.273,19.531,-18.066,0
1579294525.477,22.949,37.598,30.762,20.996,-13.184,0
1579294525.481,25.879,37.598,34.668,20.020,24.414,0
1579294525.485,33.691,38.574,35.645,20.508,33.691,0
1579294525.482,34.180,37.109,31.250,29.297,24.414,0
1579294525.486,31.738,33.691,27.344,25.879,39.551,0
1579294525.490,33.203,35.645,25.391,25.879,31.250,0
1579294525.494,32.227,39.062,28.320,30.762,-35.156,0
1579294525.498,31.250,40.039,31.738,24.414,-18.066,0
1579294525.502,36.133,40.527,32.715,25.879,1.465,0
1579294525.506,35.645,39.551,33.691,24.902,74.219,0
1579294525.509,37.109,39.062,32.715,24.414,55.664,0
1579294525.513,38.574,38.574,30.762,27.832,6.836,0
1579294525.517,37.109,37.109,32.227,27.344,8.789,0
1579294525.521,35.645,36.621,33.203,28.809,-2.930,0
1579294525.525,31.738,36.133,33.203,31.250,64.941,0
1579294525.522,30.273,36.133,35.156,37.598,81.543,0
1579294525.526,30.762,38.574,36.133,34.180,36.621,0
1579294525.530,31.250,37.598,35.645,26.367,36.621,0
1579294525.534,31.250,36.133,34.668,29.785,66.406,0
1579294525.538,32.227,34.180,33.203,39.062,61.035,0
1579294525.542,35.156,35.156,31.250,41.504,30.762,0
1579294525.546,33.203,35.156,34.180,38.574,100.586,0
1579294525.549,35.156,36.133,34.180,40.039,130.371,0
1579294525.553,32.227,37.598,33.691,41.992,59.082,0
1579294525.557,32.227,37.598,33.691,37.598,12.207,0
1579294525.561,34.668,36.621,29.785,36.133,2.441,0
1579294525.565,31.250,36.621,30.273,29.297,39.551,0
1579294525.582,28.320,36.621,31.250,30.762,36.133,0
1579294525.586,26.367,36.133,31.738,38.086,33.203,0
1579294525.590,27.832,36.133,32.715,34.668,-24.414,0
1579294525.594,25.879,34.668,36.621,29.297,16.113,0
1579294525.598,25.391,33.203,36.621,28.320,88.379,0
1579294525.602,24.902,34.668,33.203,32.227,76.660,0
1579294525.606,27.344,37.109,34.180,37.109,112.793,0
1579294525.609,31.738,36.133,35.645,33.691,94.727,0
1579294525.613,31.250,34.668,37.109,30.762,13.672,0
1579294525.617,35.156,35.645,34.668,31.250,16.602,0
1579294525.621,38.086,35.645,35.156,31.738,46.387,0
1579294525.625,41.992,38.574,33.691,31.250,18.066,0
1579294525.622,41.016,40.039,32.227,27.832,18.555,0
1579294525.626,30.273,37.598,34.180,26.367,65.918,0
1579294525.630,22.949,36.133,30.762,27.344,65.430,0
1579294525.634,22.461,35.156,29.297,25.391,3.418,0
1579294525.638,21.973,34.180,33.203,27.344,19.531,0
1579294525.642,21.973,36.133,31.738,39.551,18.555,0
1579294525.646,22.949,33.691,33.203,43.457,-18.066,0
1579294525.649,23.438,32.715,36.133,39.551,-11.719,0
1579294525.653,25.879,32.715,35.156,37.109,20.996,0
1579294525.657,25.879,32.227,34.180,34.180,32.227,0
1579294525.661,28.809,35.645,36.133,37.109,46.387,0
1579294525.665,28.809,35.645,37.109,37.598,59.570,0
1579294525.662,27.832,35.645,35.645,28.809,46.875,0
1579294525.666,32.227,39.551,31.738,29.785,-15.625,0
1579294525.670,30.273,40.039,31.250,40.527,19.043,0
1579294525.674,25.879,37.109,36.621,38.574,76.660,0
1579294525.678,29.297,37.598,37.109,30.273,60.547,0
1579294525.682,34.668,38.086,34.668,31.738,50.781,0
1579294525.686,31.250,37.109,37.109,31.738,8.301,0
1579294525.689,28.320,37.109,36.133,31.738,32.227,0
1579294525.693,29.297,41.016,33.691,27.832,48.340,0
1579294525.697,24.414,40.527,32.715,20.020,17.090,0
1579294525.701,19.531,39.551,30.273,19.043,31.738,0
1579294525.705,22.949,40.039,32.715,23.926,7.324,0
1579294525.723,29.297,38.574,33.691,24.902,-28.320,0
1579294525.727,29.297,36.621,33.203,22.461,-26.855,0
1579294525.731,23.438,34.180,38.086,24.902,21.973,0
1579294525.735,29.297,35.156,40.527,33.691,54.199,0
1579294525.739,36.621,37.109,41.504,39.551,63.477,0
1579294525.743,35.645,37.109,42.480,28.320,62.988,0
1579294525.747,35.645,38.086,41.504,22.461,60.547,0
1579294525.750,34.668,38.086,39.062,28.809,61.523,0
1579294525.754,38.574,39.062,36.133,32.715,79.102,0
1579294525.758,41.016,41.016,36.133,34.668,18.066,0
1579294525.762,36.621,41.016,35.156,33.691,17.578,0
1579294525.766,37.598,41.992,37.109,37.109,14.648,0
1579294525.763,36.133,41.504,39.062,41.504,-24.414,0
1579294525.767,37.598,40.039,36.621,38.574,51.270,0
1579294525.771,35.156,38.574,35.645,32.227,59.082,0
1579294525.775,30.762,39.062,33.203,30.762,-1.465,0
1579294525.779,35.645,41.504,29.785,34.180,7.324,0
1579294525.783,36.133,41.992,28.809,28.320,19.531,0
1579294525.787,37.598,43.457,27.344,25.391,4.883,0
1579294525.790,33.691,39.551,35.156,31.738,29.297,0
1579294525.794,25.391,35.156,44.922,36.621,58.105,0
1579294525.798,28.320,34.180,46.387,41.504,68.359,0
1579294525.802,25.879,35.156,46.875,34.180,7.324,0
1579294525.806,21.973,32.715,47.852,28.809,14.648,0
1579294525.803,22.949,28.809,50.293,33.691,74.219,0
1579294525.807,20.020,28.809,50.781,28.809,29.785,0
1579294525.811,21.973,28.809,52.246,25.391,17.090,0
1579294525.815,22.461,28.809,53.223,27.832,28.320,0
1579294525.819,26.367,27.344,51.758,29.785,39.062,0
1579294525.823,34.180,27.344,50.781,42.480,44.434,0
1579294525.827,31.250,27.832,49.316,42.480,92.773,0
1579294525.830,28.320,28.320,49.316,32.715,63.965,0
1579294525.834,23.926,29.785,47.852,35.645,81.543,0
1579294525.838,20.508,29.785,45.898,38.086,135.254,0
1579294525.842,22.949,30.273,41.992,34.668,47.852,0
1579294525.846,21.973,29.297,38.574,27.344,51.270,0
1579294525.862,22.461,28.809,41.016,25.391,42.969,0
1579294525.866,21.973,31.250,41.504,31.738,20.020,0
1579294525.870,26.855,31.250,38.574,31.738,67.383,0
1579294525.874,28.320,32.227,38.574,29.297,-2.441,0
1579294525.878,24.902,32.715,38.574,28.320,-9.277,0
1579294525.882,23.926,33.691,36.621,32.715,55.664,0
1579294525.886,23.438,34.668,39.062,33.691,28.320,0
1579294525.889,26.855,32.227,39.551,22.949,20.996,0
1579294525.893,34.668,32.715,38.574,22.949,54.199,0
1579294525.897,39.551,35.645,38.086,32.227,-0.977,0
1579294525.901,33.691,33.203,37.598,31.250,-23.926,0
1579294525.905,33.203,32.715,38.086,28.320,14.160,0
1579294525.902,37.598,34.180,38.574,25.391,-37.109,0
1579294525.906,32.715,33.203,44.922,30.273,35.156,0
1579294525.910,31.250,32.227,44.922,32.227,92.773,0
1579294525.914,32.715,33.203,42.480,24.902,60.547,0
1579294525.918,36.133,33.691,43.457,20.996,69.336,0
1579294525.922,38.086,33.691,39.551,20.508,33.203,0
1579294525.926,37.598,36.621,36.133,26.367,-14.160,0
1579294525.929,38.086,39.062,35.156,31.250,35.645,0
1579294525.933,36.133,36.133,36.621,27.832,62.988,0
1579294525.937,38.086,38.574,37.109,28.809,50.293,0
1579294525.941,37.598,37.598,33.691,33.691,27.344,0
1579294525.945,30.273,34.180,33.203,33.691,61.035,0
1579294525.942,25.879,34.180,34.180,25.879,74.219,0
1579294525.946,21.973,34.180,36.133,19.531,42.969,0
1579294525.950,22.949,34.668,35.156,23.438,37.109,0
1579294525.954,24.902,33.203,34.180,30.762,16.113,0
1579294525.958,30.273,32.715,36.621,28.809,30.762,0
1579294525.962,37.598,34.180,38.086,25.391,49.316,0
1579294525.966,35.645,37.109,37.109,28.320,54.688,0
1579294525.969,33.203,36.621,37.109,31.738,24.414,0
1579294525.973,33.203,36.133,37.598,25.879,6.348,0
1579294525.977,30.273,36.133,36.133,20.996,35.645,0
1579294525.981,33.203,36.621,37.109,25.879,22.461,0
1579294525.985,34.180,38.086,39.062,29.785,18.066,0
1579294526.003,37.598,37.109,39.062,33.691,91.309,0
1579294526.007,37.598,35.645,39.062,26.855,87.891,0
1579294526.011,41.992,37.109,36.133,26.855,14.648,0
1579294526.015,43.945,37.598,37.598,35.156,26.855,0
1579294526.019,41.504,36.133,41.992,33.691,48.828,0
1579294526.023,39.551,37.109,41.504,30.273,51.270,0
1579294526.027,31.250,36.133,40.039,21.484,42.480,0
1579294526.030,23.438,35.645,39.062,19.043,-2.441,0
1579294526.034,21.973,35.156,38.574,20.508,10.254,0
1579294526.038,24.902,34.180,38.086,17.578,38.086,0
1579294526.042,27.832,34.180,37.598,12.695,32.227,0
1579294526.046,27.344,34.668,39.551,16.602,57.129,0
1579294526.043,29.297,34.668,37.598,33.203,44.922,0
1579294526.047,35.645,35.156,36.133,38.574,27.344,0
1579294526.051,39.062,35.645,35.645,27.344,43.457,0
1579294526.055,41.504,35.645,34.180,26.855,18.555,0
1579294526.059,41.016,35.645,34.180,33.691,-49.316,0
1579294526.063,32.715,35.645,40.039,35.645,-27.344,0
1579294526.067,25.391,35.156,42.969,27.344,18.555,0
1579294526.070,25.391,33.691,40.527,23.926,15.137,0
1579294526.074,27.832,34.180,40.039,30.273,13.184,0
1579294526.078,26.367,34.180,39.062,31.250,-23.926,0
1579294526.082,22.949,33.203,38.086,27.344,-54.199,0
1579294526.086,21.484,32.715,37.598,23.926,-43.945,0
1579294526.082,22.461,32.715,40.527,25.391,-0.488,0
1579294526.086,23.926,32.227,43.457,26.855,70.312,0
1579294526.090,25.879,34.180,42.480,26.855,62.012,0
1579294526.094,26.855,35.156,42.480,19.531,-6.836,0
1579294526.098,24.414,34.180,41.504,21.484,42.969,0
1579294526.102,25.391,34.668,40.527,34.180,104.980,0
1579294526.106,22.949,32.715,44.434,26.855,106.934,0
1579294526.109,21.484,33.691,44.434,17.578,54.688,0
1579294526.113,22.949,32.227,42.480,16.113,-15.137,0
1579294526.117,20.020,29.297,44.434,20.020,6.836,0
1579294526.121,25.879,32.227,41.992,29.297,50.781,0
1579294526.125,30.762,34.668,42.969,26.367,47.852,0
1579294526.142,31.250,37.598,44.434,21.484,43.945,0
1579294526.146,28.809,35.645,41.992,27.344,23.438,0
1579294526.150,24.902,34.180,42.480,34.180,33.691,0
1579294526.154,26.367,36.133,40.527,32.715,42.969,0
1579294526.158,23.438,33.691,39.062,24.414,58.105,0
1579294526.162,23.438,35.645,40.039,30.762,85.449,0
1579294526.166,20.020,37.598,41.504,34.180,69.336,0
1579294526.169,21.973,35.156,40.527,28.320,65.430,0
1579294526.173,24.414,34.180,38.086,27.344,60.059,0
1579294526.177,23.438,31.738,38.574,26.855,41.504,0
1579294526.181,33.691,33.691,38.574,36.621,77.148,0
1579294526.185,37.598,34.668,39.062,35.156,25.391,0
1579294526.182,30.762,32.715,38.574,23.438,1.465,0
1579294526.186,33.203,32.715,38.086,20.996,44.922,0
1579294526.190,36.133,33.691,37.598,24.414,92.773,0
1579294526.194,28.809,33.691,37.109,26.855,135.254,0
1579294526.198,28.809,33.691,35.645,22.949,109.375,0
1579294526.202,30.762,36.621,34.180,18.555,106.934,0
1579294526.206,27.344,38.574,35.645,22.949,56.641,0
1579294526.209,25.391,37.109,37.598,25.391,46.387,0
1579294526.213,23.438,34.668,38.086,25.879,42.480,0
1579294526.217,23.926,36.133,38.086,25.879,27.344,0
1579294526.221,26.855,37.109,35.156,25.391,38.086,0
1579294526.225,22.949,35.156,36.621,28.809,52.734,0
1579294526.222,24.902,34.180,36.621,23.926,96.680,0
1579294526.226,27.832,33.203,36.621,17.578,47.852,0
1579294526.230,26.367,35.156,37.598,14.648,-25.879,0
1579294526.234,25.391,34.668,38.086,14.160,-36.621,0
1579294526.238,26.855,34.668,35.645,26.855,4.883,0
1579294526.242,30.273,37.109,35.156,27.832,20.020,0
1579294526.246,28.320,37.109,35.645,21.973,18.066,0
1579294526.249,29.297,38.086,33.691,28.320,29.785,0
1579294526.253,27.832,38.086,33.691,27.344,39.062,0
1579294526.257,26.367,37.109,33.203,20.508,60.059,0
1579294526.261,32.227,37.598,35.156,18.066,43.457,0
1579294526.265,26.855,34.668,37.109,19.531,28.320,0
1579294526.283,25.391,37.598,34.180,26.855,-5.859,0
1579294526.287,29.785,38.574,33.203,26.855,-20.508,0
1579294526.291,30.273,35.645,34.668,19.531,-0.977,0
1579294526.295,32.715,35.645,33.203,20.508,-23.926,0
1579294526.299,29.785,34.668,36.133,28.320,4.395,0
1579294526.303,23.438,33.203,38.574,27.344,72.754,0
1579294526.307,19.043,31.738,39.062,18.555,71.777,0
1579294526.310,23.926,33.203,41.016,22.461,68.359,0
1579294526.314,27.832,35.156,39.062,30.762,91.309,0
1579294526.318,28.320,36.621,38.086,31.738,20.020,0
1579294526.322,29.785,36.621,37.598,29.297,-2.441,0
1579294526.326,28.320,35.645,36.133,25.879,0.488,0
1579294526.323,28.320,35.645,34.180,24.902,-23.926,0
1579294526.327,27.344,35.156,34.180,25.391,-0.977,0
1579294526.331,23.926,34.180,35.645,23.438,1.465,0
1579294526.335,23.926,35.156,34.668,18.555,5.859,0
1579294526.339,25.391,36.133,33.203,17.578,11.230,0
1579294526.343,23.438,35.645,34.180,24.414,37.598,0
1579294526.347,23.926,36.133,35.645,26.855,23.926,0
1579294526.350,22.949,37.109,36.133,20.020,0.488,0
1579294526.354,20.020,33.691,36.133,13.672,21.484,0
1579294526.358,21.484,33.203,34.180,20.020,2.930,0
1579294526.362,22.461,34.180,33.203,21.973,16.113,0
1579294526.366,21.484,32.715,33.691,16.113,21.973,0
1579294526.363,20.996,31.250,35.645,20.020,35.156,0
1579294526.367,23.926,32.227,35.645,24.414,76.172,0
1579294526.371,26.855,36.133,33.691,25.879,94.727,0
1579294526.375,26.367,34.180,35.156,20.996,74.707,0
1579294526.379,25.879,33.203,40.039,21.484,20.996,0
1579294526.383,26.367,34.668,40.527,25.391,49.316,0
1579294526.387,27.832,35.645,36.621,27.832,73.730,0
1579294526.390,25.879,35.645,35.156,28.809,26.367,0
1579294526.394,24.902,35.645,33.203,17.578,22.949,0
1579294526.398,32.227,38.086,28.809,15.137,22.461,0
1579294526.402,32.715,40.039,29.785,20.996,31.250,0
1579294526.406,30.273,40.527,30.762,21.973,23.926,0
1579294526.423,34.180,40.039,31.250,18.555,11.719,0
1579294526.427,30.273,41.016,35.156,19.531,50.781,0
1579294526.431,25.391,38.574,35.645,25.879,42.480,0
1579294526.435,23.926,35.645,36.133,26.367,13.672,0
1579294526.439,16.113,31.738,41.016,21.484,20.020,0
1579294526.443,22.949,34.668,37.598,21.973,38.086,0
1579294526.447,31.250,40.527,31.738,18.555,44.922,0
1579294526.450,32.715,38.574,34.180,19.043,54.688,0
1579294526.454,35.156,38.574,32.227,24.414,49.805,0
1579294526.458,29.785,38.574,29.785,16.602,70.801,0
1579294526.462,28.809,39.551,30.273,16.113,97.656,0
1579294526.466,33.203,42.480,30.273,24.902,69.824,0
1579294526.462,26.367,41.992,30.762,19.043,36.621,0
1579294526.466,19.531,39.551,32.715,11.230,44.922,0
1579294526.470,19.043,39.062,35.156,10.742,-7.812,0
1579294526.474,19.043,40.039,35.156,20.020,25.879,0
1579294526.478,21.484,41.016,34.668,28.320,65.430,0
1579294526.482,20.996,39.551,34.180,20.508,-39.062,0
1579294526.486,23.438,38.574,34.180,20.508,-23.438,0
1579294526.489,27.832,38.086,35.156,29.297,20.020,0
1579294526.493,30.762,37.109,33.691,33.691,9.277,0
1579294526.497,32.715,39.551,32.227,25.879,37.598,0
1579294526.501,30.762,38.574,33.203,23.438,103.516,0
1579294526.505,29.785,35.156,37.109,27.344,83.008,0
1579294526.503,31.250,35.645,35.156,27.832,43.945,0
1579294526.507,34.180,37.598,33.691,28.809,9.277,0
1579294526.511,36.133,38.574,36.133,22.461,11.230,0
1579294526.515,31.738,37.109,36.133,18.066,34.668,0
1579294526.519,23.438,38.086,34.180,20.508,40.527,0
1579294526.523,20.020,41.016,36.621,22.461,39.551,0
1579294526.527,18.555,37.598,37.598,18.555,22.949,0
1579294526.530,20.020,38.574,34.668,17.090,60.059,0
1579294526.534,22.461,40.039,32.715,24.902,66.895,0
1579294526.538,28.809,35.156,35.645,35.156,8.789,0
1579294526.542,34.180,33.691,37.598,37.109,25.879,0
1579294526.546,38.574,34.180,36.621,38.086,18.066,0
1579294526.562,39.551,34.180,38.574,41.992,-13.184,0
1579294526.566,37.598,33.203,39.551,45.898,33.203,0
1579294526.570,36.133,33.691,42.480,40.527,47.852,0
1579294526.574,37.598,36.133,42.480,24.902,14.160,0
1579294526.578,38.574,37.109,40.527,27.344,16.113,0
1579294526.582,38.574,37.598,40.527,32.227,43.457,0
1579294526.586,38.086,36.133,40.527,24.902,33.203,0
1579294526.589,31.250,33.203,39.062,20.020,10.742,0
1579294526.593,26.367,33.203,38.086,20.508,12.207,0
1579294526.597,28.809,35.156,36.133,29.785,4.395,0
1579294526.601,29.785,37.109,35.645,25.879,41.504,0
1579294526.605,28.809,35.645,32.715,18.066,60.547,0
1579294526.602,27.832,35.645,35.156,23.926,60.059,0
1579294526.606,26.855,38.086,38.574,26.855,49.316,0
1579294526.610,25.879,37.109,36.621,26.855,63.965,0
1579294526.614,26.855,35.156,37.598,23.926,71.289,0
1579294526.618,25.391,34.180,38.086,21.973,62.500,0
1579294526.622,24.414,34.668,37.598,29.785,38.086,0
1579294526.626,26.367,36.621,35.645,28.809,60.547,0
1579294526.629,26.367,36.621,32.715,23.926,60.059,0
1579294526.633,24.902,36.621,33.203,18.555,19.043,0
1579294526.637,24.902,38.086,32.715,16.602,4.883,0
1579294526.641,29.297,34.668,30.273,24.902,-11.719,0
1579294526.645,33.203,35.645,32.715,26.367,33.691,0
1579294526.642,32.715,37.598,33.691,25.391,41.504,0
1579294526.646,35.156,37.109,34.180,29.297,29.297,0
1579294526.650,39.062,36.621,35.156,33.203,45.898,0
1579294526.654,39.551,34.668,36.621,39.551,26.367,0
1579294526.658,38.574,34.668,38.086,36.133,-1.465,0
1579294526.662,37.109,36.133,41.016,34.180,28.320,0
1579294526.666,40.039,37.109,39.551,39.551,4.395,0
1579294526.669,37.109,38.086,37.598,31.250,-12.695,0
1579294526.673,33.691,38.086,38.574,21.973,15.625,0
1579294526.677,36.133,36.621,39.062,20.508,39.062,0
1579294526.681,33.203,38.574,39.062,20.996,82.520,0
1579294526.685,31.250,39.062,38.574,25.391,79.102,0
1579294526.702,34.180,38.086,38.086,21.484,48.828,0
1579294526.706,32.227,37.109,36.621,7.324,7.324,0
1579294526.710,31.250,37.598,35.645,5.859,34.668,0
1579294526.714,34.668,40.527,34.180,18.555,77.148,0
1579294526.718,39.551,39.062,29.785,23.438,85.449,0
1579294526.722,40.039,38.574,28.809,22.949,49.805,0
1579294526.726,33.691,39.062,33.691,30.273,15.625,0
1579294526.729,30.273,35.156,35.156,39.062,-4.883,0
1579294526.733,27.832,34.180,35.156,42.969,-4.883,0
1579294526.737,29.297,38.086,35.645,40.039,79.102,0
1579294526.741,30.273,40.039,36.133,40.039,85.938,0
1579294526.745,31.250,38.086,38.086,39.551,19.043,0
1579294526.743,31.738,39.062,35.645,37.109,11.230,0
1579294526.747,26.855,39.551,34.180,28.809,-15.625,0
1579294526.751,21.973,39.062,30.762,20.508,-28.809,0
1579294526.755,22.461,39.062,28.809,24.902,12.695,0
1579294526.759,21.973,37.598,32.227,29.785,-5.371,0
1579294526.763,21.973,37.598,33.691,23.438,-0.977,0
1579294526.767,20.996,37.598,32.715,16.602,19.043,0
1579294526.770,18.555,38.574,32.227,17.578,37.109,0
1579294526.774,18.555,38.574,32.715,26.855,34.668,0
1579294526.778,19.531,36.133,35.156,23.926,2.930,0
1579294526.782,18.066,36.621,35.645,15.625,49.805,0
1579294526.786,20.020,37.109,32.715,18.555,55.664,0
1579294526.802,27.344,37.598,32.715,27.344,-15.625,0
1579294526.806,31.250,39.062,34.668,33.203,17.090,0
1579294526.810,32.227,38.086,32.715,28.320,110.352,0
1579294526.814,30.762,37.109,34.668,25.879,71.777,0
1579294526.818,27.344,37.598,38.086,28.809,53.711,0
1579294526.822,21.973,38.574,36.133,27.344,35.645,0
1579294526.826,19.043,41.992,35.156,28.809,45.410,0
1579294526.829,21.973,43.457,33.203,20.508,71.777,0
1579294526.833,21.484,41.992,30.273,14.648,4.883,0
1579294526.837,20.020,41.504,33.203,23.438,29.785,0
1579294526.841,21.973,38.574,34.668,18.555,111.328,0
1579294526.845,27.832,38.574,33.691,16.602,131.836,0
1579294526.843,33.203,40.039,35.645,27.344,88.379,0
1579294526.847,33.691,38.086,40.039,32.227,-6.348,0
1579294526.851,27.344,34.180,41.504,26.855,-11.230,0
1579294526.855,22.461,34.180,37.109,14.648,-42.480,0
1579294526.859,19.043,35.645,33.203,10.254,-3.418,0
1579294526.863,21.973,34.668,31.250,13.184,28.320,0
1579294526.867,22.461,36.621,27.344,9.277,18.555,0
1579294526.870,18.555,35.645,26.855,1.465,75.684,0
1579294526.874,19.043,32.715,26.855,3.906,34.668,0
1579294526.878,20.020,32.715,26.367,14.648,37.109,0
1579294526.882,26.367,36.133,31.250,19.531,50.781,0
1579294526.886,29.785,36.133,30.762,18.066,48.828,0
1579294526.883,24.902,34.668,30.273,14.648,74.707,0
1579294526.887,22.949,36.621,29.297,18.066,50.293,0
1579294526.891,28.809,37.109,26.367,28.320,-38.086,0
1579294526.895,25.391,37.109,31.250,27.832,-4.395,0
1579294526.899,17.090,37.109,34.180,15.625,32.227,0
1579294526.903,17.090,33.691,33.691,8.301,26.367,0
1579294526.907,19.043,31.738,35.645,12.207,23.926,0
1579294526.910,20.508,31.250,37.109,20.508,8.301,0
1579294526.914,21.484,32.227,35.645,17.578,-7.812,0
1579294526.918,25.879,33.691,35.156,15.625,39.062,0
1579294526.922,25.879,34.668,39.062,21.973,48.828,0
1579294526.926,26.367,35.645,42.480,17.578,38.574,0
1579294526.942,25.391,33.203,41.504,14.160,35.156,0
1579294526.946,23.926,35.156,39.062,14.160,51.758,0
1579294526.950,24.902,35.156,35.645,18.066,83.496,0
1579294526.954,21.484,34.180,36.133,22.949,58.594,0
1579294526.958,23.438,37.109,37.109,22.461,38.086,0
1579294526.962,24.902,36.133,38.574,20.996,26.855,0
1579294526.966,24.902,34.668,42.480,21.484,71.289,0
1579294526.969,30.273,35.156,43.457,29.785,27.344,0
1579294526.973,32.227,34.668,43.945,38.086,-1.465,0
1579294526.977,31.738,35.156,47.852,35.645,41.504,0
1579294526.981,31.738,35.156,44.922,36.621,47.363,0
1579294526.985,37.598,35.156,41.504,45.410,31.250,0
1579294526.983,41.992,34.180,45.898,46.387,23.438,0
1579294526.987,42.480,34.180,43.945,35.645,51.758,0
1579294526.991,45.898,38.086,38.574,33.691,63.477,0
1579294526.995,45.410,39.551,39.551,42.969,12.695,0
1579294526.999,44.434,38.574,39.551,38.574,0.977,0
1579294527.003,42.480,40.527,37.598,32.227,51.758,0
1579294527.007,41.992,41.016,37.598,34.668,63.477,0
1579294527.010,41.504,37.109,38.086,38.086,113.770,0
1579294527.014,37.598,37.109,38.086,34.668,97.656,0
1579294527.018,39.551,35.156,37.598,27.832,34.668,0
1579294527.022,39.062,35.156,39.551,27.344,14.648,0
1579294527.026,31.738,35.156,43.945,28.320,53.223,0
1579294527.023,30.762,34.668,42.969,32.227,57.617,0
1579294527.027,32.227,35.645,40.527,34.180,16.113,0
1579294527.031,28.320,35.645,40.039,24.902,-9.277,0
1579294527.035,27.344,35.645,38.086,22.949,-66.895,0
1579294527.039,32.227,34.668,37.598,28.320,-49.316,0
1579294527.043,35.645,32.715,41.992,31.738,-35.645,0
1579294527.047,35.156,35.156,41.016,32.715,-59.570,0
1579294527.050,36.133,36.133,38.086,32.715,-39.551,0
1579294527.054,37.109,39.062,37.109,39.551,2.441,0
1579294527.058,36.621,39.551,36.133,40.039,32.715,0
1579294527.062,32.715,36.133,35.156,34.180,31.250,0
1579294527.066,32.227,35.156,34.668,34.668,59.082,0
1579294527.082,34.668,35.156,35.156,41.016,33.691,0
1579294527.086,35.156,37.598,37.109,40.039,0.977,0
1579294527.090,32.715,37.598,39.062,32.227,57.129,0
1579294527.094,31.738,37.109,39.551,28.809,40.527,0
1579294527.098,26.367,36.621,40.527,29.785,12.207,0
1579294527.102,22.949,35.645,42.969,37.109,49.805,0
1579294527.106,26.367,36.133,42.969,33.691,50.293,0
1579294527.109,24.414,38.086,40.527,23.926,90.332,0
1579294527.113,25.391,36.621,40.039,25.391,14.160,0
1579294527.117,31.250,39.062,40.527,31.738,-2.930,0
1579294527.121,35.645,40.039,40.527,36.133,92.285,0
1579294527.125,38.574,40.039,40.039,39.062,61.523,0
1579294527.122,38.086,39.062,40.039,36.621,22.461,0
1579294527.126,40.527,39.551,40.527,41.504,3.906,0
1579294527.130,41.992,39.551,39.062,50.781,65.430,0
1579294527.134,35.156,38.086,33.691,42.480,97.168,0
1579294527.138,32.715,40.039,32.715,35.156,-8.301,0
1579294527.142,32.715,38.574,32.227,36.133,-21.484,0
1579294527.146,30.273,38.086,30.273,35.156,29.297,0
1579294527.149,27.344,36.621,35.156,29.785,-6.836,0
1579294527.153,20.996,33.691,40.527,21.973,-41.504,0
1579294527.157,21.484,29.785,43.457,21.973,-49.805,0
1579294527.161,25.879,26.367,43.945,28.809,16.602,0
1579294527.165,30.273,26.855,45.410,35.645,37.598,0
1579294527.162,27.832,26.367,47.363,34.668,33.691,0
1579294527.166,25.391,27.832,46.875,33.203,14.160,0
1579294527.170,29.297,31.250,44.434,37.109,-23.438,0
1579294527.174,27.832,32.227,42.969,30.762,59.570,0
1579294527.178,30.273,32.715,41.504,24.414,62.012,0
1579294527.182,28.809,34.180,41.504,23.438,71.777,0
1579294527.186,21.484,33.691,43.457,23.438,95.703,0
1579294527.189,19.043,33.203,42.969,28.320,86.426,0
1579294527.193,20.508,35.645,41.016,27.344,120.117,0
1579294527.197,13.184,32.227,40.039,21.973,46.875,0
1579294527.201,13.672,31.250,41.504,23.926,4.395,0
1579294527.205,19.043,34.180,41.016,23.438,49.805,0
1579294527.223,19.043,33.691,39.062,23.926,48.828,0
1579294527.227,21.484,34.180,41.016,24.414,26.367,0
1579294527.231,23.926,35.156,41.992,25.391,0.977,0
1579294527.235,24.414,34.668,42.480,28.809,3.418,0
1579294527.239,24.414,34.180,42.969,27.832,23.438,0
1579294527.243,26.367,34.668,42.480,28.809,-8.789,0
1579294527.247,25.879,36.133,44.434,27.344,61.523,0
1579294527.250,26.367,38.086,46.387,28.320,49.805,0
1579294527.254,31.250,36.133,42.969,34.180,-42.480,0
1579294527.258,30.762,34.180,40.039,30.273,-16.113,0
1579294527.262,27.344,34.668,40.039,25.391,53.223,0
1579294527.266,28.320,35.156,41.992,31.250,73.730,0
1579294527.263,29.297,34.668,44.922,32.227,90.820,0
1579294527.267,31.738,32.227,44.434,25.879,126.953,0
1579294527.271,36.621,32.715,43.945,30.273,94.238,0
1579294527.275,41.992,34.180,42.480,40.039,45.898,0
1579294527.279,42.480,33.691,41.016,40.039,41.504,0
1579294527.283,39.551,33.691,41.504,35.156,3.418,0
1579294527.287,37.598,32.715,40.527,25.879,-40.039,0
1579294527.290,33.691,34.180,39.551,21.973,-48.340,0
1579294527.294,26.855,34.668,36.621,23.438,-15.137,0
1579294527.298,25.879,34.180,38.086,22.949,85.449,0
1579294527.302,27.344,35.645,40.039,19.531,83.008,0
1579294527.306,25.391,35.645,35.156,21.484,68.359,0
1579294527.302,21.484,35.156,37.598,29.297,110.352,0
1579294527.306,25.391,35.645,37.109,33.691,118.164,0
1579294527.310,29.785,38.086,33.203,29.785,57.129,0
1579294527.314,25.879,35.645,33.691,24.902,36.133,0
1579294527.318,24.902,35.645,35.156,23.926,111.816,0
1579294527.322,26.855,38.086,36.133,26.855,19.531,0
1579294527.326,23.438,33.691,35.156,23.926,0.977,0
1579294527.329,21.973,32.715,32.227,18.066,81.055,0
1579294527.333,24.902,35.156,32.227,24.414,55.176,0
1579294527.337,25.879,34.668,35.156,32.227,28.809,0
1579294527.341,24.414,36.621,35.645,30.273,-6.348,0
1579294527.345,25.879,37.109,37.109,22.949,0.488,0
1579294527.363,27.832,33.691,38.574,20.996,20.508,0
1579294527.367,25.391,33.691,38.086,30.762,52.734,0
1579294527.371,21.973,33.691,38.086,31.250,12.695,0
1579294527.375,16.602,31.250,38.086,21.484,1.465,0
1579294527.379,15.625,32.715,37.598,18.555,36.133,0
1579294527.383,20.996,34.668,35.645,22.949,-4.395,0
1579294527.387,27.832,35.645,35.156,26.855,6.836,0
1579294527.390,30.762,37.598,33.691,23.438,63.477,0
1579294527.394,30.762,37.598,34.668,19.043,40.039,0
1579294527.398,26.855,37.598,37.109,24.414,65.918,0
1579294527.402,18.555,37.109,36.621,25.391,39.062,0
1579294527.406,12.695,35.156,34.668,16.602,-8.301,0
1579294527.403,18.555,34.668,35.645,12.695,16.602,0
1579294527.407,24.414,34.668,33.203,17.090,51.758,0
1579294527.411,27.344,36.133,30.273,23.438,72.754,0
1579294527.415,32.227,38.086,32.715,23.926,22.949,0
1579294527.419,31.250,38.574,33.691,18.555,26.855,0
1579294527.423,28.809,35.645,33.203,17.578,78.125,0
1579294527.427,28.320,37.598,29.785,23.438,59.082,0
1579294527.430,30.762,39.551,29.297,25.879,28.320,0
1579294527.434,35.645,38.574,29.297,27.344,69.336,0
1579294527.438,40.039,39.551,30.762,27.832,96.191,0
1579294527.442,43.945,40.039,33.203,28.809,100.586,0
1579294527.446,41.016,38.574,32.715,31.250,67.383,0
1579294527.443,34.668,36.621,33.203,29.297,43.945,0
1579294527.447,31.250,33.691,34.668,27.832,83.008,0
1579294527.451,32.227,35.645,34.668,32.715,59.570,0
1579294527.455,32.227,38.574,33.691,36.133,-48.828,0
1579294527.459,30.762,39.062,33.691,31.250,11.719,0
1579294527.463,27.832,38.086,29.297,22.461,73.730,0
1579294527.467,26.367,38.086,30.273,18.066,76.172,0
1579294527.470,30.273,40.527,35.156,23.926,72.266,0
1579294527.474,31.250,42.480,33.203,26.367,17.578,0
1579294527.478,34.668,43.945,35.645,24.902,21.484,0
1579294527.482,33.691,41.992,39.551,24.414,32.715,0
1579294527.486,28.809,38.574,41.992,30.273,53.711,0
1579294527.502,27.832,38.086,41.016,37.109,50.781,0
1579294527.506,22.461,37.109,41.016,28.809,21.484,0
1579294527.510,20.508,37.109,37.109,25.879,-2.930,0
1579294527.514,25.391,39.062,31.738,30.273,22.461,0
1579294527.518,29.785,41.016,33.691,30.762,8.301,0
1579294527.522,32.715,40.039,32.227,31.738,11.719,0
1579294527.526,35.645,42.969,31.738,22.949,42.480,0
1579294527.529,36.133,42.480,32.715,21.973,40.527,0
1579294527.533,33.203,39.551,31.250,30.273,47.852,0
1579294527.537,32.715,39.551,29.785,32.715,18.066,0
1579294527.541,31.738,41.016,30.273,23.926,19.531,0
1579294527.545,30.273,40.527,30.762,18.555,44.434,0
1579294527.543,31.250,37.109,30.762,28.320,0.488,0
1579294527.547,31.250,36.621,33.691,28.320,-3.906,0
1579294527.551,34.180,36.621,35.645,22.461,19.531,0
1579294527.555,38.086,38.086,35.156,25.879,-13.184,0
1579294527.559,36.133,39.551,37.598,32.227,-20.508,0
1579294527.563,31.250,37.598,38.574,32.715,57.129,0
1579294527.567,32.227,36.621,37.598,24.902,71.777,0
1579294527.570,30.273,39.551,36.621,18.555,31.250,0
1579294527.574,26.855,40.527,36.133,20.996,59.570,0
1579294527.578,27.344,39.062,38.086,25.391,44.434,0
1579294527.582,28.320,37.598,35.645,20.020,1.465,0
1579294527.586,29.785,37.109,34.668,7.324,12.207,0
1579294527.583,32.715,37.598,37.598,7.812,18.555,0
1579294527.587,31.250,37.109,39.062,16.602,7.812,0
1579294527.591,32.227,38.086,38.574,20.996,84.473,0
1579294527.595,36.133,40.039,36.621,20.508,43.457,0
1579294527.599,34.180,39.551,40.039,22.461,41.992,0
1579294527.603,29.785,37.598,43.457,28.320,79.102,0
1579294527.607,24.902,37.598,43.457,28.809,59.082,0
1579294527.610,25.391,37.109,44.434,20.996,53.711,0
1579294527.614,27.832,36.133,42.480,15.625,21.484,0
1579294527.618,25.391,35.645,41.992,17.090,60.059,0
1579294527.622,26.367,35.645,41.992,22.949,42.480,0
1579294527.626,29.297,37.109,41.992,22.949,19.531,0
1579294527.643,30.762,35.645,42.969,19.531,36.621,0
1579294527.647,32.227,34.668,45.898,28.809,54.688,0
1579294527.651,30.762,33.203,46.875,35.156,61.523,0
1579294527.655,29.785,31.738,47.363,30.762,-12.207,0
1579294527.659,31.250,30.762,47.852,30.273,-47.363,0
1579294527.663,28.809,33.203,45.410,34.180,2.441,0
1579294527.667,29.297,37.598,43.945,37.598,46.387,0
1579294527.670,29.297,37.598,41.504,35.645,42.969,0
1579294527.674,30.762,35.645,39.551,35.645,43.945,0
1579294527.678,32.715,36.133,38.086,34.668,27.832,0
1579294527.682,29.297,35.156,40.527,39.551,-2.930,0
1579294527.686,29.297,33.691,41.992,43.945,-8.301,0
1579294527.683,29.785,32.227,41.016,31.250,9.277,0
1579294527.687,28.809,31.250,42.480,27.344,-13.184,0
1579294527.691,28.320,30.762,41.016,31.250,-38.574,0
1579294527.695,25.391,31.738,40.039,25.879,5.371,0
1579294527.699,26.367,32.227,40.527,23.926,18.066,0
1579294527.703,27.832,33.691,39.062,21.484,10.742,0
1579294527.707,26.855,34.668,36.133,19.043,33.691,0
1579294527.710,22.949,34.180,34.180,24.902,87.891,0
1579294527.714,26.367,34.180,35.645,22.949,111.328,0
1579294527.718,27.832,35.156,35.156,22.461,53.223,0
1579294527.722,24.902,35.156,35.645,28.320,33.691,0
1579294527.726,29.297,36.133,37.109,35.645,67.871,0
1579294527.723,34.180,37.598,38.086,39.551,70.312,0
1579294527.727,33.691,35.645,38.574,34.180,49.805,0
1579294527.731,29.297,34.180,35.645,31.250,33.691,0
1579294527.735,23.926,33.691,36.133,33.691,28.809,0
1579294527.739,22.949,34.668,39.551,36.133,39.062,0
1579294527.743,27.344,36.133,36.621,34.180,50.293,0
1579294527.747,32.227,35.645,33.691,30.273,54.688,0
1579294527.750,33.203,36.621,36.621,30.273,53.711,0
1579294527.754,33.691,37.598,36.133,29.297,18.066,0
1579294527.758,32.227,34.180,36.133,25.391,44.434,0
1579294527.762,34.668,35.156,37.109,23.926,40.527,0
1579294527.766,37.598,35.156,36.621,28.320,-5.859,0
1579294527.782,40.039,35.645,36.133,26.855,-15.625,0
1579294527.786,40.527,38.086,32.715,21.973,-7.812,0
1579294527.790,37.109,37.598,30.273,20.508,34.668,0
1579294527.794,33.203,38.574,31.738,19.043,11.719,0
1579294527.798,22.461,38.574,34.180,18.555,34.668,0
1579294527.802,13.184,35.645,36.133,25.879,118.164,0
1579294527.806,11.230,37.109,35.645,22.461,41.992,0
1579294527.809,10.254,34.180,36.133,17.578,-19.531,0
1579294527.813,17.578,33.691,37.598,30.273,-2.441,0
1579294527.817,26.367,38.574,38.574,38.574,-36.621,0
1579294527.821,28.809,39.551,40.039,41.016,-10.254,0
1579294527.825,33.203,39.062,40.039,37.109,53.223,0
1579294527.822,36.621,39.551,36.621,36.621,-7.812,0
1579294527.826,35.645,40.527,36.621,40.527,-24.414,0
1579294527.830,32.227,40.527,39.062,32.227,34.668,0
1579294527.834,32.715,39.062,40.039,21.484,4.395,0
1579294527.838,32.715,36.621,38.574,18.555,2.441,0
1579294527.842,24.414,36.621,38.086,25.879,22.461,0
1579294527.846,20.996,37.109,37.598,28.320,-2.930,0
1579294527.849,20.020,36.133,38.086,20.996,8.301,0
1579294527.853,23.926,34.180,40.527,24.414,26.855,0
1579294527.857,35.645,36.133,39.551,30.762,45.898,0
1579294527.861,37.598,39.062,39.551,28.809,14.160,0
1579294527.865,33.203,37.598,40.527,26.367,10.254,0
1579294527.862,28.809,38.086,40.527,24.902,57.129,0
1579294527.866,23.926,38.086,40.039,24.902,18.555,0
1579294527.870,25.391,40.039,37.598,28.809,-23.438,0
1579294527.874,27.832,38.574,36.133,25.391,32.715,0
1579294527.878,27.832,36.133,35.645,24.902,97.168,0
1579294527.882,27.344,37.598,33.691,31.250,17.090,0
1579294527.886,29.297,37.109,33.203,37.598,-9.277,0
1579294527.889,33.691,37.598,33.691,37.109,42.480,0
1579294527.893,35.156,36.621,35.645,27.344,15.137,0
1579294527.897,36.621,36.133,37.109,28.320,58.105,0
1579294527.901,33.691,39.062,33.203,32.227,96.680,0
1579294527.905,31.738,39.062,30.273,25.391,59.082,0
1579294527.923,35.156,38.574,34.180,22.461,28.809,0
1579294527.927,33.691,39.062,34.668,20.020,44.922,0
1579294527.931,31.738,39.062,35.156,20.996,32.227,0
1579294527.935,33.203,39.551,38.086,18.555,29.297,0
1579294527.939,33.203,39.551,36.133,8.789,58.105,0
1579294527.943,30.762,38.086,32.715,5.859,32.715,0
1579294527.947,32.227,36.621,33.203,12.207,7.324,0
1579294527.950,32.227,37.109,33.203,21.973,23.438,0
1579294527.954,34.668,37.598,33.203,26.855,45.410,0
1579294527.958,37.598,36.133,34.180,21.973,42.480,0
1579294527.962,32.715,35.645,36.621,23.926,33.203,0
1579294527.966,29.297,36.133,38.574,33.203,7.812,0
1579294527.962,33.691,35.156,36.621,40.039,-5.371,0
1579294527.966,34.668,35.156,36.133,38.086,35.156,0
1579294527.970,32.715,36.133,36.621,29.785,87.402,0
1579294527.974,34.180,37.598,35.645,28.809,48.340,0
1579294527.978,37.598,35.156,36.621,27.832,-32.227,0
1579294527.982,37.109,31.738,38.086,29.297,10.742,0
1579294527.986,39.062,34.668,40.039,35.156,60.547,0
1579294527.989,39.062,37.109,39.551,40.527,55.176,0
1579294527.993,37.109,35.645,40.039,41.992,78.125,0
1579294527.997,36.133,35.645,39.551,42.969,68.359,0
1579294528.001,38.574,35.156,38.574,36.133,27.344,0
1579294528.005,39.551,37.109,39.551,34.668,0.488,0
1579294528.002,40.527,38.574,39.062,36.133,74.219,0
1579294528.006,46.387,38.086,40.527,31.738,98.633,0
1579294528.010,46.875,39.062,41.016,27.344,18.066,0
1579294528.014,42.969,42.480,36.621,25.879,-2.930,0
1579294528.018,44.434,41.504,32.227,31.738,23.438,0
1579294528.022,43.945,38.086,31.738,27.832,4.883,0
1579294528.026,37.598,39.062,32.227,18.066,29.785,0
1579294528.029,39.062,43.457,31.738,15.625,27.344,0
1579294528.033,44.434,43.945,32.227,18.066,45.410,0
1579294528.037,41.016,42.969,33.203,25.879,39.551,0
1579294528.041,38.574,43.945,33.691,21.973,-15.137,0
1579294528.045,37.598,44.434,35.645,15.137,24.902,0
1579294528.062,30.762,43.457,36.621,20.020,51.758,0
1579294528.066,27.832,41.992,36.621,25.391,24.414,0
1579294528.070,29.297,39.062,34.668,26.367,69.824,0
1579294528.074,30.762,36.621,36.621,20.996,67.871,0
1579294528.078,33.203,35.645,39.062,25.879,24.414,0
1579294528.082,33.691,33.691,36.621,37.109,51.758,0
1579294528.086,28.809,34.180,33.203,30.273,35.645,0
1579294528.089,25.879,32.715,32.227,25.391,23.438,0
1579294528.093,24.902,33.691,34.180,28.320,59.082,0
1579294528.097,22.461,37.598,36.621,30.273,61.035,0
1579294528.101,20.508,38.086,36.621,30.762,123.047,0
1579294528.105,20.020,36.133,35.156,22.949,119.141,0
1579294528.102,21.484,34.180,37.109,23.926,79.590,0
1579294528.106,20.508,31.738,38.086,30.762,115.234,0
1579294528.110,20.996,32.715,40.039,36.133,98.633,0
1579294528.114,27.344,33.203,39.062,34.180,70.312,0
1579294528.118,27.832,33.203,37.109,31.738,37.109,0
1579294528.122,22.949,35.645,38.086,35.156,5.371,0
1579294528.126,23.438,38.086,38.086,23.926,86.426,0
1579294528.129,23.926,38.574,36.133,15.625,52.734,0
1579294528.133,21.973,36.133,34.668,17.090,-0.977,0
1579294528.137,23.926,33.691,34.668,15.137,20.996,0
1579294528.141,30.762,38.574,34.668,16.113,16.113,0
1579294528.145,31.250,41.504,32.227,12.207,-2.930,0
1579294528.142,27.344,40.039,31.738,9.277,9.277,0
1579294528.146,26.367,40.527,35.156,15.625,45.898,0
1579294528.150,21.973,41.016,34.668,22.461,-5.371,0
1579294528.154,20.020,41.504,32.715,25.879,-21.484,0
1579294528.158,21.484,40.039,31.250,21.484,29.785,0
1579294528.162,19.531,38.086,29.297,15.137,60.059,0
1579294528.166,18.066,38.574,29.297,23.438,70.801,0
1579294528.169,17.578,38.574,31.250,25.879,35.645,0
1579294528.173,17.090,37.598,34.668,20.508,32.227,0
1579294528.177,17.578,35.156,36.133,20.996,18.066,0
1579294528.181,17.578,35.156,37.109,25.879,18.555,0
1579294528.185,20.508,36.133,36.621,30.762,40.039,0
1579294528.202,24.414,37.109,37.598,25.391,6.348,0
1579294528.206,24.414,38.574,39.062,22.949,29.297,0
1579294528.210,26.367,39.551,35.156,24.902,69.824,0
1579294528.214,21.973,38.086,32.715,22.949,22.461,0
1579294528.218,20.020,36.621,29.785,22.949,-13.672,0
1579294528.222,24.902,37.109,29.785,21.973,40.039,0
1579294528.226,22.461,35.156,32.227,23.438,13.184,0
1579294528.229,21.484,33.691,30.762,27.832,5.371,0
1579294528.233,24.902,34.668,32.715,30.762,41.016,0
1579294528.237,27.832,35.156,40.039,28.320,9.766,0
1579294528.241,31.250,35.156,41.016,25.879,-3.906,0
1579294528.245,34.668,34.668,39.551,27.832,8.301,0
1579294528.242,33.691,34.668,41.504,32.715,6.836,0
1579294528.246,30.762,37.598,40.039,31.250,62.012,0
1579294528.250,30.762,36.621,38.574,21.973,68.848,0
1579294528.254,28.320,33.691,38.574,23.926,21.973,0
1579294528.258,27.832,34.668,34.668,30.762,20.508,0
1579294528.262,28.809,33.691,33.691,26.855,27.344,0
1579294528.266,25.879,33.203,33.691,20.508,41.992,0
1579294528.269,25.391,34.668,33.203,23.438,3.906,0
1579294528.273,20.508,33.203,36.133,29.297,39.551,0
1579294528.277,16.113,33.203,37.109,33.691,71.777,0
1579294528.281,21.973,32.715,36.133,33.203,19.043,0
1579294528.285,23.926,32.227,37.109,35.156,23.438,0
1579294528.302,23.926,33.203,37.598,37.598,41.992,0
1579294528.306,28.320,35.156,38.086,38.574,47.363,0
1579294528.310,26.367,38.574,37.598,28.320,42.480,0
1579294528.314,27.832,41.504,34.668,21.973,20.020,0
1579294528.318,29.785,40.527,31.250,30.273,-0.488,0
1579294528.322,24.414,37.598,30.762,33.203,24.902,0
1579294528.326,25.879,37.598,31.738,26.367,52.246,0
1579294528.329,27.344,38.086,33.691,19.531,58.105,0
1579294528.333,27.344,38.086,33.691,21.973,33.691,0
1579294528.337,27.344,35.156,30.762,24.902,11.719,0
1579294528.341,25.391,34.180,31.250,24.414,26.855,0
1579294528.345,26.367,36.621,33.203,20.508,20.996,0
1579294528.342,27.832,36.133,30.762,20.020,28.809,0
1579294528.346,31.250,35.645,27.832,30.762,31.250,0
1579294528.350,31.738,34.668,34.180,33.203,16.602,0
1579294528.354,27.344,32.227,41.992,27.344,25.391,0
1579294528.358,24.902,33.203,43.457,25.391,20.020,0
1579294528.362,29.297,32.227,42.969,33.203,44.922,0
1579294528.366,29.297,30.762,42.969,35.156,58.105,0
1579294528.369,20.996,27.344,43.457,26.367,47.363,0
1579294528.373,20.996,27.344,41.992,21.973,39.551,0
1579294528.377,21.973,29.785,39.551,22.461,6.348,0
1579294528.381,20.996,31.738,39.551,20.996,7.324,0
1579294528.385,22.461,31.738,38.086,20.020,8.301,0
1579294528.382,25.391,33.203,37.598,14.648,33.691,0
1579294528.386,30.762,33.691,37.598,14.648,28.809,0
1579294528.390,22.461,31.738,36.133,22.461,37.109,0
1579294528.394,18.066,33.203,36.133,20.020,63.477,0
1579294528.398,18.555,33.691,35.645,13.672,16.113,0
1579294528.402,16.113,33.691,33.691,16.602,67.383,0
1579294528.406,16.113,33.203,36.133,19.043,62.988,0
1579294528.409,19.531,34.180,39.062,23.438,13.672,0
1579294528.413,23.926,34.180,40.039,25.391,62.500,0
1579294528.417,28.320,33.691,40.039,19.043,68.359,0
1579294528.421,29.785,35.645,36.133,23.438,78.125,0
1579294528.425,36.133,34.668,36.133,28.320,51.758,0
1579294528.442,38.086,32.715,36.621,23.438,38.574,0
1579294528.446,36.133,33.691,36.621,19.531,51.758,0
1579294528.450,35.156,36.133,36.621,26.367,85.449,0
1579294528.454,33.203,36.621,34.668,31.250,62.988,0
1579294528.458,31.738,35.645,34.180,24.902,-19.043,0
1579294528.462,35.645,36.621,32.227,22.461,-14.160,0
1579294528.466,36.621,38.574,30.273,26.855,68.359,0
1579294528.469,38.086,37.109,33.691,37.109,64.453,0
1579294528.473,34.668,33.203,36.133,38.574,11.719,0
1579294528.477,27.832,31.250,37.598,32.227,55.664,0
1579294528.481,26.855,31.250,41.016,27.344,58.105,0
1579294528.485,24.414,30.273,41.504,27.344,38.574,0
1579294528.482,25.879,30.762,39.551,30.273,54.199,0
1579294528.486,29.785,32.227,37.109,28.809,58.594,0
1579294528.490,28.320,32.227,36.133,34.668,18.555,0
1579294528.494,28.320,33.203,37.109,37.109,18.066,0
1579294528.498,25.879,34.180,34.668,30.273,48.828,0
1579294528.502,22.949,33.691,32.227,24.414,61.523,0
1579294528.506,26.367,34.180,34.180,23.926,81.543,0
1579294528.509,31.250,36.621,34.180,32.715,101.074,0
1579294528.513,29.785,34.668,35.645,34.668,63.477,0
1579294528.517,28.320,32.715,36.133,27.832,29.297,0
1579294528.521,31.738,36.133,33.691,21.973,25.391,0
1579294528.525,25.879,37.109,34.668,14.160,15.137,0
1579294528.522,23.438,36.133,35.156,19.043,34.668,0
1579294528.526,24.902,37.109,32.715,25.879,30.762,0
1579294528.530,28.809,39.062,33.691,19.531,40.527,0
1579294528.534,29.785,35.156,36.133,19.043,78.613,0
1579294528.538,23.438,31.738,37.598,26.367,101.562,0
1579294528.542,26.367,33.691,37.598,32.227,49.805,0
1579294528.546,29.297,35.156,35.156,25.391,38.574,0
1579294528.549,26.367,34.668,37.109,15.625,53.223,0
1579294528.553,24.414,34.668,38.086,20.508,13.184,0
1579294528.557,21.484,33.691,35.156,24.414,2.441,0
1579294528.561,20.508,32.715,35.645,23.438,9.766,0
1579294528.565,21.484,33.691,34.668,22.949,20.020,0
1579294528.582,19.531,33.203,36.133,19.043,66.895,0
1579294528.586,19.043,34.668,36.621,20.508,0.488,0
1579294528.590,22.949,37.109,37.109,23.438,-11.719,0
1579294528.594,26.367,37.109,39.062,22.461,90.820,0
1579294528.598,26.367,36.133,34.668,21.484,54.688,0
1579294528.602,24.902,35.645,33.691,26.367,44.922,0
1579294528.606,25.879,37.598,35.156,26.855,25.391,0
1579294528.609,27.832,37.598,32.715,17.090,22.949,0
1579294528.613,26.367,35.156,32.715,14.160,35.645,0
1579294528.617,28.320,34.668,33.691,22.949,35.645,0
1579294528.621,27.344,34.668,32.227,24.902,85.449,0
1579294528.625,27.344,33.203,32.227,20.020,90.820,0
1579294528.623,26.855,31.250,32.715,20.020,54.688,0
1579294528.627,32.715,32.715,33.203,27.344,6.348,0
1579294528.631,34.668,32.227,35.156,32.715,29.785,0
1579294528.635,30.273,30.762,34.180,25.391,11.230,0
1579294528.639,33.691,34.180,32.227,23.438,-5.859,0
1579294528.643,33.203,39.062,31.250,28.320,32.715,0
1579294528.647,24.414,38.086,30.762,23.438,17.578,0
1579294528.650,15.625,34.668,32.227,20.508,19.531,0
1579294528.654,17.090,37.109,29.785,13.672,36.621,0
1579294528.658,23.438,39.062,26.367,9.277,-21.484,0
1579294528.662,23.438,39.551,27.344,14.160,-22.461,0
1579294528.666,23.438,41.992,24.414,13.184,-0.977,0
1579294528.662,23.926,42.480,19.531,12.207,30.762,0
1579294528.666,24.902,43.457,15.137,4.883,83.984,0
1579294528.670,26.367,47.852,13.184,5.859,12.695,0
1579294528.674,25.391,49.805,14.648,11.230,-7.324,0
1579294528.678,28.809,51.270,14.160,7.324,-11.719,0
1579294528.682,33.203,52.246,11.719,9.766,28.809,0
1579294528.686,32.715,51.270,11.719,9.766,62.012,0
1579294528.689,35.156,53.711,11.230,11.719,38.086,0
1579294528.693,35.156,53.711,13.184,20.996,55.664,0
1579294528.697,35.156,52.246,14.160,12.695,33.203,0
1579294528.701,37.598,53.711,17.090,12.207,9.277,0
1579294528.705,45.898,52.734,20.020,20.996,39.551,0
1579294528.722,49.805,50.293,19.531,19.043,75.195,0
1579294528.726,46.875,51.270,19.531,16.602,79.590,0
1579294528.730,48.828,49.316,20.020,19.043,41.992,0
1579294528.734,48.828,46.387,21.973,27.344,39.062,0
1579294528.738,41.992,45.898,25.879,26.855,74.219,0
1579294528.742,41.504,42.969,27.832,24.902,14.160,0
1579294528.746,38.574,41.992,27.832,26.367,69.336,0
1579294528.749,32.715,42.969,27.344,21.484,82.520,0
1579294528.753,33.203,41.992,26.367,17.578,4.883,0
1579294528.757,31.738,41.504,28.320,18.066,13.672,0
1579294528.761,35.645,40.527,30.762,21.484,27.832,0
1579294528.765,40.039,40.527,28.320,25.879,18.555,0
1579294528.763,38.574,40.039,30.273,36.133,16.113,0
1579294528.767,38.086,39.062,33.203,35.645,32.227,0
1579294528.771,44.434,41.016,31.250,25.879,21.484,0
1579294528.775,41.992,41.016,33.203,26.855,9.277,0
1579294528.779,39.062,39.062,33.691,32.715,-14.648,0
1579294528.783,44.434,40.039,33.203,39.062,-24.414,0
1579294528.787,38.086,38.086,34.180,30.762,20.020,0
1579294528.790,32.715,34.668,34.180,23.926,35.645,0
1579294528.794,32.227,34.180,31.738,34.180,6.348,0
1579294528.798,29.785,33.691,32.715,40.527,-0.977,0
1579294528.802,29.297,33.691,35.645,33.203,78.125,0
1579294528.806,32.227,35.156,34.180,27.832,56.152,0
1579294528.802,35.156,37.598,32.715,30.273,9.766,0
1579294528.806,37.598,36.621,32.715,32.715,35.645,0
1579294528.810,36.133,39.062,32.715,27.832,37.598,0
1579294528.814,34.668,40.527,32.227,27.344,-6.836,0
1579294528.818,40.039,39.062,32.715,34.668,7.812,0
1579294528.822,40.039,40.527,33.203,37.109,42.969,0
1579294528.826,34.668,37.598,32.715,29.297,34.668,0
1579294528.829,29.297,36.133,33.691,21.973,55.664,0
1579294528.833,24.414,38.086,34.180,18.555,94.727,0
1579294528.837,21.973,36.133,31.738,21.973,125.000,0
1579294528.841,25.879,35.156,33.203,24.902,54.688,0
1579294528.845,31.738,37.598,33.203,17.090,21.973,0
1579294528.862,30.273,38.574,31.738,17.578,46.387,0
1579294528.866,28.809,37.598,33.203,25.391,23.438,0
1579294528.870,34.180,37.109,30.273,24.414,-11.230,0
1579294528.874,36.133,36.133,27.832,18.555,32.227,0
1579294528.878,36.621,36.133,28.320,14.648,49.316,0
1579294528.882,37.598,36.621,30.273,18.555,39.551,0
1579294528.886,39.551,38.086,30.762,27.344,45.898,0
1579294528.889,38.574,37.109,30.273,19.531,2.930,0
1579294528.893,32.227,38.574,30.762,13.184,12.695,0
1579294528.897,28.320,40.039,31.738,20.508,17.578,0
1579294528.901,23.926,37.598,33.691,26.855,69.336,0
1579294528.905,21.484,35.645,32.227,27.832,100.586,0
1579294528.903,20.508,35.156,31.738,17.578,56.641,0
1579294528.907,20.996,34.668,29.785,16.602,12.695,0
1579294528.911,23.438,37.598,30.273,27.344,16.602,0
1579294528.915,24.902,42.480,35.156,28.320,36.621,0
1579294528.919,24.902,41.016,36.621,27.344,47.363,0
1579294528.923,26.855,39.062,36.133,29.297,26.367,0
1579294528.927,23.926,37.598,36.133,32.227,-24.414,0
1579294528.930,22.461,35.645,36.133,33.203,-10.742,0
1579294528.934,29.785,36.621,36.621,31.738,-44.434,0
1579294528.938,35.156,39.062,37.598,30.273,-44.922,0
1579294528.942,37.109,40.039,39.551,34.180,44.922,0
1579294528.946,41.016,39.551,38.574,36.133,43.457,0
1579294528.942,44.434,39.551,38.574,33.691,67.871,0
1579294528.946,43.457,38.574,39.062,33.691,80.078,0
1579294528.950,43.457,39.062,40.039,32.715,70.801,0
1579294528.954,44.434,39.062,37.598,30.762,46.875,0
1579294528.958,34.180,36.621,33.691,24.902,47.852,0
1579294528.962,30.273,37.598,34.668,23.438,76.172,0
1579294528.966,33.203,36.621,35.645,26.367,41.016,0
1579294528.969,33.691,36.621,35.156,31.250,52.246,0
1579294528.973,32.715,39.062,35.156,34.180,64.453,0
1579294528.977,28.320,38.086,36.133,26.367,66.895,0
1579294528.981,30.762,38.086,37.109,25.879,-0.977,0
1579294528.985,28.809,36.621,37.109,29.297,6.836,0
1579294529.002,28.320,35.156,38.086,30.273,60.059,0
1579294529.006,33.203,36.133,35.645,30.762,58.594,0
1579294529.010,31.250,35.156,32.715,23.926,70.312,0
1579294529.014,29.297,32.715,33.203,24.414,64.941,0
1579294529.018,26.855,31.250,32.715,33.203,41.016,0
1579294529.022,26.855,28.809,34.668,36.621,31.738,0
1579294529.026,29.785,27.832,34.180,30.762,31.738,0
1579294529.029,30.273,28.809,34.180,27.344,61.035,0
1579294529.033,32.227,30.762,36.133,32.227,85.449,0
1579294529.037,37.109,33.691,37.598,33.691,48.340,0
1579294529.041,39.062,35.645,38.574,30.273,2.441,0
1579294529.045,38.086,35.156,37.598,28.320,24.902,0
1579294529.042,35.156,33.203,38.086,29.297,-28.809,0
1579294529.046,31.738,31.738,37.109,33.203,-28.809,0
1579294529.050,30.762,30.273,36.133,25.879,41.016,0
1579294529.054,31.738,31.738,36.133,21.484,79.102,0
1579294529.058,36.133,34.668,37.598,29.785,67.383,0
1579294529.062,35.645,35.156,39.062,32.715,-8.789,0
1579294529.066,33.203,36.621,39.062,29.785,9.277,0
1579294529.069,34.180,36.133,39.551,22.949,-23.438,0
1579294529.073,31.738,36.133,38.086,23.438,-49.805,0
1579294529.077,27.832,38.574,37.109,22.461,30.762,0
1579294529.081,27.344,37.109,36.621,18.066,39.551,0
1579294529.085,31.738,38.086,34.668,16.113,7.812,0
1579294529.082,29.785,37.598,35.645,20.508,8.301,0
1579294529.086,27.832,34.180,41.016,30.273,41.016,0
1579294529.090,28.320,35.156,44.434,25.391,31.738,0
1579294529.094,23.926,35.156,44.922,18.066,41.992,0
1579294529.098,24.414,34.668,45.898,24.902,65.430,0
1579294529.102,28.809,34.180,45.898,31.738,16.113,0
1579294529.106,26.855,33.203,45.898,32.715,-20.508,0
1579294529.109,28.809,33.691,47.363,31.738,3.418,0
1579294529.113,30.273,35.156,48.828,27.832,45.898,0
1579294529.117,26.367,34.668,48.340,27.344,73.730,0
1579294529.121,28.320,36.133,45.410,29.785,82.031,0
1579294529.125,24.902,35.645,43.457,27.344,61.035,0
1579294529.142,23.438,38.086,41.992,16.602,35.156,0
1579294529.146,25.879,41.016,38.086,13.184,65.430,0
1579294529.150,23.926,40.039,36.133,20.020,96.680,0
1579294529.154,21.484,39.551,36.621,18.066,11.719,0
1579294529.158,24.414,39.551,37.109,16.113,-31.738,0
1579294529.162,35.156,39.062,39.062,24.902,20.508,0
1579294529.166,36.621,37.598,42.480,35.645,3.906,0
1579294529.169,34.668,37.598,43.945,38.086,-14.648,0
1579294529.173,33.691,34.180,45.410,37.109,58.594,0
1579294529.177,31.738,31.250,45.410,36.133,40.527,0
1579294529.181,31.250,31.738,43.457,37.109,32.715,0
1579294529.185,29.297,33.203,42.969,31.738,44.434,0
1579294529.182,27.832,35.156,39.551,21.973,-34.180,0
1579294529.186,24.902,35.645,35.645,20.508,-38.086,0
1579294529.190,27.832,38.086,35.156,21.484,91.309,0
1579294529.194,36.621,43.457,35.645,23.926,103.516,0
1579294529.198,41.016,46.387,35.645,27.832,26.855,0
1579294529.202,41.992,44.434,36.621,28.320,14.648,0
1579294529.206,37.598,39.551,40.527,28.320,26.855,0
1579294529.209,39.062,36.621,41.016,29.785,69.824,0
1579294529.213,43.945,35.645,40.527,27.344,104.492,3
1579294529.217,43.457,34.180,44.434,23.438,111.328,0
1579294529.221,38.086,35.156,44.922,27.832,52.246,0
1579294529.225,33.691,32.227,41.992,36.621,41.504,0
1579294529.222,31.738,31.250,42.480,40.527,20.020,0
1579294529.226,31.250,34.668,45.410,38.086,-38.086,0
1579294529.230,28.809,34.668,44.434,32.227,58.594,0
1579294529.234,26.855,33.203,43.945,33.203,37.109,0
1579294529.238,30.273,35.645,43.945,35.645,-12.207,0
1579294529.242,35.156,35.645,38.574,32.227,24.414,0
1579294529.246,32.715,34.668,37.598,27.832,63.965,0
1579294529.249,36.621,36.621,39.551,35.645,27.344,0
1579294529.253,42.480,34.668,39.551,44.922,0.000,0
1579294529.257,35.156,30.273,40.527,39.062,23.926,0
1579294529.261,31.250,31.738,39.551,31.250,46.387,0
1579294529.265,31.738,34.668,39.551,28.320,40.039,0
1579294529.282,23.438,29.297,44.434,24.902,54.688,0
1579294529.286,14.160,29.297,46.875,20.996,22.949,0
1579294529.290,11.230,35.645,45.410,14.160,-7.812,0
1579294529.294,2.930,35.645,49.316,4.883,-0.488,0
1579294529.298,-8.789,35.645,52.734,-4.395,-41.016,0
1579294529.302,-17.578,41.992,50.293,-11.719,41.016,0
1579294529.306,-20.020,42.969,45.898,-20.020,91.797,0
1579294529.309,-21.973,46.387,45.410,-27.832,69.336,0
1579294529.313,-38.086,43.457,52.246,-35.645,84.473,0
1579294529.317,-54.688,39.551,58.594,-47.852,50.781,0
1579294529.321,-54.199,44.922,57.129,-48.828,32.715,0
1579294529.325,-52.734,43.457,55.664,-57.129,51.758,0
1579294529.322,-64.453,39.551,57.617,-66.406,5.859,0
1579294529.326,-72.266,39.062,58.594,-68.359,12.695,0
1579294529.330,-75.684,41.504,57.617,-74.707,65.918,0
1579294529.334,-73.242,39.551,55.664,-82.031,26.855,0
1579294529.338,-70.801,39.551,55.176,-83.984,-25.879,0
1579294529.342,-74.219,39.551,51.758,-75.684,-1.465,0
1579294529.346,-65.430,38.574,48.340,-65.430,25.391,0
1579294529.349,-54.688,39.062,47.363,-61.523,48.828,0
1579294529.353,-47.852,38.086,45.410,-51.270,25.391,0
1579294529.357,-37.109,38.574,44.922,-31.738,-10.254,0
1579294529.361,-26.367,36.621,44.922,-18.555,-8.301,0
1579294529.365,-8.789,33.203,42.969,-13.184,21.484,0
1579294529.362,12.207,33.203,40.527,-6.348,24.902,0
1579294529.366,17.578,33.203,38.574,6.836,7.812,0
1579294529.370,20.508,34.668,35.156,15.625,14.160,0
1579294529.374,30.273,36.621,31.250,25.391,69.824,0
1579294529.378,40.039,36.621,28.809,35.156,77.148,0
1579294529.382,48.340,37.109,27.832,37.598,27.344,0
1579294529.386,53.223,36.133,23.438,45.898,10.254,0
1579294529.389,55.176,33.691,20.508,48.340,75.195,0
1579294529.393,53.223,35.645,20.996,48.340,89.844,0
1579294529.397,51.758,31.738,20.996,51.758,97.168,0
1579294529.401,57.617,28.809,22.949,57.617,17.090,0
1579294529.405,61.035,31.250,24.414,55.664,-24.414,0
1579294529.422,65.918,32.227,22.461,53.711,16.602,0
1579294529.426,68.848,31.250,20.020,54.688,8.301,0
1579294529.430,70.312,30.273,21.484,57.617,41.992,0
1579294529.434,70.312,28.809,23.926,61.523,43.945,0
1579294529.438,66.406,28.809,24.414,59.082,71.777,0
1579294529.442,68.359,34.180,24.902,53.711,17.090,0
1579294529.446,65.918,32.715,23.438,51.270,-44.434,0
1579294529.449,62.988,31.738,20.508,55.176,7.812,0
1579294529.453,67.383,34.180,21.973,57.129,71.289,0
1579294529.457,67.383,33.691,21.973,51.270,77.148,0
1579294529.461,67.383,33.691,20.020,49.805,72.266,0
1579294529.465,70.312,34.180,21.484,55.664,34.668,0
1579294529.462,65.430,33.691,23.438,55.664,19.043,0
1579294529.466,62.012,34.668,20.996,49.316,104.980,0
1579294529.470,63.477,34.668,21.484,54.199,60.059,0
1579294529.474,65.918,35.156,24.902,64.941,-11.230,0
1579294529.478,64.941,34.180,26.367,66.406,25.391,0
1579294529.482,60.547,33.691,26.855,61.523,58.594,0
1579294529.486,57.129,32.715,28.809,57.129,48.340,0
1579294529.489,57.129,32.227,32.227,59.570,69.824,0
1579294529.493,59.082,33.203,33.203,69.336,73.730,0
1579294529.497,61.035,33.691,29.297,65.918,43.945,0
1579294529.501,60.547,35.156,28.809,55.664,0.488,0
1579294529.505,55.664,30.762,32.715,58.105,-12.207,0
1579294529.502,56.641,30.273,33.691,63.965,22.461,0
1579294529.506,57.617,33.203,33.691,60.547,70.312,0
1579294529.510,53.711,33.203,33.691,53.711,56.152,0
1579294529.514,53.223,35.645,35.156,53.223,45.898,0
1579294529.518,47.363,35.156,34.668,55.176,5.371,0
1579294529.522,37.109,33.203,33.691,49.316,-19.043,0
1579294529.526,31.738,32.227,33.691,38.086,36.133,0
1579294529.529,31.250,32.715,31.250,33.691,73.242,0
1579294529.533,33.203,31.250,30.762,38.086,72.754,0
1579294529.537,37.109,29.785,33.203,39.062,64.453,0
1579294529.541,41.016,32.715,34.668,42.480,5.859,0
1579294529.545,46.875,29.297,36.621,45.898,-9.277,0
1579294529.562,48.828,29.297,37.109,48.828,94.727,0
1579294529.566,48.828,33.203,38.086,54.199,107.910,0
1579294529.570,52.246,31.738,38.086,48.340,90.332,0
1579294529.574,53.711,34.180,36.133,39.062,10.742,0
1579294529.578,52.734,38.086,35.156,39.551,-41.504,0
1579294529.582,50.293,40.527,32.715,48.340,25.879,0
1579294529.586,46.387,39.551,32.227,40.039,88.379,0
1579294529.589,40.039,39.062,32.227,26.855,49.805,0
1579294529.593,34.668,42.969,34.180,28.320,24.902,0
1579294529.597,29.297,39.551,33.691,29.785,41.504,0
1579294529.601,28.320,36.621,34.180,31.250,55.176,0
1579294529.605,28.809,38.086,36.621,23.926,56.152,0
1579294529.602,32.227,38.574,37.598,20.996,9.766,0
1579294529.606,32.227,39.062,37.598,31.250,-35.156,0
1579294529.610,31.738,38.086,38.086,33.691,-31.250,0
1579294529.614,33.691,38.574,38.086,29.785,19.531,0
1579294529.618,33.691,39.062,36.621,26.367,36.133,0
1579294529.622,36.621,39.062,36.621,22.949,7.324,0
1579294529.626,36.133,38.574,36.133,24.414,4.883,0
1579294529.629,36.621,39.062,35.156,28.809,2.441,0
1579294529.633,37.109,40.527,34.180,26.855,38.086,0
1579294529.637,35.645,41.992,34.668,22.461,95.703,0
1579294529.641,33.691,41.016,36.133,28.320,31.250,0
1579294529.645,31.738,39.551,36.621,35.156,47.852,0
1579294529.642,31.738,38.574,37.109,30.762,93.262,0
1579294529.646,30.273,37.598,34.668,29.785,71.289,0
1579294529.650,26.855,36.621,33.691,33.691,43.945,0
1579294529.654,24.414,36.621,33.691,34.668,28.809,0
1579294529.658,26.367,35.645,34.668,29.785,52.246,0
1579294529.662,26.367,35.156,37.109,27.344,38.574,0
1579294529.666,26.855,33.691,37.109,29.785,9.277,0
1579294529.669,29.297,32.715,37.109,23.926,5.371,0
1579294529.673,26.367,35.156,38.086,15.137,34.668,0
1579294529.677,29.297,35.645,37.598,17.090,34.180,0
1579294529.681,31.250,35.645,35.645,22.461,-4.395,0
1579294529.685,29.297,32.715,35.156,28.320,15.625,0
1579294529.702,32.715,32.227,35.156,25.391,36.621,0
1579294529.706,34.668,35.156,34.180,17.090,20.020,0
1579294529.710,35.156,34.668,33.691,19.043,7.812,0
1579294529.714,32.715,35.156,32.715,22.461,29.785,0
1579294529.718,25.391,35.156,34.180,25.391,80.566,0
1579294529.722,22.949,37.109,35.645,18.555,69.824,0
1579294529.726,22.461,37.598,34.180,9.277,77.148,0
1579294529.729,19.531,36.133,32.715,13.184,56.641,0
1579294529.733,19.043,37.109,32.227,21.484,16.113,0
1579294529.737,20.508,37.109,33.203,19.531,48.340,0
1579294529.741,23.926,38.086,31.250,13.184,70.801,0
1579294529.745,21.484,39.062,30.273,19.043,75.684,0
1579294529.743,16.602,35.156,32.227,23.438,46.387,0
1579294529.747,16.602,33.203,35.156,20.996,34.668,0
1579294529.751,19.043,33.203,32.715,21.973,73.242,0
1579294529.755,21.973,32.715,32.715,22.461,79.102,0
1579294529.759,21.484,29.785,37.598,27.832,36.133,0
1579294529.763,21.484,29.297,38.086,34.668,3.906,0
1579294529.767,24.414,30.273,37.598,28.809,27.344,0
1579294529.770,28.809,27.832,40.039,26.367,20.508,0
1579294529.774,34.668,27.832,38.574,35.645,57.129,0
1579294529.778,31.738,25.879,35.645,29.297,72.266,0
1579294529.782,31.738,24.414,36.621,19.043,30.762,0
1579294529.786,40.039,28.809,38.086,23.438,55.664,0
1579294529.802,42.480,30.762,38.086,29.785,53.223,0
1579294529.806,42.480,32.715,35.156,32.715,61.035,0
1579294529.810,44.434,34.180,34.180,26.367,64.941,0
1579294529.814,42.969,34.180,35.156,20.508,-4.395,0
1579294529.818,41.504,38.086,36.133,25.391,8.789,0
1579294529.822,39.551,40.527,37.109,30.762,48.340,0
1579294529.826,37.598,41.504,34.180,25.879,63.965,0
1579294529.829,38.574,43.457,33.203,20.996,27.344,0
1579294529.833,36.133,44.434,33.203,21.973,20.996,0
1579294529.837,30.273,41.992,33.203,28.320,50.293,0
1579294529.841,29.297,38.574,34.668,30.762,68.848,0
1579294529.845,35.645,41.504,34.668,25.879,96.191,0
1579294529.842,38.574,44.922,33.203,20.508,29.785,0
1579294529.846,38.086,43.457,32.227,21.484,-28.809,0
1579294529.850,35.645,40.527,32.715,22.949,3.906,0
1579294529.854,32.715,41.016,32.227,19.531,29.785,0
1579294529.858,32.715,42.480,31.738,16.113,10.742,0
1579294529.862,29.785,39.551,32.715,23.926,27.832,0
1579294529.866,24.414,36.133,34.180,28.809,68.359,0
1579294529.869,19.043,34.668,37.109,18.066,30.273,0
1579294529.873,19.043,33.203,38.086,12.695,36.133,0
1579294529.877,21.973,33.203,34.668,14.160,65.430,0
1579294529.881,21.973,36.133,35.156,22.461,58.594,0
1579294529.885,25.879,37.598,36.133,14.160,31.738,0
1579294529.882,27.344,34.668,34.668,7.324,-2.441,0
1579294529.886,25.391,32.227,35.156,19.043,58.594,0
1579294529.890,29.297,33.691,37.109,27.832,62.988,0
1579294529.894,30.273,33.691,36.621,33.203,1.953,0
1579294529.898,29.785,33.203,35.156,31.738,-35.156,0
1579294529.902,30.273,32.715,35.645,29.785,11.719,0
1579294529.906,27.832,33.203,36.621,32.715,89.355,0
1579294529.909,32.227,33.691,37.109,32.227,36.133,0
1579294529.913,40.039,35.156,35.645,27.344,37.109,0
1579294529.917,40.039,37.598,34.180,24.414,83.496,0
1579294529.921,38.574,38.086,35.645,32.227,65.918,0
1579294529.925,37.598,37.109,35.645,39.062,63.477,0
1579294529.942,38.574,37.598,36.621,30.762,39.551,0
1579294529.946,41.992,40.527,38.086,31.250,21.484,0
1579294529.950,41.992,39.551,37.598,36.621,9.277,0
1579294529.954,38.574,36.621,33.691,34.180,30.273,0
1579294529.958,36.621,36.133,30.762,35.645,-2.441,0
1579294529.962,34.668,39.062,32.227,36.133,-28.809,0
1579294529.966,37.109,40.527,32.227,32.715,-9.277,0
1579294529.969,36.621,38.086,32.715,34.668,27.344,0
1579294529.973,37.109,37.598,33.691,35.645,12.207,0
1579294529.977,40.527,37.598,33.203,33.691,61.523,0
1579294529.981,41.016,35.645,31.738,32.227,80.078,0
1579294529.985,41.992,38.086,34.180,37.598,36.621,0
1579294529.982,36.621,38.086,36.133,39.062,45.898,0
1579294529.986,29.297,36.133,34.180,30.273,74.219,0
1579294529.990,28.809,37.598,34.668,23.926,74.707,0
1579294529.994,31.738,37.109,35.156,22.461,89.355,0
1579294529.998,35.645,35.645,34.668,23.438,35.645,0
1579294530.002,35.645,32.715,35.645,21.484,-1.953,0
1579294530.006,27.832,30.762,37.598,17.090,-33.691,0
1579294530.009,29.297,31.250,38.574,20.020,-41.504,0
1579294530.013,33.691,31.738,38.574,31.250,62.500,0
1579294530.017,32.715,33.203,38.086,39.551,28.809,0
1579294530.021,38.086,36.133,38.574,41.504,-27.832,0
1579294530.025,39.062,36.133,41.504,34.668,1.465,0
1579294530.023,38.574,33.691,39.551,35.645,70.312,0
1579294530.027,40.527,35.645,39.062,39.062,21.973,0
1579294530.031,38.574,38.086,38.574,33.203,-11.230,0
1579294530.035,36.621,39.062,35.156,30.762,5.371,0
1579294530.039,37.109,41.016,35.156,37.598,-1.953,0
1579294530.043,39.551,41.992,33.203,34.668,80.078,0
1579294530.047,41.504,41.016,34.668,25.391,118.164,0
1579294530.050,35.645,39.062,35.645,20.996,46.387,0
1579294530.054,31.738,39.551,37.109,21.973,-26.367,0
1579294530.058,30.762,40.039,40.039,24.414,20.508,0
1579294530.062,26.367,36.133,38.086,20.996,92.285,0
1579294530.066,26.855,36.621,36.621,16.113,62.012,0
1579294530.082,23.926,36.621,37.598,20.020,72.266,0
1579294530.086,19.531,37.109,34.180,25.391,40.527,0
1579294530.090,20.996,38.574,29.785,20.020,12.207,0
1579294530.094,19.531,37.598,30.273,16.602,38.086,0
1579294530.098,20.020,35.645,30.762,16.113,4.883,0
1579294530.102,23.438,34.668,31.738,23.438,-27.344,0
1579294530.106,28.809,34.180,34.668,30.273,18.066,0
1579294530.109,31.738,33.203,35.156,19.531,12.695,0
1579294530.113,30.762,29.785,34.180,12.695,45.410,0
1579294530.117,29.297,29.297,34.180,18.066,31.738,0
1579294530.121,31.738,32.227,37.598,23.438,15.137,0
1579294530.125,39.551,36.133,38.086,21.973,4.883,0
1579294530.122,45.410,36.133,35.645,21.973,44.922,0
1579294530.126,44.922,35.645,35.156,27.832,76.660,0
1579294530.130,43.945,38.086,34.668,37.109,38.086,0
1579294530.134,41.992,41.016,34.180,31.250,16.113,0
1579294530.138,41.504,41.504,34.180,20.020,-34.180,0
1579294530.142,42.969,41.992,33.203,23.438,-43.945,0
1579294530.146,35.645,38.086,31.738,26.855,54.688,0
1579294530.149,28.320,34.180,31.738,26.367,68.359,0
1579294530.153,26.367,37.109,34.180,25.391,-33.691,0
1579294530.157,21.973,37.109,34.668,28.320,-6.348,0
1579294530.161,19.043,37.598,30.273,31.738,39.062,0
1579294530.165,23.926,38.574,30.762,25.391,77.148,0
1579294530.163,27.344,38.574,32.715,22.949,79.102,0
1579294530.167,26.367,41.016,31.738,25.879,54.688,0
1579294530.171,27.344,41.016,33.203,29.297,25.391,0
1579294530.175,26.855,37.109,36.133,36.621,37.598,0
1579294530.179,24.414,35.156,38.086,32.715,31.250,0
1579294530.183,23.926,34.668,38.574,30.273,11.719,0
1579294530.187,23.438,32.227,36.621,40.039,66.406,0
1579294530.190,23.926,31.738,36.133,44.434,74.219,0
1579294530.194,29.785,34.180,39.551,44.922,57.129,0
1579294530.198,36.133,38.086,39.062,33.691,23.438,0
1579294530.202,42.480,39.062,35.645,25.879,3.418,0
1579294530.206,44.434,38.574,34.668,31.250,1.465,0
1579294530.222,39.551,38.574,38.086,28.809,-4.883,0
1579294530.226,42.480,41.016,39.062,29.785,37.109,0
1579294530.230,43.457,39.551,36.133,24.414,17.090,0
1579294530.234,40.527,38.086,36.133,26.855,36.621,0
1579294530.238,41.016,39.551,33.203,28.809,64.941,0
1579294530.242,39.062,38.574,31.250,22.461,32.715,0
1579294530.246,33.691,39.062,35.645,21.484,11.230,0
1579294530.249,24.414,39.551,39.062,19.043,51.270,0
1579294530.253,24.902,35.645,40.039,22.949,75.195,0
1579294530.257,34.668,37.109,41.016,28.809,83.008,0
1579294530.261,38.086,39.551,40.039,27.344,105.469,2
1579294530.265,38.086,37.598,39.551,28.320,61.523,0
1579294530.262,40.527,39.062,40.527,30.273,44.434,0
1579294530.266,43.457,43.457,40.039,27.832,-10.742,0
1579294530.270,41.016,43.457,41.016,27.832,-64.941,0
1579294530.274,38.086,41.016,41.992,32.227,-1.465,0
1579294530.278,39.062,40.039,41.992,39.551,51.758,0
1579294530.282,42.969,40.527,42.480,40.039,47.363,0
1579294530.286,38.574,39.062,44.434,34.180,91.309,0
1579294530.289,32.715,34.668,45.898,39.062,104.980,0
1579294530.293,32.227,33.203,44.434,44.922,106.934,0
1579294530.297,30.762,31.738,43.945,49.316,71.289,0
1579294530.301,32.715,30.762,46.875,39.551,23.926,0
1579294530.305,30.762,32.227,46.387,30.273,12.695,0
1579294530.302,27.344,32.227,45.410,35.156,57.129,0
1579294530.306,29.297,31.250,41.504,38.574,77.637,0
1579294530.310,28.809,31.250,39.551,39.551,27.344,0
1579294530.314,26.367,32.227,39.062,28.809,12.207,0
1579294530.318,33.691,33.691,40.039,26.855,73.730,0
1579294530.322,38.574,35.156,40.527,35.156,16.113,0
1579294530.326,39.062,36.621,38.086,30.762,-11.719,0
1579294530.329,39.062,35.645,38.086,27.832,24.414,0
1579294530.333,35.645,35.645,38.574,25.879,23.438,0
1579294530.337,30.762,36.621,36.133,25.391,37.109,0
1579294530.341,26.367,36.133,36.133,19.531,7.812,0
1579294530.345,25.391,37.109,37.598,10.254,41.504,0
1579294530.362,24.902,36.621,35.645,11.719,69.824,0
1579294530.366,27.832,37.598,36.133,16.602,12.207,0
1579294530.370,29.785,38.086,36.133,19.531,16.602,0
1579294530.374,26.855,37.598,37.598,16.113,12.695,0
1579294530.378,27.344,37.598,38.574,18.066,-53.223,0
1579294530.382,33.691,37.109,39.551,25.879,12.695,0
1579294530.386,36.621,37.598,41.504,27.344,78.125,0
1579294530.389,30.762,37.109,38.574,21.484,64.941,0
1579294530.393,27.832,34.668,36.621,18.066,37.598,0
1579294530.397,30.762,35.645,39.551,24.902,20.508,0
1579294530.401,29.297,34.668,40.039,35.156,11.230,0
1579294530.405,27.832,32.715,41.504,38.086,45.898,0
1579294530.403,31.250,32.715,43.457,36.133,18.066,0
1579294530.407,28.320,31.250,41.992,38.574,-17.090,0
1579294530.411,26.855,29.297,42.480,45.410,63.965,0
1579294530.415,32.715,30.273,42.969,47.363,72.754,0
1579294530.419,40.039,33.691,41.992,47.363,62.988,0
1579294530.423,37.598,35.156,39.062,45.410,16.602,0
1579294530.427,33.691,35.156,38.086,42.480,14.160,0
1579294530.430,33.203,35.645,39.551,44.922,87.402,0
1579294530.434,29.297,37.598,41.504,38.574,49.316,0
1579294530.438,31.250,38.086,41.016,25.879,-1.465,0
1579294530.442,28.320,37.109,39.551,22.461,21.484,0
1579294530.446,21.973,36.621,38.086,26.367,42.969,0
1579294530.442,20.020,35.156,37.598,23.926,55.176,0
1579294530.446,21.973,35.645,39.062,13.672,7.324,0
1579294530.450,25.879,37.598,35.645,10.254,9.766,0
1579294530.454,25.879,38.574,35.156,14.648,57.129,0
1579294530.458,25.879,37.109,37.109,12.695,23.438,0
