timestamps,TP9,AF7,AF8,TP10,Right AUX,Marker0
1579294839.183,33.691,34.180,33.691,35.645,-13.184,0
1579294839.187,31.738,33.691,34.180,29.297,-61.523,0
1579294839.191,37.598,33.691,33.691,36.133,-15.625,0
1579294839.195,45.410,34.180,33.203,44.922,6.348,0
1579294839.199,47.852,33.691,34.180,52.246,4.395,0
1579294839.203,43.945,33.203,34.668,44.922,-2.930,0
1579294839.207,41.016,33.691,35.156,34.668,72.266,0
1579294839.210,41.504,37.109,33.691,32.715,84.473,0
1579294839.214,40.527,35.645,33.203,33.203,-20.020,0
1579294839.218,42.480,33.691,29.785,38.086,18.555,0
1579294839.222,44.922,36.621,28.809,44.922,70.312,0
1579294839.226,48.340,36.621,28.320,47.852,23.926,0
1579294839.223,50.781,36.133,28.320,46.387,16.113,0
1579294839.227,43.945,37.109,33.203,44.922,71.777,0
1579294839.231,48.340,39.551,29.297,52.734,93.750,0
1579294839.235,53.711,37.598,29.785,59.082,49.805,0
1579294839.239,44.434,33.691,34.180,49.316,43.945,0
1579294839.243,34.668,34.180,34.668,36.621,36.621,0
1579294839.247,27.832,35.156,32.227,40.039,8.301,0
1579294839.250,15.137,31.738,33.691,36.621,-3.418,0
1579294839.254,14.160,31.250,32.715,31.738,4.883,0
1579294839.258,11.719,30.762,29.785,27.832,81.055,0
1579294839.262,1.465,23.926,33.203,24.902,62.988,0
1579294839.266,5.859,23.438,33.691,36.621,31.250,0
1579294839.263,15.137,27.344,35.156,39.062,36.621,0
1579294839.267,20.508,29.785,37.109,38.086,33.691,0
1579294839.271,30.273,31.250,35.156,37.109,2.930,0
1579294839.275,43.945,33.203,34.180,45.410,-17.578,0
1579294839.279,52.734,39.062,32.715,49.316,11.719,0
1579294839.283,59.082,44.434,31.738,50.293,0.977,0
1579294839.287,58.594,44.434,33.203,56.152,50.293,0
1579294839.290,62.500,43.945,34.180,55.664,71.777,0
1579294839.294,63.477,41.504,35.645,50.781,39.062,0
1579294839.298,54.688,36.621,35.645,46.387,87.891,0
1579294839.302,48.828,35.645,35.156,45.410,88.867,0
1579294839.306,41.504,38.086,35.156,45.898,87.891,0
1579294839.323,47.363,37.109,34.668,46.875,72.266,0
1579294839.327,51.270,33.203,37.598,44.922,51.270,0
1579294839.331,46.387,35.645,37.109,42.480,45.898,0
1579294839.335,50.293,39.551,34.180,52.246,24.902,0
1579294839.339,52.734,38.574,34.180,56.152,41.992,0
1579294839.343,50.781,34.180,36.133,56.152,43.457,0
1579294839.347,47.363,33.203,38.574,52.734,43.457,0
1579294839.350,45.898,32.227,37.598,41.016,38.086,0
1579294839.354,39.551,32.715,34.668,39.062,43.457,0
1579294839.358,32.227,32.715,30.273,38.574,12.695,0
1579294839.362,25.391,32.715,29.785,32.715,-3.418,0
1579294839.366,29.785,36.133,31.738,34.180,30.762,0
1579294839.363,33.691,37.109,32.715,37.109,54.199,0
1579294839.367,26.855,35.645,34.180,38.086,51.270,0
1579294839.371,24.414,35.156,28.320,36.133,26.855,0
1579294839.375,30.273,36.133,29.785,31.738,15.625,0
1579294839.379,24.414,34.668,36.133,27.344,23.926,0
1579294839.383,14.160,31.738,37.598,25.879,20.020,0
1579294839.387,11.719,30.762,38.574,24.902,3.418,0
1579294839.390,12.207,28.809,38.574,26.855,58.105,0
1579294839.394,18.555,30.273,35.645,26.855,57.129,0
1579294839.398,23.438,30.273,32.227,25.879,15.137,0
1579294839.402,18.555,28.320,33.203,22.461,-11.719,0
1579294839.406,30.273,31.738,31.738,25.391,-2.930,0
1579294839.423,41.992,33.203,30.273,30.762,59.082,0
1579294839.427,39.551,33.691,30.762,22.949,40.039,0
1579294839.431,42.480,34.668,29.785,28.320,-7.812,0
1579294839.435,40.039,37.109,30.273,25.391,-37.598,0
1579294839.439,40.527,38.574,31.250,25.391,-38.086,0
1579294839.443,49.805,38.086,31.738,34.180,7.812,0
1579294839.447,42.969,40.039,33.203,26.367,38.574,0
1579294839.450,34.668,41.992,28.809,17.578,29.297,0
1579294839.454,40.527,40.039,28.809,18.555,38.086,0
1579294839.458,48.340,39.551,29.297,24.902,17.578,0
1579294839.462,45.898,41.992,27.832,24.414,52.734,0
1579294839.466,40.039,44.434,30.762,20.508,94.238,0
1579294839.463,41.504,41.016,31.250,21.973,39.551,0
1579294839.467,40.039,41.504,29.297,17.090,-19.043,0
1579294839.471,37.598,43.945,30.273,19.043,-20.508,0
1579294839.475,33.203,45.898,31.250,20.020,67.871,0
1579294839.479,36.133,46.387,28.809,18.066,104.980,0
1579294839.483,35.645,41.016,29.297,28.320,72.266,0
1579294839.487,30.762,38.086,34.180,35.645,55.664,0
1579294839.490,37.109,41.992,29.297,39.551,35.645,0
1579294839.494,39.551,43.945,24.414,39.062,-42.969,0
1579294839.498,27.344,39.551,28.809,39.551,-69.336,0
1579294839.502,20.996,40.039,36.133,43.945,-32.715,0
1579294839.506,29.297,40.527,39.062,46.875,14.160,0
1579294839.503,35.156,37.109,37.109,50.781,71.289,0
1579294839.507,33.691,33.691,36.621,44.434,45.410,0
1579294839.511,39.551,37.598,35.156,36.133,-25.879,0
1579294839.515,44.434,39.062,33.691,41.016,-16.602,0
1579294839.519,38.086,39.551,36.133,40.039,63.965,0
1579294839.523,40.039,41.992,32.715,32.715,69.336,0
1579294839.527,43.457,38.574,28.320,33.691,42.969,0
1579294839.530,39.551,36.133,29.297,31.250,42.969,0
1579294839.534,44.434,40.039,27.832,31.738,99.609,0
1579294839.538,41.992,40.527,26.367,28.320,83.008,0
1579294839.542,34.180,38.086,31.738,29.785,-0.488,0
1579294839.546,43.945,38.086,32.227,40.527,68.848,0
1579294839.563,48.340,39.551,27.344,41.992,110.352,0
1579294839.567,47.363,41.016,31.738,42.969,63.477,0
1579294839.571,45.898,40.039,34.668,37.109,41.992,0
1579294839.575,39.551,35.156,33.203,39.062,38.574,0
1579294839.579,40.039,35.156,32.227,46.875,13.184,0
1579294839.583,37.598,35.645,30.762,44.922,22.949,0
1579294839.587,34.668,36.133,29.297,35.156,57.129,0
1579294839.590,33.691,38.574,30.762,41.016,33.203,0
1579294839.594,39.062,35.156,35.156,54.688,0.000,0
1579294839.598,38.086,34.180,35.156,47.363,13.672,0
1579294839.602,36.621,39.551,28.809,36.621,5.859,0
1579294839.606,35.645,38.086,29.785,39.551,22.461,0
1579294839.603,33.691,36.133,32.227,46.875,51.758,0
1579294839.607,37.109,36.621,32.227,50.293,-21.973,0
1579294839.611,45.410,36.133,34.668,42.969,-1.953,0
1579294839.615,47.852,39.551,33.203,39.551,15.137,0
1579294839.619,41.992,38.574,36.133,48.828,-6.348,0
1579294839.623,38.574,38.086,37.109,52.246,57.617,0
1579294839.627,36.621,38.086,33.691,43.945,39.062,0
1579294839.630,29.785,35.156,33.691,33.203,35.645,0
1579294839.634,28.809,33.691,34.180,34.668,100.098,0
1579294839.638,35.645,32.227,33.691,31.738,61.523,0
1579294839.642,32.715,33.203,35.156,23.926,6.348,0
1579294839.646,23.438,34.180,33.203,14.648,45.898,0
1579294839.643,20.508,31.250,31.738,12.207,80.566,0
1579294839.647,38.086,34.668,30.273,20.508,49.805,0
1579294839.651,40.039,39.551,30.273,20.996,43.945,0
1579294839.655,29.785,38.086,32.227,16.113,70.801,0
1579294839.659,38.574,37.109,31.250,19.531,43.945,0
1579294839.663,40.039,40.039,29.297,20.508,50.293,0
1579294839.667,38.574,42.480,30.273,19.531,22.461,0
1579294839.670,38.574,44.434,30.273,20.996,-24.902,0
1579294839.674,34.180,43.457,31.250,15.137,55.664,0
1579294839.678,32.227,39.551,30.273,16.113,56.152,0
1579294839.682,33.203,39.551,28.320,18.555,61.523,0
1579294839.686,32.227,40.527,29.297,19.043,74.707,0
1579294839.703,28.320,38.574,29.297,15.625,43.457,0
1579294839.707,27.832,38.086,32.715,19.043,-3.418,0
1579294839.711,26.855,32.715,40.039,25.879,17.578,0
1579294839.715,9.277,34.180,33.691,21.973,58.594,0
1579294839.719,11.719,38.574,29.785,24.414,54.688,0
1579294839.723,24.902,35.156,41.016,25.879,82.031,0
1579294839.727,26.855,37.109,36.621,24.414,81.543,0
1579294839.730,13.184,41.016,27.344,12.695,88.379,0
1579294839.734,9.766,33.691,28.809,-2.441,58.594,0
1579294839.738,12.695,34.180,30.762,-7.324,22.949,0
1579294839.742,11.719,31.738,36.621,3.418,25.391,0
1579294839.746,5.859,31.738,34.668,-6.836,-40.527,0
1579294839.743,-7.324,35.156,32.227,-21.484,-7.812,0
1579294839.747,-12.695,39.062,33.203,-23.438,85.938,0
1579294839.751,-14.160,36.133,34.180,-23.438,52.734,0
1579294839.755,-19.531,34.668,43.945,-18.555,52.246,0
1579294839.759,-27.344,41.992,44.434,-30.762,96.680,0
1579294839.763,-31.738,38.086,41.504,-47.363,37.598,0
1579294839.767,-39.551,39.062,46.387,-56.152,34.668,0
1579294839.770,-47.852,40.039,49.805,-62.012,100.586,0
1579294839.774,-74.219,42.969,48.828,-92.285,38.574,0
1579294839.778,-85.938,43.945,43.945,-113.281,13.184,0
1579294839.782,-82.031,45.410,44.922,-102.051,36.133,0
1579294839.786,-93.262,48.340,42.969,-102.051,47.852,0
1579294839.783,-101.562,45.410,47.363,-106.934,32.227,0
1579294839.787,-104.980,48.828,50.293,-114.258,19.531,0
1579294839.791,-114.258,49.316,44.922,-122.559,17.578,0
1579294839.795,-119.629,46.387,46.875,-112.793,-10.254,0
1579294839.799,-127.441,43.457,46.875,-125.488,20.996,0
1579294839.803,-125.977,46.387,47.363,-145.508,41.016,0
1579294839.807,-112.305,51.758,46.875,-125.000,42.969,0
1579294839.810,-115.723,43.457,51.270,-113.770,47.363,0
1579294839.814,-118.164,43.457,48.828,-111.328,60.059,0
1579294839.818,-99.121,52.734,40.039,-96.680,62.012,0
1579294839.822,-90.332,40.527,57.129,-92.773,16.602,0
1579294839.826,-91.797,40.527,54.199,-85.938,27.832,0
1579294839.843,-74.707,46.387,38.086,-69.336,39.062,0
1579294839.847,-62.988,44.922,37.109,-63.965,-8.789,0
1579294839.851,-54.199,48.340,31.250,-59.082,20.020,0
1579294839.855,-39.062,47.852,33.691,-41.016,38.574,0
1579294839.859,-19.043,42.969,40.527,-25.879,1.465,0
1579294839.863,-13.184,38.574,35.645,-21.973,26.367,0
1579294839.867,-14.160,34.180,34.180,-10.742,100.586,0
1579294839.870,-10.254,34.180,36.133,-6.348,131.348,0
1579294839.874,10.254,41.504,21.973,6.836,73.242,0
1579294839.878,34.180,37.598,17.578,25.391,41.504,0
1579294839.882,39.062,32.715,21.484,31.250,41.016,0
1579294839.886,36.133,36.133,21.973,40.039,-16.113,0
1579294839.883,33.203,32.227,26.367,34.668,-8.789,0
1579294839.887,48.340,32.715,15.137,44.434,35.156,0
1579294839.891,59.570,36.133,13.184,60.059,55.664,0
1579294839.895,60.059,29.785,22.949,70.801,52.246,0
1579294839.899,47.363,29.785,27.344,62.500,24.902,0
1579294839.903,54.688,30.273,22.461,53.711,33.203,0
1579294839.907,72.754,25.879,19.531,69.824,45.410,0
1579294839.910,72.266,28.809,19.043,67.871,11.230,0
1579294839.914,66.406,26.367,20.020,59.082,2.441,0
1579294839.918,58.594,27.344,20.996,57.617,41.016,0
1579294839.922,67.871,33.203,15.137,71.289,25.391,0
1579294839.926,77.637,27.832,15.625,70.312,55.176,0
1579294839.923,81.055,26.855,20.020,60.547,31.250,0
1579294839.927,75.195,30.762,12.695,58.105,-22.461,0
1579294839.931,73.730,29.297,13.672,67.871,-32.715,0
1579294839.935,81.055,30.273,21.484,72.266,-44.434,0
1579294839.939,79.590,30.762,19.043,73.242,-8.301,0
1579294839.943,83.496,30.762,20.508,85.938,51.758,0
1579294839.947,88.867,32.715,20.996,88.867,12.695,0
1579294839.950,85.938,35.645,24.902,80.566,43.457,0
1579294839.954,88.379,40.039,22.461,64.941,103.516,0
1579294839.958,84.961,33.203,27.344,62.500,31.250,0
1579294839.962,76.172,24.902,36.621,69.336,25.391,0
1579294839.966,85.449,30.762,25.391,77.637,24.902,0
1579294839.983,81.055,35.156,17.578,72.266,23.926,0
1579294839.987,66.406,35.156,23.438,67.871,49.805,0
1579294839.991,59.570,37.109,27.832,77.148,21.484,0
1579294839.995,65.430,33.691,23.926,79.590,12.695,0
1579294839.999,76.660,28.809,27.832,83.008,28.809,0
1579294840.003,67.871,27.344,41.504,74.219,24.414,0
1579294840.007,71.777,31.738,33.691,79.102,59.570,0
1579294840.010,72.266,38.086,25.879,85.449,60.059,0
1579294840.014,72.266,34.180,31.250,74.219,27.832,0
1579294840.018,81.543,34.668,18.555,70.801,23.926,0
1579294840.022,80.566,33.691,28.809,69.336,67.383,0
1579294840.026,76.172,34.668,37.598,62.012,109.375,0
1579294840.023,66.406,38.574,22.949,60.547,38.574,0
1579294840.027,67.871,33.691,35.156,52.734,19.043,0
1579294840.031,74.219,33.203,37.109,56.152,88.867,0
1579294840.035,73.242,36.133,25.391,66.406,78.613,0
1579294840.039,76.172,37.598,16.602,54.199,-3.906,0
1579294840.043,62.012,32.715,27.832,44.434,-19.531,0
1579294840.047,58.105,30.762,32.227,48.340,-22.949,0
1579294840.050,65.918,35.645,23.926,54.199,-6.348,0
1579294840.054,55.176,40.039,23.926,46.875,-5.859,0
1579294840.058,51.270,35.645,30.273,45.898,22.461,0
1579294840.062,59.570,25.879,43.945,56.641,36.133,0
1579294840.066,68.359,36.621,31.738,62.500,32.227,0
1579294840.063,61.523,35.156,36.621,53.223,55.664,0
1579294840.067,47.852,28.809,41.016,52.246,30.273,0
1579294840.071,62.012,37.598,28.320,61.523,-14.648,0
1579294840.075,69.824,39.062,29.297,64.453,45.410,0
1579294840.079,56.641,41.504,15.137,67.871,62.988,0
1579294840.083,60.547,36.133,25.879,84.473,5.859,0
1579294840.087,53.223,31.738,42.480,76.660,39.062,0
1579294840.090,40.039,30.273,35.645,50.781,62.500,0
1579294840.094,58.594,30.273,35.645,60.059,47.852,0
1579294840.098,63.477,37.109,20.020,48.828,54.199,0
1579294840.102,49.805,35.156,24.902,44.922,15.625,0
1579294840.106,47.852,31.738,38.574,62.500,4.395,0
1579294840.123,55.176,41.992,18.555,61.523,-3.418,0
1579294840.127,54.688,35.645,34.668,53.223,-19.043,0
1579294840.131,43.945,35.156,49.805,46.387,71.777,0
1579294840.135,40.039,40.527,31.738,46.875,41.992,0
1579294840.139,53.711,41.504,11.230,45.898,6.836,0
1579294840.143,59.570,39.551,32.715,45.410,48.340,0
1579294840.147,51.270,28.809,50.781,44.922,57.617,0
1579294840.150,55.664,33.691,15.137,49.805,45.898,0
1579294840.154,46.875,43.457,25.391,52.734,31.738,0
1579294840.158,35.156,37.109,34.180,40.039,56.152,0
1579294840.162,46.387,22.461,28.320,42.480,62.012,0
1579294840.166,44.922,38.086,30.273,48.340,101.074,0
1579294840.163,40.039,37.598,41.016,32.227,120.117,0
1579294840.167,39.551,27.344,36.133,37.598,66.406,0
1579294840.171,36.133,34.180,30.273,42.480,10.254,0
1579294840.175,43.945,35.645,43.945,46.387,12.695,0
1579294840.179,50.293,31.250,46.387,62.012,58.105,0
1579294840.183,49.316,30.273,30.273,57.617,55.176,0
1579294840.187,27.832,34.668,26.855,41.992,44.922,0
1579294840.190,24.902,30.273,46.875,40.039,43.457,0
1579294840.194,23.926,25.391,41.016,45.898,29.785,0
1579294840.198,23.926,26.855,31.250,64.941,6.836,0
1579294840.202,25.879,35.156,36.621,50.781,-26.367,0
1579294840.206,33.691,36.133,39.551,43.457,-2.441,0
1579294840.203,36.133,18.555,41.504,42.969,30.762,0
1579294840.207,36.133,20.996,47.363,45.898,37.109,0
1579294840.211,43.457,35.156,39.551,52.246,71.289,0
1579294840.215,33.203,40.527,18.066,44.922,105.957,0
1579294840.219,30.762,37.598,27.832,42.969,56.641,0
1579294840.223,26.367,30.273,52.734,14.648,37.598,0
1579294840.227,32.227,33.691,32.227,19.531,48.828,0
1579294840.230,27.344,43.945,14.648,34.180,14.648,0
1579294840.234,23.926,42.480,28.809,15.137,-25.879,0
1579294840.238,38.086,29.785,27.344,17.578,-20.020,0
1579294840.242,47.852,35.156,24.414,40.039,-4.395,0
1579294840.246,47.363,39.062,32.227,36.133,14.160,0
1579294840.263,39.062,32.227,35.156,18.555,56.152,0
1579294840.267,25.391,34.668,29.785,8.301,36.621,0
1579294840.271,20.996,36.621,35.156,8.789,-17.090,0
1579294840.275,19.531,38.086,26.855,25.879,10.742,0
1579294840.279,27.344,42.480,20.508,27.832,21.484,0
1579294840.283,42.480,40.527,9.277,41.016,53.711,0
1579294840.287,25.879,33.691,29.785,33.691,57.617,0
1579294840.290,30.273,38.086,32.715,34.180,32.715,0
1579294840.294,32.715,39.551,19.531,38.574,7.812,0
1579294840.298,21.973,32.715,21.484,27.344,-13.184,0
1579294840.302,19.531,30.273,32.227,27.344,49.805,0
1579294840.306,23.438,35.645,28.809,29.785,5.371,0
1579294840.303,33.203,42.969,18.555,35.156,-29.785,0
1579294840.307,36.133,41.016,25.391,38.574,42.480,0
1579294840.311,41.016,38.574,41.992,40.039,64.453,0
1579294840.315,43.457,35.645,38.086,38.574,50.293,0
1579294840.319,42.480,39.062,22.949,49.316,60.059,0
1579294840.323,29.297,41.992,31.738,38.086,41.016,0
1579294840.327,25.879,28.809,47.363,21.973,53.711,0
1579294840.330,35.156,28.320,42.969,30.762,88.867,0
1579294840.334,39.062,35.645,24.414,39.551,45.410,0
1579294840.338,39.551,33.691,34.180,35.156,8.789,0
1579294840.342,30.762,34.668,39.551,36.133,24.414,0
1579294840.346,35.156,29.297,34.180,41.504,16.113,0
1579294840.343,36.621,37.109,22.949,49.316,34.668,0
1579294840.347,28.320,34.668,41.016,44.922,3.418,0
1579294840.351,42.969,34.180,41.016,43.457,-50.781,0
1579294840.355,49.805,41.016,23.926,43.945,27.344,0
1579294840.359,40.527,38.086,26.367,41.016,61.035,0
1579294840.363,36.621,38.086,31.250,34.668,30.273,0
1579294840.367,48.828,42.969,26.855,41.992,-4.395,0
1579294840.370,46.387,40.527,30.273,36.621,3.906,0
1579294840.374,34.180,38.086,33.203,27.344,19.043,0
1579294840.378,38.574,35.156,41.504,42.969,-8.301,0
1579294840.382,45.410,37.109,40.527,43.945,-3.906,0
1579294840.386,58.594,41.992,21.973,56.641,48.340,0
1579294840.403,51.270,31.250,38.086,62.988,8.789,0
1579294840.407,46.875,32.715,41.016,51.270,8.789,0
1579294840.411,54.199,41.016,27.344,41.504,35.156,0
1579294840.415,44.434,39.062,24.414,35.645,-5.859,0
1579294840.419,40.527,33.203,43.457,40.039,19.531,0
1579294840.423,45.410,33.691,50.781,51.758,74.219,0
1579294840.427,38.086,35.645,37.598,43.945,75.195,0
1579294840.430,25.391,30.273,39.062,31.738,63.965,0
1579294840.434,26.855,27.344,35.645,33.203,29.785,0
1579294840.438,35.156,29.297,32.715,48.340,-9.766,0
1579294840.442,38.086,32.227,35.156,50.293,11.719,0
1579294840.446,35.645,34.668,35.156,41.992,28.320,0
1579294840.443,33.691,33.691,33.691,31.738,64.453,0
1579294840.447,35.156,32.227,35.156,35.645,72.754,0
1579294840.451,26.855,29.785,51.758,43.945,21.484,0
1579294840.455,33.691,33.691,44.434,50.781,16.113,0
1579294840.459,37.598,35.645,32.715,44.922,3.906,0
1579294840.463,36.133,35.645,33.203,38.574,41.504,0
1579294840.467,41.504,37.109,28.809,45.410,39.551,0
1579294840.470,36.621,34.668,33.691,39.551,32.227,0
1579294840.474,40.039,34.668,41.504,40.527,47.852,0
1579294840.478,41.992,39.062,29.297,44.922,58.594,0
1579294840.482,28.809,36.621,20.508,38.086,38.086,0
1579294840.486,29.297,31.250,36.133,32.227,51.758,0
1579294840.483,34.668,33.203,37.109,33.691,28.809,0
1579294840.487,34.180,33.691,32.227,34.180,6.836,0
1579294840.491,35.156,35.156,34.668,40.527,22.949,0
1579294840.495,29.297,34.668,40.527,37.598,10.742,0
1579294840.499,35.156,34.668,39.062,38.086,24.902,0
1579294840.503,32.715,41.504,30.762,35.156,-2.930,0
1579294840.507,20.508,38.574,39.551,31.738,3.906,0
1579294840.510,38.574,38.574,33.203,46.387,52.734,0
1579294840.514,43.457,41.016,30.273,38.574,76.172,0
1579294840.518,35.645,35.645,39.551,31.250,29.297,0
1579294840.522,32.715,36.133,37.109,31.738,22.461,0
1579294840.526,33.691,37.598,33.203,31.738,63.477,0
1579294840.543,37.598,36.133,36.621,41.504,68.359,0
1579294840.547,34.180,33.203,37.598,42.480,10.254,0
1579294840.551,34.668,31.250,43.945,40.039,-11.230,0
1579294840.555,38.574,32.715,44.434,44.922,27.832,0
1579294840.559,31.738,33.691,35.156,38.086,43.945,0
1579294840.563,35.645,35.156,34.668,42.480,113.281,0
1579294840.567,30.762,35.645,35.156,40.527,123.047,0
1579294840.570,22.461,33.691,36.621,32.227,63.965,0
1579294840.574,21.973,36.133,32.227,36.621,65.918,0
1579294840.578,27.344,36.621,28.809,40.527,53.711,0
1579294840.582,27.344,35.645,38.574,40.039,80.566,0
1579294840.586,29.785,38.086,37.109,40.039,63.477,0
1579294840.583,34.180,37.109,31.250,42.969,50.293,0
1579294840.587,28.320,35.156,34.180,38.086,41.016,0
1579294840.591,30.273,38.574,32.227,34.180,8.789,0
1579294840.595,38.086,39.062,35.156,37.109,48.828,0
1579294840.599,30.762,34.668,31.250,34.180,86.914,0
1579294840.603,19.043,33.203,29.785,23.926,44.922,0
1579294840.607,20.020,31.738,36.133,17.090,9.277,0
1579294840.610,25.391,31.250,35.156,20.996,59.570,0
1579294840.614,21.973,29.785,33.691,26.367,43.945,0
1579294840.618,22.461,33.691,34.180,27.344,-39.062,0
1579294840.622,25.879,37.598,33.203,23.926,-8.789,0
1579294840.626,31.250,36.621,30.762,27.832,-8.301,0
1579294840.623,30.762,35.645,34.180,32.227,-13.184,0
1579294840.627,30.762,36.133,31.738,32.227,14.160,0
1579294840.631,33.203,34.180,39.062,33.691,-10.742,0
1579294840.635,32.715,29.785,41.992,31.250,-32.715,0
1579294840.639,38.574,33.203,33.203,34.668,-34.668,0
1579294840.643,39.062,33.691,33.691,42.969,13.672,0
1579294840.647,38.086,31.250,33.691,41.016,59.570,0
1579294840.650,37.598,32.715,36.133,35.645,71.777,0
1579294840.654,34.180,32.715,34.180,27.344,27.832,0
1579294840.658,33.691,32.227,37.109,30.762,-16.602,0
1579294840.662,33.203,33.691,39.062,34.180,-23.438,0
1579294840.666,32.715,33.691,35.156,26.855,5.371,0
1579294840.683,30.762,33.203,37.109,23.438,51.270,0
1579294840.687,23.438,33.203,36.621,23.438,50.781,0
1579294840.691,21.973,36.133,34.180,23.926,64.941,0
1579294840.695,19.531,36.621,34.668,20.508,54.688,0
1579294840.699,20.020,33.691,32.227,15.137,50.781,0
1579294840.703,25.391,34.180,30.273,20.996,36.133,0
1579294840.707,30.273,35.645,27.832,22.461,51.270,0
1579294840.710,24.414,31.738,32.715,23.438,126.953,0
1579294840.714,18.555,29.785,38.086,22.949,79.102,0
1579294840.718,27.344,34.668,29.785,22.949,11.230,0
1579294840.722,32.715,36.133,30.762,37.109,14.648,0
1579294840.726,32.715,34.668,34.180,37.109,3.906,0
1579294840.723,38.574,31.738,32.715,39.062,18.555,0
1579294840.727,41.504,32.227,36.621,52.246,53.223,0
1579294840.731,45.410,34.668,35.645,57.129,85.938,0
1579294840.735,48.340,33.203,38.086,48.340,86.914,0
1579294840.739,44.434,34.180,35.156,38.086,50.293,0
1579294840.743,42.969,37.598,32.715,39.062,31.738,0
1579294840.747,40.527,38.574,37.109,40.527,4.883,0
1579294840.750,38.086,35.156,36.133,36.621,19.531,0
1579294840.754,35.156,34.668,36.133,28.809,0.488,0
1579294840.758,33.691,36.621,35.645,22.461,18.066,0
1579294840.762,38.574,36.133,35.645,23.926,24.902,0
1579294840.766,37.598,38.086,35.645,23.438,20.020,0
1579294840.763,28.809,37.109,35.645,23.438,43.457,0
1579294840.767,32.227,35.645,36.133,27.344,27.344,0
1579294840.771,44.434,37.109,35.156,28.320,-2.441,0
1579294840.775,37.109,35.156,34.180,32.715,31.250,0
1579294840.779,35.645,34.180,33.691,39.062,62.012,0
1579294840.783,38.574,38.086,37.598,28.320,42.969,0
1579294840.787,36.133,42.480,36.133,26.367,76.172,0
1579294840.790,34.180,43.945,30.762,32.715,65.430,0
1579294840.794,34.668,41.504,30.762,35.156,39.062,0
1579294840.798,35.645,41.016,28.320,35.156,17.578,0
1579294840.802,31.738,42.480,24.902,23.926,52.246,0
1579294840.806,28.809,41.016,23.926,25.391,-10.254,0
1579294840.823,27.344,40.039,29.785,34.180,-65.430,0
1579294840.827,25.879,38.086,30.273,30.273,24.902,0
1579294840.831,22.949,38.086,28.809,19.531,41.504,0
1579294840.835,28.320,41.016,28.809,23.438,78.125,0
1579294840.839,30.273,41.992,28.809,29.297,75.195,0
1579294840.843,33.203,42.969,27.832,26.855,43.457,0
1579294840.847,33.203,40.039,31.738,26.367,11.230,0
1579294840.850,27.344,37.109,29.297,25.391,-31.738,0
1579294840.854,28.320,38.574,25.879,29.297,-1.465,0
1579294840.858,29.785,36.133,33.691,34.180,-29.297,0
1579294840.862,30.273,37.598,32.715,28.320,-12.207,0
1579294840.866,29.297,40.039,30.273,22.949,41.504,0
1579294840.863,25.391,37.109,35.156,21.484,38.574,0
1579294840.867,30.762,37.598,35.645,23.438,46.875,0
1579294840.871,34.180,40.039,31.738,25.391,40.527,0
1579294840.875,32.715,38.574,28.320,21.484,37.598,0
1579294840.879,32.715,36.621,30.762,22.949,26.367,0
1579294840.883,35.156,37.109,33.203,27.344,13.672,0
1579294840.887,40.039,39.551,30.762,29.297,41.992,0
1579294840.890,42.969,40.039,28.809,30.762,-3.418,0
1579294840.894,43.457,39.551,31.250,37.598,-5.371,0
1579294840.898,38.574,42.480,36.133,39.062,51.270,0
1579294840.902,41.016,41.504,35.645,36.133,61.523,0
1579294840.906,41.992,39.062,37.598,39.062,48.340,0
1579294840.923,42.480,37.598,37.598,41.992,23.926,0
1579294840.927,40.527,36.133,34.180,38.574,20.508,0
1579294840.931,29.785,37.598,31.250,32.227,14.648,0
1579294840.935,27.344,37.598,33.203,34.180,19.531,0
1579294840.939,30.762,41.016,34.668,29.297,38.086,0
1579294840.943,27.344,41.992,35.645,25.391,54.199,0
1579294840.947,20.996,35.645,38.574,33.203,51.758,0
1579294840.950,24.414,39.062,36.621,38.086,81.543,0
1579294840.954,27.832,41.992,35.156,39.062,52.734,0
1579294840.958,27.832,36.621,34.668,45.410,46.875,0
1579294840.962,30.273,34.668,34.180,44.922,73.730,0
1579294840.966,30.762,38.086,31.250,35.156,14.160,0
1579294840.963,32.227,41.504,28.320,32.715,-59.082,0
1579294840.967,28.320,41.016,26.367,30.273,-32.227,0
1579294840.971,19.531,37.109,31.738,20.508,14.160,0
1579294840.975,18.555,35.645,33.691,15.137,35.156,0
1579294840.979,32.227,39.551,24.902,23.438,61.035,0
1579294840.983,39.062,41.504,25.391,28.809,47.852,0
1579294840.987,38.574,38.574,31.250,30.273,12.695,0
1579294840.990,39.062,34.180,31.250,27.832,59.570,0
1579294840.994,43.945,35.645,29.785,29.785,72.754,0
1579294840.998,44.434,38.086,30.273,28.809,53.711,0
1579294841.002,43.457,38.086,25.879,31.250,58.105,0
1579294841.006,41.016,37.598,27.832,33.691,-9.277,0
1579294841.003,41.992,38.574,30.273,33.203,-29.297,0
1579294841.007,41.016,36.621,29.297,36.621,-18.066,0
1579294841.011,41.016,35.645,30.762,40.039,45.410,0
1579294841.015,37.598,36.133,35.156,36.133,75.195,0
1579294841.019,31.250,34.668,32.715,34.180,88.379,0
1579294841.023,34.180,35.645,32.227,35.156,97.656,0
1579294841.027,34.180,35.156,36.133,36.133,74.219,0
1579294841.030,25.879,29.785,34.180,34.180,26.367,0
1579294841.034,24.414,30.273,33.691,35.645,-3.418,0
1579294841.038,29.297,35.645,33.203,41.016,30.273,0
1579294841.042,25.879,32.715,35.156,38.086,52.246,0
1579294841.046,23.926,34.668,37.598,43.457,20.996,0
1579294841.063,27.832,33.691,35.645,47.852,-21.973,0
1579294841.067,34.668,33.691,35.156,42.969,14.160,0
1579294841.071,40.527,37.109,38.086,47.852,56.152,0
1579294841.075,36.621,35.156,41.992,49.805,35.645,0
1579294841.079,37.598,35.645,39.551,48.828,42.480,0
1579294841.083,38.086,34.668,37.109,44.922,57.129,0
1579294841.087,32.715,34.180,40.527,31.738,8.789,0
1579294841.090,40.039,37.109,38.086,34.668,-2.441,0
1579294841.094,44.434,39.062,31.738,36.621,73.730,0
1579294841.098,43.945,41.016,31.738,32.227,83.496,0
1579294841.102,42.969,38.574,38.574,30.762,41.504,0
1579294841.106,40.039,37.109,38.574,27.344,15.137,0
1579294841.103,43.945,37.109,36.621,32.227,14.648,0
1579294841.107,47.363,37.598,35.645,38.574,21.973,0
1579294841.111,44.922,38.574,35.645,41.016,26.855,0
1579294841.115,45.898,36.133,38.086,39.551,54.199,0
1579294841.119,43.457,39.062,31.738,36.621,30.273,0
1579294841.123,30.762,40.039,31.738,33.691,41.016,0
1579294841.127,26.855,35.156,35.156,30.273,88.867,0
1579294841.130,22.461,35.156,31.250,28.809,44.922,0
1579294841.134,19.043,35.156,33.691,26.855,31.738,0
1579294841.138,25.391,33.691,35.156,29.297,23.438,0
1579294841.142,29.297,37.109,29.297,29.297,45.410,0
1579294841.146,30.273,39.551,28.809,24.902,53.223,0
1579294841.144,30.273,38.086,36.133,29.297,-15.625,0
1579294841.148,28.809,37.109,34.668,34.668,31.738,0
1579294841.152,28.320,36.133,34.668,32.227,96.191,0
1579294841.156,24.414,36.133,36.621,31.738,71.777,0
1579294841.160,23.926,39.062,38.086,35.156,58.594,0
1579294841.164,28.320,37.109,40.527,28.320,46.875,0
1579294841.168,27.832,39.062,30.762,27.344,10.254,0
1579294841.171,27.344,41.504,28.809,33.691,55.664,0
1579294841.175,30.273,39.551,36.133,30.762,57.129,0
1579294841.179,28.320,39.551,38.086,20.020,45.898,0
1579294841.183,22.949,38.574,41.016,18.066,22.461,0
1579294841.187,33.691,40.039,35.156,27.344,1.953,0
1579294841.203,41.016,39.062,33.203,24.902,48.340,0
1579294841.207,39.551,38.574,34.180,22.949,44.922,0
1579294841.211,45.898,38.574,29.785,31.738,9.277,0
1579294841.215,41.016,36.621,33.691,28.320,3.418,0
1579294841.219,30.762,38.574,33.691,13.672,29.297,0
1579294841.223,23.438,38.086,28.320,13.672,20.020,0
1579294841.227,20.020,38.086,25.879,17.090,2.930,0
1579294841.230,20.508,39.551,27.832,10.742,-33.691,0
1579294841.234,20.020,37.109,29.297,12.207,0.977,0
1579294841.238,18.555,33.691,33.203,16.113,39.551,0
1579294841.242,20.508,36.621,31.250,20.508,38.574,0
1579294841.246,28.320,42.480,27.344,36.133,64.453,0
1579294841.243,29.297,41.016,30.273,41.016,22.461,0
1579294841.247,29.785,38.574,30.273,31.738,-5.371,0
1579294841.251,37.598,41.016,26.855,35.156,10.254,0
1579294841.255,43.457,42.480,31.250,37.598,16.113,0
1579294841.259,46.875,41.504,34.668,37.109,28.809,0
1579294841.263,50.781,40.527,32.227,40.527,45.410,0
1579294841.267,42.480,38.574,31.738,37.598,18.555,0
1579294841.270,31.250,35.156,36.621,36.621,-26.367,0
1579294841.274,26.367,34.668,34.180,33.203,20.020,0
1579294841.278,21.484,35.156,31.738,31.250,100.098,0
1579294841.282,18.066,33.691,39.062,28.809,85.938,0
1579294841.286,13.672,30.762,37.109,28.809,36.133,0
1579294841.283,15.137,31.738,39.551,35.645,53.711,0
1579294841.287,28.320,39.062,37.598,37.598,112.793,0
1579294841.291,29.297,39.062,36.621,41.504,117.676,0
1579294841.295,28.320,35.645,41.504,41.504,58.594,0
1579294841.299,36.133,37.109,32.715,29.297,53.223,0
1579294841.303,32.715,36.621,29.785,24.902,78.613,0
1579294841.307,28.809,36.133,38.086,26.367,73.730,0
1579294841.310,31.250,37.109,39.551,28.320,98.145,0
1579294841.314,29.785,37.598,43.945,33.203,29.297,0
1579294841.318,27.832,36.621,43.457,37.109,-16.113,0
1579294841.322,27.344,35.156,37.109,35.156,78.125,0
1579294841.326,29.785,36.133,35.645,32.715,102.539,0
1579294841.343,26.367,34.668,37.109,32.227,71.289,0
1579294841.347,27.832,34.668,37.109,37.109,71.289,0
1579294841.351,30.273,36.133,37.598,31.738,7.812,0
1579294841.355,29.297,35.156,35.645,26.855,-49.316,0
1579294841.359,31.738,36.133,29.785,31.250,14.160,0
1579294841.363,31.250,38.086,29.297,29.297,70.312,0
1579294841.367,34.668,37.109,32.227,28.320,46.875,0
1579294841.370,38.574,37.598,31.250,25.391,76.172,0
1579294841.374,42.969,39.551,28.809,27.344,59.082,0
1579294841.378,43.945,38.086,31.250,34.180,-7.324,0
1579294841.382,44.922,39.062,34.668,34.180,30.762,0
1579294841.386,47.852,42.480,32.715,35.645,65.918,0
1579294841.384,43.945,41.016,32.227,39.551,60.547,0
1579294841.388,36.621,40.527,33.203,41.504,57.617,0
1579294841.392,35.156,42.969,35.156,40.039,8.789,0
1579294841.396,32.227,42.480,37.109,32.715,-15.625,0
1579294841.400,28.320,41.016,33.691,31.250,9.277,0
1579294841.404,25.391,40.039,32.715,34.668,20.508,0
1579294841.408,18.066,36.621,37.598,26.367,-28.809,0
1579294841.411,20.508,37.598,31.738,26.367,-15.625,0
1579294841.415,29.297,36.621,29.297,38.086,40.527,0
1579294841.419,33.203,34.668,34.180,38.086,41.504,0
1579294841.423,32.715,35.156,31.250,37.109,-3.906,0
1579294841.427,32.715,34.180,32.227,39.551,29.785,0
1579294841.424,31.250,32.227,32.227,36.133,61.035,0
1579294841.428,30.273,31.250,32.715,34.668,58.105,0
1579294841.432,31.250,34.668,38.086,32.227,40.527,0
1579294841.436,29.785,36.133,36.621,26.855,-1.953,0
1579294841.440,26.855,35.156,29.785,20.020,13.672,0
1579294841.444,29.297,35.645,30.762,18.555,50.293,0
1579294841.448,35.156,35.645,33.691,24.902,30.273,0
1579294841.451,40.527,35.645,32.227,25.391,-31.250,0
1579294841.455,47.852,35.156,31.250,24.902,-25.879,0
1579294841.459,49.805,36.621,35.645,28.809,-1.953,0
1579294841.463,45.898,35.156,39.551,34.668,35.645,0
1579294841.467,45.410,34.180,39.062,34.668,18.066,0
1579294841.483,47.363,35.645,36.621,38.086,13.184,0
1579294841.487,46.875,34.668,34.180,37.109,75.684,0
1579294841.491,45.410,34.180,32.715,33.203,32.227,0
1579294841.495,43.945,33.691,33.203,44.922,8.789,0
1579294841.499,42.480,35.156,32.227,45.410,43.457,0
1579294841.503,40.039,36.621,29.785,44.922,32.227,0
1579294841.507,35.156,34.180,35.645,47.363,26.367,0
1579294841.510,33.203,32.715,39.062,43.457,47.852,0
1579294841.514,32.715,34.180,34.668,46.875,59.570,0
1579294841.518,28.320,34.180,34.180,47.852,29.785,0
1579294841.522,20.996,33.691,36.133,43.945,68.848,0
1579294841.526,24.414,38.086,34.180,47.363,121.094,0
1579294841.523,25.391,39.062,34.668,41.992,95.215,0
1579294841.527,26.855,35.156,38.086,33.203,34.668,0
1579294841.531,25.879,35.156,39.551,36.133,44.434,0
1579294841.535,29.785,34.180,39.062,41.016,15.625,0
1579294841.539,39.062,35.156,38.086,40.039,-39.551,0
1579294841.543,34.180,37.109,36.133,33.691,25.391,0
1579294841.547,32.715,35.156,37.598,33.691,76.660,0
1579294841.550,32.715,35.156,41.016,25.391,63.477,0
1579294841.554,34.180,40.527,36.133,27.832,48.828,0
1579294841.558,33.691,43.457,34.180,29.297,49.316,0
1579294841.562,23.926,38.574,35.645,10.742,52.734,0
1579294841.566,21.973,36.621,36.133,11.719,47.852,0
1579294841.563,5.371,42.480,38.574,-3.906,21.484,0
1579294841.567,-1.465,43.457,37.109,-15.625,18.555,0
1579294841.571,1.465,42.969,45.410,-9.277,39.551,0
1579294841.575,-19.531,43.457,47.363,-23.438,84.473,0
1579294841.579,-39.062,44.434,41.504,-40.039,86.426,0
1579294841.583,-53.223,46.875,41.992,-57.129,18.555,0
1579294841.587,-65.918,47.852,47.363,-75.195,-17.578,0
1579294841.590,-80.566,46.875,49.316,-85.938,29.297,0
1579294841.594,-94.727,50.781,44.922,-97.656,55.664,0
1579294841.598,-102.539,54.199,42.969,-100.586,76.660,0
1579294841.602,-106.445,55.176,46.875,-97.168,45.410,0
1579294841.606,-108.398,55.664,48.828,-96.191,9.277,0
1579294841.623,-107.422,52.734,49.805,-94.238,18.066,0
1579294841.627,-107.422,53.223,49.316,-97.656,-15.137,0
1579294841.631,-100.098,49.805,51.270,-95.215,22.461,0
1579294841.635,-98.633,47.363,53.223,-90.332,24.414,0
1579294841.639,-96.191,50.293,49.316,-80.566,40.527,0
1579294841.643,-84.961,51.270,47.852,-73.242,59.570,0
1579294841.647,-77.148,50.293,50.293,-74.707,44.922,0
1579294841.650,-67.871,46.387,45.898,-74.707,59.570,0
1579294841.654,-53.711,41.016,43.945,-63.965,61.523,0
1579294841.658,-40.527,40.039,44.922,-45.410,1.465,0
1579294841.662,-24.902,38.086,44.922,-32.715,-42.969,0
1579294841.666,-12.695,31.738,47.852,-20.020,32.227,0
1579294841.663,8.789,30.273,42.969,0.977,47.852,0
1579294841.667,25.879,30.273,41.504,11.230,41.992,0
1579294841.671,30.762,30.273,41.504,21.973,13.672,0
1579294841.675,45.898,31.250,37.598,36.133,17.090,0
1579294841.679,52.734,30.762,37.598,41.992,42.480,0
1579294841.683,50.293,29.785,34.668,49.316,-5.859,0
1579294841.687,53.223,27.344,31.250,57.617,7.812,0
1579294841.690,59.570,28.320,28.809,60.547,74.707,0
1579294841.694,62.012,30.762,29.297,59.082,63.477,0
1579294841.698,57.617,29.785,26.855,59.570,34.668,0
1579294841.702,62.012,28.320,22.461,67.383,82.031,0
1579294841.706,68.359,28.320,25.391,66.895,74.707,0
1579294841.703,70.801,28.809,27.832,66.406,41.504,0
1579294841.707,76.172,28.809,25.879,77.148,45.898,0
1579294841.711,78.613,29.785,23.438,84.473,6.348,0
1579294841.715,82.031,30.273,23.926,86.426,15.137,0
1579294841.719,81.055,29.785,25.391,83.008,53.711,0
1579294841.723,77.637,29.785,27.832,82.520,17.090,0
1579294841.727,78.125,31.250,24.902,89.844,85.449,0
1579294841.730,78.125,32.715,24.902,91.797,107.422,0
1579294841.734,77.148,33.691,28.320,83.984,105.469,0
1579294841.738,74.707,31.738,27.832,75.195,42.480,0
1579294841.742,73.730,30.273,24.902,76.660,-6.836,0
1579294841.746,77.148,28.320,26.367,82.031,19.043,0
1579294841.763,75.684,25.879,32.227,79.590,11.719,0
1579294841.767,73.730,27.344,28.809,78.125,41.992,0
1579294841.771,80.566,30.273,28.320,83.496,34.668,0
1579294841.775,80.078,28.320,30.273,82.520,-51.758,0
1579294841.779,76.172,28.320,26.367,80.078,-33.691,0
1579294841.783,79.102,31.738,27.344,81.055,70.312,0
1579294841.787,80.078,33.203,29.785,79.102,52.734,0
1579294841.790,82.031,34.180,28.809,78.613,-9.766,0
1579294841.794,78.125,33.203,31.738,79.102,-16.113,0
1579294841.798,76.172,34.180,29.785,73.242,31.738,0
1579294841.802,77.148,34.180,26.367,76.660,25.879,0
1579294841.806,73.242,28.320,30.762,74.707,3.906,0
1579294841.803,68.848,26.855,30.762,64.453,14.160,0
1579294841.807,63.477,25.879,29.297,62.500,-31.250,0
1579294841.811,66.895,26.367,29.785,58.105,-8.789,0
1579294841.815,63.477,27.832,29.297,62.500,75.195,0
1579294841.819,56.641,29.297,27.832,64.941,38.086,0
1579294841.823,55.664,29.785,29.785,61.523,41.504,0
1579294841.827,57.617,30.762,28.809,64.453,74.707,0
1579294841.830,57.129,31.250,29.785,64.941,65.918,0
1579294841.834,49.316,29.785,31.250,62.500,38.086,0
1579294841.838,51.270,31.250,29.785,63.965,55.176,0
1579294841.842,54.688,32.715,31.250,59.570,55.664,0
1579294841.846,48.828,31.738,31.738,60.059,29.785,0
1579294841.843,49.316,32.227,29.297,58.594,57.129,0
1579294841.847,51.270,30.273,27.344,57.617,46.875,0
1579294841.851,50.293,29.297,27.832,59.082,2.930,0
1579294841.855,52.734,29.785,31.250,60.547,13.184,0
1579294841.859,53.711,27.344,35.156,67.871,36.621,0
1579294841.863,54.688,27.344,34.180,70.801,33.203,0
1579294841.867,58.105,27.344,34.180,65.430,7.324,0
1579294841.870,59.570,25.879,36.133,54.199,-16.113,0
1579294841.874,56.641,28.809,35.156,49.805,-78.613,0
1579294841.878,55.664,31.250,34.180,52.734,-56.152,0
1579294841.882,58.594,31.738,31.738,50.293,12.207,0
1579294841.886,59.570,33.203,30.273,52.246,58.594,0
1579294841.903,56.152,33.203,34.180,57.129,104.980,0
1579294841.907,58.594,34.668,33.203,57.129,80.078,0
1579294841.911,56.641,33.691,34.668,54.688,25.391,0
1579294841.915,47.852,31.738,36.621,43.945,14.648,0
1579294841.919,49.316,32.715,34.180,42.480,55.176,0
1579294841.923,52.734,34.668,33.203,48.828,65.918,0
1579294841.927,49.316,36.133,33.203,48.828,53.223,0
1579294841.930,44.434,34.180,32.715,41.992,-8.789,0
1579294841.934,39.551,33.203,31.250,41.504,24.902,0
1579294841.938,32.715,34.668,32.227,45.898,88.379,0
1579294841.942,31.738,36.621,33.691,46.387,101.562,0
1579294841.946,32.227,33.203,34.668,44.434,27.832,0
1579294841.943,32.227,29.297,38.086,40.039,29.785,0
1579294841.947,34.180,30.762,39.062,45.410,25.391,0
1579294841.951,37.598,32.715,34.668,51.270,-13.672,0
1579294841.955,42.480,31.738,35.645,45.410,38.086,0
1579294841.959,42.480,31.250,36.621,42.480,31.250,0
1579294841.963,43.945,30.762,35.156,47.852,38.086,0
1579294841.967,48.828,30.273,37.109,45.898,71.289,0
1579294841.970,48.828,33.203,39.551,37.109,45.410,0
1579294841.974,45.898,35.156,38.574,36.621,87.402,0
1579294841.978,46.875,35.645,32.227,37.109,110.840,0
1579294841.982,46.387,37.598,32.227,39.551,71.289,0
1579294841.986,43.457,39.062,33.691,44.922,64.453,0
1579294841.983,50.293,40.039,31.738,43.945,25.879,0
1579294841.987,50.781,40.527,31.738,35.156,49.805,0
1579294841.991,44.434,40.039,31.738,36.621,70.801,0
1579294841.995,42.969,38.574,32.715,42.480,-18.066,0
1579294841.999,43.457,38.086,33.203,41.504,-24.414,0
1579294842.003,50.781,41.016,30.762,41.504,0.488,0
1579294842.007,51.758,38.574,31.250,42.969,71.289,0
1579294842.010,39.551,32.715,39.062,42.969,107.422,0
1579294842.014,35.645,33.691,41.992,41.992,47.852,0
1579294842.018,37.109,35.156,41.016,35.645,48.828,0
1579294842.022,32.715,34.180,43.457,36.621,31.738,0
1579294842.026,27.832,33.203,45.898,38.574,18.066,0
1579294842.044,25.391,32.715,42.969,34.180,-11.230,0
1579294842.048,23.926,31.250,43.945,30.762,-1.953,0
1579294842.052,24.414,28.809,50.781,32.227,36.133,0
1579294842.056,20.996,26.855,52.734,34.180,27.832,0
1579294842.060,23.926,25.391,47.363,36.621,38.574,0
1579294842.064,35.156,27.344,46.875,41.504,33.691,0
1579294842.068,36.621,25.391,49.805,38.574,21.484,0
1579294842.071,35.645,22.461,49.316,37.598,23.926,0
1579294842.075,34.180,27.344,50.781,41.992,9.277,0
1579294842.079,35.156,28.809,51.270,40.039,-17.578,0
1579294842.083,38.086,27.832,48.340,35.156,16.113,0
1579294842.087,38.574,32.715,48.340,35.645,35.645,0
1579294842.083,37.598,35.645,50.293,42.969,2.930,0
1579294842.087,35.645,33.203,52.246,44.922,35.156,0
1579294842.091,38.574,29.785,50.293,34.668,45.410,0
1579294842.095,35.645,30.273,44.922,35.645,2.930,0
1579294842.099,29.297,30.762,47.852,39.551,-11.719,0
1579294842.103,29.297,29.785,48.340,35.645,23.438,0
1579294842.107,29.785,28.809,42.969,32.715,25.391,0
1579294842.110,28.320,30.762,39.551,32.715,46.875,0
1579294842.114,28.320,29.785,37.598,41.016,36.621,0
1579294842.118,26.367,26.855,39.551,43.945,11.230,0
1579294842.122,26.855,27.832,41.992,41.992,50.293,0
1579294842.126,24.414,24.414,44.922,38.574,56.641,0
1579294842.123,20.020,20.508,48.340,34.668,78.613,0
1579294842.127,25.391,23.926,47.852,42.480,59.570,0
1579294842.131,31.738,26.855,45.898,47.852,72.266,0
1579294842.135,30.273,26.855,46.875,46.387,48.828,0
1579294842.139,32.715,27.832,47.852,46.387,2.441,0
1579294842.143,39.062,31.250,45.898,39.062,59.082,0
1579294842.147,37.598,32.227,43.945,31.738,87.402,0
1579294842.150,41.016,33.691,41.504,32.227,45.898,0
1579294842.154,46.387,35.156,41.992,32.227,27.344,0
1579294842.158,42.969,34.180,38.086,33.203,42.969,0
1579294842.162,45.410,33.691,31.738,36.621,18.555,0
1579294842.166,44.434,32.227,34.668,36.621,39.062,0
1579294842.183,44.922,34.180,36.621,34.668,17.578,0
1579294842.187,44.434,34.180,34.180,38.574,-45.410,0
1579294842.191,44.434,32.715,36.621,44.922,5.371,0
1579294842.195,40.039,32.715,37.598,39.551,39.062,0
1579294842.199,28.320,30.762,36.133,34.180,27.832,0
1579294842.203,22.949,29.297,38.574,37.109,42.969,0
1579294842.207,21.973,27.832,40.527,40.527,32.715,0
1579294842.210,24.902,28.320,40.039,35.645,-5.859,0
1579294842.214,31.250,31.250,39.551,25.391,26.855,0
1579294842.218,31.738,30.273,40.039,24.902,20.020,0
1579294842.222,30.762,28.320,37.598,32.715,59.570,0
1579294842.226,34.668,31.250,31.738,35.645,63.965,0
1579294842.223,36.133,32.715,30.762,32.227,20.996,0
1579294842.227,38.086,38.086,31.738,33.691,9.766,0
1579294842.231,44.434,41.504,30.762,41.016,15.625,0
1579294842.235,48.828,42.969,30.273,50.781,41.992,0
1579294842.239,45.898,42.969,26.855,46.387,41.016,0
1579294842.243,41.016,42.969,26.367,34.180,42.480,0
1579294842.247,38.574,41.992,24.414,33.203,37.109,0
1579294842.250,34.668,40.039,24.902,35.645,70.801,0
1579294842.254,33.691,42.480,26.367,28.809,99.609,0
1579294842.258,31.738,41.016,25.879,18.066,62.500,0
1579294842.262,29.785,36.621,26.367,14.160,44.922,0
1579294842.266,33.203,36.621,25.879,24.902,-2.441,0
1579294842.268,30.762,35.645,28.320,25.879,-22.461,0
1579294842.272,24.414,32.227,33.203,23.438,24.902,0
1579294842.276,22.949,33.691,34.180,30.762,39.062,0
1579294842.280,24.414,32.715,37.109,39.062,6.836,0
1579294842.284,28.320,29.297,41.504,40.039,20.508,0
1579294842.288,32.227,30.273,38.086,41.504,70.312,0
1579294842.292,33.691,30.273,33.203,46.875,75.684,0
1579294842.295,32.227,31.738,31.738,42.480,91.797,0
1579294842.299,30.273,35.156,29.785,38.574,97.168,0
1579294842.303,27.832,36.621,27.344,37.598,66.406,0
1579294842.307,25.879,38.086,24.414,35.645,7.324,0
1579294842.311,29.785,39.551,21.484,34.668,16.602,0
1579294842.323,32.227,42.969,23.438,33.691,80.566,0
1579294842.327,34.668,46.387,22.461,30.762,65.430,0
1579294842.331,36.133,45.898,20.996,26.367,31.738,0
1579294842.335,36.621,44.434,21.973,26.367,40.039,0
1579294842.339,40.039,42.480,26.367,29.785,34.668,0
1579294842.343,40.527,39.551,30.273,30.762,-19.531,0
1579294842.347,40.527,40.527,29.297,28.320,-22.949,0
1579294842.350,43.457,40.039,33.691,26.855,18.066,0
1579294842.354,38.574,36.133,32.227,26.855,-8.301,0
1579294842.358,37.109,34.180,30.273,26.855,-12.695,0
1579294842.362,42.969,33.691,34.180,31.250,6.348,0
1579294842.366,43.945,36.133,32.715,33.691,16.602,0
1579294842.364,42.480,36.621,27.832,31.738,-7.812,0
1579294842.368,37.109,36.133,26.367,31.738,19.043,0
1579294842.372,33.203,35.645,28.809,27.832,47.852,0
1579294842.376,32.227,34.180,29.785,28.320,26.855,0
1579294842.380,33.203,33.691,26.367,36.133,54.199,0
1579294842.384,37.109,37.109,24.414,35.645,36.621,0
1579294842.388,37.598,40.527,29.785,37.598,24.902,0
1579294842.391,38.574,42.969,32.227,43.457,27.832,0
1579294842.395,44.922,45.410,24.414,48.828,-8.789,0
1579294842.399,46.387,47.852,24.414,47.852,40.527,0
1579294842.403,43.945,47.363,30.762,43.457,69.336,0
1579294842.407,40.039,42.480,31.738,38.086,31.738,0
1579294842.423,31.738,38.086,32.715,29.785,31.250,0
1579294842.427,28.320,37.109,36.621,33.691,51.758,0
1579294842.431,27.832,35.645,40.039,35.645,3.906,0
1579294842.435,25.879,35.645,39.551,29.785,21.484,0
1579294842.439,25.879,35.645,41.016,29.785,34.180,0
1579294842.443,22.949,35.156,41.992,32.715,46.387,0
1579294842.447,24.414,35.156,36.133,33.203,106.445,0
1579294842.450,34.668,38.574,32.227,36.621,74.219,0
1579294842.454,41.016,42.969,31.738,35.645,69.336,0
1579294842.458,38.574,42.969,30.273,35.156,63.965,0
1579294842.462,29.297,38.574,29.297,35.156,87.891,0
1579294842.466,30.762,34.180,32.715,30.762,101.562,0
1579294842.463,34.180,38.574,30.762,25.879,54.199,0
1579294842.467,32.227,42.480,27.344,21.973,18.555,0
1579294842.471,36.621,41.504,26.855,24.902,63.965,0
1579294842.475,38.086,43.945,25.879,25.879,49.805,0
1579294842.479,34.180,44.922,23.926,27.344,24.902,0
1579294842.483,37.109,46.387,22.949,28.320,88.379,0
1579294842.487,38.574,44.922,26.855,23.926,45.898,0
1579294842.490,37.109,42.480,32.227,25.879,-20.996,0
1579294842.494,42.480,45.410,32.227,33.203,-7.812,0
1579294842.498,34.180,43.945,36.133,33.203,-20.996,0
1579294842.502,28.809,41.016,39.551,33.691,31.738,0
1579294842.506,29.297,39.551,37.598,35.645,60.059,0
1579294842.503,25.391,36.133,37.598,31.738,-2.441,0
1579294842.507,24.414,33.691,39.551,29.297,18.555,0
1579294842.511,21.973,31.250,39.551,34.180,19.531,0
1579294842.515,23.438,30.762,37.109,33.691,39.062,0
1579294842.519,23.438,30.762,34.180,36.133,13.672,0
1579294842.523,24.902,30.762,33.691,37.598,4.883,0
1579294842.527,32.227,32.715,33.691,34.180,82.520,0
1579294842.530,31.738,33.203,35.645,39.062,93.750,0
1579294842.534,30.273,33.691,35.156,39.062,42.969,0
1579294842.538,28.809,35.645,31.738,33.203,45.898,0
1579294842.542,28.320,32.227,33.691,33.691,35.645,0
1579294842.546,28.809,30.273,33.203,37.109,27.832,0
1579294842.563,32.715,34.180,28.320,41.504,-8.789,0
1579294842.567,35.645,37.109,27.832,33.691,-26.855,0
1579294842.571,36.621,34.668,27.832,26.855,0.000,0
1579294842.575,37.109,35.156,28.320,31.250,62.988,0
1579294842.579,37.109,39.062,30.273,30.762,107.422,0
1579294842.583,39.062,40.527,33.203,31.250,103.027,0
1579294842.587,40.527,41.016,36.133,31.738,24.902,0
1579294842.590,44.434,42.480,36.621,37.598,3.418,0
1579294842.594,45.898,42.969,35.156,45.898,18.555,0
1579294842.598,47.363,41.992,33.691,49.316,0.977,0
1579294842.602,45.898,41.016,36.133,43.945,59.570,0
1579294842.606,44.922,42.480,37.109,40.039,68.848,0
1579294842.603,41.016,39.551,33.203,41.992,38.574,0
1579294842.607,31.738,34.180,36.133,36.133,76.172,0
1579294842.611,30.762,34.180,36.133,31.738,55.176,0
1579294842.615,29.785,35.645,34.668,33.203,49.316,0
1579294842.619,27.344,33.203,36.621,27.832,82.031,0
1579294842.623,28.809,30.273,33.691,29.785,54.199,0
1579294842.627,26.367,30.762,30.762,34.180,31.738,0
1579294842.630,26.855,34.180,30.273,36.133,3.418,0
1579294842.634,24.414,35.645,30.273,31.250,29.297,0
1579294842.638,23.438,37.598,30.273,24.414,11.719,0
1579294842.642,27.832,39.062,28.809,23.926,9.766,0
1579294842.646,33.203,39.062,25.879,26.367,42.969,0
1579294842.643,35.645,36.133,25.879,30.762,-56.152,0
1579294842.647,33.691,33.691,31.738,36.621,-19.043,0
1579294842.651,38.086,35.645,38.086,27.832,29.785,0
1579294842.655,33.203,36.621,41.016,27.832,-4.883,0
1579294842.659,29.785,32.715,42.480,27.344,46.387,0
1579294842.663,34.668,33.203,42.480,27.344,56.152,0
1579294842.667,33.203,36.621,42.480,33.203,20.996,0
1579294842.670,34.180,36.621,37.598,29.785,37.598,0
1579294842.674,38.086,39.551,37.109,22.949,43.457,0
1579294842.678,34.180,39.062,40.039,28.320,32.715,0
1579294842.682,38.574,38.574,35.645,40.039,-2.441,0
1579294842.686,45.410,40.039,30.762,36.621,49.316,0
1579294842.704,42.480,40.039,29.297,35.156,98.633,0
1579294842.708,38.086,38.574,33.203,38.574,34.180,0
1579294842.712,29.785,37.598,38.574,31.738,12.695,0
1579294842.716,30.762,37.598,38.574,28.320,19.531,0
1579294842.720,34.668,40.527,37.109,29.297,18.066,0
1579294842.724,30.273,42.480,36.621,22.949,-9.277,0
1579294842.728,27.832,42.480,29.785,22.949,20.020,0
1579294842.731,24.902,44.922,26.367,19.531,40.039,0
1579294842.735,24.902,43.945,28.809,14.648,57.617,0
1579294842.739,30.762,42.480,30.762,24.902,68.848,0
1579294842.743,33.691,42.969,29.297,36.133,29.785,0
1579294842.747,34.180,42.480,30.762,33.203,44.434,0
1579294842.743,32.227,39.551,34.180,26.367,-3.906,0
1579294842.747,31.738,40.527,33.691,30.273,-30.762,0
1579294842.751,33.691,41.016,34.180,35.645,34.668,0
1579294842.755,31.738,38.574,35.156,32.227,32.715,0
1579294842.759,30.273,40.039,33.691,29.297,24.902,0
1579294842.763,31.250,42.969,31.738,28.320,31.738,0
1579294842.767,33.691,40.527,29.297,22.949,22.949,0
1579294842.770,35.156,38.574,27.344,28.320,11.719,0
1579294842.774,37.109,40.039,28.809,41.504,-5.859,0
1579294842.778,41.992,37.598,27.832,37.109,86.914,0
1579294842.782,42.480,35.645,26.855,28.809,72.266,0
1579294842.786,39.551,36.133,26.855,33.691,-14.160,0
1579294842.783,30.762,35.156,29.297,33.691,32.715,0
1579294842.787,28.320,35.156,32.227,24.414,44.922,0
1579294842.791,28.320,33.691,30.762,26.855,36.621,0
1579294842.795,33.691,32.227,28.809,32.715,17.090,0
1579294842.799,32.227,34.180,29.297,31.250,-14.160,0
1579294842.803,30.273,34.668,30.762,33.691,-4.395,0
1579294842.807,41.016,35.645,29.297,35.156,48.340,0
1579294842.810,44.434,35.156,27.832,36.133,92.773,0
1579294842.814,44.922,33.691,31.250,37.109,64.941,0
1579294842.818,40.527,35.645,33.203,30.273,4.883,0
1579294842.822,36.133,35.645,31.250,27.832,1.953,0
1579294842.826,36.133,37.598,34.180,35.156,31.250,0
1579294842.843,34.180,36.133,37.598,36.133,28.320,0
1579294842.847,31.738,31.250,35.645,34.668,45.410,0
1579294842.851,33.691,33.203,33.691,35.156,31.738,0
1579294842.855,33.203,33.203,33.691,32.227,-14.160,0
1579294842.859,36.621,34.180,32.715,38.574,12.695,0
1579294842.863,43.457,35.645,32.227,42.480,41.992,0
1579294842.867,44.434,36.133,33.691,35.156,17.578,0
1579294842.870,42.969,35.645,35.156,33.203,44.922,0
1579294842.874,39.551,35.156,39.062,36.133,79.102,0
1579294842.878,35.645,35.645,38.086,32.227,72.266,0
1579294842.882,30.762,36.621,34.668,31.738,40.039,0
1579294842.886,29.297,38.574,37.109,29.785,54.688,0
1579294842.883,37.109,38.086,36.621,32.227,76.172,0
1579294842.887,41.016,40.039,31.738,36.133,34.180,0
1579294842.891,40.527,41.504,27.832,28.809,29.785,0
1579294842.895,37.109,39.062,29.785,21.484,43.945,0
1579294842.899,33.203,38.574,28.320,23.926,75.195,0
1579294842.903,29.785,39.062,25.391,28.320,59.570,0
1579294842.907,34.668,40.527,29.297,27.832,17.578,0
1579294842.910,36.133,37.598,31.738,22.461,14.648,0
1579294842.914,28.320,32.715,33.203,23.926,17.578,0
1579294842.918,29.785,36.133,32.715,32.227,30.762,0
1579294842.922,32.715,38.574,32.227,33.203,79.102,0
1579294842.926,27.832,35.645,33.691,21.973,87.891,0
1579294842.923,29.297,39.062,30.762,20.996,50.293,0
1579294842.927,34.180,41.016,26.367,25.879,89.844,0
1579294842.931,31.250,42.969,23.438,23.926,69.824,0
1579294842.935,26.367,46.875,21.973,23.926,4.395,0
1579294842.939,35.645,45.410,21.484,21.484,55.664,0
1579294842.943,41.504,45.898,22.461,20.996,40.527,0
1579294842.947,32.227,46.387,25.391,23.438,-20.508,0
1579294842.950,29.297,44.922,25.391,16.602,16.113,0
1579294842.954,27.832,43.945,23.926,11.719,39.062,0
1579294842.958,25.391,43.945,27.344,14.648,20.508,0
1579294842.962,24.414,42.969,30.762,20.020,-11.719,0
1579294842.966,18.555,41.016,31.738,21.484,7.324,0
1579294842.983,18.555,40.039,28.809,23.926,30.762,0
1579294842.987,15.625,38.574,25.391,25.879,54.199,0
1579294842.991,15.137,39.062,25.879,26.367,78.125,0
1579294842.995,24.414,41.016,25.879,30.273,59.570,0
1579294842.999,22.461,45.410,23.926,24.902,41.016,0
1579294843.003,14.648,51.758,26.855,18.066,6.348,0
1579294843.007,19.043,45.898,31.738,22.949,10.742,0
1579294843.010,15.137,44.434,32.715,17.090,10.742,0
1579294843.014,-2.930,43.945,40.039,-1.953,33.203,0
1579294843.018,-1.465,46.875,41.504,-0.488,60.059,0
1579294843.022,-9.766,49.316,39.551,-12.695,2.441,0
1579294843.026,-37.109,50.781,45.410,-44.434,25.879,0
1579294843.023,-48.340,53.223,48.340,-54.688,81.055,0
1579294843.027,-60.547,52.246,49.805,-68.359,45.898,0
1579294843.031,-81.055,55.664,50.293,-84.961,50.293,0
1579294843.035,-97.656,53.223,51.758,-96.191,35.645,0
1579294843.039,-101.562,56.152,53.223,-102.051,-32.715,0
1579294843.043,-110.840,60.059,49.805,-113.281,9.766,0
1579294843.047,-125.488,55.176,49.805,-124.512,74.707,0
1579294843.050,-128.906,59.570,50.781,-114.746,101.562,0
1579294843.054,-126.465,62.500,50.293,-109.375,98.633,0
1579294843.058,-122.559,56.152,46.875,-116.699,46.387,0
1579294843.062,-120.117,55.664,48.828,-126.953,16.602,0
1579294843.066,-119.141,53.223,50.781,-132.324,16.113,0
1579294843.063,-106.445,54.688,44.434,-117.188,32.715,0
1579294843.067,-92.773,52.246,40.527,-106.445,14.648,0
1579294843.071,-90.332,47.852,37.598,-102.051,7.324,0
1579294843.075,-87.402,46.387,41.504,-92.285,9.277,0
1579294843.079,-73.730,43.945,44.434,-78.125,-27.832,0
1579294843.083,-66.406,40.527,43.945,-72.754,28.320,0
1579294843.087,-57.129,40.039,44.922,-71.289,57.617,0
1579294843.090,-41.016,37.598,45.898,-53.711,77.148,0
1579294843.094,-24.902,37.598,44.434,-31.250,119.141,0
1579294843.098,-12.695,38.086,42.969,-18.555,65.918,0
1579294843.102,-2.930,37.598,43.457,-6.348,70.801,0
1579294843.106,12.695,41.016,41.504,8.789,104.492,0
1579294843.123,24.902,37.598,43.457,23.926,28.809,0
1579294843.127,35.156,35.156,42.480,35.156,-15.625,0
1579294843.131,44.922,33.691,37.598,39.062,-12.695,0
1579294843.135,45.410,25.879,38.574,40.039,-26.855,0
1579294843.139,53.223,24.414,35.156,48.828,-24.414,0
1579294843.143,64.453,25.879,31.250,62.012,4.395,0
1579294843.147,70.312,26.855,31.738,72.754,51.270,0
1579294843.150,75.684,26.855,30.273,79.102,48.828,0
1579294843.154,78.125,24.414,27.344,79.102,22.949,0
1579294843.158,82.031,24.414,25.391,88.867,12.695,0
1579294843.162,90.332,23.926,27.344,99.121,73.730,0
1579294843.166,93.750,22.949,26.855,94.238,105.957,0
1579294843.163,90.332,22.949,24.902,92.285,21.484,0
1579294843.167,93.262,23.438,25.879,102.051,-15.625,0
1579294843.171,96.191,23.926,24.902,101.562,-17.090,0
1579294843.175,93.750,23.438,25.879,91.309,-15.625,0
1579294843.179,96.680,23.438,25.879,90.332,60.547,0
1579294843.183,100.098,23.438,26.367,98.145,36.133,0
1579294843.187,92.773,21.973,27.832,98.145,-12.207,0
1579294843.190,92.773,22.461,25.391,93.262,-13.672,0
1579294843.194,97.656,23.438,24.902,90.332,12.207,0
1579294843.198,94.238,27.344,24.902,88.379,12.207,0
1579294843.202,86.914,26.855,23.438,87.891,-21.973,0
1579294843.206,83.984,25.391,20.020,83.496,10.742,0
1579294843.203,89.355,26.367,19.531,84.961,27.832,0
1579294843.207,90.332,25.391,21.973,90.332,32.227,0
1579294843.211,95.703,23.438,22.461,93.750,6.836,0
1579294843.215,95.703,22.949,22.461,97.168,6.348,0
1579294843.219,94.727,21.484,25.391,95.703,30.762,0
1579294843.223,93.262,19.043,29.297,91.309,15.625,0
1579294843.227,93.750,18.555,29.785,98.145,20.996,0
1579294843.230,96.680,22.461,30.273,104.492,47.852,0
1579294843.234,93.750,23.926,32.715,96.680,-9.277,0
1579294843.238,92.773,22.949,31.738,92.773,25.879,0
1579294843.242,94.238,27.344,27.344,92.285,49.316,0
1579294843.246,94.727,31.250,23.926,89.355,10.742,0
1579294843.263,87.891,31.250,22.949,78.125,6.836,0
1579294843.267,81.543,31.738,22.949,67.871,38.574,0
1579294843.271,81.543,29.785,22.949,69.336,66.406,0
1579294843.275,83.984,29.297,21.484,69.336,74.707,0
1579294843.279,83.008,33.203,20.508,69.824,105.469,0
1579294843.283,81.055,32.715,25.391,70.801,46.875,0
1579294843.287,79.590,29.297,30.273,69.336,45.898,0
1579294843.290,72.754,28.809,29.297,72.266,38.086,0
1579294843.294,69.336,26.367,30.762,72.266,-8.301,0
1579294843.298,70.312,25.391,33.691,66.406,25.879,0
1579294843.302,71.289,26.367,34.180,66.406,12.207,0
1579294843.306,69.824,28.320,33.691,71.777,-35.156,0
1579294843.303,62.988,26.367,34.180,70.801,-23.438,0
1579294843.307,62.500,24.902,35.645,74.707,35.645,0
1579294843.311,66.406,27.344,36.621,83.984,83.984,0
1579294843.315,72.266,27.832,37.109,86.914,66.895,0
1579294843.319,69.336,26.367,40.039,85.449,58.594,0
1579294843.323,60.059,27.832,41.016,76.660,76.172,0
1579294843.327,66.895,32.715,36.133,77.148,79.590,0
1579294843.330,66.406,32.715,37.598,77.637,30.273,0
1579294843.334,63.477,31.738,39.551,72.754,37.109,0
1579294843.338,63.477,34.668,36.621,66.406,24.902,0
1579294843.342,55.176,32.227,35.645,53.711,16.113,0
1579294843.346,49.316,32.227,32.715,55.664,10.742,0
1579294843.343,45.898,32.227,31.250,55.664,19.043,0
1579294843.347,45.898,29.785,29.297,49.316,82.520,0
1579294843.351,50.293,30.273,27.344,54.199,52.734,0
1579294843.355,53.223,31.738,29.297,53.223,21.973,0
1579294843.359,53.711,32.715,31.250,54.199,31.738,0
1579294843.363,47.363,33.691,33.691,55.176,40.527,0
1579294843.367,45.898,32.227,34.668,49.805,61.523,0
1579294843.370,52.246,33.203,34.668,49.316,64.453,0
1579294843.374,52.246,33.691,32.715,50.781,91.309,0
1579294843.378,42.969,35.156,32.715,45.898,52.246,0
1579294843.382,33.691,35.645,32.227,38.086,19.043,0
1579294843.386,34.180,33.691,31.250,29.785,1.465,0
1579294843.403,35.645,33.691,31.250,28.809,-8.301,0
1579294843.407,37.598,34.668,31.250,33.203,21.484,0
1579294843.411,38.086,35.156,29.297,33.203,17.578,0
1579294843.415,41.016,34.668,30.273,31.738,25.391,0
1579294843.419,43.945,33.691,31.250,28.320,70.312,0
1579294843.423,42.480,34.180,30.273,33.691,71.777,0
1579294843.427,41.992,37.109,32.715,37.109,64.453,0
1579294843.430,36.133,37.598,33.203,33.203,36.133,0
1579294843.434,29.785,36.133,29.297,35.156,45.410,0
1579294843.438,31.250,35.645,26.855,37.109,77.148,0
1579294843.442,31.738,33.203,28.320,36.133,17.090,0
1579294843.446,34.668,33.691,31.250,38.086,16.602,0
1579294843.443,35.645,34.668,32.227,38.086,72.266,0
1579294843.447,36.133,31.738,32.227,40.039,29.297,0
1579294843.451,41.016,30.762,32.715,38.086,16.602,0
1579294843.455,37.109,32.227,32.715,36.133,46.387,0
1579294843.459,37.598,34.180,33.203,35.645,1.953,0
1579294843.463,36.621,35.645,31.250,33.691,-1.953,0
1579294843.467,30.762,29.785,31.250,29.785,15.625,0
1579294843.470,27.832,30.273,30.273,27.832,13.184,0
1579294843.474,29.297,34.668,28.809,31.738,38.086,0
1579294843.478,28.809,35.156,28.320,31.250,55.176,0
1579294843.482,24.902,37.109,28.320,27.344,8.301,0
1579294843.486,27.832,36.133,26.855,33.203,43.945,0
1579294843.483,36.133,35.645,28.809,35.645,62.012,0
1579294843.487,42.480,36.621,31.738,36.621,26.855,0
1579294843.491,35.156,35.645,33.691,44.922,11.719,0
1579294843.495,33.203,34.668,35.645,46.875,35.156,0
1579294843.499,38.574,35.156,38.086,39.551,25.879,0
1579294843.503,29.785,32.715,39.551,27.344,-30.762,0
1579294843.507,26.367,30.762,38.086,28.809,3.906,0
1579294843.510,26.855,30.762,37.109,29.785,27.832,0
1579294843.514,22.461,33.203,37.598,22.949,20.020,0
1579294843.518,23.438,33.203,37.598,19.531,27.344,0
1579294843.522,24.902,30.762,35.645,20.508,34.668,0
1579294843.526,21.484,33.203,32.227,25.391,63.965,0
1579294843.543,19.043,34.668,32.715,27.832,53.711,0
1579294843.547,27.344,35.156,33.691,31.738,49.316,0
1579294843.551,34.180,35.645,33.203,35.156,37.598,0
1579294843.555,29.785,35.645,34.180,35.645,6.836,0
1579294843.559,31.250,34.180,37.598,43.457,21.973,0
1579294843.563,37.109,34.180,40.039,41.504,21.973,0
1579294843.567,32.715,35.645,38.086,29.297,27.344,0
1579294843.570,28.320,33.203,36.621,32.715,10.742,0
1579294843.574,28.809,30.273,38.574,35.156,54.688,0
1579294843.578,26.367,30.762,37.109,33.203,70.312,0
1579294843.582,24.902,29.785,35.645,32.227,92.285,0
1579294843.586,27.832,29.785,35.645,35.645,110.840,0
1579294843.583,26.855,28.809,37.598,36.133,70.312,0
1579294843.587,26.855,27.344,40.039,31.738,50.293,0
1579294843.591,22.461,27.832,41.016,28.809,11.719,0
1579294843.595,24.414,30.273,43.457,28.809,23.926,0
1579294843.599,28.809,33.203,41.016,34.180,65.430,0
1579294843.603,26.855,30.762,40.527,37.109,41.016,0
1579294843.607,25.391,27.832,41.016,27.832,0.488,0
1579294843.610,23.438,27.832,38.574,20.508,29.785,0
1579294843.614,27.832,27.832,36.621,37.598,50.293,0
1579294843.618,30.273,28.320,36.133,39.062,61.523,0
1579294843.622,35.156,27.832,37.598,35.156,42.969,0
1579294843.626,38.574,30.273,35.156,32.715,20.020,0
1579294843.623,33.203,31.250,34.180,29.297,19.531,0
1579294843.627,36.621,30.762,31.738,36.621,-4.883,0
1579294843.631,37.598,31.738,35.156,34.180,26.367,0
1579294843.635,32.715,31.250,38.574,30.273,51.270,0
1579294843.639,33.691,30.273,36.133,31.250,15.625,0
1579294843.643,30.273,29.785,37.109,36.621,10.254,0
1579294843.647,22.949,30.273,38.086,34.180,7.812,0
1579294843.650,21.973,30.273,36.621,26.855,34.180,0
1579294843.654,23.438,31.738,37.109,28.809,67.383,0
1579294843.658,22.949,35.156,33.203,30.762,70.801,0
1579294843.662,27.832,34.668,30.762,33.203,25.879,0
1579294843.666,32.227,33.691,32.227,33.203,47.852,0
1579294843.683,37.598,36.621,35.156,40.527,45.898,0
1579294843.687,35.156,36.133,34.668,36.621,10.254,0
1579294843.691,30.762,36.133,30.762,35.156,70.312,0
1579294843.695,36.133,32.715,35.645,41.992,105.957,0
1579294843.699,31.250,29.297,39.062,29.297,112.305,0
1579294843.703,29.297,34.180,36.133,33.203,87.891,0
1579294843.707,29.785,35.156,35.156,38.086,49.805,0
1579294843.710,26.855,30.762,34.668,28.809,7.812,0
1579294843.714,28.320,33.691,30.762,26.367,49.316,0
1579294843.718,25.879,33.691,30.273,17.578,41.504,0
1579294843.722,25.879,34.668,32.715,25.879,-19.043,0
1579294843.726,29.297,33.203,37.598,36.133,12.695,0
1579294843.723,31.250,28.320,34.668,29.785,12.695,0
1579294843.727,31.250,28.809,31.250,31.738,15.625,0
1579294843.731,31.250,29.297,36.621,38.086,28.320,0
1579294843.735,31.738,29.297,40.527,41.992,17.090,0
1579294843.739,22.461,32.227,39.062,36.621,44.922,0
1579294843.743,23.438,36.621,34.668,39.062,3.418,0
1579294843.747,33.203,37.598,32.715,44.434,-45.898,0
1579294843.750,32.715,35.156,34.668,36.133,14.160,0
1579294843.754,35.156,36.133,36.133,33.203,53.711,0
1579294843.758,32.715,39.062,33.691,28.809,48.340,0
1579294843.762,26.855,36.133,31.250,21.484,23.438,0
1579294843.766,30.273,35.645,30.762,34.180,-2.930,0
1579294843.763,26.855,37.598,34.180,38.086,-12.207,0
1579294843.767,30.273,36.621,35.156,38.574,52.734,0
1579294843.771,28.320,38.086,32.715,31.250,22.461,0
1579294843.775,25.879,41.504,30.762,31.738,-17.578,0
1579294843.779,31.738,40.039,36.133,45.898,13.184,0
1579294843.783,36.133,38.574,38.086,49.805,24.902,0
1579294843.787,38.574,39.062,33.691,46.875,24.414,0
1579294843.790,37.109,39.062,35.645,35.645,35.156,0
1579294843.794,29.297,36.621,39.062,34.668,50.781,0
1579294843.798,23.438,30.762,35.645,32.227,34.180,0
1579294843.802,25.391,32.227,31.250,24.414,-31.738,0
1579294843.806,24.414,35.156,34.668,20.996,-15.625,0
1579294843.823,24.902,38.086,36.133,24.902,58.105,0
1579294843.827,30.273,40.527,34.668,23.926,73.242,0
1579294843.831,27.832,37.598,36.133,27.344,34.180,0
1579294843.835,24.902,35.645,36.133,33.691,24.902,0
1579294843.839,29.785,34.668,38.086,26.367,62.500,0
1579294843.843,22.461,35.645,39.062,21.973,67.383,0
1579294843.847,21.484,34.180,33.691,28.320,70.801,0
1579294843.850,27.832,36.133,29.785,25.391,74.219,0
1579294843.854,23.438,39.551,32.227,23.926,-11.230,0
1579294843.858,27.832,38.086,30.762,35.156,-57.617,0
1579294843.862,33.203,39.062,31.738,39.551,17.578,0
1579294843.866,28.320,38.086,35.156,26.855,39.062,0
1579294843.863,33.203,37.109,32.227,37.598,20.508,0
1579294843.867,37.109,35.156,32.227,49.805,61.035,0
1579294843.871,32.715,34.180,33.691,35.645,51.270,0
1579294843.875,30.273,36.133,33.691,30.273,70.801,0
1579294843.879,23.926,36.133,30.273,29.785,51.270,0
1579294843.883,29.785,39.062,23.926,36.621,42.480,0
1579294843.887,29.297,38.574,26.367,39.062,92.285,0
1579294843.890,26.367,37.109,29.785,35.645,49.316,0
1579294843.894,27.344,38.086,34.668,33.203,9.277,0
1579294843.898,21.973,38.086,38.574,30.762,35.645,0
1579294843.902,27.344,39.551,33.691,25.879,69.336,0
1579294843.906,32.715,41.992,27.344,20.508,81.543,0
1579294843.903,30.762,40.527,29.785,26.855,58.594,0
1579294843.907,26.367,40.527,35.645,28.809,36.621,0
1579294843.911,24.902,41.992,31.738,20.996,37.109,0
1579294843.915,31.250,38.574,31.250,24.902,3.906,0
1579294843.919,41.504,36.621,33.691,40.527,2.441,0
1579294843.923,31.738,33.691,35.645,39.551,20.996,0
1579294843.927,30.273,34.668,31.738,34.668,46.387,0
1579294843.930,40.527,35.645,30.273,40.039,-3.418,0
1579294843.934,38.086,34.668,36.133,40.527,-46.875,0
1579294843.938,38.574,37.109,34.668,37.109,35.156,0
1579294843.942,45.410,37.598,31.738,38.574,42.480,0
1579294843.946,49.805,34.668,29.297,42.480,13.672,0
1579294843.963,48.340,34.180,31.738,34.668,24.902,0
1579294843.967,43.457,35.156,29.297,26.367,-20.508,0
1579294843.971,30.273,33.691,30.762,23.438,1.953,0
1579294843.975,21.973,32.227,37.109,29.785,134.766,0
1579294843.979,19.531,32.227,35.645,36.133,119.629,0
1579294843.983,15.625,33.203,36.133,33.203,20.020,0
1579294843.987,9.277,28.809,41.504,27.832,-4.395,0
1579294843.990,14.160,29.785,39.062,27.832,-52.734,0
1579294843.994,16.113,33.691,40.039,33.203,-21.973,0
1579294843.998,8.301,34.668,40.527,19.531,49.805,0
1579294844.002,4.395,40.527,35.156,17.090,59.082,0
1579294844.006,-1.953,40.527,34.668,20.020,80.566,0
1579294844.004,-0.488,41.504,39.062,5.371,82.520,0
1579294844.008,0.977,41.016,46.387,-6.836,60.059,0
1579294844.012,-11.230,39.551,41.504,-15.137,46.875,0
1579294844.016,-17.578,46.387,44.922,-21.484,51.270,0
1579294844.020,-33.203,46.387,48.828,-38.086,75.684,0
1579294844.024,-43.945,46.387,41.504,-53.711,48.828,0
1579294844.028,-46.387,49.805,41.992,-59.570,-6.836,0
1579294844.031,-62.012,49.805,49.316,-71.777,27.344,0
1579294844.035,-66.895,52.246,41.992,-81.055,54.688,0
1579294844.039,-75.195,49.805,43.945,-97.656,47.363,0
1579294844.043,-80.566,48.340,53.223,-100.098,65.918,0
1579294844.047,-87.891,57.129,47.852,-97.656,28.320,0
1579294844.063,-92.773,56.152,49.805,-88.379,-29.785,0
1579294844.067,-93.750,46.387,56.152,-99.121,20.020,0
1579294844.071,-94.727,48.340,52.246,-109.863,41.016,0
1579294844.075,-91.309,49.316,43.945,-97.168,44.434,0
1579294844.079,-98.145,47.363,47.363,-96.191,58.594,0
1579294844.083,-96.191,49.316,49.805,-110.840,58.105,0
1579294844.087,-93.750,45.898,50.293,-107.910,62.500,0
1579294844.090,-94.238,44.434,53.711,-81.543,66.406,0
1579294844.094,-92.285,41.016,61.035,-88.379,17.578,0
1579294844.098,-80.078,41.992,51.758,-83.496,32.227,0
1579294844.102,-62.988,46.875,40.527,-57.617,112.305,0
1579294844.106,-51.758,47.363,44.922,-60.547,71.777,0
1579294844.103,-43.457,45.410,37.109,-57.617,18.555,0
1579294844.107,-35.645,41.504,38.574,-29.785,16.602,0
1579294844.111,-23.438,41.016,41.016,-27.344,52.246,0
1579294844.115,-8.301,38.574,37.109,-25.879,44.922,0
1579294844.119,5.371,33.691,37.109,-8.301,18.555,0
1579294844.123,16.602,35.156,36.133,6.836,58.105,0
1579294844.127,24.414,35.645,34.668,9.766,80.078,0
1579294844.130,36.621,33.203,33.691,24.414,72.266,0
1579294844.134,49.316,34.180,29.297,50.293,10.742,0
1579294844.138,47.363,30.273,33.691,38.574,-33.691,0
1579294844.142,58.594,32.227,28.320,46.875,19.531,0
1579294844.146,70.801,32.715,22.949,66.406,26.855,0
1579294844.143,72.754,28.320,24.414,66.406,48.340,0
1579294844.147,71.777,26.367,24.902,64.941,47.363,0
1579294844.151,74.219,25.391,18.066,56.641,3.906,0
1579294844.155,82.031,26.367,14.160,76.660,-10.742,0
1579294844.159,79.590,27.832,15.625,74.707,40.039,0
1579294844.163,92.285,28.809,12.207,84.961,85.449,0
1579294844.167,99.121,28.809,13.184,103.027,41.016,0
1579294844.170,96.191,25.391,20.020,95.703,32.227,0
1579294844.174,105.957,26.367,25.391,101.562,58.105,0
1579294844.178,101.562,27.832,24.414,104.980,47.363,0
1579294844.182,95.215,25.879,21.973,106.445,8.789,0
1579294844.186,92.285,24.902,21.484,102.051,41.504,0
1579294844.203,83.008,21.973,22.461,96.680,71.777,0
1579294844.207,85.938,25.879,22.949,98.633,28.320,0
1579294844.211,95.215,30.762,15.625,99.121,59.570,0
1579294844.215,91.797,27.344,19.531,99.121,41.016,0
1579294844.219,88.379,25.391,25.879,90.820,-25.391,0
1579294844.223,91.309,28.320,24.902,92.773,10.742,0
1579294844.227,90.820,30.273,25.879,96.191,14.648,0
1579294844.230,86.914,28.809,26.367,85.449,7.812,0
1579294844.234,85.938,29.785,23.438,74.707,21.973,0
1579294844.238,83.984,28.809,26.855,73.242,69.336,0
1579294844.242,78.125,27.344,27.344,79.590,59.570,0
1579294844.246,70.312,30.762,20.996,68.848,-12.207,0
1579294844.243,73.730,32.227,20.508,59.082,33.691,0
1579294844.247,73.730,30.273,23.438,58.594,70.312,0
1579294844.251,79.590,31.250,23.926,71.289,52.246,0
1579294844.255,84.473,32.715,24.414,78.125,60.059,0
1579294844.259,83.496,34.668,28.809,74.707,45.410,0
1579294844.263,81.543,36.621,26.855,88.379,75.195,0
1579294844.267,78.613,36.133,15.137,82.520,42.480,0
1579294844.270,83.008,36.133,20.996,82.031,3.906,0
1579294844.274,80.566,34.180,27.832,88.379,46.875,0
1579294844.278,73.242,32.227,26.367,79.590,60.059,0
1579294844.282,72.754,29.785,35.645,80.566,19.531,0
1579294844.286,72.754,26.855,37.598,82.031,2.930,0
1579294844.283,72.266,29.297,31.250,85.938,28.809,0
1579294844.287,65.918,30.762,30.273,86.426,36.621,0
1579294844.291,58.594,27.344,37.109,74.707,11.719,0
1579294844.295,60.059,27.832,29.785,69.336,15.625,0
1579294844.299,53.711,31.250,27.344,77.148,36.133,0
1579294844.303,46.387,27.344,40.039,68.359,23.926,0
1579294844.307,51.758,28.809,32.715,48.340,-33.203,0
1579294844.310,53.223,31.738,28.809,56.641,-26.367,0
1579294844.314,50.293,31.738,32.227,55.664,31.738,0
1579294844.318,55.176,33.203,22.949,50.781,59.082,0
1579294844.322,58.105,32.227,30.273,62.500,57.617,0
1579294844.326,54.199,33.691,39.062,65.918,41.016,0
1579294844.343,55.176,31.250,37.109,56.641,15.625,0
1579294844.347,48.828,28.320,31.250,45.898,50.293,0
1579294844.351,42.969,29.297,30.273,50.293,49.316,0
1579294844.355,46.387,31.738,31.738,47.852,13.184,0
1579294844.359,40.039,33.203,22.461,40.527,50.293,0
1579294844.363,27.832,30.762,33.203,32.227,57.617,0
1579294844.367,34.180,33.203,34.668,36.133,30.762,0
1579294844.370,42.480,37.109,19.043,44.922,29.785,0
1579294844.374,39.062,33.691,28.320,45.898,-8.789,0
1579294844.378,39.062,29.785,33.691,42.969,-46.387,0
1579294844.382,43.945,31.738,32.715,42.969,12.695,0
1579294844.386,40.527,34.180,36.621,35.645,38.574,0
1579294844.383,38.086,33.203,36.621,39.551,56.152,0
1579294844.387,40.039,30.762,38.574,40.039,60.547,0
1579294844.391,38.574,30.762,42.969,39.062,41.504,0
1579294844.395,49.316,30.762,37.109,62.500,22.949,0
1579294844.399,50.293,33.691,36.621,62.500,25.391,0
1579294844.403,51.758,38.574,38.086,55.664,53.223,0
1579294844.407,55.176,35.156,35.645,57.617,64.453,0
1579294844.410,45.898,32.227,43.945,58.594,71.289,0
1579294844.414,47.363,37.109,37.598,55.664,51.270,0
1579294844.418,42.480,36.621,22.461,41.504,7.812,0
1579294844.422,42.480,32.227,37.598,49.805,-35.156,0
1579294844.426,46.875,33.691,45.410,56.641,8.301,0
1579294844.423,43.457,36.133,35.645,48.340,18.555,0
1579294844.427,42.969,33.691,34.668,37.109,34.668,0
1579294844.431,38.574,32.715,34.180,30.762,112.793,0
1579294844.435,30.273,35.156,34.180,33.691,75.195,0
1579294844.439,25.879,34.668,36.621,26.855,14.648,0
1579294844.443,31.250,37.109,27.832,32.227,29.785,0
1579294844.447,32.227,42.480,23.438,43.945,48.340,0
1579294844.450,20.020,37.109,34.668,27.344,2.441,0
1579294844.454,18.066,35.156,38.086,16.602,51.758,0
1579294844.458,21.973,36.621,36.621,24.902,64.941,0
1579294844.462,20.508,30.762,39.551,23.438,36.621,0
1579294844.466,24.414,30.762,33.691,21.973,87.891,0
1579294844.483,28.320,34.180,34.668,17.090,44.922,0
1579294844.487,30.273,31.738,36.133,26.855,3.906,0
1579294844.491,33.691,30.273,29.297,39.551,-6.348,0
1579294844.495,34.668,30.273,39.551,42.480,-66.406,0
1579294844.499,36.621,34.180,39.551,40.527,0.977,0
1579294844.503,37.109,33.691,34.180,38.574,74.219,0
1579294844.507,45.410,33.691,33.203,52.734,42.969,0
1579294844.510,47.363,37.109,32.227,52.734,5.371,0
1579294844.514,43.945,35.645,39.062,41.016,-13.672,0
1579294844.518,43.457,35.156,38.574,31.738,-28.809,0
1579294844.522,40.527,34.668,30.273,33.203,8.301,0
1579294844.526,42.969,34.668,31.738,44.434,46.387,0
1579294844.523,30.273,31.250,40.527,36.621,71.777,0
1579294844.527,18.066,30.273,39.551,22.461,40.527,0
1579294844.531,24.902,35.645,31.738,30.273,17.578,0
1579294844.535,23.926,34.668,33.691,28.809,38.574,0
1579294844.539,16.602,32.227,31.738,15.625,43.945,0
1579294844.543,24.414,37.598,23.438,27.344,62.500,0
1579294844.547,35.156,38.086,27.832,35.156,57.129,0
1579294844.550,32.715,31.738,35.156,31.250,42.480,0
1579294844.554,26.855,30.762,38.574,27.832,56.152,0
1579294844.558,29.785,33.203,37.109,23.926,24.902,0
1579294844.562,40.039,34.668,33.691,33.691,3.418,0
1579294844.566,42.969,35.156,34.180,35.156,6.836,0
1579294844.563,35.645,35.645,41.016,29.297,81.543,0
1579294844.567,40.039,41.504,33.691,31.738,160.645,0
1579294844.571,42.480,42.480,31.250,31.250,104.004,0
1579294844.575,43.945,41.992,30.762,41.504,48.340,0
1579294844.579,45.410,41.016,31.738,41.992,20.020,0
1579294844.583,38.086,36.621,31.738,33.691,53.223,0
1579294844.587,31.250,37.109,32.715,28.320,30.762,0
1579294844.590,31.250,38.086,41.504,33.691,6.348,0
1579294844.594,35.156,39.062,38.574,43.457,29.785,0
1579294844.598,35.156,38.574,25.879,34.668,-11.230,0
1579294844.602,36.133,34.668,27.832,36.621,34.180,0
1579294844.606,41.992,35.156,36.133,50.293,8.301,0
1579294844.623,35.645,34.668,31.738,41.504,1.465,0
1579294844.627,34.180,32.227,31.738,38.086,13.672,0
1579294844.631,33.203,34.668,39.551,39.551,11.230,0
1579294844.635,32.227,36.621,40.039,42.480,65.918,0
1579294844.639,40.527,36.133,39.551,46.387,116.211,0
1579294844.643,39.551,37.109,38.086,48.828,93.750,0
1579294844.647,32.715,38.574,33.691,44.922,60.547,0
1579294844.650,23.438,32.715,37.598,21.973,-2.930,0
1579294844.654,24.902,34.180,34.180,20.020,2.930,0
1579294844.658,43.457,44.922,20.996,36.133,27.832,0
1579294844.662,36.133,40.527,33.691,27.832,14.160,0
1579294844.666,21.973,34.180,41.504,17.578,65.430,0
1579294844.663,29.785,35.156,35.156,20.996,43.457,0
1579294844.667,32.227,36.133,38.574,20.508,48.828,0
1579294844.671,33.203,35.645,39.551,30.762,34.180,0
1579294844.675,38.574,36.621,35.645,36.133,-1.953,0
1579294844.679,31.738,36.133,35.156,25.391,26.855,0
1579294844.683,33.691,35.156,30.273,22.461,53.223,0
1579294844.687,34.668,35.645,28.320,43.457,42.480,0
1579294844.690,27.344,36.621,29.785,39.062,33.203,0
1579294844.694,25.879,33.203,29.785,20.996,76.172,0
1579294844.698,34.180,33.203,34.180,29.785,53.711,0
1579294844.702,33.691,36.133,34.668,31.250,20.508,0
1579294844.706,23.926,33.203,36.133,27.832,8.301,0
1579294844.703,30.762,34.668,38.574,32.715,8.789,0
1579294844.707,31.738,34.180,40.527,36.621,1.465,0
1579294844.711,29.785,33.691,38.574,40.527,-2.441,0
1579294844.715,30.762,35.156,35.645,36.621,70.801,0
1579294844.719,24.902,33.203,38.086,23.438,48.828,0
1579294844.723,30.762,35.156,40.527,31.738,11.230,0
1579294844.727,32.715,38.574,32.715,40.039,22.949,0
1579294844.730,39.062,36.133,32.227,39.062,56.641,0
1579294844.734,43.945,36.133,35.156,32.227,78.613,0
1579294844.738,43.945,36.621,30.762,32.715,67.871,0
1579294844.742,40.039,36.133,35.156,41.504,68.359,0
1579294844.746,36.133,37.598,37.598,32.715,38.086,0
1579294844.763,47.363,42.480,23.438,35.156,25.879,0
1579294844.767,43.945,40.527,31.250,46.387,45.410,0
1579294844.771,40.527,36.133,41.016,43.457,20.020,0
1579294844.775,34.668,36.133,35.645,34.180,35.645,0
1579294844.779,37.109,39.062,34.180,38.574,55.664,0
1579294844.783,37.109,38.574,39.062,29.297,62.988,0
1579294844.787,24.414,38.086,37.598,16.602,31.738,0
1579294844.790,22.461,40.527,30.762,38.086,5.859,0
1579294844.794,24.414,39.551,30.273,26.367,12.695,0
1579294844.798,27.832,41.016,21.484,15.625,24.902,0
1579294844.802,20.996,39.062,28.320,27.832,55.664,0
1579294844.806,19.043,34.180,39.551,27.344,-1.953,0
1579294844.803,24.414,34.180,36.133,24.902,-0.977,0
1579294844.807,23.926,35.156,35.156,16.113,44.434,0
1579294844.811,28.320,34.668,34.180,15.137,50.293,0
1579294844.815,29.785,35.156,31.250,26.367,23.926,0
1579294844.819,28.809,38.086,30.762,24.414,-3.906,0
1579294844.823,32.715,36.621,34.180,21.484,39.062,0
1579294844.827,29.785,36.621,37.109,26.367,55.176,0
1579294844.830,26.855,36.621,36.133,36.621,26.367,0
1579294844.834,25.879,36.621,30.273,36.133,-10.254,0
1579294844.838,25.879,33.691,33.203,31.250,11.719,0
1579294844.842,31.250,29.785,36.621,30.762,28.809,0
1579294844.846,38.086,32.227,34.180,40.039,25.391,0
1579294844.843,41.992,34.668,35.645,45.898,57.617,0
1579294844.847,41.504,35.156,33.203,41.992,54.199,0
1579294844.851,38.574,34.668,33.691,35.156,51.758,0
1579294844.855,41.504,36.133,35.156,33.691,72.266,0
1579294844.859,41.504,38.086,33.691,39.551,1.465,0
1579294844.863,33.691,37.109,34.180,38.086,-14.160,0
1579294844.867,27.832,36.133,32.715,30.273,18.555,0
1579294844.870,30.273,36.621,33.203,21.484,15.137,0
1579294844.874,28.809,36.133,36.621,24.902,34.180,0
1579294844.878,26.855,34.668,33.691,27.344,42.480,0
1579294844.882,25.879,34.668,30.762,13.672,6.836,0
1579294844.886,21.973,35.645,33.203,9.766,10.742,0
1579294844.903,25.879,37.109,33.203,22.461,52.246,0
1579294844.907,25.391,38.086,31.250,19.531,18.555,0
1579294844.911,25.879,39.551,32.715,19.531,12.207,0
1579294844.915,20.996,39.551,30.762,19.043,59.082,0
1579294844.919,22.461,40.527,28.809,17.090,47.852,0
1579294844.923,32.227,42.969,28.320,30.762,59.570,0
1579294844.927,31.738,41.504,33.203,38.086,109.863,0
1579294844.930,28.320,34.668,39.551,32.227,53.223,0
1579294844.934,24.414,33.203,31.738,30.762,0.488,0
1579294844.938,20.020,35.645,30.762,33.203,1.953,0
1579294844.942,24.902,33.691,36.133,33.203,37.598,0
1579294844.946,27.832,35.156,34.180,24.902,58.594,0
1579294844.943,28.320,37.598,33.203,19.531,44.434,0
1579294844.947,34.180,38.086,31.250,28.809,10.742,0
1579294844.951,34.668,39.062,31.738,29.297,17.090,0
1579294844.955,35.156,35.156,33.203,20.508,42.969,0
1579294844.959,38.086,31.738,36.133,36.133,36.133,0
1579294844.963,40.527,34.668,38.086,41.504,12.207,0
1579294844.967,38.574,35.156,34.668,31.250,10.742,0
1579294844.970,37.109,32.715,35.645,21.973,56.641,0
1579294844.974,48.340,33.203,36.621,27.832,71.289,0
1579294844.978,50.781,37.598,31.738,25.879,54.199,0
1579294844.982,40.527,36.621,34.668,21.973,18.066,0
1579294844.986,37.598,36.133,34.180,30.762,30.273,0
1579294844.983,33.203,37.109,31.738,25.391,105.469,0
1579294844.987,31.738,36.133,33.691,24.414,74.219,0
1579294844.991,31.250,36.133,33.203,33.203,10.254,0
1579294844.995,24.414,35.645,31.250,30.273,-7.324,0
1579294844.999,21.484,36.133,32.227,20.996,14.160,0
1579294845.003,23.438,37.109,35.156,24.902,72.754,0
1579294845.007,22.949,35.156,34.668,21.973,-3.906,0
1579294845.010,25.391,36.621,33.691,27.344,25.391,0
1579294845.014,20.996,35.156,33.691,18.066,88.379,0
1579294845.018,19.531,34.668,31.250,12.207,11.230,0
1579294845.022,24.414,37.598,34.668,20.996,27.344,0
1579294845.026,23.438,38.574,37.109,23.438,29.297,0
1579294845.043,26.855,39.551,34.180,25.391,-11.230,0
1579294845.047,29.297,38.086,29.785,26.367,52.246,0
1579294845.051,32.227,37.109,30.273,35.645,47.852,0
1579294845.055,29.785,36.133,33.203,38.574,-17.578,0
1579294845.059,25.879,35.156,34.668,35.645,6.836,0
1579294845.063,26.855,33.203,35.156,35.156,20.020,0
1579294845.067,18.555,32.715,32.715,25.391,41.504,0
1579294845.070,17.578,32.715,33.203,25.391,39.062,0
1579294845.074,29.785,32.715,35.645,34.180,-7.324,0
1579294845.078,30.273,31.250,36.133,31.250,14.648,0
1579294845.082,31.250,35.156,30.273,34.180,-8.301,0
1579294845.086,37.598,38.086,31.738,34.668,25.879,0
1579294845.084,39.551,37.109,30.762,28.809,42.969,0
1579294845.088,38.086,37.598,27.344,23.926,10.742,0
1579294845.092,35.156,37.109,32.715,20.020,-25.879,0
1579294845.096,32.227,37.598,32.715,24.414,78.613,0
1579294845.100,28.809,38.086,33.203,18.066,119.141,0
1579294845.104,30.273,39.062,31.738,19.043,-1.465,0
1579294845.108,35.645,37.109,29.297,31.250,-2.930,0
1579294845.111,29.785,33.691,33.691,32.715,50.781,0
1579294845.115,36.621,36.621,30.762,33.691,60.059,0
1579294845.119,41.992,39.062,31.738,36.133,33.203,0
1579294845.123,43.945,37.109,32.227,33.203,53.223,0
1579294845.127,44.434,37.109,27.832,35.156,41.992,0
1579294845.123,35.645,34.668,29.297,39.062,70.801,0
1579294845.127,27.344,35.645,28.809,26.367,96.191,0
1579294845.131,31.738,36.621,26.855,24.902,25.391,0
1579294845.135,33.203,30.273,33.203,30.273,28.320,0
1579294845.139,28.809,29.297,37.109,31.250,52.246,0
1579294845.143,37.109,31.738,35.156,40.039,44.434,0
1579294845.147,36.133,30.273,35.645,40.527,16.602,0
1579294845.150,36.621,32.227,38.574,31.738,5.371,0
1579294845.154,39.551,36.133,38.086,36.133,20.508,0
1579294845.158,41.016,35.645,35.645,47.852,55.176,0
1579294845.162,38.574,35.645,35.156,44.922,73.242,0
1579294845.166,36.133,36.133,32.715,37.109,44.922,0
1579294845.183,38.574,36.133,35.645,33.203,66.895,0
1579294845.187,36.133,39.062,34.180,33.691,78.613,0
1579294845.191,38.574,38.086,29.785,31.738,24.902,0
1579294845.195,42.969,37.598,31.738,32.227,61.035,0
1579294845.199,45.410,40.039,31.738,35.156,84.473,0
1579294845.203,45.410,39.551,26.367,36.133,54.688,0
1579294845.207,46.387,40.527,24.414,32.715,47.852,0
1579294845.210,48.340,41.504,28.809,26.367,13.672,0
1579294845.214,44.922,41.016,32.227,30.273,0.000,0
1579294845.218,39.062,39.062,32.227,38.574,27.832,0
1579294845.222,35.645,35.645,32.227,37.109,46.875,0
1579294845.226,34.180,34.668,33.203,33.691,55.176,0
1579294845.223,31.738,35.645,33.203,31.738,64.453,0
1579294845.227,23.438,33.203,28.809,28.320,91.309,0
1579294845.231,18.555,33.203,26.855,23.926,50.293,0
1579294845.235,22.461,32.227,29.785,25.391,8.789,0
1579294845.239,27.344,31.250,29.785,30.762,56.641,0
1579294845.243,34.180,34.180,29.785,31.738,36.621,0
1579294845.247,36.133,32.715,31.250,37.109,21.484,0
1579294845.250,35.645,30.273,33.203,43.945,32.227,0
1579294845.254,35.156,31.738,35.156,38.574,-21.484,0
1579294845.258,29.785,31.250,36.621,34.668,72.266,0
1579294845.262,30.762,29.785,40.039,38.574,86.914,0
1579294845.266,30.762,32.227,38.086,40.527,39.551,0
1579294845.263,33.691,34.668,34.180,31.738,35.156,0
1579294845.267,35.156,35.156,34.668,29.785,17.578,0
1579294845.271,32.227,34.668,32.227,27.344,64.941,0
1579294845.275,37.109,34.668,31.250,31.250,50.781,0
1579294845.279,34.180,34.180,32.715,33.691,-21.973,0
1579294845.283,34.668,34.668,28.809,28.809,31.250,0
1579294845.287,37.598,33.203,31.250,32.715,85.449,0
1579294845.290,37.598,35.645,35.156,33.203,28.809,0
1579294845.294,36.621,38.086,35.645,30.762,41.992,0
1579294845.298,37.109,36.621,32.715,32.227,41.016,0
1579294845.302,37.598,35.156,30.273,29.297,-23.926,0
1579294845.306,29.297,34.668,31.250,22.949,-38.086,0
1579294845.323,29.785,35.156,31.738,29.785,-18.066,0
1579294845.327,37.598,37.598,35.645,37.598,9.766,0
1579294845.331,34.668,35.645,37.109,36.133,62.988,0
1579294845.335,34.668,32.715,34.180,33.203,78.125,0
1579294845.339,33.691,31.738,36.133,32.715,38.574,0
1579294845.343,32.227,33.691,37.598,38.574,33.203,0
1579294845.347,30.273,36.133,36.133,32.227,58.105,0
1579294845.350,24.902,35.156,34.668,25.391,57.129,0
1579294845.354,23.438,37.598,35.156,26.367,28.320,0
1579294845.358,18.555,35.645,38.086,27.344,-15.625,0
1579294845.362,15.625,32.227,37.598,19.043,39.551,0
1579294845.366,26.367,35.156,35.156,20.508,79.590,0
1579294845.363,30.273,36.621,34.180,25.879,46.875,0
1579294845.367,32.715,38.086,32.227,30.273,27.344,0
1579294845.371,37.598,38.086,33.203,30.762,20.020,0
1579294845.375,32.227,33.691,35.156,28.809,-23.438,0
1579294845.379,30.273,31.738,36.621,32.227,-18.066,0
1579294845.383,29.785,33.203,40.039,39.062,13.672,0
1579294845.387,29.297,35.645,38.086,38.086,50.781,0
1579294845.390,22.949,35.645,36.621,27.832,38.574,0
1579294845.394,20.508,38.574,38.574,28.320,43.945,0
1579294845.398,19.043,42.480,37.109,23.926,40.039,0
1579294845.402,10.254,40.039,37.598,15.625,-26.367,0
1579294845.406,2.930,42.480,40.039,13.184,6.348,0
1579294845.403,1.953,44.922,41.992,12.207,51.270,0
1579294845.407,7.324,41.504,47.852,11.719,4.395,0
1579294845.411,-4.883,41.016,45.410,-2.441,29.297,0
1579294845.415,-18.066,39.551,41.504,-20.020,68.359,0
1579294845.419,-27.344,41.016,43.457,-26.367,47.363,0
1579294845.423,-39.062,44.434,44.922,-36.133,61.523,0
1579294845.427,-47.852,44.922,42.480,-41.992,43.945,0
1579294845.430,-48.828,46.387,45.410,-42.969,1.953,0
1579294845.434,-53.711,49.316,51.270,-51.270,70.801,0
1579294845.438,-62.500,50.781,51.270,-66.895,95.703,0
1579294845.442,-65.918,50.293,48.340,-74.219,9.766,0
1579294845.446,-66.406,50.781,45.898,-72.266,-17.090,0
1579294845.463,-64.941,51.270,44.922,-75.195,-4.395,0
1579294845.467,-69.336,49.316,45.410,-75.684,13.184,0
1579294845.471,-74.707,47.852,48.340,-71.777,20.020,0
1579294845.475,-71.777,48.828,47.363,-62.500,45.898,0
1579294845.479,-65.918,47.852,43.945,-63.477,83.496,0
1579294845.483,-58.594,45.898,43.945,-61.523,19.043,0
1579294845.487,-46.387,46.387,43.945,-49.805,-7.324,0
1579294845.490,-41.504,43.945,43.945,-56.152,0.977,0
1579294845.494,-36.133,41.016,43.457,-50.293,29.785,0
1579294845.498,-28.320,40.527,41.504,-32.227,81.055,0
1579294845.502,-21.484,39.551,41.504,-23.926,0.488,0
1579294845.506,-12.695,38.086,39.551,-18.066,-61.523,0
1579294845.503,-3.418,36.133,35.645,-5.859,20.996,0
1579294845.507,6.348,34.668,33.691,5.371,63.965,0
1579294845.511,10.742,32.227,33.691,12.207,55.664,0
1579294845.515,18.555,31.738,32.715,20.508,52.246,0
1579294845.519,30.762,30.273,32.715,20.020,67.871,0
1579294845.523,36.133,28.320,33.691,31.250,49.316,0
1579294845.527,45.410,32.227,32.715,47.363,48.828,0
1579294845.530,56.641,33.691,31.250,60.547,35.156,0
1579294845.534,54.199,28.320,32.227,65.430,-11.230,0
1579294845.538,58.105,28.320,31.738,54.199,14.160,0
1579294845.542,61.035,30.273,28.809,52.734,30.273,0
1579294845.546,59.082,28.809,29.785,58.594,103.516,0
1579294845.543,58.105,27.832,27.832,57.129,113.281,0
1579294845.547,59.570,28.320,25.879,53.223,53.711,0
1579294845.551,63.477,29.297,26.855,45.898,17.578,0
1579294845.555,59.570,27.832,26.855,42.480,-3.418,0
1579294845.559,56.641,28.320,27.344,41.016,32.227,0
1579294845.563,57.129,32.227,23.926,35.156,58.105,0
1579294845.567,51.758,34.180,21.484,27.832,36.621,0
1579294845.570,45.898,33.691,21.484,22.461,24.902,0
1579294845.574,40.039,33.203,20.508,25.879,70.312,0
1579294845.578,37.109,30.273,21.973,24.414,88.867,0
1579294845.582,31.738,29.297,24.414,23.926,59.570,0
1579294845.586,19.043,31.738,26.855,29.297,50.293,0
1579294845.603,12.695,30.273,29.297,29.297,13.184,0
1579294845.607,10.742,27.832,31.738,29.785,-16.602,0
1579294845.611,12.207,25.879,32.715,28.809,2.930,0
1579294845.615,16.602,24.902,32.227,33.691,8.301,0
1579294845.619,20.508,25.879,33.691,44.922,-2.930,0
1579294845.623,28.809,26.367,31.738,47.363,51.270,0
1579294845.627,35.645,26.855,30.273,41.016,26.855,0
1579294845.630,40.527,26.367,31.250,42.969,-40.039,0
1579294845.634,42.480,27.832,31.250,46.875,7.812,0
1579294845.638,51.270,31.250,30.762,51.270,24.414,0
1579294845.642,60.059,33.691,31.738,48.828,29.297,0
1579294845.646,59.570,36.133,29.297,42.969,36.133,0
1579294845.643,69.336,39.551,27.832,55.664,-19.043,0
1579294845.647,67.871,39.551,33.691,59.082,49.805,0
1579294845.651,61.035,37.598,31.738,50.781,104.980,0
1579294845.655,58.105,39.062,28.320,42.480,53.223,0
1579294845.659,41.016,35.645,34.668,39.551,55.664,0
1579294845.663,26.855,34.668,39.551,33.691,-10.254,0
1579294845.667,15.137,39.062,41.992,8.789,-13.184,0
1579294845.670,0.488,41.992,42.480,-15.625,44.922,0
1579294845.674,-11.719,39.062,43.945,-31.738,79.590,0
1579294845.678,-33.691,39.062,46.387,-43.457,98.145,0
1579294845.682,-47.363,40.039,46.387,-54.199,54.199,0
1579294845.686,-56.152,41.504,45.898,-65.918,39.062,0
1579294845.703,-66.406,39.551,52.246,-75.195,30.762,0
1579294845.707,-68.359,38.574,51.270,-73.730,49.316,0
1579294845.711,-71.289,42.480,50.293,-65.430,87.891,0
1579294845.715,-74.219,44.922,52.246,-66.895,40.527,0
1579294845.719,-74.219,42.969,48.828,-67.383,45.898,0
1579294845.723,-65.430,41.016,49.316,-57.617,59.570,0
1579294845.727,-52.734,41.016,48.828,-47.852,13.672,0
1579294845.730,-40.039,42.969,46.387,-39.551,-30.762,0
1579294845.734,-33.691,41.016,46.875,-30.762,-6.836,0
1579294845.738,-28.809,37.598,46.875,-23.438,12.695,0
1579294845.742,-15.625,37.109,46.875,-9.277,17.578,0
1579294845.746,-5.371,35.645,48.340,3.906,45.410,0
1579294845.743,5.371,34.180,47.363,9.277,33.691,0
1579294845.747,14.648,32.227,44.922,14.160,23.926,0
1579294845.751,22.949,32.227,40.039,22.461,22.949,0
1579294845.755,27.832,32.715,38.086,28.320,22.461,0
1579294845.759,41.016,35.156,35.156,37.598,47.852,0
1579294845.763,56.152,38.086,30.762,45.410,7.324,0
1579294845.767,64.453,38.574,27.832,51.758,-10.742,0
1579294845.770,71.777,39.062,27.344,59.082,25.391,0
1579294845.774,74.219,35.645,26.367,54.688,15.625,0
1579294845.778,79.590,30.762,25.879,53.223,52.734,0
1579294845.782,82.520,29.785,27.832,61.035,83.496,0
1579294845.786,84.473,31.738,28.809,64.941,81.055,0
1579294845.783,94.238,29.297,28.809,67.383,72.266,0
1579294845.787,97.168,29.297,26.855,67.871,71.777,0
1579294845.791,95.215,30.273,25.879,78.125,41.016,0
1579294845.795,95.215,31.738,22.949,92.285,5.859,0
1579294845.799,93.262,33.691,20.508,92.285,86.914,0
1579294845.803,93.262,33.203,22.461,93.262,53.711,0
1579294845.807,89.844,33.203,21.973,91.309,-24.902,0
1579294845.810,84.473,32.715,20.996,89.355,48.340,0
1579294845.814,78.125,30.273,22.461,93.262,60.059,0
1579294845.818,76.172,29.785,24.414,88.379,21.484,0
1579294845.822,76.172,26.855,24.902,84.961,20.996,0
1579294845.826,78.125,24.414,25.879,89.355,31.250,0
1579294845.843,80.078,24.902,24.902,91.797,43.457,0
1579294845.847,79.102,26.855,22.949,87.402,40.039,0
1579294845.851,82.520,30.762,21.484,85.938,24.414,0
1579294845.855,88.867,31.738,20.996,87.402,14.648,0
1579294845.859,89.844,32.227,19.043,86.914,61.035,0
1579294845.863,92.773,32.715,18.066,83.496,35.156,0
1579294845.867,93.750,33.691,20.508,78.125,-19.043,0
1579294845.870,89.355,39.062,22.949,68.359,-4.395,0
1579294845.874,87.402,39.551,20.508,65.918,-11.230,0
1579294845.878,84.961,35.645,20.020,70.801,41.016,0
1579294845.882,82.520,38.086,19.531,65.430,14.160,0
1579294845.886,80.566,40.039,20.996,58.105,-6.348,0
1579294845.883,75.684,38.574,22.461,63.965,-18.555,0
1579294845.887,71.777,36.621,20.996,69.336,3.906,0
1579294845.891,67.871,34.668,20.020,64.453,85.938,0
1579294845.895,65.918,33.203,24.902,63.477,54.199,0
1579294845.899,66.895,31.738,27.344,67.871,46.875,0
1579294845.903,70.312,31.738,25.391,68.359,85.449,0
1579294845.907,72.266,30.273,28.809,65.918,73.242,0
1579294845.910,70.801,30.273,28.320,65.430,30.273,0
1579294845.914,67.383,33.203,24.902,63.965,33.203,0
1579294845.918,66.406,34.180,26.367,65.918,68.359,0
1579294845.922,69.824,34.180,26.855,68.359,20.508,0
1579294845.926,70.801,33.203,28.320,64.453,3.906,0
1579294845.923,66.895,32.227,30.273,60.547,55.664,0
1579294845.927,61.523,33.203,30.762,62.988,114.258,0
1579294845.931,64.453,34.180,30.762,67.871,65.918,0
1579294845.935,67.383,37.109,32.715,64.453,18.555,0
1579294845.939,65.430,41.992,36.621,57.129,23.926,0
1579294845.943,68.848,45.898,33.203,65.430,56.641,0
1579294845.947,70.801,43.945,29.297,62.012,111.328,0
1579294845.950,71.777,43.945,26.367,53.711,44.922,0
1579294845.954,67.871,44.434,25.879,54.688,10.254,0
1579294845.958,60.059,41.016,27.344,48.828,31.738,0
1579294845.962,60.059,37.109,27.832,49.805,54.688,0
1579294845.966,59.082,35.645,29.297,54.199,16.113,0
1579294845.983,54.688,34.180,28.320,49.316,29.785,0
1579294845.987,54.688,35.156,27.344,44.922,63.477,0
1579294845.991,54.199,36.133,25.879,41.016,-8.789,0
1579294845.995,49.805,33.203,24.414,35.156,34.180,0
1579294845.999,52.734,31.250,25.879,24.902,131.836,0
1579294846.003,56.152,29.297,26.367,19.531,76.172,0
1579294846.007,58.105,31.250,23.438,26.367,61.035,0
1579294846.010,54.199,32.715,22.949,24.414,39.062,0
1579294846.014,48.828,30.273,23.438,20.996,55.664,0
1579294846.018,44.434,33.203,24.902,27.344,52.246,0
1579294846.022,41.992,35.156,30.762,38.086,17.090,0
1579294846.026,43.457,34.668,32.227,47.363,41.504,0
1579294846.023,35.645,33.203,34.180,54.688,-25.879,0
1579294846.027,33.203,34.180,36.621,56.152,-31.738,0
1579294846.031,24.902,34.668,37.598,59.082,57.617,0
1579294846.035,18.066,35.156,36.133,62.500,44.922,0
1579294846.039,31.738,35.645,28.320,54.199,-20.996,0
1579294846.043,28.809,33.691,29.785,46.875,20.020,0
1579294846.047,18.555,35.156,30.762,42.480,85.938,0
1579294846.050,14.160,36.621,28.809,39.551,20.020,0
1579294846.054,11.719,34.180,31.250,31.738,57.617,0
1579294846.058,13.184,35.156,32.715,20.996,52.246,0
1579294846.062,15.137,37.109,35.156,22.461,6.836,0
1579294846.066,19.531,36.621,36.133,27.344,56.641,0
1579294846.063,24.414,34.180,34.668,27.344,23.438,0
1579294846.067,26.855,36.133,33.203,27.832,9.277,0
1579294846.071,27.344,39.062,31.738,24.902,-11.230,0
1579294846.075,29.785,37.109,34.668,25.391,4.395,0
1579294846.079,42.969,38.086,36.133,28.809,55.664,0
1579294846.083,52.734,41.504,32.227,35.645,25.391,0
1579294846.087,59.082,42.969,31.738,40.527,-5.371,0
1579294846.090,53.223,43.945,29.785,41.992,30.273,0
1579294846.094,55.664,44.922,29.297,52.734,26.855,0
1579294846.098,63.965,44.922,31.738,53.711,48.340,0
1579294846.102,61.523,42.480,32.715,51.270,94.727,0
1579294846.106,59.082,39.062,33.203,55.664,80.078,0
1579294846.123,55.176,35.156,34.180,55.664,61.523,0
1579294846.127,51.270,32.715,35.156,52.246,36.133,0
1579294846.131,38.574,30.762,36.621,40.527,71.289,0
1579294846.135,24.902,28.809,41.016,32.715,69.336,0
1579294846.139,16.602,31.250,39.062,33.203,14.648,0
1579294846.143,7.812,30.762,38.574,30.273,13.184,0
1579294846.147,11.230,29.785,41.504,27.344,-17.578,0
1579294846.150,14.648,34.180,43.945,25.391,45.410,0
1579294846.154,12.207,36.621,44.434,25.879,59.570,0
1579294846.158,7.812,36.133,44.434,30.762,24.902,0
1579294846.162,11.719,39.062,40.039,28.320,56.152,0
1579294846.166,25.391,40.039,35.156,24.902,39.062,0
1579294846.163,31.738,40.039,36.621,29.297,9.766,0
1579294846.167,36.133,38.574,38.086,35.156,34.668,0
1579294846.171,39.551,37.598,33.203,38.086,13.184,0
1579294846.175,42.480,38.574,28.809,39.062,-40.039,0
1579294846.179,47.852,39.062,29.297,43.457,0.000,0
1579294846.183,50.781,39.551,30.273,49.805,57.617,0
1579294846.187,54.688,41.016,26.855,49.316,43.457,0
1579294846.190,55.176,41.016,28.809,42.969,-2.930,0
1579294846.194,47.852,36.621,31.738,36.621,-32.227,0
1579294846.198,44.922,35.156,32.715,34.180,-24.902,0
1579294846.202,37.598,34.668,37.598,29.785,43.945,0
1579294846.206,34.668,33.203,41.992,24.902,74.219,0
1579294846.203,35.156,35.645,38.086,28.320,16.113,0
1579294846.207,35.156,36.621,35.645,26.855,-5.859,0
1579294846.211,45.410,38.574,38.574,29.297,33.691,0
1579294846.215,41.504,40.039,38.574,26.855,40.039,0
1579294846.219,34.180,36.133,37.109,25.879,60.547,0
1579294846.223,30.762,35.645,36.621,31.250,61.035,0
1579294846.227,28.809,34.668,33.691,35.645,18.555,0
1579294846.230,29.785,31.250,33.691,37.109,35.645,0
1579294846.234,29.297,31.738,36.133,36.133,73.730,0
1579294846.238,28.320,30.273,36.133,41.992,87.891,0
1579294846.242,28.320,26.855,36.621,44.922,62.500,0
1579294846.246,28.320,28.320,36.621,44.434,13.672,0
1579294846.263,27.832,31.250,34.668,41.992,14.648,3
1579294846.267,27.832,34.180,30.273,40.039,51.270,0
1579294846.271,34.180,36.133,26.855,39.551,49.316,0
1579294846.275,36.621,36.133,26.367,41.992,-6.836,0
1579294846.279,35.645,37.109,27.344,41.504,13.672,0
1579294846.283,39.062,39.062,29.785,41.504,52.246,0
1579294846.287,38.574,37.598,31.738,43.457,42.480,0
1579294846.290,41.016,36.133,32.715,40.527,66.406,0
1579294846.294,44.434,37.109,36.621,37.598,66.406,0
1579294846.298,39.551,37.109,38.574,32.227,68.848,0
1579294846.302,36.621,36.621,37.598,30.762,68.359,0
1579294846.306,32.715,33.691,38.574,30.273,29.297,0
1579294846.303,31.250,32.715,35.645,22.949,30.762,0
1579294846.307,31.250,35.645,34.180,16.602,71.289,0
1579294846.311,30.762,36.133,33.203,16.602,59.082,0
1579294846.315,31.250,33.691,31.738,16.602,-8.301,0
1579294846.319,33.691,36.621,31.738,10.254,-20.996,0
1579294846.323,38.086,38.574,28.809,15.137,19.531,0
1579294846.327,39.062,32.227,31.250,30.273,26.367,0
1579294846.330,32.715,30.762,36.133,34.180,7.812,0
1579294846.334,29.297,32.227,39.551,38.574,32.715,0
1579294846.338,39.062,34.668,37.109,42.480,35.156,0
1579294846.342,37.109,35.156,36.621,38.086,-23.926,0
1579294846.346,29.297,33.203,37.109,37.109,-20.996,0
1579294846.343,30.273,34.180,31.250,39.551,20.020,0
1579294846.347,31.250,38.574,28.809,38.086,7.324,0
1579294846.351,33.691,39.062,31.738,34.180,16.113,0
1579294846.355,32.227,37.598,33.203,29.785,44.922,0
1579294846.359,29.297,39.062,36.133,33.203,53.711,0
1579294846.363,29.785,38.574,38.574,29.785,54.199,0
1579294846.367,27.832,35.156,38.086,25.391,49.805,0
1579294846.370,24.414,34.180,40.039,32.227,54.199,0
1579294846.374,24.902,34.668,44.434,32.227,72.754,0
1579294846.378,23.438,33.203,44.434,33.203,120.605,0
1579294846.382,23.438,32.715,44.922,32.227,71.777,0
1579294846.386,26.367,33.691,42.969,32.227,37.598,0
1579294846.403,29.785,34.180,39.062,42.969,-6.836,0
1579294846.407,32.227,34.668,36.133,44.434,-22.949,0
1579294846.411,33.691,33.691,36.621,39.062,42.969,0
1579294846.415,18.555,30.273,40.039,29.785,-7.324,0
1579294846.419,16.602,30.762,37.109,27.832,-4.395,0
1579294846.423,35.645,34.668,34.668,30.762,26.367,0
1579294846.427,30.762,33.691,33.691,23.438,7.812,0
1579294846.430,27.344,36.621,32.227,22.461,27.344,0
1579294846.434,39.551,38.574,31.738,33.691,20.508,0
1579294846.438,40.527,38.086,31.738,38.086,43.457,0
1579294846.442,38.086,37.598,33.691,40.039,87.402,0
1579294846.446,40.039,35.645,34.180,39.062,52.734,0
1579294846.443,33.691,34.668,35.156,30.762,39.551,0
1579294846.447,29.785,33.691,39.551,34.668,41.992,0
1579294846.451,26.367,31.738,38.086,40.527,62.012,0
1579294846.455,25.879,29.785,37.109,40.039,105.957,0
1579294846.459,25.391,28.320,36.621,39.062,96.191,0
1579294846.463,27.344,29.785,35.156,37.598,55.176,0
1579294846.467,30.273,31.250,33.203,43.457,1.465,0
1579294846.470,25.391,30.762,36.133,40.039,42.480,0
1579294846.474,27.344,34.180,36.133,37.109,67.383,0
1579294846.478,34.180,38.086,33.203,48.828,9.277,0
1579294846.482,29.297,37.598,33.203,45.898,21.484,0
1579294846.486,25.391,39.551,34.180,36.621,30.762,0
1579294846.483,24.902,39.062,33.691,32.715,18.555,0
1579294846.487,20.508,35.645,33.203,25.879,41.504,0
1579294846.491,20.020,36.133,34.180,24.414,38.086,0
1579294846.495,23.438,38.086,32.715,31.738,-1.953,0
1579294846.499,22.461,38.574,32.715,29.297,3.418,0
1579294846.503,23.926,39.551,29.785,27.832,29.785,0
1579294846.507,31.738,40.527,26.367,26.855,58.594,0
1579294846.510,37.109,41.992,27.832,22.949,44.922,0
1579294846.514,26.855,40.527,27.832,20.508,48.828,0
1579294846.518,20.996,37.598,25.879,14.160,44.922,0
1579294846.522,28.320,38.086,29.297,14.648,11.230,0
1579294846.526,30.273,36.621,32.227,20.996,24.414,0
1579294846.543,35.156,37.109,32.715,27.832,-10.742,0
1579294846.547,37.598,36.621,35.645,33.203,-18.066,0
1579294846.551,33.203,34.668,36.621,36.133,24.902,0
1579294846.555,35.645,36.621,36.621,43.457,87.891,0
1579294846.559,41.016,37.598,38.574,42.480,52.734,0
1579294846.563,40.527,38.086,36.621,36.133,-19.043,0
1579294846.567,34.668,37.109,36.133,32.227,38.574,0
1579294846.570,32.227,34.180,35.645,33.691,83.008,0
1579294846.574,31.738,36.133,35.156,35.645,46.387,0
1579294846.578,29.785,37.109,34.180,31.738,46.387,0
1579294846.582,25.879,32.715,37.109,33.203,49.805,0
1579294846.586,24.902,32.227,38.574,39.062,51.270,0
1579294846.583,27.344,33.691,34.668,38.574,23.438,0
1579294846.587,28.320,33.691,33.691,33.203,26.367,0
1579294846.591,27.344,33.203,36.621,29.297,73.730,0
1579294846.595,30.273,33.203,35.156,29.785,9.766,0
1579294846.599,31.250,35.156,33.203,30.273,-31.738,0
1579294846.603,40.039,37.109,33.691,32.227,41.992,0
1579294846.607,47.852,37.109,31.738,32.227,47.852,0
1579294846.610,39.551,35.156,30.762,28.809,32.227,0
1579294846.614,32.715,35.156,32.715,31.250,21.484,0
1579294846.618,33.203,35.156,30.762,32.715,5.371,0
1579294846.622,34.668,37.109,29.785,31.738,8.301,0
1579294846.626,35.156,36.133,34.180,33.691,4.395,0
1579294846.623,31.250,32.715,34.668,32.715,-30.273,0
1579294846.627,31.250,32.715,34.180,31.250,-50.781,0
1579294846.631,31.250,31.738,34.668,32.227,0.488,0
1579294846.635,28.320,32.715,36.621,31.738,11.719,0
1579294846.639,30.273,31.738,37.598,33.691,58.105,0
1579294846.643,29.785,31.738,36.621,33.203,98.633,0
1579294846.647,30.762,33.203,34.180,33.691,51.270,0
1579294846.650,39.062,37.109,33.691,36.133,59.570,0
1579294846.654,44.434,38.574,34.180,39.551,41.504,0
1579294846.658,47.363,36.621,33.691,45.898,43.945,0
1579294846.662,47.363,37.598,34.668,42.969,49.805,0
1579294846.666,42.480,40.527,36.133,42.969,16.602,0
1579294846.683,40.527,43.457,32.715,40.039,3.418,0
1579294846.687,39.551,41.992,32.227,33.203,23.926,0
1579294846.691,33.203,41.016,33.203,28.809,76.660,0
1579294846.695,31.738,41.992,31.738,25.879,94.238,0
1579294846.699,37.109,42.969,29.785,28.809,60.547,0
1579294846.703,33.203,41.016,31.738,28.809,34.668,0
1579294846.707,33.691,37.598,32.715,27.344,59.570,0
1579294846.710,26.367,36.621,31.250,26.367,74.707,0
1579294846.714,25.391,37.598,32.227,30.273,62.988,0
1579294846.718,40.039,38.086,34.668,36.621,17.090,0
1579294846.722,42.969,39.062,33.203,36.133,-0.977,0
1579294846.726,43.945,42.480,32.715,32.227,41.992,0
1579294846.723,45.898,41.992,33.691,26.367,75.195,0
1579294846.727,44.922,40.527,34.180,27.832,36.133,0
1579294846.731,36.133,39.062,32.227,32.715,18.555,0
1579294846.735,25.879,37.109,32.227,34.180,26.367,0
1579294846.739,25.391,36.621,34.668,31.250,19.531,0
1579294846.743,25.879,36.133,34.668,28.809,17.090,0
1579294846.747,24.902,34.180,35.645,36.133,33.203,0
1579294846.750,29.785,34.668,36.621,36.133,-4.395,0
1579294846.754,34.180,33.691,33.691,33.691,-28.809,0
1579294846.758,33.203,33.203,33.203,39.062,64.941,0
1579294846.762,30.273,33.691,34.668,41.504,99.121,0
1579294846.766,31.250,32.227,34.180,42.969,67.871,0
1579294846.763,36.621,31.738,35.156,39.551,22.461,0
1579294846.767,36.133,31.250,34.668,33.203,43.945,0
1579294846.771,35.156,33.691,34.668,35.156,73.730,0
1579294846.775,34.180,33.691,35.156,41.016,48.828,0
1579294846.779,32.227,33.691,32.227,39.062,24.414,0
1579294846.783,36.133,35.645,31.738,32.715,11.719,0
1579294846.787,35.645,36.621,31.250,32.715,-37.598,0
1579294846.790,33.691,38.574,30.762,35.156,-18.066,0
1579294846.794,31.738,37.598,30.273,32.715,42.480,0
1579294846.798,30.273,36.621,27.832,22.461,47.363,0
1579294846.802,31.738,40.039,29.785,24.414,38.574,0
1579294846.806,29.785,37.109,31.738,32.715,35.645,0
1579294846.823,28.320,35.156,33.203,28.809,16.113,0
1579294846.827,29.785,37.109,34.668,20.020,-3.418,0
1579294846.831,26.855,35.156,34.668,16.602,11.719,0
1579294846.835,22.949,33.691,37.598,19.043,55.664,0
1579294846.839,20.508,34.180,39.062,26.855,15.137,0
1579294846.843,19.531,35.156,36.133,22.949,28.809,0
1579294846.847,20.508,34.668,36.133,17.578,52.734,0
1579294846.850,21.973,31.250,37.109,24.902,14.648,0
1579294846.854,26.367,31.250,35.645,36.621,41.504,0
1579294846.858,29.785,35.156,33.203,40.039,40.527,0
1579294846.862,27.344,37.598,34.668,37.109,88.867,0
1579294846.866,25.879,35.645,36.133,38.086,40.527,0
1579294846.864,25.879,33.691,34.180,40.039,-18.066,0
1579294846.868,29.297,35.156,33.203,39.551,67.871,0
1579294846.872,34.668,39.062,32.227,35.156,45.898,0
1579294846.876,38.086,39.551,30.762,31.738,-6.348,0
1579294846.880,37.109,38.086,30.762,32.227,2.441,0
1579294846.884,36.621,37.109,31.738,34.180,14.648,0
1579294846.888,37.598,38.574,31.250,28.809,55.176,0
1579294846.891,36.621,38.574,28.320,24.414,54.688,0
1579294846.895,35.156,40.039,30.273,27.832,65.918,0
1579294846.899,34.180,40.527,33.203,30.762,39.551,0
1579294846.903,30.762,37.598,34.180,33.203,-12.207,0
1579294846.907,24.902,36.621,34.668,32.715,-0.977,0
1579294846.903,21.484,38.086,37.109,29.785,54.688,0
1579294846.907,20.508,38.086,38.574,25.879,92.773,0
1579294846.911,23.926,38.574,34.180,22.949,41.016,0
1579294846.915,26.367,41.016,32.227,21.973,31.250,0
1579294846.919,33.691,39.551,32.227,30.273,13.184,0
1579294846.923,44.434,36.133,32.227,38.574,13.672,0
1579294846.927,44.434,33.691,32.227,38.086,77.637,0
1579294846.930,41.992,33.203,29.297,37.598,48.340,0
1579294846.934,48.340,33.691,27.344,38.574,37.109,0
1579294846.938,50.781,32.715,31.738,46.387,50.781,0
1579294846.942,42.969,32.227,34.668,51.270,11.230,0
1579294846.946,38.574,31.738,34.180,43.457,1.465,0
1579294846.963,32.715,32.715,37.109,33.203,-2.930,0
1579294846.967,20.508,34.180,35.645,30.273,41.504,0
1579294846.971,18.555,33.691,31.738,33.691,74.707,0
1579294846.975,16.113,32.715,33.203,34.668,51.270,0
1579294846.979,15.625,37.598,30.273,27.832,52.246,0
1579294846.983,21.484,40.039,26.367,24.902,44.434,0
1579294846.987,25.391,36.621,25.879,38.086,-20.996,0
1579294846.990,32.715,38.086,26.367,38.574,-17.578,0
1579294846.994,38.086,40.527,27.344,32.227,29.785,0
1579294846.998,41.504,37.598,27.832,36.133,22.949,0
1579294847.002,46.875,38.574,28.320,39.551,52.246,0
1579294847.006,51.270,39.551,29.297,38.574,-1.465,0
1579294847.003,52.246,40.039,29.785,37.598,-27.832,0
1579294847.007,49.316,40.039,28.320,33.691,51.270,0
1579294847.011,47.852,39.551,28.809,30.762,32.227,0
1579294847.015,47.363,41.504,30.762,33.203,47.852,0
1579294847.019,37.598,40.527,26.367,26.367,48.340,0
1579294847.023,31.738,40.527,24.902,20.996,4.883,0
1579294847.027,24.414,40.039,26.855,24.414,70.801,0
1579294847.030,21.484,38.086,30.762,24.414,79.102,0
1579294847.034,21.973,38.086,31.250,20.996,38.086,0
1579294847.038,21.973,39.062,27.832,20.020,95.215,0
1579294847.042,23.926,37.109,30.273,20.508,66.895,0
1579294847.046,23.926,37.598,33.691,30.273,23.438,0
1579294847.063,27.344,39.551,31.250,33.691,60.547,0
1579294847.067,26.367,39.551,29.297,30.273,86.914,0
1579294847.071,26.855,36.621,29.785,29.785,78.125,0
1579294847.075,23.438,34.668,30.762,31.250,57.129,0
1579294847.079,20.996,36.133,30.762,37.598,46.387,0
1579294847.083,20.020,35.156,32.715,33.203,18.555,0
1579294847.087,14.160,33.691,31.250,30.273,13.184,0
1579294847.090,14.648,32.227,29.297,27.344,36.133,0
1579294847.094,17.578,32.227,31.738,25.879,31.738,0
1579294847.098,19.531,31.738,32.227,30.273,17.578,0
1579294847.102,21.973,32.715,33.203,24.902,25.391,0
1579294847.106,24.414,32.715,36.133,26.855,14.160,0
1579294847.103,29.297,32.715,33.691,35.156,-22.949,0
1579294847.107,29.785,35.156,31.250,25.879,-28.809,0
1579294847.111,31.250,35.156,31.250,22.949,-30.273,0
1579294847.115,33.691,36.621,32.227,31.250,10.254,0
1579294847.119,33.203,36.621,34.180,25.391,79.590,0
1579294847.123,34.180,38.086,33.691,29.297,71.777,0
1579294847.127,34.668,41.016,32.715,31.738,4.395,0
1579294847.130,35.156,40.527,31.738,23.926,-32.715,0
1579294847.134,39.062,41.016,32.227,32.227,-17.578,0
1579294847.138,37.598,39.551,32.227,32.715,6.348,0
1579294847.142,34.668,37.109,33.203,25.391,65.918,0
1579294847.146,37.598,40.527,33.203,28.320,60.059,0
1579294847.143,31.738,40.039,35.645,33.203,22.461,0
1579294847.147,31.738,37.109,35.156,31.250,49.805,0
1579294847.151,38.086,34.668,32.715,27.344,11.719,0
1579294847.155,37.598,37.109,34.668,31.738,61.035,0
1579294847.159,41.504,41.016,32.227,38.574,40.039,0
1579294847.163,38.574,38.574,31.250,35.156,0.000,0
1579294847.167,36.621,38.086,31.738,32.227,55.664,0
1579294847.170,34.180,36.133,28.809,31.738,42.969,0
1579294847.174,29.785,35.156,31.738,30.273,86.426,0
1579294847.178,29.785,36.621,34.180,28.809,88.867,0
1579294847.182,27.832,34.668,35.156,34.668,40.039,0
1579294847.186,31.738,36.133,32.715,32.227,56.641,0
1579294847.203,34.180,36.621,31.738,27.832,51.270,0
1579294847.207,34.668,37.598,35.645,34.668,56.152,0
1579294847.211,31.738,35.156,34.180,31.738,32.227,0
1579294847.215,26.367,33.203,30.762,24.414,-15.137,0
1579294847.219,23.926,33.203,32.715,23.438,43.945,0
1579294847.223,21.973,33.691,34.668,23.438,32.715,0
1579294847.227,20.020,34.668,33.691,21.973,-20.996,0
1579294847.230,20.508,36.621,32.227,19.531,38.574,0
1579294847.234,21.973,38.086,33.203,17.090,80.566,0
1579294847.238,26.367,35.645,35.156,20.020,79.590,0
1579294847.242,32.227,33.203,34.668,25.391,40.039,0
1579294847.246,29.297,34.180,35.156,24.414,7.324,0
1579294847.243,31.738,37.109,35.645,25.391,20.996,0
1579294847.247,40.527,37.598,36.621,34.180,25.391,0
1579294847.251,41.504,36.133,35.645,38.086,47.852,0
1579294847.255,40.039,37.598,33.691,39.062,62.500,0
1579294847.259,41.992,36.621,34.668,36.621,35.645,0
1579294847.263,41.504,34.180,33.691,34.180,20.996,0
1579294847.267,37.109,35.156,30.762,38.086,22.461,0
1579294847.270,35.156,36.133,32.227,36.133,75.684,0
1579294847.274,29.297,33.691,29.785,30.762,66.895,0
1579294847.278,18.066,31.250,27.832,27.832,-43.457,0
1579294847.282,10.254,31.250,26.855,22.949,-44.922,0
1579294847.286,6.348,31.738,27.344,19.531,7.324,0
1579294847.283,2.930,32.715,32.227,20.020,42.480,0
1579294847.287,8.301,34.668,33.203,20.020,53.711,0
1579294847.291,16.602,33.691,32.715,23.926,47.363,0
1579294847.295,18.066,37.598,31.250,16.113,26.367,0
1579294847.299,21.973,43.457,29.297,9.766,22.949,0
1579294847.303,26.367,41.504,27.344,7.812,57.617,0
1579294847.307,32.227,37.109,26.367,10.254,92.285,0
1579294847.310,32.715,35.645,27.832,15.625,59.570,0
1579294847.314,29.297,35.156,30.762,13.184,45.898,0
1579294847.318,31.738,35.156,31.250,15.137,49.805,0
1579294847.322,35.156,35.156,31.250,20.996,16.602,0
1579294847.326,35.645,34.668,32.715,23.926,6.348,0
1579294847.343,36.621,34.180,34.180,28.809,61.523,3
1579294847.347,38.086,33.203,34.180,28.320,-2.441,0
1579294847.351,35.156,34.180,34.180,23.438,-6.836,0
1579294847.355,30.762,35.156,33.203,28.320,-1.953,0
1579294847.359,30.273,33.691,30.273,32.715,18.066,0
1579294847.363,28.809,34.180,32.227,28.320,86.914,0
1579294847.367,23.926,33.691,33.203,26.855,20.020,0
1579294847.370,22.461,34.180,29.785,31.738,4.395,0
1579294847.374,22.949,38.086,30.273,36.621,66.895,0
1579294847.378,21.484,37.598,32.227,32.715,67.871,0
1579294847.382,15.137,35.156,32.227,27.832,6.348,0
1579294847.386,15.625,37.109,30.273,30.273,-9.766,0
1579294847.383,19.531,37.109,28.320,33.691,44.922,0
1579294847.387,19.531,38.086,27.344,36.133,52.246,0
1579294847.391,22.949,39.551,30.273,31.738,27.344,0
1579294847.395,25.391,38.086,29.785,31.250,55.176,0
1579294847.399,25.879,35.156,33.203,30.273,48.828,0
1579294847.403,29.297,33.691,34.668,22.949,44.434,0
1579294847.407,28.320,33.691,30.273,21.484,31.738,0
1579294847.410,26.367,33.691,33.691,25.879,44.922,0
1579294847.414,24.902,33.691,37.109,28.809,62.012,0
1579294847.418,19.043,34.180,36.621,36.133,74.219,0
1579294847.422,11.230,34.668,39.551,34.180,64.941,0
1579294847.426,8.789,35.645,36.133,22.461,72.754,0
1579294847.423,14.648,35.645,30.762,31.250,26.855,0
1579294847.427,22.949,36.621,32.227,41.992,-5.859,0
1579294847.431,27.832,37.109,31.738,42.480,36.133,0
1579294847.435,31.738,37.598,34.668,49.316,-18.555,0
1579294847.439,37.109,41.016,35.156,53.711,15.625,0
1579294847.443,41.016,38.574,31.738,49.316,71.289,0
1579294847.447,44.434,39.062,31.250,46.387,35.645,0
1579294847.450,45.410,41.992,32.227,39.062,12.207,0
1579294847.454,44.434,39.062,31.738,28.809,47.852,0
1579294847.458,43.945,36.621,30.762,29.785,47.852,0
1579294847.462,38.086,35.645,31.738,29.297,34.180,0
1579294847.466,29.785,37.109,31.738,21.484,73.242,0
1579294847.483,27.344,37.109,32.227,17.578,28.809,0
1579294847.487,27.832,35.156,32.715,16.602,27.832,0
1579294847.491,27.832,35.156,31.250,14.648,-0.488,0
1579294847.495,29.297,33.203,31.738,20.020,-30.762,0
1579294847.499,34.180,31.250,33.203,24.902,30.273,0
1579294847.503,35.156,33.203,32.227,25.879,9.277,0
1579294847.507,33.691,36.133,31.738,31.738,41.016,0
1579294847.510,32.715,37.109,29.785,32.715,25.879,0
1579294847.514,27.832,35.156,28.320,22.461,12.695,0
1579294847.518,25.391,37.109,25.879,22.461,39.062,0
1579294847.522,20.996,37.109,25.879,24.414,-19.043,0
1579294847.526,14.648,35.156,25.879,22.949,47.363,0
1579294847.523,19.043,36.133,26.367,23.926,72.754,0
1579294847.527,17.578,35.645,28.320,22.949,23.926,0
1579294847.531,16.113,37.109,32.227,29.785,43.945,0
1579294847.535,21.973,35.645,34.180,37.109,39.062,0
1579294847.539,24.902,34.668,36.133,38.086,60.547,0
1579294847.543,31.738,36.621,38.574,38.086,63.477,0
1579294847.547,36.621,34.180,38.086,39.062,21.973,0
1579294847.550,41.504,32.227,36.133,45.410,-8.301,0
1579294847.554,45.898,35.645,34.668,50.781,4.395,0
1579294847.558,46.387,34.668,32.715,46.387,32.715,0
1579294847.562,44.434,35.645,32.227,48.340,84.473,0
1579294847.566,45.898,39.551,32.715,56.641,94.727,0
1579294847.563,44.922,36.621,27.344,49.316,65.430,0
1579294847.567,37.109,35.156,26.367,36.621,41.016,0
1579294847.571,36.621,36.621,28.320,28.320,26.367,0
1579294847.575,34.180,36.133,26.855,23.438,37.109,0
1579294847.579,34.180,36.133,27.832,25.391,39.551,0
1579294847.583,32.715,36.621,29.297,20.508,-7.812,0
1579294847.587,26.367,37.109,28.809,19.531,31.250,0
1579294847.590,26.367,33.203,28.320,25.391,37.109,0
1579294847.594,23.438,31.250,29.785,30.273,-20.996,0
1579294847.598,28.809,33.691,34.180,32.715,41.504,0
1579294847.602,40.039,36.133,36.621,37.598,34.668,0
1579294847.606,41.016,33.691,37.598,37.598,-27.344,0
1579294847.623,46.387,35.156,38.574,38.574,38.574,0
1579294847.627,52.246,37.598,37.109,46.387,123.535,0
1579294847.631,52.246,37.109,33.691,47.363,107.910,0
1579294847.635,47.852,37.598,34.668,40.039,43.457,0
1579294847.639,42.969,36.621,35.645,39.551,54.199,0
1579294847.643,37.598,32.715,35.156,40.527,73.730,0
1579294847.647,30.762,33.691,35.156,31.738,49.805,0
1579294847.650,24.414,33.203,35.645,24.902,44.434,0
1579294847.654,17.090,28.809,32.715,28.320,38.574,0
1579294847.658,15.137,31.250,28.809,33.691,6.836,0
1579294847.662,16.113,32.715,29.785,36.621,-3.418,0
1579294847.666,19.531,35.156,30.273,35.645,13.184,0
1579294847.663,32.715,40.039,29.297,40.527,57.617,0
1579294847.667,43.457,40.527,28.320,46.875,68.359,0
1579294847.671,45.410,39.062,28.809,43.457,45.898,0
1579294847.675,49.316,39.551,30.273,40.039,52.734,0
1579294847.679,44.922,40.039,28.809,37.598,61.035,0
1579294847.683,37.109,39.551,25.879,33.203,23.438,0
1579294847.687,40.039,39.551,26.367,26.855,42.480,0
1579294847.690,40.527,38.086,29.297,13.672,21.973,0
1579294847.694,37.109,35.645,31.250,14.160,-1.465,0
1579294847.698,39.551,37.109,31.250,27.344,65.918,0
1579294847.702,36.133,37.598,29.785,26.367,12.207,0
1579294847.706,34.668,37.109,29.785,21.973,-15.137,0
1579294847.703,36.621,38.574,30.273,28.809,50.781,0
1579294847.707,37.598,37.109,31.738,35.156,45.898,0
1579294847.711,36.621,32.715,31.250,29.785,56.641,0
1579294847.715,34.180,32.715,31.250,24.902,84.961,0
1579294847.719,34.668,35.156,31.738,24.414,61.523,0
1579294847.723,38.086,35.156,30.273,26.367,24.414,0
1579294847.727,44.922,37.109,28.809,34.180,29.297,0
1579294847.730,42.480,40.039,28.320,35.645,61.035,0
1579294847.734,35.156,36.621,28.320,29.297,45.410,0
1579294847.738,37.109,38.574,27.832,27.344,37.109,0
1579294847.742,39.062,41.992,28.809,34.180,29.785,0
1579294847.746,40.039,37.109,31.250,41.992,27.344,0
1579294847.763,42.969,34.180,31.738,46.875,-12.695,0
1579294847.767,38.086,32.227,32.715,40.527,13.184,0
1579294847.771,37.109,30.762,38.574,40.527,63.477,0
1579294847.775,40.527,29.785,41.992,44.434,17.578,0
1579294847.779,37.109,25.879,42.480,40.039,27.832,0
1579294847.783,37.598,28.809,40.039,40.039,31.738,0
1579294847.787,39.551,33.691,38.086,36.621,21.973,0
1579294847.790,33.691,34.180,38.086,31.250,20.020,0
1579294847.794,35.156,35.645,34.180,29.785,28.809,0
1579294847.798,40.527,40.527,27.832,25.391,4.883,0
1579294847.802,35.645,41.504,27.832,24.902,-39.551,0
1579294847.806,31.250,41.016,29.785,21.973,-41.992,0
1579294847.804,30.273,39.551,29.785,16.602,28.320,0
1579294847.808,29.297,41.016,30.762,9.766,65.430,0
1579294847.812,27.832,42.480,33.203,7.812,55.176,0
1579294847.816,29.297,38.086,34.668,18.555,41.504,0
1579294847.820,33.203,36.621,32.227,26.367,23.926,0
1579294847.824,31.738,36.133,31.738,24.414,28.320,0
1579294847.828,26.855,36.133,31.250,19.531,37.109,0
1579294847.831,24.902,37.109,29.785,23.926,24.902,0
1579294847.835,21.973,33.203,31.250,28.320,-7.324,0
1579294847.839,18.066,29.785,33.203,27.832,47.852,0
1579294847.843,20.996,29.297,33.691,33.691,66.895,0
1579294847.847,24.902,29.785,35.645,41.016,16.602,0
1579294847.843,30.762,31.738,38.086,45.898,49.805,0
1579294847.847,37.109,32.715,38.086,46.387,62.012,0
1579294847.851,34.668,34.668,39.062,42.480,66.895,0
1579294847.855,27.344,35.645,37.598,39.062,48.828,0
1579294847.859,23.438,37.598,34.668,40.039,19.043,0
1579294847.863,29.785,42.480,34.668,39.551,17.090,0
1579294847.867,34.668,41.992,34.668,36.133,3.906,0
1579294847.870,30.273,38.086,32.715,31.738,8.301,0
1579294847.874,30.762,38.574,29.297,27.344,25.879,0
1579294847.878,36.133,40.039,24.902,23.926,36.133,0
1579294847.882,40.039,40.039,22.461,21.973,71.289,0
1579294847.886,40.039,39.062,27.344,22.949,23.438,0
1579294847.903,29.297,34.668,35.645,28.809,11.719,0
1579294847.907,17.578,32.227,37.109,23.926,22.461,0
1579294847.911,18.066,32.227,35.156,17.578,3.906,0
1579294847.915,23.438,31.738,35.156,21.484,32.715,0
1579294847.919,22.949,32.227,36.621,18.555,-24.902,0
1579294847.923,25.879,32.715,36.133,20.508,6.836,0
1579294847.927,26.855,34.180,37.109,20.508,56.152,0
1579294847.930,25.879,33.203,36.621,13.184,14.160,0
1579294847.934,26.855,34.668,32.715,20.508,19.531,0
1579294847.938,26.855,35.645,28.809,20.996,9.277,0
1579294847.942,26.367,35.156,29.785,20.508,0.000,0
1579294847.946,27.344,38.574,34.180,22.949,28.320,0
1579294847.943,29.297,38.086,34.668,16.602,89.355,0
1579294847.947,27.832,36.621,34.668,23.438,61.523,0
1579294847.951,24.902,38.574,34.668,34.180,90.820,0
1579294847.955,20.508,37.109,35.156,36.133,65.918,0
1579294847.959,18.066,37.598,34.668,34.668,49.805,0
1579294847.963,16.602,38.086,33.691,34.180,104.004,0
1579294847.967,15.137,36.621,29.785,32.227,30.762,0
1579294847.970,14.160,38.086,28.809,27.344,-35.645,0
1579294847.974,16.113,38.086,29.785,31.738,-16.602,0
1579294847.978,25.879,37.598,31.250,37.598,-7.324,0
1579294847.982,34.180,36.621,32.227,39.062,25.879,0
