timestamps,TP9,AF7,AF8,TP10,Right AUX,Marker0
1579965887.094,-969.238,-517.578,-559.570,-872.559,-630.371,0
1579965887.098,-969.238,-387.207,-595.215,-1000.000,-658.203,0
1579965887.102,-969.238,-449.219,-502.930,-353.027,-567.871,0
1579965887.106,-969.238,-609.863,-423.828,677.246,-459.473,0
1579965887.110,-969.238,-563.477,-494.141,-375.000,-483.887,0
1579965887.114,-969.238,-393.555,-552.246,-1000.000,-479.492,0
1579965887.117,-969.238,-392.090,-465.820,-688.965,-347.656,0
1579965887.121,-969.238,-565.918,-447.754,356.445,-533.691,0
1579965887.125,-969.238,-573.242,-461.914,-111.816,-395.508,0
1579965887.129,-969.238,-395.020,-478.027,-1000.000,-199.219,0
1579965887.133,-969.238,-376.465,-514.648,-944.824,-504.883,0
1579965887.137,-969.238,-526.855,-461.426,169.922,-579.102,0
1579965887.141,-969.238,-598.633,-458.008,31.250,-496.582,0
1579965887.145,-969.238,-449.707,-527.832,-1000.000,-471.191,0
1579965887.149,-969.238,-371.094,-548.340,-1000.000,-584.473,0
1579965887.153,-969.238,-471.191,-470.215,-124.023,-563.965,0
1579965887.156,-969.238,-601.074,-445.312,342.773,-561.523,0
1579965887.160,-969.238,-491.699,-513.672,-869.629,-528.320,0
1579965887.164,-969.238,-330.566,-443.848,-1000.000,-179.688,0
1579965887.168,-969.238,-386.230,-365.723,-473.145,-176.758,0
1579965887.172,-969.238,-575.195,-416.504,395.996,-555.176,0
1579965887.176,-969.238,-547.852,-512.207,-484.375,-659.668,0
1579965887.180,-969.238,-385.742,-558.594,-1000.000,-624.023,0
1579965887.184,-969.238,-369.629,-468.750,-775.391,-480.957,0
1579965887.188,-969.238,-528.320,-409.668,301.758,-534.180,0
1579965887.192,-969.238,-569.336,-467.285,-100.586,-618.652,0
1579965887.196,-969.238,-415.039,-558.105,-1000.000,-679.688,0
1579965887.199,-969.238,-347.168,-477.539,-984.375,-476.562,0
1579965887.203,-969.238,-475.098,-367.188,152.832,-382.812,0
1579965887.207,-969.238,-579.590,-381.836,215.820,-435.547,0
1579965887.211,-969.238,-444.824,-470.215,-957.520,-450.195,0
1579965887.215,-969.238,-356.445,-537.598,-1000.000,-683.105,0
1579965887.219,-969.238,-429.688,-395.996,-102.539,-391.602,0
1579965887.223,-969.238,-563.965,-286.621,611.816,-130.371,0
1579965887.227,-969.238,-501.953,-450.684,-733.887,-484.375,0
1579965887.231,-969.238,-371.094,-555.176,-1000.000,-700.684,0
1579965887.235,-969.238,-404.785,-480.957,-601.074,-617.676,0
1579965887.239,-969.238,-551.270,-390.137,320.801,-488.770,0
1579965887.242,-969.238,-543.457,-460.938,-322.266,-574.219,0
1579965887.246,-969.238,-393.555,-564.453,-1000.000,-707.520,0
1579965887.250,-969.238,-370.605,-506.348,-823.242,-620.605,0
1579965887.254,-969.238,-522.461,-387.695,435.059,-439.453,0
1579965887.258,-969.238,-558.105,-333.008,108.398,-129.883,0
1579965887.262,-969.238,-403.809,-445.312,-1000.000,-270.020,0
1579965887.266,-969.238,-363.770,-533.203,-1000.000,-650.879,0
1579965887.270,-969.238,-495.117,-451.660,112.793,-607.910,0
1579965887.274,-969.238,-601.074,-432.617,257.324,-533.691,0
1579965887.278,-969.238,-466.797,-514.648,-980.469,-514.648,0
1579965887.281,-969.238,-368.652,-562.988,-1000.000,-656.738,0
1579965887.285,-969.238,-449.707,-476.562,-212.402,-584.961,0
1579965887.289,-969.238,-618.164,-438.965,669.434,-596.191,0
1579965887.293,-969.238,-541.992,-500.488,-531.738,-542.969,0
1579965887.297,-969.238,-372.070,-540.039,-1000.000,-516.602,0
1579965887.301,-969.238,-405.273,-456.543,-400.391,-424.805,0
1579965887.305,-969.238,-591.797,-367.676,885.254,-354.492,0
1579965887.309,-970.703,-609.863,-499.023,-38.574,-649.902,0
1579965887.313,-962.891,-402.832,-541.016,-1000.000,-457.520,0
1579965887.317,-982.422,-343.262,-414.062,-804.199,-134.766,0
1579965887.321,-934.082,-541.992,-403.809,570.801,-451.172,0
1579965887.324,-885.254,-631.348,-480.957,297.363,-651.855,0
1579965887.328,-959.473,-461.426,-582.520,-1000.000,-669.922,0
1579965887.332,-985.352,-365.234,-546.387,-1000.000,-556.641,0
1579965887.336,-948.730,-490.723,-441.406,181.641,-483.398,0
1579965887.340,-841.309,-644.043,-451.660,606.445,-602.051,0
1579965887.344,-931.641,-519.531,-553.711,-803.223,-639.648,0
1579965887.348,-981.445,-359.375,-551.270,-1000.000,-516.113,0
1579965887.352,-986.816,-406.250,-358.398,-73.730,-73.730,0
1579965887.356,-795.410,-598.633,-323.242,905.762,-176.758,0
1579965887.360,-812.500,-571.289,-520.020,-363.281,-643.066,0
1579965887.363,-997.559,-396.973,-604.492,-1000.000,-696.777,0
1579965887.367,-970.215,-402.832,-515.625,-524.414,-560.547,0
1579965887.371,-933.594,-571.777,-380.859,895.508,-350.586,0
1579965887.375,-920.898,-598.145,-445.801,138.184,-474.121,0
1579965887.379,-975.098,-424.805,-580.078,-1000.000,-661.133,0
1579965887.383,-968.750,-369.629,-551.270,-894.043,-642.090,0
1579965887.387,-968.262,-515.137,-418.945,481.934,-459.473,0
1579965887.391,-969.238,-601.074,-421.387,302.246,-448.242,0
1579965887.395,-969.238,-436.035,-517.090,-1000.000,-476.562,0
1579965887.399,-969.238,-338.867,-497.070,-1000.000,-421.387,0
1579965887.403,-969.238,-468.750,-459.961,12.695,-577.637,0
1579965887.406,-969.238,-618.164,-394.531,822.266,-400.879,0
1579965887.410,-969.238,-498.047,-416.992,-496.582,-198.242,0
1579965887.414,-969.238,-357.910,-541.504,-1000.000,-554.688,0
1579965887.418,-969.238,-415.039,-495.605,-340.332,-614.258,0
1579965887.422,-969.238,-593.750,-432.129,776.367,-583.496,0
1579965887.426,-969.238,-558.594,-494.141,-254.883,-575.684,0
1579965887.430,-969.238,-375.977,-541.504,-1000.000,-533.691,0
1579965887.434,-969.238,-372.559,-485.840,-687.012,-507.324,0
1579965887.438,-969.238,-549.316,-401.367,696.777,-473.145,0
1579965887.442,-969.238,-589.844,-431.152,167.969,-470.703,0
1579965887.446,-969.238,-382.812,-444.824,-1000.000,-180.664,0
1579965887.449,-969.238,-321.289,-427.246,-1000.000,-216.309,0
1579965887.453,-969.238,-493.164,-434.570,247.559,-558.105,0
1579965887.457,-969.238,-604.492,-467.285,292.480,-645.508,0
1579965887.461,-969.238,-458.984,-552.246,-982.422,-621.582,0
1579965887.465,-969.238,-348.633,-529.785,-1000.000,-527.344,0
1579965887.469,-969.238,-441.406,-453.613,-232.910,-539.062,0
1579965887.473,-969.238,-591.309,-435.059,460.449,-578.613,0
1579965887.477,-969.238,-513.672,-537.598,-713.867,-663.574,0
1579965887.481,-969.238,-357.422,-554.199,-1000.000,-575.684,0
1579965887.485,-969.238,-388.184,-452.148,-508.301,-426.758,0
1579965887.488,-969.238,-557.129,-383.301,585.938,-392.578,0
1579965887.492,-969.238,-544.434,-426.758,-166.992,-360.840,0
1579965887.496,-969.238,-397.461,-561.523,-1000.000,-619.629,0
1579965887.500,-969.238,-374.512,-476.562,-599.121,-421.387,0
1579965887.504,-969.238,-534.668,-310.059,760.254,-100.098,0
1579965887.508,-969.238,-598.633,-437.012,0.977,-482.910,0
1579965887.512,-968.750,-433.105,-589.844,-1000.000,-685.059,0
1579965887.516,-969.727,-368.652,-570.312,-1000.000,-642.578,0
1579965887.520,-968.750,-497.559,-446.777,223.145,-481.934,0
1579965887.524,-965.332,-624.512,-441.895,449.219,-509.277,0
1579965887.528,-965.332,-496.094,-571.289,-943.848,-639.648,0
1579965887.531,-971.680,-376.953,-590.820,-1000.000,-630.371,0
1579965887.535,-972.168,-458.984,-461.914,-75.684,-426.270,0
1579965887.539,-899.414,-610.840,-325.684,969.238,-89.844,0
1579965887.543,-927.734,-546.875,-438.965,-309.570,-244.629,0
1579965887.547,-948.730,-392.578,-577.637,-1000.000,-538.574,0
1579965887.551,-1000.000,-417.969,-520.508,-532.227,-514.648,0
1579965887.555,-368.652,-602.539,-454.102,833.984,-517.090,0
1579965887.559,-189.941,-609.375,-497.070,107.910,-493.164,0
1579965887.563,-952.148,-435.059,-612.793,-1000.000,-635.254,0
1579965887.567,-1000.000,-395.508,-570.312,-821.289,-593.750,0
1579965887.570,-319.824,-561.035,-477.539,583.008,-551.270,0
1579965887.574,496.094,-629.395,-482.910,350.586,-506.348,0
1579965887.578,-606.445,-458.496,-569.824,-1000.000,-493.164,0
1579965887.582,-1000.000,-366.699,-558.105,-1000.000,-460.449,0
1579965887.586,-571.289,-485.352,-429.688,118.652,-289.062,0
1579965887.590,806.641,-641.602,-466.309,648.438,-537.109,0
1579965887.594,119.141,-507.812,-543.457,-766.602,-444.336,0
1579965887.598,-1000.000,-351.074,-499.023,-1000.000,-166.504,0
1579965887.602,-776.855,-452.148,-484.863,-257.324,-421.875,0
1579965887.606,644.531,-625.977,-457.031,805.176,-489.746,0
1579965887.610,462.402,-568.848,-550.293,-270.508,-579.590,0
1579965887.613,-989.746,-399.902,-620.117,-1000.000,-589.844,0
1579965887.617,-1000.000,-418.945,-541.504,-522.461,-498.535,0
1579965887.621,292.969,-604.980,-479.980,757.324,-546.387,0
1579965887.625,773.926,-608.887,-534.668,-14.648,-590.332,0
1579965887.629,-632.324,-422.852,-593.750,-1000.000,-515.625,0
1579965887.633,-1000.000,-367.188,-454.102,-667.480,-117.676,0
1579965887.637,-175.781,-546.875,-366.699,786.621,-145.508,0
1579965887.641,951.660,-652.344,-498.535,390.137,-597.656,0
1579965887.645,-245.605,-482.422,-620.117,-1000.000,-662.109,0
1579965887.649,-1000.000,-370.117,-579.590,-1000.000,-493.652,0
1579965887.653,-650.879,-489.746,-460.938,210.449,-388.184,0
1579965887.656,611.816,-648.438,-470.215,698.730,-580.078,0
1579965887.660,-12.695,-528.809,-574.707,-687.988,-642.090,0
1579965887.664,-1000.000,-374.512,-587.891,-1000.000,-556.152,0
1579965887.668,-1000.000,-428.711,-473.633,-240.234,-400.879,0
1579965887.672,-169.922,-613.281,-418.457,939.453,-432.129,0
1579965887.676,-162.109,-570.312,-493.652,-185.547,-475.098,0
1579965887.680,-1000.000,-384.766,-547.852,-1000.000,-434.082,0
1579965887.684,-998.047,-393.066,-531.738,-686.035,-583.984,0
1579965887.688,-769.531,-551.758,-402.832,725.586,-362.305,0
1579965887.692,-725.098,-583.984,-376.465,264.160,-161.621,0
1579965887.695,-985.352,-433.105,-557.129,-1000.000,-552.246,0
1579965887.699,-980.469,-368.652,-570.312,-1000.000,-636.230,0
1579965887.703,-936.523,-507.324,-463.867,324.707,-544.922,0
1579965887.707,-900.879,-611.816,-451.172,394.043,-524.414,0
1579965887.711,-966.309,-465.332,-550.293,-961.426,-578.125,0
1579965887.715,-973.633,-358.887,-580.078,-1000.000,-663.574,0
1579965887.719,-965.820,-433.105,-455.566,-199.219,-471.191,0
1579965887.723,-969.727,-576.172,-386.230,574.219,-352.539,0
1579965887.727,-969.238,-479.004,-407.227,-636.230,-152.344,0
1579965887.731,-969.238,-333.008,-462.891,-1000.000,-257.324,0
1579965887.735,-969.238,-403.809,-481.445,-513.184,-577.637,0
1579965887.738,-969.238,-544.922,-443.359,197.754,-565.918,0
1579965887.742,-969.238,-508.301,-493.652,-592.773,-551.270,0
1579965887.746,-969.238,-367.188,-537.598,-1000.000,-548.340,0
1579965887.750,-969.238,-365.234,-500.488,-879.395,-605.469,0
1579965887.754,-969.238,-491.211,-416.992,-90.820,-537.598,0
1579965887.758,-969.238,-523.926,-453.125,-344.238,-584.961,0
1579965887.762,-969.238,-385.254,-513.672,-1000.000,-575.195,0
1579965887.766,-969.238,-333.496,-470.703,-1000.000,-520.508,0
1579965887.770,-969.238,-421.387,-354.492,-396.973,-375.977,0
1579965887.774,-969.238,-481.934,-337.402,-318.848,-321.289,0
1579965887.778,-969.238,-396.973,-479.004,-1000.000,-592.285,0
1579965887.781,-969.238,-311.523,-437.500,-1000.000,-410.156,0
1579965887.785,-969.238,-351.074,-286.621,-740.723,-124.512,0
1579965887.789,-969.238,-450.684,-342.773,-651.855,-425.293,0
1579965887.793,-969.238,-422.363,-481.445,-979.492,-666.016,0
1579965887.797,-969.238,-358.398,-530.273,-987.305,-746.094,0
1579965887.801,-969.238,-370.605,-432.129,-934.570,-579.102,0
1579965887.805,-969.238,-434.570,-359.375,-860.840,-453.125,0
1579965887.809,-969.238,-429.688,-441.406,-943.848,-605.469,0
1579965887.813,-969.238,-363.770,-517.578,-971.680,-725.098,0
1579965887.817,-969.238,-349.121,-442.871,-1000.000,-557.129,0
1579965887.820,-969.238,-414.551,-258.301,-542.969,-69.824,0
1579965887.824,-969.238,-457.520,-300.781,-579.102,-171.387,0
1579965887.828,-969.238,-398.926,-509.277,-1000.000,-699.219,0
1579965887.832,-969.238,-366.699,-520.508,-1000.000,-759.277,0
1579965887.836,-969.238,-418.457,-387.695,-703.613,-473.145,0
1579965887.840,-969.238,-464.844,-356.934,-591.309,-354.004,0
1579965887.844,-969.238,-421.875,-499.512,-976.562,-656.738,0
1579965887.848,-969.238,-372.070,-532.227,-1000.000,-735.840,0
1579965887.852,-969.238,-416.016,-442.871,-799.805,-618.164,0
1579965887.856,-969.238,-476.074,-370.605,-673.340,-402.344,0
1579965887.860,-969.238,-439.941,-435.547,-952.148,-428.711,0
1579965887.863,-969.238,-374.023,-494.629,-1000.000,-558.594,0
1579965887.867,-969.238,-384.766,-420.410,-902.832,-454.590,0
1579965887.871,-969.238,-495.605,-403.809,-555.664,-554.688,0
1579965887.875,-969.238,-479.492,-411.621,-795.410,-381.348,0
1579965887.879,-969.238,-366.211,-423.828,-1000.000,-232.910,0
1579965887.883,-969.238,-380.859,-468.262,-1000.000,-554.688,0
1579965887.887,-969.238,-486.816,-423.340,-484.863,-578.613,0
1579965887.891,-969.238,-531.250,-444.824,-474.609,-568.848,0
1579965887.895,-969.238,-428.223,-511.719,-995.117,-568.359,0
1579965887.899,-969.238,-377.441,-505.371,-1000.000,-582.520,0
1579965887.902,-969.238,-464.355,-442.383,-487.793,-579.590,0
1579965887.906,-969.238,-550.781,-425.781,-262.695,-535.156,0
1579965887.910,-969.238,-466.309,-491.211,-951.660,-513.184,0
1579965887.914,-969.238,-352.051,-426.270,-1000.000,-208.984,0
1579965887.918,-969.238,-406.738,-352.539,-610.840,-185.059,0
1579965887.922,-969.238,-568.359,-413.574,-55.664,-538.574,0
1579965887.926,-969.238,-541.016,-517.578,-731.934,-662.598,0
1579965887.930,-969.238,-411.621,-564.453,-1000.000,-645.996,0
1579965887.934,-969.238,-404.297,-475.098,-812.012,-479.980,0
1579965887.938,-969.238,-552.246,-421.875,111.816,-527.832,0
1579965887.942,-969.238,-581.543,-486.328,-264.160,-605.957,0
1579965887.945,-969.238,-443.359,-583.008,-1000.000,-694.824,0
1579965887.949,-969.238,-391.602,-517.578,-1000.000,-541.016,0
1579965887.953,-969.238,-505.371,-377.441,46.387,-307.129,0
1579965887.957,-969.238,-607.910,-393.555,197.266,-370.605,0
1579965887.961,-969.238,-478.516,-507.324,-974.121,-472.656,0
1579965887.965,-969.238,-391.113,-570.312,-1000.000,-677.734,0
1579965887.969,-969.238,-466.797,-423.828,-97.656,-375.000,0
1579965887.973,-969.238,-601.562,-319.336,591.309,-116.699,0
1579965887.977,-969.238,-539.062,-503.906,-708.496,-534.668,0
1579965887.981,-969.238,-397.949,-596.191,-1000.000,-700.684,0
1579965887.985,-969.238,-437.500,-505.859,-428.223,-588.379,0
1579965887.988,-969.238,-602.051,-415.527,617.188,-479.980,0
1579965887.992,-969.238,-580.078,-488.770,-354.492,-536.621,0
1579965887.996,-969.238,-420.898,-595.215,-1000.000,-666.016,0
1579965888.000,-969.238,-407.715,-532.227,-710.449,-586.914,0
1579965888.004,-969.238,-567.871,-409.668,712.402,-416.504,0
1579965888.008,-971.680,-612.793,-359.863,379.883,-124.512,0
1579965888.012,-956.543,-441.406,-459.961,-1000.000,-188.477,0
1579965888.016,-992.188,-385.742,-545.898,-990.234,-560.059,0
1579965888.020,-920.410,-539.551,-480.469,372.559,-591.309,0
1579965888.024,-776.855,-668.457,-464.355,624.512,-546.875,0
1579965888.027,-911.133,-521.484,-546.875,-809.570,-505.371,0
1579965888.031,-993.652,-390.137,-591.309,-1000.000,-600.586,0
1579965888.035,-980.957,-495.605,-503.418,46.387,-555.664,0
1579965888.039,149.414,-674.805,-463.867,-949.219,-596.680,0
1579965888.043,109.375,-582.031,-532.715,-216.309,-539.551,0
1579965888.047,-1000.000,-394.043,-580.078,-1000.000,-469.238,0
1579965888.051,-585.449,-464.355,-499.023,-99.609,-411.133,0
1579965888.055,786.133,-653.320,-420.410,-791.992,-354.004,0
1579965888.059,-944.336,-673.828,-549.316,506.348,-608.887,0
1579965888.063,946.289,-485.840,-632.324,-867.188,-486.328,0
1579965888.067,-988.770,-463.867,-560.059,-40.527,-325.195,0
1579965888.070,992.676,-645.020,-474.609,-858.398,-361.816,0
1579965888.074,-990.723,-700.684,-517.090,891.113,-463.379,0
1579965888.078,986.328,-550.781,-665.039,-530.273,-691.895,0
1579965888.082,887.207,-416.992,-573.730,-410.645,-318.359,0
1579965888.086,924.316,-555.176,-395.020,-943.359,-67.383,0
1579965888.090,-953.613,-688.477,-480.469,-979.004,-500.488,0
1579965888.094,922.852,-558.594,-615.234,-251.465,-647.949,0
1579965888.098,-471.191,-377.930,-605.469,-998.535,-468.262,0
1579965888.102,-292.480,-453.125,-405.762,357.910,-59.570,0
1579965888.106,-845.703,-625.977,-361.816,-856.445,-148.438,0
1579965888.109,784.668,-573.730,-558.105,-29.297,-614.258,0
1579965888.113,-602.539,-395.996,-644.043,-1000.000,-672.363,0
1579965888.117,-964.844,-421.387,-541.504,-233.887,-516.602,0
1579965888.121,507.812,-607.422,-431.641,-809.570,-427.734,0
1579965888.125,776.367,-600.098,-514.160,234.863,-567.871,0
1579965888.129,-627.441,-403.809,-586.914,-1000.000,-511.719,0
1579965888.133,-1000.000,-368.652,-552.734,-644.531,-526.855,0
1579965888.137,-303.711,-541.504,-445.801,861.816,-451.660,0
1579965888.141,550.781,-621.094,-448.730,557.617,-443.848,0
1579965888.145,-545.898,-450.195,-539.062,-918.457,-451.172,0
1579965888.149,-1000.000,-332.520,-506.836,-1000.000,-313.965,0
1579965888.152,-720.215,-484.863,-466.797,284.668,-520.508,0
1579965888.156,-142.090,-637.207,-412.598,-970.703,-413.086,0
1579965888.160,-665.039,-508.301,-438.477,-254.883,-187.988,0
1579965888.164,-1000.000,-355.469,-557.129,-1000.000,-501.953,0
1579965888.168,-998.047,-429.688,-512.695,-126.953,-585.449,0
1579965888.172,-396.973,-624.023,-452.637,-926.758,-581.055,0
1579965888.176,-395.508,-570.312,-512.695,-79.590,-553.223,0
1579965888.180,-1000.000,-383.789,-588.867,-1000.000,-585.449,0
1579965888.184,-1000.000,-381.836,-515.625,-486.816,-488.281,0
1579965888.188,-618.652,-567.383,-406.250,-988.770,-386.719,0
1579965888.192,-484.863,-613.281,-469.238,288.086,-485.352,0
1579965888.195,-962.402,-398.438,-481.934,-1000.000,-180.664,0
1579965888.199,-1000.000,-331.543,-453.125,-883.301,-181.641,0
1579965888.203,-691.406,-518.555,-460.938,524.414,-522.461,0
1579965888.207,-155.762,-636.719,-495.117,501.465,-630.371,0
1579965888.211,-724.609,-477.051,-582.031,-929.688,-605.957,0
1579965888.215,-1000.000,-345.703,-563.477,-1000.000,-489.258,0
1579965888.219,-829.102,-475.586,-483.887,122.559,-526.367,0
1579965888.223,336.914,-632.812,-464.844,763.184,-571.289,0
1579965888.227,20.020,-523.438,-572.754,-586.426,-637.695,0
1579965888.231,-1000.000,-364.258,-593.262,-1000.000,-535.645,0
1579965888.234,-912.598,-420.898,-491.699,-258.301,-398.438,0
1579965888.238,433.594,-609.863,-420.898,-926.758,-390.625,0
1579965888.242,634.277,-569.336,-466.309,64.941,-332.031,0
1579965888.246,-821.289,-401.367,-604.004,-1000.000,-570.801,0
1579965888.250,-1000.000,-396.973,-523.438,-429.199,-400.879,0
1579965888.254,83.008,-565.430,-357.422,-922.852,-88.867,0
1579965888.258,-852.539,-621.582,-484.375,290.527,-480.957,0
1579965888.262,-63.965,-450.684,-635.742,-1000.000,-674.316,0
1579965888.266,-1000.000,-381.836,-613.281,-915.527,-605.469,0
1579965888.270,-18.066,-526.367,-486.328,488.770,-454.590,0
1579965888.274,-773.438,-642.090,-482.422,629.883,-521.973,0
1579965888.277,302.734,-502.930,-608.398,-833.496,-629.395,0
1579965888.281,-1000.000,-370.605,-598.145,-1000.000,-505.371,0
1579965888.285,-350.098,-474.121,-480.957,75.684,-386.230,0
1579965888.289,-886.230,-623.047,-364.258,-906.250,-105.957,0
1579965888.293,706.543,-544.434,-472.168,-146.484,-229.980,0
1579965888.297,-824.219,-404.297,-643.555,-1000.000,-631.348,0
1579965888.301,-621.094,-443.359,-556.152,-290.039,-501.465,0
1579965888.305,855.957,-621.094,-455.566,-875.977,-432.617,0
1579965888.309,-918.457,-600.098,-526.367,137.207,-505.371,0
1579965888.313,-269.043,-426.270,-640.625,-1000.000,-631.348,0
1579965888.317,-856.934,-403.809,-594.238,-766.602,-579.102,0
1579965888.320,501.953,-564.941,-498.535,612.305,-534.668,0
1579965888.324,-761.230,-621.582,-507.324,395.996,-503.418,0
1579965888.328,181.641,-452.637,-597.168,-1000.000,-487.305,0
1579965888.332,-1000.000,-370.605,-583.008,-995.605,-444.824,0
1579965888.336,113.770,-505.859,-453.125,371.582,-290.039,0
1579965888.340,-761.719,-647.461,-497.559,602.539,-544.922,0
1579965888.344,523.926,-499.023,-577.148,-778.320,-451.172,0
1579965888.348,-913.086,-346.680,-522.461,-1000.000,-150.879,0
1579965888.352,-59.570,-463.867,-504.395,-69.824,-418.457,0
1579965888.356,-879.883,-645.508,-507.812,861.816,-584.473,0
1579965888.359,-946.289,-559.570,-577.148,-439.453,-526.855,0
1579965888.363,-213.867,-392.578,-625.488,-1000.000,-494.141,0
1579965888.367,-265.137,-433.594,-566.895,-440.918,-498.047,0
1579965888.371,-965.332,-617.676,-504.883,963.867,-546.875,0
1579965888.375,-836.426,-625.977,-566.406,149.902,-604.004,0
1579965888.379,232.910,-433.105,-632.812,-1000.000,-524.902,0
1579965888.383,-475.098,-384.766,-488.770,-565.918,-104.980,0
1579965888.387,729.980,-571.777,-398.438,943.359,-139.648,0
1579965888.391,-825.195,-662.598,-535.645,401.367,-588.867,0
1579965888.395,665.039,-490.234,-664.062,-1000.000,-669.434,0
1579965888.399,-12.695,-391.602,-638.672,-992.676,-555.664,0
1579965888.402,622.559,-519.043,-510.254,359.863,-407.715,0
1579965888.406,-894.531,-666.992,-511.230,772.461,-559.082,0
1579965888.410,961.426,-542.969,-625.488,-647.461,-641.602,0
1579965888.414,136.719,-390.137,-660.645,-1000.000,-617.676,0
1579965888.418,296.387,-459.961,-520.508,-70.801,-368.164,0
1579965888.422,-938.477,-635.254,-453.613,-926.758,-366.699,0
1579965888.426,-894.043,-577.637,-551.270,-104.004,-470.215,0
1579965888.430,143.555,-398.438,-612.793,-1000.000,-430.176,0
1579965888.434,-17.578,-427.246,-596.680,-565.430,-566.895,0
1579965888.438,-994.141,-582.031,-462.402,880.859,-339.355,0
1579965888.441,-833.496,-598.145,-434.082,342.285,-141.113,0
1579965888.445,316.895,-454.102,-613.281,-1000.000,-517.578,0
1579965888.449,-456.055,-406.250,-630.371,-862.305,-608.887,0
1579965888.453,667.969,-556.152,-521.484,548.828,-522.461,0
1579965888.457,-790.527,-644.043,-507.812,479.980,-503.418,0
1579965888.461,518.555,-494.141,-611.816,-913.086,-557.129,0
1579965888.465,-811.035,-389.160,-636.719,-1000.000,-609.375,0
1579965888.469,-8.789,-503.906,-528.320,143.555,-513.184,0
1579965888.473,-757.324,-643.555,-465.820,767.578,-422.852,0
1579965888.477,535.156,-503.906,-469.238,-569.824,-124.512,0
1579965888.481,-967.773,-360.352,-523.926,-1000.000,-197.266,0
1579965888.484,-402.832,-456.543,-549.805,-282.715,-545.898,0
1579965888.488,-923.340,-632.812,-498.535,-981.445,-576.172,0
1579965888.492,884.277,-584.473,-537.109,-6.348,-488.770,0
1579965888.496,-520.996,-405.762,-603.027,-1000.000,-484.375,0
1579965888.500,-901.367,-412.598,-577.637,-637.695,-565.918,0
1579965888.504,510.742,-587.402,-491.211,821.289,-546.387,0
1579965888.508,-879.883,-627.441,-533.691,276.367,-624.512,0
1579965888.512,-92.773,-442.871,-604.004,-1000.000,-541.992,0
1579965888.516,-1000.000,-373.535,-558.105,-940.918,-434.082,0
1579965888.520,-161.621,-525.879,-451.660,459.473,-375.488,0
1579965888.524,-819.336,-634.277,-443.359,592.773,-399.414,0
1579965888.527,145.020,-501.953,-605.469,-907.715,-664.551,0
1579965888.531,-1000.000,-361.816,-572.754,-1000.000,-426.270,0
1579965888.535,-595.703,-461.426,-387.695,279.785,-78.125,0
1579965888.539,929.688,-654.297,-433.105,899.414,-460.938,0
1579965888.543,387.695,-556.152,-582.031,-454.102,-670.898,0
1579965888.547,-1000.000,-392.578,-628.906,-1000.000,-647.461,0
1579965888.551,-918.945,-426.270,-520.996,-386.719,-477.051,0
1579965888.555,484.863,-606.934,-445.801,967.285,-468.750,0
1579965888.559,695.312,-601.074,-540.527,68.359,-632.812,0
1579965888.563,-735.840,-416.992,-623.535,-1000.000,-631.348,0
1579965888.566,-1000.000,-395.020,-538.574,-592.773,-456.055,0
1579965888.570,-93.262,-545.898,-344.727,902.344,-55.176,0
1579965888.574,-995.605,-603.516,-389.648,363.281,-181.152,0
1579965888.578,-172.363,-463.379,-604.980,-1000.000,-636.719,0
1579965888.582,-1000.000,-386.719,-612.305,-980.469,-642.578,0
1579965888.586,-243.164,-520.020,-494.141,368.164,-506.348,0
1579965888.590,-839.844,-629.395,-445.312,674.316,-387.695,0
1579965888.594,245.605,-502.441,-570.312,-744.629,-539.062,0
1579965888.598,-1000.000,-377.930,-622.070,-1000.000,-639.160,0
1579965888.602,-479.004,-474.121,-529.297,-45.410,-569.824,0
1579965888.606,-979.492,-645.508,-453.613,-900.879,-478.027,0
1579965888.609,640.625,-567.383,-526.855,-100.098,-484.375,0
1579965888.613,-900.879,-382.812,-584.473,-1000.000,-460.938,0
1579965888.617,-760.254,-416.016,-487.793,-307.129,-324.707,0
1579965888.621,725.586,-621.582,-465.820,-889.648,-551.270,0
1579965888.625,983.398,-601.562,-496.094,213.379,-442.383,0
1579965888.629,-471.680,-397.949,-508.301,-1000.000,-176.758,0
1579965888.633,-919.922,-392.578,-545.898,-704.590,-457.031,0
1579965888.637,418.945,-579.590,-498.047,792.480,-575.684,0
1579965888.641,-761.230,-657.227,-516.602,509.766,-608.398,0
1579965888.645,224.609,-484.863,-611.328,-990.723,-588.867,0
1579965888.648,-1000.000,-379.883,-579.102,-939.941,-441.406,0
1579965888.652,45.410,-522.461,-474.609,441.895,-393.066,0
1579965888.656,-799.805,-670.410,-488.281,861.816,-554.199,0
1579965888.660,683.105,-533.203,-578.125,-527.832,-533.203,0
1579965888.664,-791.016,-349.121,-514.648,-1000.000,-143.555,0
1579965888.668,-224.121,-436.035,-428.711,-49.805,-132.324,0
1579965888.672,-906.250,-649.414,-481.934,-925.293,-562.500,0
1579965888.676,-906.738,-597.168,-595.703,-69.336,-680.176,0
1579965888.680,-173.340,-407.715,-648.926,-1000.000,-604.980,0
1579965888.684,-381.348,-419.434,-550.781,-411.621,-439.941,0
1579965888.688,979.492,-611.328,-490.234,-966.797,-522.461,0
1579965888.691,-820.801,-630.859,-557.129,276.367,-619.629,0
1579965888.695,305.664,-446.777,-660.645,-1000.000,-665.039,0
1579965888.699,-441.895,-393.555,-592.285,-660.645,-489.746,0
1579965888.703,672.363,-558.105,-464.355,830.078,-353.027,0
1579965888.707,-811.035,-648.438,-481.445,562.988,-411.621,0
1579965888.711,625.977,-485.840,-568.848,-856.934,-390.625,0
1579965888.715,-249.512,-389.648,-626.953,-1000.000,-578.613,0
1579965888.719,471.191,-497.559,-492.188,260.742,-362.793,0
1579965888.723,-878.906,-626.465,-380.371,864.258,-109.375,0
1579965888.727,975.098,-538.086,-559.570,-565.918,-496.582,0
1579965888.731,146.973,-395.020,-661.133,-1000.000,-652.344,0
1579965888.734,282.715,-468.750,-569.824,-139.160,-563.477,0
1579965888.738,-934.570,-646.973,-480.469,-884.766,-488.770,0
1579965888.742,-914.551,-604.980,-557.617,25.879,-530.273,0
1579965888.746,456.543,-425.293,-660.645,-1000.000,-624.512,0
1579965888.750,309.082,-426.758,-596.680,-463.867,-553.711,0
1579965888.754,-981.445,-593.750,-473.145,-972.168,-401.367,0
1579965888.758,-913.086,-619.141,-424.316,512.207,-129.883,0
1579965888.762,702.637,-448.730,-536.133,-986.328,-227.539,0
1579965888.766,421.875,-391.602,-596.680,-836.914,-472.168,0
1579965888.770,961.426,-555.664,-520.508,637.207,-506.348,0
1579965888.773,-946.777,-667.969,-527.832,691.895,-559.082,0
1579965888.777,934.082,-512.207,-611.328,-718.750,-513.672,0
1579965888.781,737.305,-385.742,-651.855,-1000.000,-581.055,0
1579965888.785,913.574,-488.770,-557.129,49.805,-529.785,0
1579965888.789,-971.680,-660.645,-519.531,-987.305,-581.543,0
1579965888.793,-991.211,-563.965,-593.750,-298.828,-534.668,0
1579965888.797,831.055,-383.789,-628.418,-1000.000,-455.078,0
1579965888.801,846.680,-445.801,-533.691,-109.375,-376.953,0
1579965888.805,-993.652,-632.812,-439.453,-827.637,-305.664,0
1579965888.809,-942.383,-622.559,-573.730,104.004,-579.102,0
1579965888.813,738.281,-418.457,-633.301,-1000.000,-440.430,0
1579965888.816,602.051,-391.602,-501.953,-444.336,-115.723,0
1579965888.820,-982.422,-597.656,-478.027,993.164,-405.762,0
1579965888.824,-984.375,-651.367,-541.016,360.352,-515.625,0
1579965888.828,964.844,-482.910,-655.762,-1000.000,-576.172,0
1579965888.832,932.129,-392.578,-636.230,-844.727,-533.691,0
1579965888.836,988.770,-539.551,-520.020,602.051,-458.008,0
1579965888.840,-988.770,-679.199,-534.180,735.840,-583.984,0
1579965888.844,990.723,-532.715,-640.137,-767.578,-612.305,0
1579965888.848,907.715,-377.930,-636.719,-1000.000,-479.980,0
1579965888.852,966.797,-460.938,-439.941,199.707,-67.383,0
1579965888.856,-987.305,-644.531,-399.902,-919.434,-150.879,0
1579965888.859,999.023,-589.844,-602.051,-162.109,-603.027,0
1579965888.863,953.125,-405.762,-687.500,-1000.000,-653.809,0
1579965888.867,963.867,-437.012,-589.844,-247.559,-524.902,0
1579965888.871,997.070,-624.512,-482.422,-835.449,-423.828,0
1579965888.875,-973.145,-630.371,-573.242,214.355,-585.938,0
1579965888.879,891.113,-440.918,-673.828,-1000.000,-618.652,0
1579965888.883,820.312,-402.344,-602.051,-537.598,-488.770,0
1579965888.887,990.234,-571.777,-478.027,970.215,-386.230,0
1579965888.891,-962.402,-647.461,-507.324,528.809,-445.801,0
1579965888.895,908.203,-476.074,-608.887,-956.055,-459.961,0
1579965888.898,744.629,-366.211,-572.754,-908.691,-323.242,0
1579965888.902,959.961,-526.367,-520.020,422.363,-485.840,0
1579965888.906,-970.703,-671.875,-479.004,-946.289,-418.945,0
1579965888.910,991.211,-534.668,-500.977,-222.168,-183.105,0
1579965888.914,689.941,-388.672,-604.492,-1000.000,-435.059,0
1579965888.918,809.570,-475.098,-571.777,-56.152,-549.805,0
1579965888.922,-977.051,-658.203,-518.555,-877.441,-577.637,0
1579965888.926,-931.152,-600.098,-582.520,-15.137,-562.500,0
1579965888.930,570.801,-411.133,-649.902,-1000.000,-552.246,0
1579965888.934,459.961,-437.012,-598.145,-346.680,-582.031,0
1579965888.938,986.816,-617.676,-485.352,-873.535,-472.656,0
1579965888.941,-831.055,-628.418,-508.301,347.168,-416.016,0
1579965888.945,298.828,-415.039,-527.344,-1000.000,-162.109,0
1579965888.949,-205.078,-362.793,-496.094,-741.699,-152.344,0
1579965888.953,905.762,-564.941,-500.977,781.250,-524.902,0
1579965888.957,-852.539,-649.414,-538.574,493.652,-624.512,0
1579965888.961,659.668,-477.051,-631.836,-963.867,-598.633,0
1579965888.965,-258.301,-370.117,-607.422,-1000.000,-484.375,0
1579965888.969,452.637,-507.812,-527.344,265.625,-518.066,0
1579965888.973,-870.117,-662.109,-508.301,934.082,-585.938,0
1579965888.977,959.473,-551.270,-609.863,-437.500,-648.926,0
1579965888.980,-246.094,-379.395,-629.883,-1000.000,-524.414,0
1579965888.984,-80.566,-449.707,-521.973,-83.984,-393.066,0
1579965888.988,-925.293,-635.254,-447.266,-853.027,-382.812,0
1579965888.992,-856.445,-587.402,-506.836,71.289,-370.117,0
1579965888.996,24.414,-409.668,-617.676,-1000.000,-504.395,0
1579965889.000,-387.695,-408.691,-511.719,-354.980,-255.371,0
1579965889.004,921.387,-586.426,-374.023,-860.840,-79.590,0
1579965889.008,-822.754,-635.742,-507.324,300.781,-483.398,0
1579965889.012,446.289,-465.820,-657.227,-1000.000,-671.387,0
1579965889.016,-121.094,-401.855,-625.488,-815.430,-596.680,0
1579965889.020,810.059,-550.293,-499.023,644.531,-463.867,0
1579965889.023,-872.070,-662.598,-502.441,668.945,-520.508,0
1579965889.027,810.547,-516.113,-634.277,-818.359,-652.344,0
1579965889.031,146.973,-387.695,-643.555,-1000.000,-590.332,0
1579965889.035,586.914,-493.652,-514.648,191.406,-414.551,0
1579965889.039,-917.480,-634.277,-384.277,-879.395,-101.562,0
1579965889.043,-977.539,-551.758,-489.746,-109.863,-219.727,0
1579965889.047,496.582,-404.297,-653.320,-1000.000,-612.793,0
1579965889.051,519.043,-455.566,-590.332,-229.004,-594.238,0
1579965889.055,-959.961,-630.371,-481.445,-837.402,-458.984,0
1579965889.059,-927.246,-602.539,-531.738,172.852,-433.105,0
1579965889.063,623.047,-428.711,-656.738,-1000.000,-616.699,0
1579965889.066,474.121,-413.574,-608.887,-558.105,-580.078,0
1579965889.070,996.582,-592.773,-512.695,935.059,-549.316,0
1579965889.074,-910.156,-633.789,-524.414,316.406,-487.793,0
1579965889.078,724.121,-451.660,-611.328,-1000.000,-470.703,0
1579965889.082,321.289,-381.348,-587.891,-856.934,-430.664,0
1579965889.086,861.816,-529.297,-470.703,574.707,-338.867,0
1579965889.090,-881.836,-670.410,-519.043,695.801,-594.727,0
1579965889.094,802.734,-513.184,-586.426,-758.301,-443.848,0
1579965889.098,-20.508,-355.957,-527.832,-1000.000,-134.766,0
1579965889.102,506.836,-485.840,-505.859,29.297,-398.438,0
1579965889.105,-908.203,-673.340,-512.695,-995.605,-594.238,0
1579965889.109,-952.148,-589.355,-605.957,-258.789,-628.906,0
1579965889.113,326.172,-399.902,-636.719,-1000.000,-505.371,0
1579965889.117,295.410,-437.500,-558.105,-334.961,-446.289,0
1579965889.121,-961.426,-629.395,-503.418,-900.391,-535.645,0
1579965889.125,-888.184,-623.535,-548.340,207.031,-528.809,0
1579965889.129,486.328,-425.293,-604.980,-1000.000,-427.246,0
1579965889.133,184.570,-390.625,-529.785,-617.188,-277.344,0
1579965889.137,984.863,-581.055,-482.422,880.371,-435.059,0
1579965889.141,-917.480,-656.250,-549.805,425.781,-598.145,0
1579965889.145,808.105,-485.352,-660.156,-1000.000,-642.090,0
1579965889.148,509.277,-386.719,-646.484,-1000.000,-584.473,0
1579965889.152,897.461,-492.676,-431.641,315.430,-110.352,0
1579965889.156,-949.219,-643.066,-421.387,785.156,-226.562,0
1579965889.160,982.422,-545.410,-625.977,-648.926,-645.996,0
1579965889.164,626.465,-397.949,-666.992,-1000.000,-639.160,0
1579965889.168,755.859,-470.215,-541.992,-49.805,-445.801,0
1579965889.172,-960.938,-642.090,-450.195,-926.270,-324.707,0
1579965889.176,-950.195,-584.473,-546.875,-93.262,-429.688,0
1579965889.180,614.746,-398.438,-606.445,-1000.000,-388.184,0
1579965889.184,562.012,-437.012,-581.055,-397.949,-507.812,0
1579965889.188,-962.891,-611.816,-474.121,-972.168,-374.023,0
1579965889.191,-967.285,-610.352,-452.148,224.609,-148.926,0
1579965889.195,850.098,-453.613,-624.512,-1000.000,-518.066,0
1579965889.199,760.742,-412.109,-639.160,-746.094,-627.441,0
1579965889.203,-994.141,-571.777,-536.133,745.117,-553.223,0
1579965889.207,-989.746,-666.016,-530.273,573.242,-517.578,0
1579965889.211,983.398,-503.906,-637.695,-933.594,-555.176,0
1579965889.215,965.332,-388.184,-663.086,-1000.000,-615.723,0
1579965889.219,993.652,-513.184,-554.199,277.344,-526.367,0
1579965889.223,-996.094,-668.457,-501.465,976.562,-453.125,0
1579965889.227,997.070,-534.668,-515.137,-338.867,-158.691,0
1579965889.230,983.398,-358.398,-542.969,-1000.000,-113.770,0
1579965889.234,993.164,-459.473,-559.570,-125.488,-464.844,0
1579965889.238,-998.047,-662.598,-542.969,-884.277,-612.305,0
1579965889.242,998.047,-613.770,-610.840,-7.324,-592.285,0
1579965889.246,999.512,-415.039,-660.156,-1000.000,-503.418,0
1579965889.250,-1000.000,-425.781,-615.234,-451.172,-543.457,0
1579965889.254,997.070,-618.652,-534.180,-959.961,-557.617,0
1579965889.258,-995.117,-654.297,-586.426,312.012,-624.023,0
1579965889.262,980.957,-461.426,-658.203,-1000.000,-540.527,0
1579965889.266,970.703,-384.766,-608.887,-901.367,-424.316,0
1579965889.270,998.535,-541.992,-500.977,562.500,-370.117,0
1579965889.273,-997.070,-661.133,-492.188,649.902,-378.906,0
1579965889.277,-1000.000,-523.438,-656.250,-890.625,-645.508,0
1579965889.281,915.039,-378.906,-625.000,-988.281,-437.988,0
1579965889.285,954.102,-482.422,-431.641,395.996,-76.172,0
1579965889.289,-1000.000,-665.527,-449.707,905.273,-348.633,0
1579965889.293,-941.895,-569.824,-610.840,-451.660,-608.887,0
1579965889.297,563.477,-404.297,-678.711,-1000.000,-649.902,0
1579965889.301,544.434,-454.102,-565.918,-201.660,-484.375,0
1579965889.305,995.117,-624.023,-488.281,942.383,-470.703,0
1579965889.309,-835.938,-586.426,-587.402,-161.133,-610.352,0
1579965889.312,182.129,-412.109,-665.039,-1000.000,-633.301,0
1579965889.316,-480.469,-399.902,-574.219,-619.629,-458.984,0
1579965889.320,783.691,-546.387,-382.812,851.074,-69.824,0
1579965889.324,-781.250,-588.379,-423.340,253.906,-170.898,0
1579965889.328,191.895,-447.754,-635.254,-1000.000,-638.184,0
1579965889.332,-1000.000,-385.254,-629.395,-1000.000,-639.648,0
1579965889.336,9.766,-507.324,-483.887,309.082,-420.898,0
1579965889.340,-754.395,-619.629,-476.562,498.047,-465.332,0
1579965889.344,268.066,-483.887,-589.355,-908.203,-553.711,0
1579965889.348,-1000.000,-369.141,-594.238,-1000.000,-503.418,0
1579965889.352,-449.707,-466.797,-533.691,-220.703,-557.617,0
1579965889.355,-915.039,-618.652,-470.215,774.902,-494.141,0
1579965889.359,493.164,-543.457,-538.086,-406.738,-495.117,0
1579965889.363,-976.074,-384.277,-588.379,-1000.000,-481.934,0
1579965889.367,-918.945,-409.668,-483.887,-491.211,-310.059,0
1579965889.371,552.734,-601.562,-465.820,752.441,-523.926,0
1579965889.375,708.008,-578.613,-508.789,-61.035,-465.820,0
1579965889.379,-758.789,-384.766,-512.695,-1000.000,-207.520,0
1579965889.383,-1000.000,-388.672,-540.039,-883.301,-469.727,0
1579965889.387,73.242,-554.688,-496.582,442.383,-582.520,0
1579965889.391,-947.266,-617.676,-522.949,239.258,-627.441,0
1579965889.395,-194.824,-455.078,-604.980,-1000.000,-591.309,0
1579965889.398,-1000.000,-381.348,-592.285,-1000.000,-578.125,0
1579965889.402,-509.766,-485.352,-483.887,28.809,-464.355,0
1579965889.406,863.770,-602.051,-449.707,497.559,-429.688,0
1579965889.410,60.059,-492.676,-557.617,-845.703,-532.715,0
1579965889.414,-1000.000,-342.773,-498.535,-1000.000,-196.777,0
1579965889.418,-863.281,-425.293,-405.273,-259.277,-149.414,0
1579965889.422,512.695,-607.910,-469.727,505.371,-556.152,0
1579965889.426,318.359,-544.922,-580.566,-562.988,-682.617,0
1579965889.430,-1000.000,-398.438,-622.559,-1000.000,-653.320,0
1579965889.434,-1000.000,-405.762,-524.902,-663.574,-481.445,0
1579965889.437,41.992,-577.637,-468.262,536.621,-530.762,0
1579965889.441,544.434,-593.750,-535.645,-34.180,-623.047,0
1579965889.445,-802.734,-431.641,-625.977,-1000.000,-687.012,0
1579965889.449,-1000.000,-392.578,-557.617,-875.977,-538.086,0
1579965889.453,-244.629,-545.410,-440.918,493.652,-400.391,0
1579965889.457,884.766,-637.695,-454.102,407.227,-439.941,0
1579965889.461,-235.840,-476.074,-534.668,-973.145,-391.113,0
1579965889.465,-1000.000,-390.137,-589.355,-1000.000,-584.473,0
1579965889.469,-463.379,-489.258,-467.285,61.035,-388.672,0
1579965889.473,991.699,-618.652,-374.023,702.637,-138.184,0
1579965889.477,480.957,-538.086,-555.664,-687.500,-520.996,0
1579965889.480,-1000.000,-407.715,-646.484,-1000.000,-680.664,0
1579965889.484,-337.891,-466.797,-559.082,-312.012,-577.148,0
1579965889.488,-982.910,-630.859,-479.980,867.188,-497.559,0
1579965889.492,-889.160,-587.402,-559.082,-189.941,-559.082,0
1579965889.496,-205.566,-424.316,-661.621,-1000.000,-657.227,0
1579965889.500,-360.352,-430.176,-596.680,-610.840,-557.129,0
1579965889.504,-977.051,-590.332,-483.887,856.445,-417.969,0
1579965889.508,-895.508,-603.516,-441.895,324.707,-142.090,0
1579965889.512,632.812,-438.965,-549.316,-1000.000,-226.562,0
1579965889.516,428.711,-408.691,-633.301,-991.211,-589.844,0
1579965889.519,-998.047,-546.875,-530.762,324.707,-475.098,0
1579965889.523,-979.004,-652.344,-506.836,513.672,-406.250,0
1579965889.527,977.051,-516.602,-628.418,-905.273,-501.465,0
1579965889.531,-999.023,-408.691,-677.246,-1000.000,-603.516,0
1579965889.535,998.535,-517.578,-583.984,55.664,-535.156,0
1579965889.539,999.512,-685.547,-556.641,805.664,-576.172,0
1579965889.543,999.023,-583.496,-631.348,-517.578,-525.879,0
1579965889.547,999.512,-412.598,-658.203,-1000.000,-435.547,0
1579965889.551,999.512,-477.051,-569.824,-158.203,-378.418,0
1579965889.555,999.512,-664.551,-493.164,958.984,-338.379,0
1579965889.559,999.512,-637.695,-628.906,-243.164,-586.914,0
1579965889.562,999.512,-440.918,-674.805,-1000.000,-438.477,0
1579965889.566,999.512,-412.109,-532.715,-590.332,-93.750,0
1579965889.570,999.512,-616.699,-515.137,827.637,-385.254,0
1579965889.574,999.512,-675.293,-612.305,251.465,-596.191,0
1579965889.578,999.512,-488.281,-691.406,-1000.000,-519.043,0
1579965889.582,999.512,-413.086,-653.809,-972.168,-434.570,0
1579965889.586,999.512,-562.988,-568.359,376.953,-440.918,0
1579965889.590,999.512,-689.453,-586.914,547.363,-555.664,0
1579965889.594,999.512,-545.898,-694.336,-892.090,-599.609,0
1579965889.598,999.512,-408.203,-688.477,-1000.000,-485.840,0
1579965889.602,999.512,-480.957,-491.211,91.797,-47.852,0
1579965889.605,999.512,-657.227,-456.055,866.211,-119.141,0
1579965889.609,999.512,-605.469,-663.574,-484.375,-577.148,0
1579965889.613,999.512,-444.824,-743.164,-1000.000,-635.742,0
1579965889.617,999.512,-470.215,-645.020,-388.184,-487.305,0
1579965889.621,999.512,-652.832,-542.480,974.609,-392.578,0
1579965889.625,999.512,-659.180,-632.324,35.156,-548.828,0
1579965889.629,999.512,-476.562,-736.328,-1000.000,-608.398,0
1579965889.633,999.512,-449.707,-686.523,-753.906,-543.457,0
1579965889.637,999.512,-604.004,-541.016,660.156,-316.406,0
1579965889.641,999.512,-683.105,-558.594,412.598,-348.633,0
1579965889.644,999.512,-523.438,-686.035,-1000.000,-451.172,0
1579965889.648,999.512,-425.781,-647.949,-895.996,-297.852,0
1579965889.652,999.512,-583.008,-592.773,392.090,-431.152,0
1579965889.656,999.512,-725.586,-558.594,958.984,-378.906,0
1579965889.660,999.512,-589.844,-590.332,-351.562,-157.715,0
1579965889.664,999.512,-444.336,-704.102,-1000.000,-448.730,0
1579965889.668,999.512,-536.133,-656.250,41.504,-546.387,0
1579965889.672,999.512,-714.355,-598.145,983.887,-536.133,0
1579965889.676,999.512,-636.719,-670.410,-228.027,-503.418,0
1579965889.680,999.512,-456.055,-731.934,-1000.000,-511.719,0
1579965889.684,999.512,-487.793,-673.828,-296.875,-545.898,0
1579965889.687,999.512,-675.293,-579.590,-845.215,-510.742,0
1579965889.691,999.512,-677.246,-607.422,277.344,-443.848,0
1579965889.695,999.512,-456.055,-609.375,-1000.000,-113.770,0
1579965889.699,999.512,-411.133,-575.195,-646.484,-122.559,0
1579965889.703,999.512,-615.723,-578.125,862.305,-497.559,0
1579965889.707,999.512,-712.891,-618.164,583.496,-606.445,0
1579965889.711,999.512,-546.387,-709.961,-909.180,-574.219,0
1579965889.715,999.512,-418.945,-682.129,-980.469,-448.242,0
1579965889.719,999.512,-560.059,-593.262,383.301,-491.211,0
1579965889.723,999.512,-717.773,-575.684,937.012,-568.848,0
1579965889.727,999.512,-601.562,-680.176,-455.078,-628.418,0
1579965889.730,999.512,-424.316,-692.383,-1000.000,-498.535,0
1579965889.734,999.512,-493.164,-576.172,25.879,-372.559,0
1579965889.738,999.512,-677.734,-502.930,-847.656,-367.676,0
1579965889.742,999.512,-624.023,-564.941,45.898,-360.352,0
1579965889.746,999.512,-452.637,-696.777,-1000.000,-595.703,0
1579965889.750,999.512,-435.547,-596.191,-398.438,-378.906,0
1579965889.754,999.512,-601.074,-416.504,-882.812,-41.504,0
1579965889.758,999.512,-658.203,-531.738,310.059,-379.395,0
1579965889.762,999.512,-481.445,-697.754,-1000.000,-638.672,0
1579965889.766,999.512,-406.738,-670.898,-822.266,-604.492,0
1579965889.769,999.512,-554.199,-533.203,643.066,-452.148,0
1579965889.773,999.512,-657.227,-530.273,562.500,-502.930,0
1579965889.777,999.512,-508.301,-663.086,-908.203,-647.949,0
1579965889.781,-1000.000,-383.301,-667.480,-1000.000,-599.609,0
1579965889.785,994.629,-490.234,-526.367,180.176,-420.410,0
1579965889.789,988.770,-630.371,-395.508,-999.023,-98.145,0
1579965889.793,-947.754,-532.227,-500.000,-293.945,-207.031,0
1579965889.797,649.414,-395.508,-652.344,-1000.000,-619.141,0
1579965889.801,654.297,-449.219,-583.008,-286.133,-593.750,0
1579965889.805,-997.070,-631.348,-495.605,-934.082,-535.156,0
1579965889.809,-858.887,-593.262,-525.879,51.758,-428.223,0
1579965889.812,289.551,-416.016,-622.070,-1000.000,-534.668,0
1579965889.816,-52.246,-418.945,-595.215,-636.230,-583.984,0
1579965889.820,955.566,-593.750,-506.348,836.914,-551.270,0
1579965889.824,-822.754,-634.277,-517.090,330.078,-507.324,0
1579965889.828,398.926,-451.172,-599.121,-1000.000,-472.168,0
1579965889.832,-603.027,-382.324,-573.730,-907.227,-431.641,0
1579965889.836,456.055,-527.832,-451.172,509.277,-299.805,0
1579965889.840,-767.578,-660.156,-504.883,622.559,-560.547,0
1579965889.844,586.426,-501.465,-584.961,-821.777,-465.820,0
1579965889.848,-671.387,-349.121,-514.160,-1000.000,-132.812,0
1579965889.851,133.789,-476.562,-490.234,19.043,-387.207,0
1579965889.855,-870.605,-659.180,-506.348,968.262,-598.145,0
1579965889.859,-968.750,-571.777,-603.516,-315.430,-636.719,0
1579965889.863,-104.492,-393.066,-646.484,-1000.000,-559.570,0
1579965889.867,-107.422,-434.082,-533.691,-271.484,-376.953,0
1579965889.871,-953.125,-627.441,-476.562,-879.395,-457.520,0
1579965889.875,-851.562,-616.211,-568.359,134.766,-602.539,0
1579965889.879,245.605,-418.457,-628.418,-1000.000,-500.977,0
1579965889.883,-271.973,-385.742,-480.957,-417.969,-98.633,0
1579965889.887,867.188,-577.148,-391.113,-913.086,-108.887,0
1579965889.891,-861.328,-661.133,-538.086,422.363,-566.895,0
1579965889.894,692.871,-486.816,-666.016,-1000.000,-666.992,0
1579965889.898,333.496,-397.461,-640.137,-876.953,-551.758,0
1579965889.902,885.254,-538.574,-507.812,552.734,-391.602,0
1579965889.906,-939.453,-683.594,-511.719,832.520,-531.250,0
1579965889.910,963.379,-559.570,-635.254,-588.867,-620.117,0
1579965889.914,784.668,-409.180,-671.875,-1000.000,-598.145,0
1579965889.918,893.066,-494.629,-544.922,85.938,-429.199,0
1579965889.922,-971.191,-669.922,-471.680,-894.531,-369.141,0
1579965889.926,-993.164,-595.703,-561.035,-130.859,-408.691,0
1579965889.930,874.023,-396.484,-601.074,-1000.000,-309.082,0
1579965889.934,875.977,-447.754,-564.941,-222.168,-421.875,0
1579965889.937,-977.539,-631.348,-471.191,-818.848,-331.055,0
1579965889.941,993.652,-625.000,-462.891,372.559,-126.953,0
1579965889.945,998.535,-463.867,-634.277,-1000.000,-467.285,0
1579965889.949,999.512,-421.387,-652.344,-589.355,-590.820,0
1579965889.953,999.512,-592.285,-548.828,930.176,-523.926,0
1579965889.957,999.512,-680.664,-544.922,710.938,-492.676,0
1579965889.961,999.512,-519.531,-651.855,-817.871,-535.156,0
1579965889.965,999.512,-399.414,-669.434,-885.742,-548.340,0
1579965889.969,999.512,-531.250,-541.504,541.016,-409.180,0
1579965889.973,999.512,-688.965,-502.930,-915.527,-394.531,0
1579965889.976,999.512,-558.105,-527.832,-187.500,-147.949,0
1579965889.980,999.512,-375.977,-566.406,-1000.000,-141.113,0
1579965889.984,999.512,-481.445,-556.152,-0.488,-407.227,0
1579965889.988,999.512,-686.523,-526.855,-777.344,-516.113,0
1579965889.992,999.512,-640.625,-621.582,130.859,-575.684,0
1579965889.996,999.512,-437.988,-676.270,-1000.000,-471.191,0
1579965890.000,999.512,-459.473,-622.070,-216.797,-509.766,0
1579965890.004,999.512,-656.250,-540.039,-815.918,-519.531,0
1579965890.008,999.512,-691.895,-597.168,535.645,-590.332,0
1579965890.012,999.512,-495.605,-674.316,-1000.000,-519.043,0
1579965890.016,999.512,-421.387,-618.164,-451.660,-392.578,0
1579965890.019,999.512,-595.703,-502.441,-983.398,-328.125,0
1579965890.023,999.512,-694.336,-495.117,971.680,-304.688,0
1579965890.027,999.512,-563.965,-662.598,-485.840,-586.914,0
1579965890.031,999.512,-414.062,-647.949,-633.301,-415.039,0
1579965890.035,999.512,-529.297,-457.520,872.559,-74.707,0
1579965890.039,999.512,-693.848,-497.070,-928.711,-394.531,0
1579965890.043,999.512,-593.750,-626.953,-150.879,-538.574,0
1579965890.047,999.512,-411.133,-681.152,-1000.000,-540.039,0
1579965890.051,999.512,-475.586,-587.402,88.379,-479.492,0
1579965890.055,999.512,-666.016,-510.742,-760.254,-460.938,0
1579965890.058,999.512,-639.160,-613.770,258.789,-604.492,0
1579965890.062,999.512,-439.453,-694.336,-1000.000,-594.727,0
1579965890.066,999.512,-431.152,-599.609,-203.125,-437.500,0
1579965890.070,999.512,-598.145,-409.668,-795.410,-66.406,0
1579965890.074,999.512,-639.160,-458.496,522.461,-152.832,0
1579965890.078,999.512,-495.605,-666.016,-966.309,-597.168,0
1579965890.082,999.512,-412.109,-664.551,-652.344,-613.281,0
1579965890.086,999.512,-570.312,-542.969,851.074,-502.441,0
1579965890.090,999.512,-682.617,-514.160,899.414,-450.684,0
1579965890.094,999.512,-548.340,-644.531,-555.664,-626.465,0
1579965890.098,999.512,-390.137,-654.297,-947.754,-542.969,0
1579965890.101,997.070,-500.000,-524.902,421.387,-419.922,0
1579965890.105,985.840,-673.340,-476.562,-813.477,-463.379,0
1579965890.109,-946.289,-582.520,-565.430,15.137,-492.188,0
1579965890.113,694.824,-391.113,-616.211,-1000.000,-454.102,0
1579965890.117,655.762,-425.781,-515.137,-131.348,-350.586,0
1579965890.121,988.281,-626.953,-490.234,-800.293,-580.078,0
1579965890.125,-844.238,-598.145,-519.531,289.551,-478.516,0
1579965890.129,23.438,-379.395,-518.066,-1000.000,-197.754,0
1579965890.133,-639.160,-377.930,-535.645,-525.391,-447.266,0
1579965890.137,748.535,-574.219,-486.816,-983.887,-587.891,0
1579965890.141,-798.340,-629.883,-513.672,529.297,-636.230,0
1579965890.144,126.953,-452.637,-596.191,-966.309,-599.121,0
1579965890.148,-1000.000,-354.492,-572.266,-876.953,-535.156,0
1579965890.152,-156.250,-511.230,-490.234,527.832,-586.426,0
1579965890.156,-778.809,-637.207,-455.078,892.578,-526.367,0
1579965890.160,270.020,-498.535,-529.785,-519.531,-456.055,0
1579965890.164,-1000.000,-334.961,-490.723,-1000.000,-181.641,0
1579965890.168,-361.816,-448.730,-393.555,295.410,-156.250,0
1579965890.172,-926.758,-659.668,-453.613,-842.285,-592.773,0
1579965890.176,833.984,-580.566,-565.430,-23.438,-672.852,0
1579965890.180,-700.195,-383.789,-598.145,-1000.000,-530.273,0
1579965890.183,-545.410,-429.199,-510.742,-159.668,-447.754,0
1579965890.187,878.418,-631.348,-464.355,-796.875,-570.312,0
1579965890.191,-798.340,-625.977,-533.691,342.773,-645.996,0
1579965890.195,45.410,-437.012,-632.324,-1000.000,-673.828,0
1579965890.199,-675.293,-400.879,-566.406,-439.453,-517.090,0
1579965890.203,669.922,-574.219,-443.359,-951.660,-409.180,0
1579965890.207,-807.129,-654.297,-468.262,793.945,-478.516,0
1579965890.211,588.379,-491.211,-564.941,-687.988,-463.867,0
1579965890.215,-380.859,-380.371,-591.797,-794.922,-524.902,0
1579965890.219,371.582,-509.277,-451.660,660.156,-332.031,0
1579965890.223,-830.078,-629.883,-371.582,-954.102,-155.762,0
1579965890.226,806.641,-536.133,-545.898,-262.695,-529.785,0
1579965890.230,-602.051,-380.859,-635.742,-1000.000,-674.805,0
1579965890.234,-353.516,-458.008,-534.180,65.430,-582.031,0
1579965890.238,-837.891,-630.371,-448.242,-791.504,-520.020,0
1579965890.242,714.844,-578.125,-527.344,139.648,-577.637,0
1579965890.246,-631.348,-394.043,-620.117,-1000.000,-667.969,0
1579965890.250,-1000.000,-408.691,-536.133,-258.301,-583.984,0
1579965890.254,135.254,-589.844,-412.109,-848.633,-451.172,0
1579965890.258,298.828,-600.098,-364.746,629.883,-177.734,0
1579965890.262,-1000.000,-429.199,-460.938,-876.465,-261.719,0
1579965890.266,-998.535,-370.605,-533.203,-675.293,-598.633,0
1579965890.269,-897.949,-541.016,-447.266,862.793,-620.605,0
1579965890.273,-897.461,-636.719,-418.457,748.047,-529.785,0
1579965890.277,-967.285,-474.121,-496.582,-668.945,-492.188,0
1579965890.281,-973.633,-345.703,-542.480,-1000.000,-625.977,0
1579965890.285,-965.332,-468.262,-443.848,369.141,-597.168,0
1579965890.289,-969.727,-640.625,-412.598,-976.562,-634.277,0
1579965890.293,-969.238,-519.531,-488.281,-372.070,-575.195,0
1579965890.297,-969.238,-326.172,-515.625,-1000.000,-496.094,0
1579965890.301,-969.238,-399.414,-417.480,5.371,-435.547,0
1579965890.305,-969.238,-595.215,-342.285,-793.457,-405.762,0
1579965890.308,-972.656,-578.613,-484.375,126.465,-666.504,0
1579965890.312,-941.406,-362.305,-532.715,-1000.000,-499.023,0
1579965890.316,-1000.000,-347.656,-388.184,-225.586,-166.992,0
1579965890.320,-708.008,-574.219,-374.512,-813.477,-456.543,0
1579965890.324,-503.418,-629.395,-483.398,469.238,-668.945,0
1579965890.328,-903.320,-445.801,-590.820,-1000.000,-682.617,0
1579965890.332,-1000.000,-360.352,-538.086,-567.383,-515.625,0
1579965890.336,-415.527,-533.691,-423.828,901.367,-452.148,0
1579965890.340,-918.945,-659.180,-467.773,912.598,-630.371,0
1579965890.344,263.672,-518.066,-581.055,-475.586,-662.109,0
1579965890.348,-1000.000,-365.234,-573.730,-992.188,-498.047,0
1579965890.351,-115.234,-456.543,-384.766,313.477,-86.426,0
1579965890.355,-903.320,-636.719,-354.004,-813.477,-157.227,0
1579965890.359,-987.305,-589.844,-566.406,0.977,-640.137,0
1579965890.363,574.219,-413.086,-660.156,-1000.000,-680.176,0
1579965890.367,663.574,-466.797,-563.477,-13.672,-542.969,0
1579965890.371,-938.477,-648.438,-464.355,-763.672,-452.148,0
1579965890.375,982.910,-641.113,-563.477,351.074,-613.770,0
1579965890.379,997.559,-447.266,-666.992,-1000.000,-664.062,0
1579965890.383,-1000.000,-424.805,-614.258,-307.129,-622.070,0
1579965890.387,999.512,-603.516,-492.676,-867.188,-483.398,0
1579965890.390,999.512,-654.297,-480.957,754.395,-357.422,0
1579965890.394,999.512,-488.281,-584.961,-732.910,-414.551,0
1579965890.398,999.512,-379.395,-581.543,-664.062,-396.973,0
1579965890.402,999.512,-547.852,-528.809,812.500,-568.359,0
1579965890.406,999.512,-666.992,-490.723,-943.359,-469.238,0
1579965890.410,999.512,-521.973,-513.184,-244.629,-232.910,0
1579965890.414,999.512,-376.953,-618.164,-1000.000,-518.066,0
1579965890.418,999.512,-485.840,-571.777,250.977,-639.160,0
1579965890.422,999.512,-668.457,-519.043,-787.598,-639.160,0
1579965890.426,999.512,-599.609,-587.891,102.539,-607.422,0
1579965890.430,999.512,-409.668,-650.879,-1000.000,-584.473,0
1579965890.433,999.512,-456.055,-599.609,-97.656,-626.465,0
1579965890.437,999.512,-650.391,-515.137,-788.574,-591.309,0
1579965890.441,999.512,-661.621,-549.805,551.270,-536.621,0
1579965890.445,999.512,-452.637,-561.523,-953.125,-213.867,0
1579965890.449,999.512,-410.645,-519.043,-302.734,-168.945,0
1579965890.453,999.512,-632.812,-528.320,-876.465,-550.293,0
1579965890.457,999.512,-716.797,-593.262,827.148,-680.664,0
1579965890.461,999.512,-554.688,-692.383,-592.285,-660.156,0
1579965890.465,999.512,-418.457,-666.992,-810.547,-500.000,0
1579965890.469,999.512,-564.941,-576.172,650.879,-539.551,0
1579965890.473,999.512,-720.215,-566.895,-825.195,-625.488,0
1579965890.476,999.512,-611.328,-678.223,-144.043,-699.707,0
1579965890.480,999.512,-422.363,-693.359,-902.344,-565.430,0
1579965890.484,999.512,-504.883,-568.359,427.246,-440.430,0
1579965890.488,999.512,-677.734,-504.395,-763.184,-457.031,0
1579965890.492,999.512,-625.488,-565.430,312.988,-452.148,0
1579965890.496,999.512,-444.336,-684.570,-1000.000,-655.762,0
1579965890.500,999.512,-440.430,-587.891,-123.047,-483.887,0
1579965890.504,999.512,-601.562,-396.484,-780.762,-100.586,0
1579965890.508,999.512,-642.090,-495.605,574.707,-393.555,0
1579965890.512,999.512,-477.539,-669.922,-940.918,-708.496,0
1579965890.515,999.512,-408.691,-646.484,-448.730,-684.082,0
1579965890.519,999.512,-578.613,-506.836,-928.223,-545.410,0
1579965890.523,999.512,-664.551,-507.324,772.949,-566.406,0
1579965890.527,999.512,-515.625,-636.719,-668.945,-716.797,0
1579965890.531,999.512,-381.348,-632.324,-770.508,-668.945,0
1579965890.535,997.559,-509.766,-490.234,628.906,-502.930,0
1579965890.539,999.512,-640.625,-366.699,-790.527,-187.500,0
1579965890.543,-994.141,-545.898,-466.309,57.617,-291.992,0
1579965890.547,936.523,-392.090,-618.652,-1000.000,-679.199,0
1579965890.551,958.008,-464.355,-550.781,78.125,-688.477,0
1579965890.555,955.566,-644.531,-466.309,-751.953,-624.023,0
1579965890.558,-839.844,-601.074,-524.414,285.645,-610.840,0
1579965890.562,268.555,-403.320,-600.098,-1000.000,-620.117,0
1579965890.566,-104.004,-394.531,-523.438,-271.973,-540.527,0
1579965890.570,960.938,-590.332,-457.520,-831.543,-643.555,0
1579965890.574,-817.383,-614.746,-487.305,573.730,-618.652,0
1579965890.578,289.551,-430.176,-567.383,-916.992,-577.637,0
1579965890.582,-864.746,-345.703,-534.668,-666.992,-507.324,0
1579965890.586,251.953,-501.465,-405.273,870.605,-376.953,0
1579965890.590,-742.188,-628.906,-466.797,812.988,-649.414,0
1579965890.594,442.871,-473.145,-558.594,-624.512,-591.309,0
1579965890.597,-957.031,-309.570,-486.816,-1000.000,-217.285,0
1579965890.601,-20.508,-447.266,-438.965,254.395,-392.578,0
1579965890.605,-862.305,-636.719,-469.727,-916.992,-663.086,0
1579965890.609,992.188,-553.223,-583.496,-173.340,-744.141,0
1579965890.613,-140.137,-373.535,-618.164,-1000.000,-624.023,0
1579965890.617,5.859,-429.688,-536.621,-188.477,-566.895,0
1579965890.621,-903.320,-621.094,-460.938,-808.594,-554.688,0
1579965890.625,-950.195,-604.004,-509.766,224.609,-519.043,0
1579965890.629,671.875,-416.992,-608.887,-1000.000,-566.406,0
1579965890.633,563.965,-384.766,-476.562,-333.008,-208.008,0
1579965890.637,-969.238,-579.102,-381.348,-833.496,-201.172,0
1579965890.640,-996.582,-649.414,-535.645,378.906,-643.066,0
1579965890.644,987.305,-476.562,-674.805,-1000.000,-744.629,0
1579965890.648,-998.535,-388.672,-648.438,-791.016,-647.949,0
1579965890.652,999.512,-535.645,-515.625,672.852,-501.953,0
1579965890.656,999.512,-682.129,-531.250,860.352,-630.371,0
1579965890.660,999.512,-551.270,-658.203,-574.219,-709.473,0
1579965890.664,999.512,-395.996,-691.406,-1000.000,-691.406,0
1579965890.668,999.512,-490.234,-569.824,131.836,-526.855,0
1579965890.672,999.512,-668.945,-502.441,-850.098,-472.656,0
1579965890.676,999.512,-597.656,-598.633,-9.766,-530.273,0
1579965890.680,999.512,-400.391,-641.113,-1000.000,-411.133,0
1579965890.683,999.512,-450.195,-613.770,-225.586,-557.129,0
1579965890.687,999.512,-639.160,-520.996,-805.664,-464.355,0
1579965890.691,999.512,-635.254,-502.930,380.371,-223.633,0
1579965890.695,999.512,-473.145,-668.945,-1000.000,-546.387,0
1579965890.699,999.512,-441.406,-687.012,-554.688,-658.203,0
1579965890.703,999.512,-622.559,-585.938,979.492,-603.027,0
1579965890.707,999.512,-702.637,-583.496,662.109,-574.219,0
1579965890.711,999.512,-541.992,-690.430,-814.941,-605.957,0
1579965890.715,999.512,-425.293,-713.379,-960.938,-638.672,0
1579965890.719,999.512,-552.246,-600.098,356.445,-549.316,0
1579965890.722,999.512,-707.520,-547.363,-977.051,-493.164,0
1579965890.726,999.512,-573.242,-564.453,-283.691,-220.703,0
1579965890.730,999.512,-402.344,-608.887,-1000.000,-231.934,0
1579965890.734,999.512,-515.137,-618.652,10.254,-569.336,0
1579965890.738,999.512,-701.172,-558.594,-854.492,-552.246,0
1579965890.742,999.512,-636.719,-636.230,-2.930,-569.824,0
1579965890.746,999.512,-440.918,-711.426,-1000.000,-579.590,0
1579965890.750,999.512,-460.938,-658.691,-323.730,-599.609,0
1579965890.754,999.512,-653.809,-576.172,-939.941,-607.422,0
1579965890.758,999.512,-664.551,-631.836,137.207,-661.133,0
1579965890.762,999.512,-467.773,-707.031,-1000.000,-606.934,0
1579965890.765,999.512,-411.133,-648.926,-685.059,-491.699,0
1579965890.769,999.512,-582.520,-538.086,826.172,-429.688,0
1579965890.773,999.512,-681.152,-539.551,588.379,-435.547,0
1579965890.777,999.512,-533.691,-703.613,-984.375,-694.336,0
1579965890.781,999.512,-406.250,-674.805,-863.281,-512.207,0
1579965890.785,999.512,-524.414,-484.375,575.684,-147.949,0
1579965890.789,999.512,-705.566,-525.879,971.680,-488.281,0
1579965890.793,999.512,-606.445,-682.129,-373.047,-712.891,0
1579965890.797,999.512,-423.828,-701.660,-1000.000,-583.496,0
1579965890.801,999.512,-494.141,-590.820,-65.430,-464.844,0
1579965890.805,999.512,-695.801,-543.945,-830.078,-556.641,0
1579965890.808,999.512,-653.320,-644.531,56.641,-660.156,0
1579965890.812,999.512,-449.219,-705.566,-1000.000,-588.867,0
1579965890.816,999.512,-450.195,-625.488,-346.680,-497.070,0
1579965890.820,999.512,-616.699,-448.730,-860.352,-152.344,0
1579965890.824,999.512,-650.391,-493.652,331.055,-220.703,0
1579965890.828,999.512,-505.371,-706.543,-1000.000,-673.828,0
1579965890.832,999.512,-434.570,-708.984,-859.375,-680.176,0
1579965890.836,999.512,-577.148,-592.285,520.996,-551.758,0
1579965890.840,999.512,-696.289,-573.242,732.422,-523.438,0
1579965890.844,999.512,-563.477,-708.984,-751.953,-657.715,0
1579965890.847,999.512,-428.223,-741.699,-1000.000,-659.668,0
1579965890.851,999.512,-546.387,-638.184,230.957,-589.355,0
1579965890.855,999.512,-710.938,-555.176,-837.891,-439.941,0
1579965890.859,999.512,-631.348,-645.996,-42.969,-467.285,0
1579965890.863,999.512,-448.730,-719.727,-1000.000,-493.652,0
1579965890.867,999.512,-501.953,-620.605,-32.715,-388.184,0
1579965890.871,999.512,-712.891,-596.191,-784.180,-590.332,0
1579965890.875,999.512,-686.035,-639.160,336.914,-481.934,0
1579965890.879,999.512,-473.633,-650.391,-1000.000,-194.824,0
1579965890.883,999.512,-477.051,-664.062,-363.281,-442.383,0
1579965890.887,999.512,-685.547,-620.117,-846.680,-599.121,0
1579965890.890,999.512,-736.816,-656.250,499.023,-609.863,0
1579965890.894,999.512,-548.340,-744.141,-1000.000,-554.688,0
1579965890.898,999.512,-463.867,-724.121,-638.672,-509.766,0
1579965890.902,999.512,-632.812,-638.184,804.199,-559.082,0
1579965890.906,999.512,-758.789,-626.465,-973.145,-577.637,0
1579965890.910,999.512,-617.188,-704.102,-377.441,-513.184,0
1579965890.914,999.512,-433.105,-641.602,-807.617,-136.230,0
1579965890.918,999.512,-552.734,-541.016,595.703,-131.836,0
1579965890.922,999.512,-751.465,-599.121,-811.523,-561.523,0
1579965890.926,999.512,-669.922,-718.262,26.855,-675.781,0
1579965890.929,999.512,-462.402,-767.578,-1000.000,-595.703,0
1579965890.933,999.512,-501.953,-663.086,-11.719,-460.938,0
1579965890.937,999.512,-707.031,-599.609,-768.066,-541.016,0
1579965890.941,999.512,-699.707,-673.340,371.582,-626.953,0
1579965890.945,999.512,-507.812,-770.996,-1000.000,-655.762,0
1579965890.949,999.512,-451.172,-698.242,-424.316,-487.793,0
1579965890.953,999.512,-624.512,-572.754,-945.801,-378.906,0
1579965890.957,999.512,-720.215,-589.355,849.609,-433.105,0
1579965890.961,999.512,-563.965,-691.895,-627.441,-447.754,0
1579965890.965,999.512,-459.961,-747.070,-712.402,-605.957,0
1579965890.969,999.512,-593.750,-601.562,753.418,-373.535,0
1579965890.972,999.512,-714.355,-496.094,-885.254,-92.285,0
1579965890.976,999.512,-630.371,-675.781,-191.895,-476.074,0
1579965890.980,999.512,-474.121,-775.879,-973.633,-635.742,0
1579965890.984,999.512,-567.871,-678.711,327.637,-554.688,0
1579965890.988,999.512,-740.723,-595.215,-755.371,-464.844,0
1579965890.992,999.512,-692.383,-676.270,266.113,-523.438,0
1579965890.996,999.512,-509.766,-783.203,-1000.000,-623.535,0
1579965891.000,999.512,-532.227,-704.590,-23.926,-544.922,0
1579965891.004,999.512,-707.031,-580.078,-825.684,-397.949,0
1579965891.008,999.512,-700.195,-548.340,753.906,-116.211,0
1579965891.012,999.512,-529.785,-651.855,-669.922,-200.684,0
1579965891.015,999.512,-488.281,-727.539,-386.230,-555.176,0
1579965891.019,999.512,-664.062,-642.578,-926.758,-546.387,0
1579965891.023,999.512,-743.164,-627.441,962.402,-467.285,0
1579965891.027,999.512,-586.426,-708.496,-406.250,-417.969,0
1579965891.031,999.512,-459.473,-747.070,-738.281,-476.074,0
1579965891.035,999.512,-602.051,-670.410,699.707,-527.832,0
1579965891.039,999.512,-752.441,-643.066,-821.289,-566.406,0
1579965891.043,999.512,-645.508,-726.074,-56.641,-527.344,0
1579965891.047,999.512,-459.961,-761.230,-1000.000,-418.457,0
1579965891.051,999.512,-540.039,-659.180,246.094,-349.121,0
1579965891.054,999.512,-729.004,-583.008,-737.793,-316.895,0
1579965891.058,999.512,-712.402,-723.145,265.625,-586.914,0
1579965891.062,999.512,-505.859,-777.344,-1000.000,-424.316,0
1579965891.066,999.512,-495.605,-625.977,6.836,-59.082,0
1579965891.070,999.512,-710.938,-598.633,-785.645,-343.262,0
1579965891.074,999.512,-750.000,-704.102,587.891,-578.613,0
1579965891.078,999.512,-566.406,-810.059,-904.297,-595.215,0
1579965891.082,999.512,-482.910,-761.719,-467.285,-461.914,0
1579965891.086,999.512,-646.484,-616.699,-974.609,-307.617,0
1579965891.090,999.512,-753.418,-641.602,908.691,-443.359,0
1579965891.094,999.512,-613.281,-775.879,-507.812,-573.242,0
1579965891.097,999.512,-455.566,-769.531,-846.191,-418.457,0
1579965891.101,999.512,-547.363,-565.430,585.449,-20.508,0
1579965891.105,999.512,-711.426,-526.367,-851.562,-69.336,0
1579965891.109,999.512,-652.832,-739.258,-66.406,-548.340,0
1579965891.113,999.512,-468.262,-821.777,-1000.000,-599.609,0
1579965891.117,999.512,-522.949,-719.727,-2.441,-477.539,0
1579965891.121,999.512,-708.008,-614.258,-812.988,-379.883,0
1579965891.125,999.512,-678.223,-705.566,114.746,-506.836,0
1579965891.129,999.512,-485.840,-806.641,-1000.000,-566.895,0
1579965891.133,999.512,-477.539,-747.070,-318.359,-532.715,0
1579965891.136,999.512,-658.691,-618.652,-863.770,-400.391,0
1579965891.140,999.512,-713.379,-627.441,613.770,-364.746,0
1579965891.144,999.512,-534.668,-723.145,-932.617,-388.184,0
1579965891.148,999.512,-437.988,-676.758,-571.289,-230.469,0
1579965891.152,999.512,-616.211,-617.188,859.863,-396.484,0
1579965891.156,999.512,-731.445,-593.750,-911.133,-374.512,0
1579965891.160,999.512,-586.914,-612.793,-150.391,-125.488,0
1579965891.164,999.512,-439.453,-708.984,-1000.000,-374.512,0
1579965891.168,999.512,-546.875,-664.062,259.277,-507.812,0
1579965891.172,999.512,-725.586,-614.258,-822.266,-515.625,0
1579965891.176,999.512,-640.625,-687.500,-4.395,-484.375,0
1579965891.179,999.512,-445.801,-745.605,-1000.000,-452.637,0
1579965891.183,999.512,-489.746,-685.547,-167.969,-486.816,0
1579965891.187,999.512,-678.711,-596.191,-789.062,-467.773,0
1579965891.191,999.512,-669.922,-633.301,377.441,-411.133,0
1579965891.195,999.512,-453.613,-642.578,-1000.000,-98.145,0
1579965891.199,999.512,-408.203,-593.750,-546.875,-56.641,0
1579965891.203,999.512,-610.840,-572.754,951.660,-339.355,0
1579965891.207,999.512,-701.660,-632.324,630.371,-497.070,0
1579965891.211,999.512,-536.621,-751.465,-885.254,-557.617,0
1579965891.215,999.512,-410.645,-718.750,-832.031,-410.645,0
1579965891.219,999.512,-562.500,-622.559,604.980,-429.688,0
1579965891.222,999.512,-715.820,-612.793,-981.445,-506.348,0
1579965891.226,999.512,-595.703,-725.586,-375.977,-580.078,0
1579965891.230,999.512,-419.922,-739.258,-1000.000,-450.195,0
1579965891.234,999.512,-515.137,-608.887,316.895,-298.340,0
1579965891.238,999.512,-696.777,-545.898,-868.652,-309.082,0
1579965891.242,999.512,-623.535,-619.629,-40.039,-312.988,0
1579965891.246,999.512,-449.707,-740.723,-1000.000,-515.625,0
1579965891.250,999.512,-468.750,-641.602,-181.152,-336.914,0
1579965891.254,999.512,-638.672,-469.238,-791.504,-12.207,0
1579965891.258,999.512,-674.316,-592.285,389.648,-353.516,0
1579965891.261,999.512,-492.188,-721.680,-1000.000,-488.281,0
1579965891.265,999.512,-430.176,-681.641,-559.082,-452.637,0
1579965891.269,999.512,-602.539,-571.289,967.285,-398.438,0
1579965891.273,999.512,-695.801,-578.125,706.055,-426.758,0
1579965891.277,999.512,-539.062,-708.984,-789.062,-570.801,0
1579965891.281,999.512,-403.320,-708.008,-911.621,-508.789,0
1579965891.285,999.512,-523.438,-570.312,466.309,-349.121,0
1579965891.289,999.512,-657.227,-449.707,-852.539,-53.711,0
1579965891.293,999.512,-557.129,-549.316,-85.449,-146.973,0
1579965891.297,999.512,-402.344,-699.707,-1000.000,-519.043,0
1579965891.301,999.512,-470.703,-631.348,-31.738,-521.973,0
1579965891.304,999.512,-661.133,-549.316,-778.320,-477.539,0
1579965891.308,999.512,-618.652,-601.562,188.477,-440.430,0
1579965891.312,999.512,-432.129,-699.219,-1000.000,-539.551,0
1579965891.316,-997.070,-423.340,-638.672,-401.855,-483.398,0
1579965891.320,978.027,-600.586,-511.230,-903.320,-354.492,0
1579965891.324,-952.148,-647.461,-544.922,528.320,-388.184,0
1579965891.328,856.445,-467.773,-655.762,-1000.000,-435.547,0
1579965891.332,682.617,-398.926,-608.398,-541.504,-339.355,0
1579965891.336,950.195,-566.895,-479.004,959.961,-229.492,0
1579965891.340,-913.574,-690.430,-544.434,849.121,-508.301,0
1579965891.344,812.500,-530.273,-630.859,-601.074,-436.035,0
1579965891.347,239.258,-370.605,-559.082,-898.926,-74.707,0
1579965891.351,757.812,-519.043,-520.996,468.750,-317.383,0
1579965891.355,-925.293,-692.871,-541.016,-834.473,-535.156,0
1579965891.359,-1000.000,-601.074,-644.531,-45.410,-582.031,0
1579965891.363,709.961,-408.203,-678.223,-1000.000,-473.145,0
1579965891.367,745.117,-473.633,-575.195,57.617,-397.461,0
1579965891.371,-962.891,-672.852,-532.227,-757.324,-510.254,0
1579965891.375,-973.145,-636.230,-587.402,350.586,-457.520,0
1579965891.379,819.336,-429.688,-638.672,-1000.000,-339.844,0
1579965891.383,756.348,-417.969,-512.695,-109.375,-53.711,0
1579965891.386,-979.492,-607.422,-421.387,-828.125,-49.805,0
1579965891.390,-1000.000,-681.641,-566.895,798.340,-502.441,0
1579965891.394,992.676,-513.672,-697.266,-662.109,-613.770,0
1579965891.398,-999.512,-413.574,-669.434,-434.570,-503.418,0
1579965891.402,987.305,-570.312,-532.715,-989.258,-364.746,0
1579965891.406,-987.305,-689.941,-543.945,-899.902,-470.703,0
1579965891.410,992.676,-567.871,-657.715,-173.828,-571.289,0
1579965891.414,699.707,-410.156,-682.129,-801.270,-529.785,0
1579965891.418,817.871,-511.719,-553.223,578.125,-379.883,0
1579965891.422,-974.609,-660.156,-482.422,-767.578,-312.500,0
1579965891.426,-926.758,-595.703,-567.871,258.789,-382.324,0
1579965891.429,-229.004,-406.250,-613.770,-1000.000,-314.941,0
1579965891.433,-423.340,-442.383,-559.082,-41.016,-349.609,0
1579965891.437,-960.449,-614.746,-452.148,-770.508,-230.957,0
1579965891.441,-971.191,-598.145,-446.777,525.391,-66.406,0
1579965891.445,-217.285,-439.453,-594.727,-986.328,-344.727,0
1579965891.449,-1000.000,-406.738,-613.770,-421.875,-496.094,0
1579965891.453,227.539,-584.961,-515.625,-895.996,-460.938,0
1579965891.457,-967.773,-644.043,-515.137,753.418,-429.688,0
1579965891.461,-267.090,-478.516,-614.258,-729.492,-474.609,0
1579965891.465,-1000.000,-362.305,-632.812,-848.145,-501.953,0
1579965891.468,-548.828,-505.371,-518.555,615.723,-428.711,0
1579965891.472,408.203,-640.137,-472.656,989.746,-370.117,0
1579965891.476,-395.508,-485.352,-481.934,-316.895,-74.707,0
1579965891.480,-1000.000,-320.801,-514.160,-1000.000,-73.730,0
1579965891.484,-963.379,-438.965,-524.414,57.129,-419.434,0
1579965891.488,-258.789,-639.160,-494.629,-880.859,-518.066,0
1579965891.492,-347.168,-554.199,-544.922,-125.977,-407.227,0
1579965891.496,-1000.000,-354.004,-588.867,-1000.000,-333.496,0
1579965891.500,-1000.000,-393.066,-561.035,-346.680,-453.613,0
1579965891.504,-517.578,-599.121,-491.699,-895.020,-460.938,0
1579965891.508,-344.727,-623.047,-552.246,245.117,-520.508,0
1579965891.511,-969.727,-424.316,-624.512,-1000.000,-456.055,0
1579965891.515,-1000.000,-364.258,-566.895,-741.211,-331.543,0
1579965891.519,-682.129,-537.598,-459.473,760.254,-266.113,0
1579965891.523,-219.727,-636.719,-473.633,523.926,-308.105,0
1579965891.527,-770.508,-487.305,-635.742,-988.281,-556.152,0
1579965891.531,-1000.000,-358.887,-600.586,-955.078,-352.539,0
1579965891.535,-775.879,-479.492,-413.086,456.543,10.254,0
1579965891.539,541.016,-653.809,-460.938,804.199,-318.359,0
1579965891.543,135.254,-539.551,-629.395,-597.168,-568.848,0
1579965891.547,-1000.000,-380.859,-669.434,-1000.000,-533.203,0
1579965891.551,-669.434,-443.359,-546.387,-146.484,-330.078,0
1579965891.554,695.801,-630.371,-489.258,-973.633,-351.074,0
1579965891.558,-916.992,-583.984,-614.258,-151.367,-539.062,0
1579965891.562,-427.246,-407.715,-694.336,-1000.000,-529.297,0
1579965891.566,-412.598,-412.598,-605.957,-558.594,-342.285,0
1579965891.570,-970.215,-566.406,-436.035,869.629,31.738,0
1579965891.574,-953.613,-604.004,-493.652,251.953,-61.523,0
1579965891.578,856.445,-460.938,-708.008,-1000.000,-518.555,0
1579965891.582,823.242,-404.785,-711.914,-971.191,-539.062,0
1579965891.586,997.559,-540.039,-595.703,323.730,-400.391,0
1579965891.590,-984.375,-631.348,-577.148,301.270,-352.051,0
1579965891.593,977.539,-499.023,-703.125,-979.980,-503.906,0
1579965891.597,901.855,-406.250,-721.680,-1000.000,-538.086,0
1579965891.601,959.961,-497.070,-623.047,-190.918,-451.172,0
1579965891.605,999.023,-624.512,-564.941,367.188,-354.004,0
1579965891.609,-925.293,-528.320,-625.000,-804.199,-304.199,0
1579965891.613,130.371,-404.297,-668.945,-1000.000,-358.887,0
1579965891.617,109.375,-446.289,-578.613,-540.527,-255.859,0
1579965891.621,-918.457,-600.098,-564.941,289.062,-412.109,0
1579965891.625,-946.777,-561.035,-608.887,-482.910,-347.168,0
1579965891.629,-274.414,-398.438,-591.309,-1000.000,-93.750,0
1579965891.633,-608.887,-425.293,-602.051,-869.629,-336.426,0
1579965891.636,822.754,-580.078,-570.312,225.098,-462.891,0
1579965891.640,-791.992,-614.258,-604.004,-21.973,-503.418,0
1579965891.644,115.234,-462.891,-674.316,-1000.000,-470.703,0
1579965891.648,-1000.000,-414.062,-650.391,-1000.000,-436.523,0
1579965891.652,192.383,-547.852,-569.336,212.891,-437.988,0
1579965891.656,-755.371,-663.574,-540.039,593.262,-402.832,0
1579965891.660,362.793,-530.273,-628.418,-861.328,-410.645,0
1579965891.664,-1000.000,-378.418,-567.383,-1000.000,-88.867,0
1579965891.668,-320.801,-485.840,-444.336,97.168,22.461,0
1579965891.672,-831.055,-689.453,-499.512,-939.941,-432.129,0
1579965891.675,587.402,-611.816,-629.883,-192.383,-615.234,0
1579965891.679,-843.750,-423.340,-671.875,-1000.000,-544.434,0
1579965891.683,-963.867,-462.891,-556.641,-211.426,-380.371,0
1579965891.687,541.016,-657.227,-490.234,-839.844,-453.125,0
1579965891.691,570.312,-653.809,-563.477,298.828,-568.848,0
1579965891.695,-864.746,-462.891,-648.438,-1000.000,-589.844,0
1579965891.699,-1000.000,-427.246,-569.336,-382.812,-440.430,0
1579965891.703,-438.965,-607.422,-440.918,-915.527,-315.918,0
1579965891.707,-136.230,-683.105,-458.984,752.930,-356.934,0
1579965891.711,-958.008,-509.766,-559.570,-748.535,-401.855,0
1579965891.715,-1000.000,-399.414,-596.680,-747.559,-552.734,0
1579965891.718,-937.500,-531.738,-448.242,733.887,-342.773,0
1579965891.722,-976.074,-642.090,-333.008,-985.840,-7.812,0
1579965891.726,-969.238,-536.621,-489.258,-318.848,-312.012,0
1579965891.730,-969.238,-381.836,-598.145,-1000.000,-564.453,0
1579965891.734,-969.238,-477.051,-505.371,265.137,-516.113,0
1579965891.738,-969.238,-656.738,-423.340,-778.809,-428.711,0
1579965891.742,-969.238,-584.473,-503.906,104.980,-465.332,0
1579965891.746,-969.238,-387.207,-601.562,-1000.000,-566.895,0
1579965891.750,-969.238,-412.598,-520.996,-136.719,-501.465,0
1579965891.754,-969.238,-599.121,-403.809,-808.105,-369.629,0
1579965891.758,-969.238,-595.703,-373.535,566.406,-93.262,0
1579965891.761,-969.238,-412.109,-462.891,-920.898,-153.809,0
1579965891.765,-969.238,-362.793,-525.391,-612.793,-493.164,0
1579965891.769,-969.238,-541.992,-444.824,977.051,-526.855,0
1579965891.773,-969.238,-626.465,-450.684,604.492,-512.207,0
1579965891.777,-969.238,-450.195,-536.621,-863.281,-494.629,0
1579965891.781,-969.238,-316.406,-517.578,-975.586,-430.664,0
1579965891.785,-969.238,-443.359,-398.438,441.406,-352.051,0
1579965891.789,-969.238,-606.445,-409.668,767.090,-531.250,0
1579965891.793,-969.238,-473.145,-493.164,-631.348,-513.184,0
1579965891.797,-969.238,-303.711,-496.582,-1000.000,-429.199,0
1579965891.800,-969.238,-347.168,-389.648,-275.391,-323.242,0
1579965891.804,-969.238,-513.672,-315.918,726.562,-288.574,0
1579965891.808,-969.238,-486.328,-448.730,-423.340,-585.938,0
1579965891.812,-969.238,-295.898,-480.469,-1000.000,-482.910,0
1579965891.816,-969.238,-265.137,-316.406,-732.910,-102.051,0
1579965891.820,-969.238,-399.414,-294.434,-162.109,-301.270,0
1579965891.824,-969.238,-417.969,-392.578,-600.586,-551.758,0
1579965891.828,-969.238,-300.293,-468.262,-1000.000,-656.250,0
1579965891.832,-969.238,-260.254,-395.508,-970.215,-548.828,0
1579965891.836,-969.238,-320.312,-284.180,-786.621,-418.457,0
1579965891.840,-969.238,-348.633,-283.203,-782.715,-418.457,0
1579965891.843,-969.238,-268.066,-340.820,-994.141,-475.586,0
1579965891.847,-969.238,-219.238,-334.961,-978.027,-564.941,0
1579965891.851,-969.238,-226.562,-145.508,-909.668,-132.812,0
1579965891.855,-969.238,-265.625,-92.285,-888.184,-69.824,0
1579965891.859,-969.238,-257.812,-273.438,-977.539,-634.277,0
1579965891.863,-969.238,-208.008,-322.754,-969.238,-797.852,0
1579965891.867,-969.238,-222.168,-202.148,-967.285,-571.289,0
1579965891.871,-969.238,-271.973,-129.395,-969.238,-416.016,0
1579965891.875,-969.238,-270.508,-229.492,-969.238,-615.234,0
1579965891.879,-969.238,-218.262,-312.500,-969.238,-779.297,0
1579965891.883,-969.238,-223.145,-261.719,-969.238,-735.840,0
1579965891.886,-969.238,-274.902,-155.762,-969.238,-493.164,0
1579965891.890,-969.238,-278.809,-172.363,-969.238,-441.895,0
1579965891.894,-969.238,-221.680,-254.395,-969.238,-584.961,0
1579965891.898,-969.238,-193.848,-208.496,-969.238,-498.047,0
1579965891.902,-969.238,-264.648,-170.410,-969.238,-555.176,0
1579965891.906,-969.238,-287.109,-162.109,-969.238,-432.617,0
1579965891.910,-969.238,-210.449,-171.875,-969.238,-259.766,0
1579965891.914,-969.238,-192.383,-248.047,-969.238,-611.816,0
1579965891.918,-969.238,-249.023,-214.355,-969.238,-671.875,0
1579965891.922,-969.238,-293.457,-176.270,-969.238,-569.824,0
1579965891.925,-969.238,-253.418,-232.422,-969.238,-601.562,0
1579965891.929,-969.238,-198.242,-272.949,-969.238,-698.242,0
1579965891.933,-969.238,-225.098,-218.750,-969.238,-690.918,0
1579965891.937,-969.238,-279.785,-149.902,-969.238,-530.762,0
1579965891.941,-969.238,-263.184,-185.547,-969.238,-501.465,0
1579965891.945,-969.238,-182.617,-174.316,-969.238,-311.523,0
1579965891.949,-969.238,-185.059,-125.488,-969.238,-284.668,0
1579965891.953,-969.238,-277.832,-145.996,-969.238,-547.363,0
1579965891.957,-969.238,-290.527,-178.223,-969.238,-532.715,0
1579965891.961,-969.238,-231.445,-255.371,-969.238,-641.602,0
1579965891.965,-969.238,-207.520,-240.234,-969.238,-670.898,0
1579965891.968,-969.238,-258.301,-160.156,-969.238,-590.332,0
1579965891.972,-969.238,-291.504,-161.621,-969.238,-572.266,0
1579965891.976,-969.238,-248.047,-250.488,-969.238,-726.562,0
1579965891.980,-969.238,-196.289,-250.488,-969.238,-728.516,0
1579965891.984,-969.238,-220.703,-135.742,-969.238,-517.578,0
1579965891.988,-969.238,-264.648,-80.566,-969.238,-397.949,0
1579965891.992,-969.238,-238.281,-152.344,-969.238,-493.652,0
1579965891.996,-969.238,-200.684,-262.207,-969.238,-822.754,0
1579965892.000,-969.238,-197.266,-162.109,-969.238,-578.613,0
1579965892.004,-969.238,-226.562,-4.883,-969.238,-112.793,0
1579965892.007,-969.238,-250.977,-127.930,-969.238,-465.820,0
1579965892.011,-969.238,-213.379,-270.020,-969.238,-813.965,0
1579965892.015,-969.238,-195.801,-205.078,-969.238,-673.340,0
1579965892.019,-969.238,-248.535,-99.609,-969.238,-452.637,0
1579965892.023,-969.238,-274.902,-140.625,-969.238,-515.625,0
1579965892.027,-969.238,-236.328,-261.230,-969.238,-756.836,0
1579965892.031,-969.238,-215.332,-260.254,-969.238,-770.020,0
1579965892.035,-969.238,-255.859,-147.461,-969.238,-512.207,0
1579965892.039,-969.238,-265.137,-47.363,-969.238,-93.262,0
1579965892.043,-969.238,-231.934,-135.742,-969.238,-247.559,0
1579965892.047,-969.238,-226.562,-278.809,-969.238,-748.535,0
1579965892.050,-969.238,-263.672,-222.168,-969.238,-686.523,0
1579965892.054,-969.238,-316.406,-162.109,-969.238,-506.836,0
1579965892.058,-969.238,-292.969,-217.773,-969.238,-517.090,0
1579965892.062,-969.238,-246.582,-302.246,-969.238,-717.773,0
1579965892.066,-969.238,-271.484,-265.137,-969.238,-705.566,0
1579965892.070,-969.238,-326.172,-167.480,-969.238,-433.594,0
1579965892.074,-969.238,-316.895,-172.852,-968.262,-287.598,0
1579965892.078,-969.238,-270.996,-279.785,-964.844,-511.719,0
1579965892.082,-969.238,-261.719,-262.207,-989.746,-527.832,0
1579965892.086,-969.238,-328.125,-171.875,-852.539,-352.051,0
1579965892.090,-969.238,-376.953,-245.605,-855.957,-533.691,0
1579965892.093,-969.238,-308.594,-312.988,-967.773,-510.742,0
1579965892.097,-969.238,-248.535,-235.840,-1000.000,-232.422,0
1579965892.101,-969.238,-329.102,-208.496,-728.516,-386.230,0
1579965892.105,-969.238,-413.086,-249.023,-591.309,-528.320,0
1579965892.109,-969.238,-361.328,-344.238,-963.867,-616.211,0
1579965892.113,-969.238,-288.574,-362.793,-1000.000,-609.863,0
1579965892.117,-969.238,-313.965,-270.996,-828.125,-486.816,0
1579965892.121,-969.238,-403.320,-237.793,-611.816,-493.164,0
1579965892.125,-969.238,-383.301,-305.664,-900.879,-548.828,0
1579965892.129,-969.238,-291.992,-349.609,-1000.000,-552.246,0
1579965892.132,-969.238,-266.602,-205.078,-854.492,-152.344,0
1579965892.136,-969.238,-361.328,-116.699,-482.910,-47.852,0
1579965892.140,-969.238,-409.180,-270.020,-796.875,-499.023,0
1579965892.144,-969.238,-322.754,-392.090,-1000.000,-699.219,0
1579965892.148,-969.238,-291.504,-352.539,-977.539,-631.836,0
1579965892.152,-969.238,-354.492,-235.840,-768.066,-397.949,0
1579965892.156,-969.238,-399.902,-256.348,-761.719,-456.055,0
1579965892.160,-969.238,-335.449,-362.305,-980.469,-630.859,0
1579965892.164,-969.238,-289.062,-380.371,-1000.000,-685.547,0
1579965892.168,-969.238,-327.148,-267.578,-790.039,-452.637,0
1579965892.172,-969.238,-386.719,-215.820,-657.227,-299.805,0
1579965892.175,-969.238,-345.703,-298.340,-969.238,-397.949,0
1579965892.179,-969.238,-283.203,-344.238,-996.094,-489.746,0
1579965892.183,-969.238,-324.219,-324.707,-921.387,-592.773,0
1579965892.187,-969.238,-378.906,-229.004,-790.527,-290.039,0
1579965892.191,-969.238,-343.750,-206.055,-911.621,-32.227,0
1579965892.195,-969.238,-306.641,-356.934,-986.328,-478.027,0
1579965892.199,-969.238,-323.730,-382.324,-988.770,-633.789,0
1579965892.203,-969.238,-402.344,-300.293,-712.891,-468.750,0
1579965892.207,-969.238,-419.922,-309.570,-758.789,-392.090,0
1579965892.211,-969.238,-343.750,-402.344,-988.281,-511.719,0
1579965892.215,-969.238,-326.172,-424.316,-1000.000,-624.023,0
1579965892.218,-969.238,-399.414,-335.449,-663.086,-458.008,0
1579965892.222,-969.238,-458.008,-310.059,-522.461,-312.988,0
1579965892.226,-969.238,-367.188,-326.172,-969.238,-93.262,0
1579965892.230,-969.238,-312.500,-355.957,-1000.000,-168.945,0
1579965892.234,-969.238,-400.391,-382.812,-732.910,-458.984,0
1579965892.238,-969.238,-492.676,-377.930,-538.574,-448.242,0
1579965892.242,-969.238,-455.078,-464.355,-937.988,-504.395,0
1579965892.246,-969.238,-362.793,-476.074,-1000.000,-417.969,0
1579965892.250,-969.238,-382.812,-404.785,-875.488,-331.543,0
1579965892.254,-969.238,-495.117,-385.742,-484.863,-390.137,0
1579965892.257,-969.238,-499.023,-465.332,-765.137,-494.629,0
1579965892.261,-969.238,-397.461,-530.273,-1000.000,-512.695,0
1579965892.265,-969.238,-374.023,-473.145,-1000.000,-384.766,0
1579965892.269,-969.238,-476.562,-379.883,-384.277,-250.000,0
1579965892.273,-969.238,-527.344,-405.762,-403.809,-266.602,0
1579965892.277,-969.238,-446.777,-562.988,-1000.000,-571.289,0
1579965892.281,-969.238,-385.254,-534.180,-1000.000,-418.945,0
1579965892.285,-969.238,-441.895,-349.121,-443.359,51.270,0
1579965892.289,-969.238,-552.734,-398.926,-256.836,-174.316,0
1579965892.293,-969.238,-493.652,-577.637,-980.957,-515.137,0
1579965892.297,-969.238,-415.527,-623.047,-1000.000,-569.336,0
1579965892.300,-969.238,-460.449,-518.066,-619.629,-374.512,0
1579965892.304,-970.703,-560.547,-445.312,-291.504,-192.383,0
1579965892.308,-967.773,-536.133,-547.852,-837.402,-310.059,0
1579965892.312,-910.156,-452.637,-651.367,-1000.000,-498.535,0
1579965892.316,-1000.000,-458.984,-580.078,-816.895,-333.984,0
1579965892.320,-233.398,-587.891,-421.875,282.227,84.473,0
1579965892.324,-833.984,-613.281,-481.445,-142.090,5.859,0
1579965892.328,-122.559,-503.418,-695.801,-1000.000,-472.168,0
1579965892.332,-503.418,-485.352,-707.520,-1000.000,-502.441,0
1579965892.336,994.629,-601.074,-608.887,62.012,-345.703,0
1579965892.339,-961.914,-682.129,-608.887,185.547,-286.133,0
1579965892.343,951.660,-567.871,-743.164,-985.840,-432.129,0
1579965892.347,-989.746,-487.793,-775.879,-1000.000,-466.309,0
1579965892.351,999.512,-597.656,-692.871,-46.875,-378.418,0
1579965892.355,999.512,-756.836,-652.832,798.340,-309.570,0
1579965892.359,999.512,-672.363,-748.047,-515.625,-288.574,0
1579965892.363,999.512,-520.020,-813.477,-1000.000,-280.273,0
1579965892.367,999.512,-585.449,-710.938,-142.578,-97.656,0
1579965892.371,999.512,-799.805,-692.383,-854.004,-260.254,0
1579965892.375,999.512,-776.367,-790.039,80.078,-272.949,0
1579965892.379,999.512,-569.336,-821.289,-1000.000,35.645,0
1579965892.382,999.512,-606.934,-836.426,-330.078,-184.082,0
1579965892.386,999.512,-820.312,-812.012,-873.047,-374.023,0
1579965892.390,999.512,-876.465,-860.840,560.059,-414.551,0
1579965892.394,999.512,-691.895,-951.660,-952.637,-352.051,0
1579965892.398,999.512,-602.539,-920.898,-659.668,-273.926,0
1579965892.402,999.512,-768.555,-831.055,783.203,-327.637,0
1579965892.406,999.512,-884.766,-819.336,959.961,-370.117,0
1579965892.410,999.512,-729.492,-894.043,-488.281,-321.289,0
1579965892.414,999.512,-549.316,-818.359,-789.551,43.945,0
1579965892.418,999.512,-670.898,-688.965,653.320,74.219,0
1579965892.422,999.512,-845.703,-706.055,-862.793,-250.977,0
1579965892.425,999.512,-748.047,-826.172,-81.543,-414.062,0
1579965892.429,999.512,-554.199,-897.949,-1000.000,-460.449,0
1579965892.433,999.512,-596.191,-772.949,30.273,-316.406,0
1579965892.437,999.512,-787.109,-691.895,-836.914,-384.766,0
1579965892.441,999.512,-742.676,-764.648,80.078,-470.703,0
1579965892.445,999.512,-543.945,-845.703,-1000.000,-516.602,0
1579965892.449,999.512,-512.695,-756.836,-403.320,-391.113,0
1579965892.453,999.512,-685.547,-615.723,-894.043,-275.391,0
1579965892.457,999.512,-741.211,-629.395,545.898,-322.754,0
1579965892.461,999.512,-556.152,-716.797,-933.105,-353.027,0
1579965892.464,999.512,-449.707,-738.281,-927.246,-504.395,0
1579965892.468,999.512,-570.801,-588.379,511.719,-310.059,0
1579965892.472,999.512,-680.664,-482.422,819.824,-61.523,0
1579965892.476,999.512,-557.129,-627.441,-616.211,-336.426,0
1579965892.480,999.512,-411.133,-684.570,-1000.000,-442.871,0
1579965892.484,999.512,-507.324,-601.562,20.508,-469.727,0
1579965892.488,999.512,-680.176,-531.738,-956.543,-441.895,0
1579965892.492,999.512,-602.539,-607.910,-203.125,-484.863,0
1579965892.496,999.512,-416.504,-684.082,-1000.000,-579.102,0
1579965892.500,-997.559,-431.641,-575.195,-336.914,-429.199,0
1579965892.504,944.336,-616.211,-470.703,-917.480,-364.258,0
1579965892.507,-859.375,-598.145,-455.566,210.449,-143.555,0
1579965892.511,423.340,-411.621,-535.645,-1000.000,-175.293,0
1579965892.515,-151.855,-396.484,-593.262,-866.211,-510.742,0
1579965892.519,808.105,-560.547,-518.066,569.336,-540.039,0
1579965892.523,-796.875,-629.395,-527.344,360.840,-557.617,0
1579965892.527,268.555,-459.961,-605.469,-1000.000,-506.836,0
1579965892.531,-1000.000,-381.836,-618.652,-1000.000,-576.660,0
1579965892.535,-69.336,-486.328,-503.906,83.984,-430.176,0
1579965892.539,-756.348,-614.746,-464.355,616.699,-410.156,0
1579965892.543,389.648,-511.230,-573.730,-751.465,-534.668,0
1579965892.546,-1000.000,-371.094,-590.820,-1000.000,-476.074,0
1579965892.550,-677.734,-447.266,-486.816,-178.711,-364.746,0
1579965892.554,874.512,-604.004,-429.688,744.629,-354.004,0
1579965892.558,584.961,-553.711,-567.871,-450.195,-621.582,0
1579965892.562,-875.000,-387.207,-604.004,-1000.000,-501.953,0
1579965892.566,-1000.000,-381.348,-443.848,-560.547,-105.957,0
1579965892.570,267.090,-577.148,-421.387,727.051,-352.539,0
1579965892.574,805.664,-597.656,-534.180,48.340,-616.699,0
1579965892.578,-578.125,-426.758,-627.930,-1000.000,-648.438,0
1579965892.582,-1000.000,-383.301,-569.824,-928.711,-517.090,0
1579965892.586,-218.750,-531.738,-461.914,367.676,-420.410,0
1579965892.589,997.070,-627.930,-504.883,324.707,-590.332,0
1579965892.593,-130.371,-474.609,-589.355,-1000.000,-556.152,0
1579965892.597,-1000.000,-371.094,-556.152,-1000.000,-414.062,0
1579965892.601,-757.324,-469.238,-388.672,94.727,-93.262,0
1579965892.605,644.043,-618.652,-362.793,653.320,-134.766,0
1579965892.609,333.984,-535.645,-570.312,-738.770,-597.656,0
1579965892.613,-1000.000,-402.832,-641.602,-1000.000,-684.570,0
1579965892.617,-796.875,-450.684,-544.922,-400.391,-545.410,0
1579965892.621,636.230,-614.258,-455.566,779.297,-453.613,0
1579965892.625,635.742,-586.426,-548.828,-212.891,-598.633,0
1579965892.629,-801.758,-421.387,-638.672,-1000.000,-663.086,0
1579965892.632,-1000.000,-412.109,-573.730,-767.090,-592.285,0
1579965892.636,111.816,-565.918,-460.938,582.031,-462.891,0
1579965892.640,755.859,-604.980,-481.934,201.660,-455.566,0
1579965892.644,-662.598,-438.477,-571.289,-1000.000,-478.027,0
1579965892.648,-1000.000,-379.883,-541.504,-1000.000,-455.078,0
1579965892.652,-681.152,-505.859,-462.891,57.617,-464.844,0
1579965892.656,-477.539,-586.914,-414.062,208.984,-283.691,0
1579965892.660,-940.918,-443.848,-454.590,-985.840,-179.199,0
1579965892.664,-998.535,-361.816,-527.832,-1000.000,-503.418,0
1579965892.668,-946.777,-440.430,-479.492,-497.559,-603.516,0
1579965892.671,-974.121,-523.926,-439.941,-329.590,-544.922,0
1579965892.675,-969.238,-443.359,-495.605,-976.562,-550.781,0
1579965892.679,-969.238,-350.586,-516.113,-1000.000,-629.395,0
1579965892.683,-969.238,-378.418,-450.684,-844.727,-644.043,0
1579965892.687,-969.238,-456.543,-377.441,-617.676,-519.043,0
1579965892.691,-969.238,-431.152,-409.180,-898.438,-485.840,0
1579965892.695,-969.238,-322.266,-398.438,-1000.000,-284.180,0
1579965892.699,-969.238,-323.242,-345.215,-978.516,-239.746,0
1579965892.703,-969.238,-448.242,-373.047,-666.992,-527.832,0
1579965892.707,-969.238,-480.469,-439.941,-727.051,-615.234,0
1579965892.711,-969.238,-381.348,-483.887,-995.117,-545.898,0
1579965892.714,-969.238,-348.633,-454.102,-1000.000,-517.090,0
1579965892.718,-969.238,-444.336,-407.715,-614.746,-577.148,0
1579965892.722,-969.238,-511.230,-420.410,-501.465,-582.520,0
1579965892.726,-969.238,-441.895,-522.949,-965.820,-703.613,0
1579965892.730,-969.238,-375.488,-523.438,-1000.000,-667.969,0
1579965892.734,-969.238,-422.363,-413.574,-622.559,-468.262,0
1579965892.738,-969.238,-529.785,-372.070,-209.961,-398.926,0
1579965892.742,-969.238,-487.793,-457.520,-832.031,-483.887,0
1579965892.746,-969.238,-400.879,-564.453,-1000.000,-737.793,0
1579965892.750,-969.238,-410.156,-472.168,-673.828,-534.668,0
1579965892.754,-969.238,-537.598,-278.320,490.723,-18.066,0
1579965892.757,-969.238,-569.824,-383.789,-196.777,-279.785,0
1579965892.761,-969.238,-441.895,-584.961,-1000.000,-749.512,0
1579965892.765,-969.238,-403.320,-544.922,-1000.000,-679.688,0
1579965892.769,-969.238,-520.508,-413.574,-49.805,-437.500,0
1579965892.773,-969.238,-595.703,-442.871,-8.301,-504.883,0
1579965892.777,-969.238,-471.191,-579.102,-1000.000,-729.492,0
1579965892.781,-969.238,-394.531,-561.035,-1000.000,-677.734,0
1579965892.785,-969.238,-495.117,-437.988,-102.539,-511.719,0
1579965892.789,-969.238,-601.074,-342.285,349.609,-236.816,0
1579965892.793,-969.238,-494.141,-419.434,-763.672,-267.578,0
1579965892.796,-969.238,-393.066,-552.246,-1000.000,-685.547,0
1579965892.800,-969.238,-451.172,-490.234,-375.977,-672.363,0
1579965892.804,-969.238,-597.168,-420.898,408.691,-590.820,0
1579965892.808,-969.238,-539.551,-475.586,-605.957,-569.824,0
1579965892.812,-969.238,-392.578,-555.176,-1000.000,-697.754,0
1579965892.816,-969.238,-401.367,-493.164,-668.945,-666.504,0
1579965892.820,-969.238,-565.918,-409.180,528.320,-627.441,0
1579965892.824,-969.238,-583.496,-444.336,-25.391,-597.656,0
1579965892.828,-969.238,-399.414,-493.164,-1000.000,-507.324,0
1579965892.832,-969.238,-351.562,-445.801,-908.203,-466.797,0
1579965892.836,-969.238,-512.207,-353.516,459.961,-436.035,0
1579965892.839,-969.238,-626.465,-421.387,341.797,-676.270,0
1579965892.843,-969.238,-457.031,-496.582,-1000.000,-582.031,0
1579965892.847,-969.238,-323.242,-400.391,-1000.000,-235.840,0
1579965892.851,-969.238,-450.684,-363.281,-5.371,-435.059,0
1579965892.855,-969.238,-624.512,-405.762,624.023,-678.223,0
1579965892.859,-969.238,-522.949,-506.348,-714.355,-725.098,0
1579965892.863,-969.238,-359.375,-515.137,-1000.000,-628.906,0
1579965892.867,-969.238,-406.738,-416.016,-346.191,-524.414,0
1579965892.871,-969.238,-601.562,-392.090,828.125,-631.836,0
1579965892.875,-969.238,-570.801,-470.215,-177.246,-675.293,0
1579965892.878,-969.238,-378.418,-515.625,-1000.000,-582.520,0
1579965892.882,-969.238,-348.633,-364.746,-569.824,-179.199,0
1579965892.886,-969.238,-540.039,-274.902,891.602,-150.391,0
1579965892.890,-969.238,-617.676,-439.453,187.988,-621.582,0
1579965892.894,-969.238,-438.965,-576.172,-1000.000,-741.211,0
1579965892.898,-969.238,-363.770,-534.668,-920.410,-646.484,0
1579965892.902,-969.238,-502.930,-405.273,463.867,-482.910,0
1579965892.906,-969.238,-631.348,-431.152,506.836,-594.727,0
1579965892.910,-966.309,-490.723,-554.199,-925.781,-690.918,0
1579965892.914,-969.727,-364.258,-568.359,-1000.000,-682.129,0
1579965892.918,-979.492,-464.355,-447.754,70.312,-519.043,0
1579965892.921,-863.770,-625.977,-388.184,780.762,-429.688,0
1579965892.925,-888.672,-536.621,-486.816,-529.785,-464.844,0
1579965892.929,-963.379,-377.930,-541.016,-1000.000,-485.352,0
1579965892.933,-1000.000,-443.359,-509.277,-292.480,-608.398,0
1579965892.937,-269.531,-628.418,-412.109,-871.582,-458.496,0
1579965892.941,-157.227,-597.656,-393.066,228.516,-178.711,0
1579965892.945,-995.605,-419.434,-520.020,-1000.000,-368.652,0
1579965892.949,-1000.000,-417.480,-541.504,-575.195,-568.359,0
1579965892.953,-18.066,-600.098,-469.238,936.523,-593.750,0
1579965892.957,-915.039,-655.762,-483.398,531.738,-555.664,0
1579965892.961,-169.922,-481.445,-581.543,-989.746,-570.312,0
1579965892.964,-1000.000,-400.391,-596.191,-851.562,-621.582,0
1579965892.968,9.766,-548.340,-490.723,556.641,-546.387,0
1579965892.972,-762.695,-674.316,-455.566,967.773,-489.746,0
1579965892.976,456.055,-520.020,-479.980,-422.363,-215.332,0
1579965892.980,-895.508,-366.211,-502.930,-1000.000,-173.340,0
1579965892.984,122.559,-502.930,-511.230,156.738,-512.695,0
1579965892.988,-861.816,-687.500,-501.953,-821.289,-627.930,0
1579965892.992,976.562,-607.910,-589.844,2.930,-628.906,0
1579965892.996,712.402,-414.551,-637.207,-1000.000,-541.504,0
1579965893.000,779.785,-456.055,-548.340,-113.770,-441.406,0
1579965893.003,-954.102,-645.996,-463.379,-783.203,-397.949,0
1579965893.007,985.352,-676.270,-570.801,465.820,-610.840,0
1579965893.011,999.512,-484.375,-664.551,-1000.000,-580.078,0
1579965893.015,999.512,-453.613,-590.820,-138.184,-425.781,0
1579965893.019,999.512,-640.137,-493.164,-889.160,-377.441,0
1579965893.023,999.512,-708.984,-520.508,-979.004,-397.949,0
1579965893.027,999.512,-602.539,-687.500,-31.250,-654.785,0
1579965893.031,999.512,-520.508,-667.480,36.621,-489.258,0
1579965893.035,999.512,-630.371,-473.633,-932.617,-67.871,0
1579965893.039,999.512,-733.887,-526.367,-927.734,-305.176,0
1579965893.043,999.512,-688.965,-692.383,654.785,-642.578,0
1579965893.046,999.512,-599.609,-725.098,446.289,-673.828,0
1579965893.050,999.512,-640.625,-599.121,973.145,-468.750,0
1579965893.054,999.512,-716.797,-546.387,-918.457,-389.160,0
1579965893.058,999.512,-677.246,-633.301,768.066,-484.375,0
1579965893.062,999.512,-564.453,-685.547,368.652,-492.676,0
1579965893.066,999.512,-585.449,-614.746,819.824,-431.641,0
1579965893.070,999.512,-661.621,-461.426,-929.199,-48.340,0
1579965893.074,999.512,-677.734,-531.738,979.004,-203.613,0
1579965893.078,999.512,-587.891,-714.355,268.066,-632.812,0
1579965893.082,999.512,-551.270,-693.359,455.566,-612.305,0
1579965893.085,999.512,-659.668,-587.402,-950.684,-507.812,0
1579965893.089,999.512,-676.270,-531.738,-892.090,-263.184,0
1579965893.093,999.512,-579.590,-639.648,277.832,-422.852,0
1579965893.097,999.512,-495.605,-705.078,-6.836,-608.887,0
1579965893.101,999.512,-600.586,-602.539,980.957,-530.762,0
1579965893.105,999.512,-689.941,-553.711,-843.750,-430.176,0
1579965893.109,999.512,-607.910,-626.953,416.016,-436.523,0
1579965893.113,999.512,-464.844,-666.016,-220.703,-445.801,0
1579965893.117,999.512,-508.789,-536.133,703.125,-264.648,0
1579965893.121,999.512,-651.855,-505.371,-841.797,-381.348,0
1579965893.125,999.512,-618.164,-583.984,623.535,-454.590,0
1579965893.128,999.512,-419.922,-574.707,-618.652,-155.762,0
1579965893.132,999.512,-422.852,-548.340,-11.230,-283.691,0
1579965893.136,999.512,-615.723,-522.461,-783.203,-525.879,0
1579965893.140,999.512,-640.137,-583.496,598.633,-599.121,0
1579965893.144,999.512,-454.590,-657.227,-877.930,-540.039,0
1579965893.148,-994.629,-358.887,-616.699,-615.723,-462.891,0
1579965893.152,965.820,-533.203,-529.785,938.965,-525.391,0
1579965893.156,-974.609,-633.301,-523.926,773.926,-539.551,0
1579965893.160,957.520,-472.656,-608.398,-661.133,-527.832,0
1579965893.164,-222.168,-307.129,-530.762,-1000.000,-174.805,0
1579965893.168,-16.602,-431.641,-404.785,442.383,-89.844,0
1579965893.171,-762.695,-614.258,-470.703,778.320,-518.066,0
1579965893.175,459.961,-486.328,-568.848,-661.621,-542.969,0
1579965893.179,-902.832,-331.055,-608.398,-1000.000,-548.828,0
1579965893.183,-1000.000,-373.047,-517.090,-467.773,-460.938,0
1579965893.187,260.254,-534.668,-460.449,469.238,-489.258,0
1579965893.191,153.320,-512.695,-545.898,-395.996,-597.168,0
1579965893.195,-1000.000,-360.840,-622.070,-1000.000,-659.668,0
1579965893.199,-958.984,-343.262,-538.086,-851.074,-535.156,0
1579965893.203,-943.848,-457.520,-418.945,-139.160,-355.957,0
1579965893.207,-975.098,-485.352,-445.801,-430.664,-367.188,0
1579965893.210,-969.238,-365.723,-535.156,-1000.000,-462.891,0
1579965893.214,-969.238,-345.703,-563.965,-1000.000,-662.109,0
1579965893.218,-969.238,-411.133,-435.547,-554.688,-393.555,0
1579965893.222,-969.238,-452.637,-344.238,-379.395,-58.105,0
1579965893.226,-969.238,-401.367,-500.488,-994.141,-455.078,0
1579965893.230,-969.238,-357.910,-579.102,-1000.000,-715.820,0
1579965893.234,-969.238,-395.508,-461.914,-834.473,-477.539,0
1579965893.238,-969.238,-452.148,-405.762,-772.461,-337.891,0
1579965893.242,-969.238,-425.781,-509.277,-969.727,-515.137,0
1579965893.246,-969.238,-373.047,-591.309,-981.445,-714.844,0
1579965893.250,-969.238,-391.113,-516.113,-958.008,-607.910,0
1579965893.253,-969.238,-450.195,-417.480,-876.465,-386.719,0
1579965893.257,-969.238,-421.387,-389.160,-937.988,-109.375,0
1579965893.261,-969.238,-359.863,-464.355,-983.887,-255.371,0
1579965893.265,-969.238,-394.043,-524.414,-961.914,-628.906,0
1579965893.269,-969.238,-461.914,-464.844,-968.262,-541.992,0
1579965893.273,-969.238,-479.980,-486.816,-969.727,-505.859,0
1579965893.277,-969.238,-421.387,-561.035,-955.078,-583.008,0
1579965893.281,-969.238,-397.461,-562.988,-1000.000,-654.785,0
1579965893.285,-969.238,-461.914,-486.328,-783.691,-573.242,0
1579965893.289,-969.238,-507.324,-460.938,-711.914,-459.473,0
1579965893.293,-969.238,-446.777,-514.648,-958.008,-429.688,0
1579965893.296,-969.238,-398.438,-548.340,-1000.000,-528.809,0
1579965893.300,-969.238,-444.824,-461.426,-687.988,-422.852,0
1579965893.304,-969.238,-535.645,-404.785,-424.316,-318.359,0
1579965893.308,-969.238,-515.625,-540.039,-922.363,-606.445,0
1579965893.312,-969.238,-415.039,-576.660,-1000.000,-574.707,0
1579965893.316,-969.238,-400.391,-418.457,-826.660,-161.621,0
1579965893.320,-969.238,-529.785,-403.809,-347.168,-335.449,0
1579965893.324,-969.238,-552.734,-523.926,-690.918,-608.398,0
1579965893.328,-969.238,-446.777,-608.398,-1000.000,-695.312,0
1579965893.332,-969.238,-411.621,-542.969,-1000.000,-560.059,0
1579965893.335,-969.238,-518.066,-442.871,-309.082,-443.848,0
1579965893.339,-969.238,-585.938,-488.770,-291.016,-554.199,0
1579965893.343,-969.238,-472.656,-566.895,-982.422,-559.570,0
1579965893.347,-969.238,-398.926,-545.410,-1000.000,-508.789,0
1579965893.351,-969.238,-473.633,-369.629,-56.152,-124.023,0
1579965893.355,-969.238,-611.816,-342.285,397.461,-132.812,0
1579965893.359,-969.238,-538.574,-550.293,-914.551,-616.699,0
1579965893.363,-969.238,-417.480,-612.793,-1000.000,-723.145,0
1579965893.367,-969.238,-449.707,-509.277,-554.688,-569.336,0
1579965893.371,-969.238,-587.402,-426.758,302.246,-452.637,0
1579965893.375,-969.238,-572.266,-518.066,-512.695,-602.051,0
1579965893.378,-969.238,-429.199,-602.539,-1000.000,-697.754,0
1579965893.382,-969.238,-421.387,-533.203,-772.461,-629.395,0
1579965893.386,-969.238,-551.758,-420.898,269.043,-470.215,0
1579965893.390,-969.238,-580.078,-445.312,-98.145,-444.336,0
1579965893.394,-969.238,-432.129,-526.367,-1000.000,-500.488,0
1579965893.398,-969.238,-376.953,-485.352,-1000.000,-445.312,0
1579965893.402,-969.238,-516.602,-437.500,7.324,-557.617,0
1579965893.406,-969.238,-583.008,-417.480,31.250,-429.688,0
1579965893.410,-969.238,-424.805,-424.805,-1000.000,-168.457,0
1579965893.414,-969.238,-366.211,-494.141,-1000.000,-483.398,0
1579965893.417,-969.238,-464.844,-463.379,-330.078,-608.887,0
1579965893.421,-969.238,-583.984,-434.082,124.023,-573.730,0
1579965893.425,-969.238,-498.535,-499.512,-855.957,-546.875,0
1579965893.429,-969.238,-377.930,-533.203,-1000.000,-584.473,0
1579965893.433,-969.238,-421.875,-478.516,-588.867,-612.305,0
1579965893.437,-969.238,-566.406,-413.086,284.668,-533.203,0
1579965893.441,-969.238,-544.434,-464.844,-415.039,-523.926,0
1579965893.445,-969.238,-371.094,-455.078,-1000.000,-270.020,0
1579965893.449,-969.238,-349.609,-380.371,-842.285,-169.922,0
1579965893.453,-969.238,-538.574,-400.391,361.816,-513.672,0
1579965893.457,-969.727,-606.445,-474.609,85.938,-646.484,0
1579965893.460,-965.820,-445.312,-567.871,-1000.000,-665.527,0
1579965893.464,-972.656,-372.559,-503.418,-896.484,-469.727,0
1579965893.468,-970.703,-528.809,-407.715,405.273,-446.289,0
1579965893.472,-894.043,-693.848,-444.336,858.887,-625.488,0
1579965893.476,-890.137,-571.777,-572.754,-638.672,-672.852,0
1579965893.480,-1000.000,-414.551,-581.543,-925.781,-548.340,0
1579965893.484,-851.074,-526.367,-454.102,374.512,-398.926,0
1579965893.488,549.805,-691.895,-406.250,-792.480,-401.367,0
1579965893.492,343.750,-615.723,-495.605,133.789,-451.172,0
1579965893.496,-1000.000,-442.871,-608.398,-1000.000,-630.371,0
1579965893.500,-761.230,-485.352,-503.906,47.363,-435.059,0
1579965893.503,491.699,-643.555,-340.820,-804.199,-73.730,0
1579965893.507,-771.973,-666.992,-470.215,684.570,-423.340,0
1579965893.511,178.711,-514.648,-635.254,-687.012,-670.410,0
1579965893.515,-152.344,-489.258,-588.867,-82.031,-588.379,0
1579965893.519,970.215,-647.461,-463.867,-881.348,-446.777,0
1579965893.523,-895.996,-687.500,-461.914,-953.613,-377.930,0
1579965893.527,748.047,-565.918,-599.609,-106.445,-583.008,0
1579965893.531,372.559,-477.539,-611.328,-187.012,-591.797,0
1579965893.535,836.426,-599.121,-478.027,-978.027,-440.430,0
1579965893.539,-918.457,-655.273,-384.277,-859.375,-119.141,0
1579965893.542,919.922,-548.340,-467.773,81.543,-159.668,0
1579965893.546,-221.680,-426.758,-610.352,-707.031,-567.383,0
1579965893.550,4.883,-515.137,-535.156,573.242,-557.129,0
1579965893.554,-858.398,-652.832,-452.148,-754.395,-442.871,0
1579965893.558,904.785,-596.191,-520.996,359.375,-485.840,0
1579965893.562,-471.191,-419.922,-611.328,-1000.000,-583.496,0
1579965893.566,-737.305,-442.871,-546.387,-2.441,-552.246,0
1579965893.570,791.992,-623.535,-461.914,-795.898,-546.875,0
1579965893.574,993.164,-624.512,-499.512,679.199,-529.297,0
1579965893.578,-332.520,-445.801,-568.359,-767.578,-476.562,0
1579965893.582,-1000.000,-392.578,-522.949,-304.688,-419.922,0
1579965893.585,4.883,-558.105,-385.742,-864.258,-263.672,0
1579965893.589,-871.582,-632.324,-437.988,867.188,-434.570,0
1579965893.593,-38.574,-477.539,-550.781,-511.230,-484.375,0
1579965893.597,-1000.000,-331.543,-469.727,-768.555,-125.977,0
1579965893.601,-552.734,-493.164,-417.969,626.465,-329.102,0
1579965893.605,838.379,-650.391,-464.355,-905.273,-602.539,0
1579965893.609,40.039,-533.691,-568.359,-155.273,-652.344,0
1579965893.613,-1000.000,-349.121,-581.543,-1000.000,-518.066,0
1579965893.617,-996.582,-420.410,-474.121,60.059,-427.734,0
1579965893.621,-429.199,-624.023,-437.988,-798.828,-554.688,0
1579965893.624,-433.594,-570.312,-520.020,89.844,-595.215,0
1579965893.628,-1000.000,-356.934,-562.500,-1000.000,-482.910,0
1579965893.632,-957.520,-338.867,-403.809,-241.211,-120.605,0
1579965893.636,-960.449,-540.527,-305.664,-886.230,-103.027,0
1579965893.640,-970.703,-577.637,-442.383,122.070,-452.637,0
1579965893.644,-969.238,-399.414,-576.660,-1000.000,-616.699,0
1579965893.648,-969.238,-331.543,-550.293,-847.656,-601.562,0
1579965893.652,-969.238,-481.445,-414.062,629.395,-450.684,0
1579965893.656,-969.238,-598.633,-430.664,507.812,-554.199,0
1579965893.660,-969.238,-448.242,-549.805,-934.570,-647.949,0
1579965893.664,-969.238,-324.707,-557.617,-1000.000,-643.555,0
1579965893.667,-969.238,-420.410,-431.641,54.688,-490.723,0
1579965893.671,-969.238,-581.055,-374.512,766.113,-434.570,0
1579965893.675,-969.238,-481.934,-460.449,-584.473,-440.430,0
1579965893.679,-969.238,-317.383,-493.164,-1000.000,-415.039,0
1579965893.683,-969.238,-373.535,-459.473,-430.664,-563.477,0
1579965893.687,-969.238,-547.852,-368.164,929.199,-444.824,0
1579965893.691,-969.238,-521.484,-352.051,83.984,-187.500,0
1579965893.695,-969.238,-355.469,-488.770,-1000.000,-462.891,0
1579965893.699,-969.238,-337.402,-470.215,-740.723,-531.250,0
1579965893.703,-969.238,-511.230,-388.672,620.605,-516.602,0
1579965893.707,-969.238,-562.012,-425.781,185.547,-547.363,0
1579965893.710,-969.238,-387.695,-516.602,-1000.000,-563.965,0
1579965893.714,-969.238,-321.289,-517.090,-1000.000,-641.602,0
1579965893.718,-969.238,-448.242,-402.832,241.211,-534.180,0
1579965893.722,-969.238,-576.172,-383.789,513.672,-512.207,0
1579965893.726,-969.238,-419.922,-409.668,-888.672,-260.254,0
1579965893.730,-969.238,-289.551,-404.785,-1000.000,-207.031,0
1579965893.734,-969.238,-394.531,-408.691,-287.598,-514.160,0
1579965893.738,-969.238,-555.664,-403.809,500.000,-606.445,0
1579965893.742,-969.238,-493.164,-487.793,-587.402,-643.066,0
1579965893.746,-969.238,-332.520,-512.207,-1000.000,-574.219,0
1579965893.749,-969.238,-367.188,-449.707,-530.273,-575.684,0
1579965893.753,-969.238,-527.832,-371.582,613.770,-495.605,0
1579965893.757,-969.238,-523.438,-415.527,-117.188,-496.094,0
1579965893.761,-969.238,-366.699,-506.348,-1000.000,-600.098,0
1579965893.765,-969.238,-328.613,-442.383,-869.141,-475.586,0
1579965893.769,-969.238,-487.305,-332.031,500.488,-375.000,0
1579965893.773,-969.238,-556.152,-343.750,249.512,-357.422,0
1579965893.777,-969.238,-407.715,-503.418,-1000.000,-620.605,0
1579965893.781,-969.238,-316.406,-479.980,-1000.000,-546.875,0
1579965893.785,-969.238,-424.316,-281.738,350.098,-140.137,0
1579965893.789,-969.238,-576.172,-333.496,465.332,-423.828,0
1579965893.792,-969.238,-456.055,-505.859,-929.199,-690.430,0
1579965893.796,-969.238,-326.172,-530.762,-1000.000,-693.359,0
1579965893.800,-969.238,-389.648,-412.109,-251.465,-511.230,0
1579965893.804,-969.238,-553.711,-360.352,577.148,-479.004,0
1579965893.808,-969.238,-504.395,-481.445,-570.801,-662.109,0
1579965893.812,-969.238,-337.891,-519.043,-1000.000,-597.168,0
1579965893.816,-969.238,-342.773,-412.598,-581.055,-414.062,0
1579965893.820,-969.238,-502.930,-267.090,799.316,-131.836,0
1579965893.824,-969.238,-534.180,-320.312,143.555,-192.383,0
1579965893.828,-969.238,-388.672,-521.484,-1000.000,-645.996,0
1579965893.832,-969.238,-342.773,-511.230,-955.566,-668.945,0
1579965893.835,-969.238,-485.352,-407.227,289.551,-553.223,0
1579965893.839,-969.238,-569.824,-410.156,229.004,-513.184,0
1579965893.843,-969.238,-429.688,-529.297,-1000.000,-632.324,0
1579965893.847,-969.238,-344.238,-540.039,-1000.000,-661.133,0
1579965893.851,-969.238,-439.941,-438.965,-143.066,-557.129,0
1579965893.855,-969.238,-568.359,-404.785,368.652,-500.000,0
1579965893.859,-969.238,-477.051,-484.375,-782.715,-497.559,0
1579965893.863,-969.238,-345.215,-502.441,-1000.000,-467.285,0
1579965893.867,-969.238,-403.320,-402.832,-338.379,-353.516,0
1579965893.871,-969.238,-579.102,-383.301,643.555,-451.172,0
1579965893.874,-969.238,-526.855,-438.965,-369.629,-352.051,0
1579965893.878,-969.238,-347.656,-452.637,-1000.000,-189.941,0
1579965893.882,-969.238,-369.141,-456.543,-698.730,-418.945,0
1579965893.886,-969.238,-556.641,-441.406,498.535,-582.031,0
1579965893.890,-969.238,-586.914,-498.535,-82.031,-617.676,0
1579965893.894,-969.238,-416.016,-568.359,-1000.000,-579.590,0
1579965893.898,-969.238,-368.164,-526.855,-968.750,-525.879,0
1579965893.902,-969.238,-522.461,-458.496,327.637,-559.570,0
1579965893.906,-969.238,-629.883,-470.215,390.137,-576.660,0
1579965893.910,-968.750,-471.680,-549.316,-1000.000,-513.184,0
1579965893.914,-969.727,-336.914,-473.145,-1000.000,-189.453,0
1579965893.917,-969.238,-454.590,-363.770,201.660,-120.605,0
1579965893.921,-958.984,-650.879,-443.359,711.914,-539.062,0
1579965893.925,-964.844,-556.641,-580.078,-667.969,-677.246,0
1579965893.929,-951.172,-384.766,-583.984,-1000.000,-520.020,0
1579965893.933,-1000.000,-427.734,-474.609,-312.500,-372.070,0
1579965893.937,-639.648,-631.348,-454.102,909.668,-542.480,0
1579965893.941,-557.617,-611.328,-544.434,-95.215,-634.766,0
1579965893.945,-967.285,-423.340,-626.953,-1000.000,-658.203,0
1579965893.949,-1000.000,-403.320,-547.363,-620.117,-520.508,0
1579965893.953,-505.859,-580.566,-431.152,871.094,-401.855,0
1579965893.956,-200.684,-642.090,-461.914,338.867,-421.387,0
1579965893.960,-931.641,-458.496,-552.246,-1000.000,-413.574,0
1579965893.964,-1000.000,-387.695,-581.055,-1000.000,-565.430,0
1579965893.968,-698.730,-510.254,-463.867,188.965,-402.344,0
1579965893.972,-53.223,-622.559,-365.234,680.176,-113.281,0
1579965893.976,-573.730,-511.719,-520.020,-765.137,-397.949,0
1579965893.980,-1000.000,-387.207,-619.141,-1000.000,-649.414,0
1579965893.984,-863.281,-474.609,-522.949,-99.121,-553.711,0
1579965893.988,238.281,-635.254,-441.406,867.188,-421.387,0
1579965893.992,-11.230,-561.523,-536.133,-348.633,-510.254,0
1579965893.996,-1000.000,-400.879,-631.348,-1000.000,-662.109,0
1579965893.999,-1000.000,-428.223,-543.457,-415.039,-552.246,0
1579965894.003,-83.984,-604.980,-438.477,923.828,-420.410,0
1579965894.007,42.969,-570.801,-423.828,-0.977,-160.645,0
1579965894.011,-997.559,-386.230,-501.465,-1000.000,-202.148,0
1579965894.015,-1000.000,-388.672,-554.199,-823.730,-551.758,0
1579965894.019,-476.562,-561.035,-491.699,547.852,-575.195,0
1579965894.023,-15.625,-628.418,-509.277,287.109,-578.125,0
1579965894.027,-849.121,-454.590,-586.914,-1000.000,-539.551,0
1579965894.031,-1000.000,-373.047,-581.055,-1000.000,-577.637,0
1579965894.035,-775.879,-503.906,-486.816,200.195,-546.387,0
1579965894.039,-202.148,-647.461,-482.422,576.660,-590.820,0
1579965894.042,-649.902,-516.113,-571.777,-830.566,-571.777,0
1579965894.046,-1000.000,-363.281,-556.152,-1000.000,-421.875,0
1579965894.050,-990.723,-443.848,-446.777,-80.078,-330.078,0
1579965894.054,-531.250,-629.395,-407.715,872.559,-377.930,0
1579965894.058,-535.645,-577.637,-554.199,-406.738,-629.395,0
1579965894.062,-1000.000,-383.789,-590.332,-1000.000,-519.531,0
1579965894.066,-1000.000,-381.348,-420.410,-390.625,-115.723,0
1579965894.070,-633.301,-592.773,-398.926,927.246,-364.746,0
1579965894.074,-507.812,-610.840,-528.809,39.551,-647.949,0
1579965894.078,-979.980,-427.246,-623.535,-1000.000,-665.039,0
1579965894.081,-1000.000,-372.559,-551.270,-911.621,-500.000,0
1579965894.085,-790.039,-526.855,-437.988,462.891,-418.457,0
1579965894.089,-615.723,-635.742,-490.723,370.117,-601.562,0
1579965894.093,-953.125,-470.703,-589.844,-1000.000,-623.047,0
1579965894.097,-989.746,-357.910,-562.012,-1000.000,-520.996,0
1579965894.101,-962.891,-455.566,-372.559,198.730,-119.629,0
1579965894.105,-850.586,-606.445,-335.449,665.039,-98.145,0
1579965894.109,-892.578,-529.785,-551.270,-739.746,-578.125,0
1579965894.113,-983.887,-387.695,-617.188,-1000.000,-671.387,0
1579965894.117,-991.211,-445.312,-510.254,-216.797,-542.969,0
1579965894.121,-809.570,-614.258,-425.781,774.902,-440.430,0
1579965894.124,-799.316,-569.824,-520.996,-372.070,-558.105,0
1579965894.128,-993.652,-403.320,-607.910,-1000.000,-648.926,0
1579965894.132,-976.074,-406.738,-541.016,-603.027,-588.867,0
1579965894.136,-904.297,-581.543,-433.105,828.125,-478.027,0
1579965894.140,-900.391,-608.887,-456.055,228.027,-435.059,0
1579965894.144,-972.168,-422.363,-544.434,-1000.000,-453.125,0
1579965894.148,-982.910,-361.328,-497.070,-895.508,-364.258,0
1579965894.152,-930.176,-528.320,-440.918,477.051,-497.070,0
1579965894.156,-866.211,-635.742,-446.777,505.859,-482.422,0
1579965894.160,-958.008,-452.637,-455.078,-898.438,-141.113,0
1579965894.163,-981.934,-346.680,-501.953,-1000.000,-334.473,0
1579965894.167,-964.844,-476.074,-484.375,50.293,-554.199,0
1579965894.171,-828.125,-643.066,-465.820,750.000,-596.191,0
1579965894.175,-897.949,-537.598,-536.621,-608.398,-538.086,0
1579965894.179,-982.422,-372.559,-575.684,-1000.000,-528.320,0
1579965894.183,-999.023,-426.758,-511.719,-322.754,-546.875,0
1579965894.187,-764.160,-610.352,-425.293,941.406,-458.008,0
1579965894.191,-747.559,-587.891,-490.723,-62.012,-470.703,0
1579965894.195,-974.609,-379.395,-497.559,-1000.000,-209.961,0
1579965894.199,-1000.000,-356.934,-421.875,-698.730,-121.094,0
1579965894.203,-674.316,-566.895,-436.523,713.867,-495.117,0
1579965894.206,-481.445,-634.766,-516.602,238.281,-643.066,0
1579965894.210,-947.266,-455.078,-609.863,-1000.000,-633.789,0
1579965894.214,-1000.000,-377.930,-565.918,-982.910,-527.344,0
1579965894.218,-807.617,-511.719,-449.707,345.215,-403.320,0
1579965894.222,-256.836,-638.184,-450.195,544.922,-446.777,0
1579965894.226,-663.086,-515.625,-594.238,-897.461,-644.043,0
1579965894.230,-1000.000,-378.418,-602.051,-1000.000,-574.707,0
1579965894.234,-896.484,-474.609,-472.168,84.473,-398.438,0
1579965894.238,118.164,-638.672,-424.805,866.699,-390.137,0
1579965894.242,-104.492,-543.457,-499.023,-416.504,-358.887,0
1579965894.246,-1000.000,-394.043,-604.492,-1000.000,-570.312,0
1579965894.249,-1000.000,-430.664,-522.461,-301.270,-456.543,0
1579965894.253,10.254,-593.750,-356.445,-942.383,-91.797,0
1579965894.257,603.516,-590.820,-485.840,25.391,-399.902,0
1579965894.261,-788.574,-424.805,-645.020,-1000.000,-669.434,0
1579965894.265,-1000.000,-407.227,-596.680,-718.750,-599.121,0
1579965894.269,0.488,-569.824,-473.633,726.562,-446.777,0
1579965894.273,-959.473,-632.324,-499.512,364.258,-496.094,0
1579965894.277,-178.711,-463.867,-606.445,-1000.000,-551.758,0
1579965894.281,-1000.000,-378.418,-578.613,-982.422,-476.562,0
1579965894.285,-279.785,-519.531,-482.422,324.707,-440.430,0
1579965894.288,-890.625,-640.137,-393.066,912.109,-183.594,0
1579965894.292,148.438,-515.625,-478.516,-466.797,-189.941,0
1579965894.296,-1000.000,-397.461,-616.699,-1000.000,-567.383,0
1579965894.300,-459.961,-483.398,-554.199,-99.121,-579.102,0
1579965894.304,-983.887,-652.344,-493.164,989.746,-560.547,0
1579965894.308,657.227,-575.195,-557.129,-199.707,-538.086,0
1579965894.312,-874.023,-408.203,-631.348,-1000.000,-587.891,0
1579965894.316,-759.277,-438.477,-570.312,-447.266,-553.711,0
1579965894.320,696.289,-617.188,-489.746,988.770,-551.758,0
1579965894.324,-964.844,-610.840,-534.668,152.344,-551.270,0
1579965894.328,-327.148,-423.828,-604.980,-1000.000,-477.539,0
1579965894.331,-1000.000,-388.184,-551.758,-759.766,-392.090,0
1579965894.335,213.379,-543.945,-423.828,625.488,-242.188,0
1579965894.339,-754.395,-638.184,-486.328,442.871,-458.496,0
1579965894.343,215.332,-477.051,-605.469,-988.281,-506.348,0
1579965894.347,-1000.000,-355.957,-515.625,-1000.000,-145.508,0
1579965894.351,19.043,-503.418,-465.332,245.117,-320.801,0
1579965894.355,-806.641,-664.062,-516.113,747.559,-606.934,0
1579965894.359,712.891,-545.410,-625.488,-617.188,-659.668,0
1579965894.363,-744.141,-391.113,-638.184,-1000.000,-543.945,0
1579965894.367,-224.121,-466.797,-535.156,-125.488,-438.477,0
1579965894.371,-899.902,-651.367,-504.883,950.684,-560.059,0
1579965894.374,-938.477,-584.473,-582.031,-282.715,-584.473,0
1579965894.378,-244.629,-401.367,-632.324,-1000.000,-525.879,0
1579965894.382,-582.520,-416.992,-483.398,-299.316,-168.457,0
1579965894.386,830.078,-602.539,-377.441,-868.652,-96.680,0
1579965894.390,-779.297,-637.695,-538.086,216.797,-550.781,0
1579965894.394,220.215,-452.637,-640.625,-1000.000,-553.711,0
1579965894.398,-471.680,-400.391,-588.379,-798.340,-430.664,0
1579965894.402,740.234,-566.406,-497.559,685.547,-423.828,0
1579965894.406,-831.055,-669.434,-530.273,570.801,-562.500,0
1579965894.410,697.266,-514.648,-650.391,-912.109,-639.648,0
1579965894.413,-56.641,-403.320,-658.691,-1000.000,-608.398,0
1579965894.417,563.477,-514.648,-536.133,208.008,-476.074,0
1579965894.421,-891.602,-662.598,-476.562,943.848,-426.270,0
1579965894.425,988.281,-555.664,-567.871,-375.000,-457.031,0
1579965894.429,225.098,-385.254,-598.145,-1000.000,-377.930,0
1579965894.433,350.098,-466.309,-558.594,-193.359,-500.000,0
1579965894.437,-933.105,-640.625,-482.910,-822.754,-450.195,0
1579965894.441,-933.594,-591.309,-465.332,213.379,-168.945,0
1579965894.445,588.867,-427.734,-605.469,-1000.000,-435.547,0
1579965894.449,455.078,-429.199,-616.699,-553.711,-587.402,0
1579965894.453,-989.746,-596.191,-497.070,935.547,-445.312,0
1579965894.456,-920.898,-644.531,-520.020,417.480,-452.148,0
1579965894.460,728.516,-474.121,-641.602,-1000.000,-544.922,0
1579965894.464,484.863,-403.320,-642.578,-826.172,-583.496,0
1579965894.468,938.965,-554.688,-533.691,593.262,-515.137,0
1579965894.472,-895.996,-670.410,-506.348,789.551,-478.516,0
1579965894.476,758.301,-504.395,-526.855,-629.395,-200.684,0
1579965894.480,90.332,-363.770,-533.691,-1000.000,-147.949,0
1579965894.484,666.016,-506.836,-537.109,169.434,-482.910,0
1579965894.488,-919.922,-671.387,-526.855,882.324,-589.355,0
1579965894.492,-970.215,-570.312,-616.699,-414.062,-602.051,0
1579965894.495,251.465,-401.367,-648.438,-1000.000,-522.461,0
1579965894.499,273.438,-460.938,-569.824,-218.750,-501.953,0
1579965894.503,-966.797,-651.855,-510.742,-850.586,-560.059,0
1579965894.507,-849.609,-621.582,-576.172,139.160,-600.586,0
1579965894.511,203.125,-418.945,-615.234,-1000.000,-443.359,0
1579965894.515,-202.148,-405.762,-549.805,-552.246,-353.027,0
1579965894.519,942.871,-582.520,-461.914,966.797,-365.723,0
1579965894.523,-842.773,-639.160,-485.352,486.328,-404.297,0
1579965894.527,500.000,-479.492,-639.160,-1000.000,-638.672,0
1579965894.531,-612.305,-385.254,-603.516,-788.086,-481.934,0
1579965894.535,238.770,-516.602,-401.855,718.750,-83.496,0
1579965894.538,-805.176,-656.738,-445.801,782.715,-381.348,0
1579965894.542,708.984,-533.691,-623.047,-649.902,-669.922,0
1579965894.546,-693.848,-387.207,-645.020,-1000.000,-616.699,0
1579965894.550,-176.758,-475.586,-516.602,49.805,-450.684,0
1579965894.554,-853.516,-650.391,-458.984,-914.551,-459.961,0
1579965894.558,907.227,-579.102,-581.055,-139.160,-637.695,0
1579965894.562,-484.863,-396.973,-637.695,-1000.000,-599.609,0
1579965894.566,-667.480,-426.270,-536.133,-317.871,-437.500,0
1579965894.570,817.383,-586.914,-375.000,-877.930,-120.605,0
1579965894.574,-876.465,-590.332,-416.016,293.457,-149.414,0
1579965894.578,-156.250,-441.895,-611.328,-1000.000,-586.914,0
1579965894.581,-993.652,-408.203,-600.098,-687.500,-609.863,0
1579965894.585,298.340,-573.730,-491.211,824.219,-514.648,0
1579965894.589,-771.484,-643.066,-486.328,541.016,-494.141,0
1579965894.593,152.832,-480.469,-601.074,-948.242,-600.586,0
