timestamps,TP9,AF7,AF8,TP10,Right AUX,Marker0
1579272464.296,101.562,0.000,11.719,123.047,90.332,0
1579272464.300,121.582,19.531,31.738,134.277,26.855,0
1579272464.304,142.090,34.668,42.480,152.832,62.988,0
1579272464.308,137.207,38.086,44.434,156.250,92.285,0
1579272464.312,139.160,38.574,50.293,163.574,87.891,0
1579272464.316,139.648,43.457,51.758,158.203,63.477,0
1579272464.320,130.859,47.363,54.199,145.996,38.086,0
1579272464.323,142.090,48.828,52.734,146.973,26.855,0
1579272464.327,141.602,53.223,50.293,147.949,12.695,0
1579272464.331,126.953,50.293,43.945,132.812,42.969,0
1579272464.335,180.664,99.121,98.145,184.082,64.453,0
1579272464.339,146.484,63.477,61.523,146.484,41.504,0
1579272464.336,108.887,5.371,-0.977,94.727,57.617,0
1579272464.340,123.535,36.621,31.738,130.859,55.664,0
1579272464.344,107.910,41.992,41.992,122.559,41.504,0
1579272464.348,112.305,48.828,47.363,124.023,14.160,0
1579272464.352,108.398,52.734,47.363,125.977,-36.621,0
1579272464.356,117.676,50.293,44.434,123.535,-1.465,0
1579272464.360,131.348,55.664,45.898,124.023,56.152,0
1579272464.363,124.023,58.105,51.758,121.094,80.078,0
1579272464.367,114.746,57.617,52.734,117.188,48.340,0
1579272464.371,113.281,61.035,49.805,104.492,-7.812,0
1579272464.375,97.656,48.828,52.246,95.703,-15.625,0
1579272464.379,82.031,43.945,51.758,92.285,30.762,0
1579272464.397,76.172,52.734,48.828,84.473,42.969,0
1579272464.401,67.383,52.246,49.805,83.008,26.855,0
1579272464.405,46.387,48.340,47.363,76.660,40.527,0
1579272464.409,45.898,49.316,45.898,64.941,18.066,0
1579272464.413,59.570,50.293,48.340,69.336,19.531,0
1579272464.417,57.617,48.340,49.316,73.242,12.207,0
1579272464.421,70.801,52.734,48.828,66.895,37.109,0
1579272464.424,69.336,56.641,48.340,62.988,55.176,0
1579272464.428,41.504,51.270,45.410,63.477,11.719,0
1579272464.432,42.480,49.316,32.715,66.895,45.898,0
1579272464.436,50.781,54.688,62.012,75.195,100.586,0
1579272464.440,28.320,36.621,62.500,51.758,56.152,0
1579272464.436,96.680,90.332,93.262,110.840,11.719,0
1579272464.440,104.004,94.238,78.125,118.652,19.531,0
1579272464.444,0.977,7.324,13.672,16.113,15.625,0
1579272464.448,13.184,22.461,132.324,28.320,-6.348,0
1579272464.452,42.480,41.504,254.395,41.992,-12.207,0
1579272464.456,47.363,43.945,247.070,43.457,11.230,0
1579272464.460,40.039,42.969,146.973,42.480,85.449,0
1579272464.463,39.551,46.875,76.172,41.016,103.027,0
1579272464.467,29.297,50.293,43.945,39.551,25.391,0
1579272464.471,24.414,49.805,26.367,40.039,-30.273,0
1579272464.475,32.227,45.410,19.531,40.039,12.207,0
1579272464.479,29.297,42.969,8.789,32.227,72.266,0
1579272464.476,31.738,41.504,46.875,31.250,29.297,0
1579272464.480,44.922,46.387,210.938,35.645,-11.230,0
1579272464.484,42.969,50.781,372.559,43.945,14.648,0
1579272464.488,26.855,45.410,465.332,42.480,40.039,0
1579272464.492,23.926,43.457,536.621,33.203,43.945,0
1579272464.496,33.691,44.922,588.379,38.086,37.109,0
1579272464.500,26.855,45.898,616.211,44.922,57.617,0
1579272464.503,27.832,41.992,645.508,41.016,67.383,0
1579272464.507,32.715,41.992,634.277,34.180,50.293,0
1579272464.511,27.832,42.480,404.785,29.785,9.277,0
1579272464.515,29.297,41.992,159.180,32.715,33.203,0
1579272464.519,33.203,44.922,61.523,31.738,49.316,0
1579272464.536,30.273,46.387,4.883,29.785,11.230,0
1579272464.540,23.438,42.969,-24.902,28.809,26.367,0
1579272464.544,20.996,39.062,-49.805,28.809,50.293,0
1579272464.548,23.438,40.527,-68.848,32.715,-19.531,0
1579272464.552,19.531,42.480,-73.730,31.250,0.977,0
1579272464.556,39.551,46.387,-75.195,26.367,68.359,0
1579272464.560,40.039,46.875,-76.172,29.785,97.656,0
1579272464.563,6.836,41.016,-77.148,28.809,65.918,0
1579272464.567,15.625,38.574,-82.520,21.973,93.262,0
1579272464.571,22.461,39.551,-82.031,19.531,74.707,0
1579272464.575,22.949,40.527,-78.125,24.414,-2.930,0
1579272464.579,27.344,40.527,-82.031,26.855,59.570,0
1579272464.576,28.320,42.969,-82.031,25.391,68.848,0
1579272464.580,28.809,42.969,-80.078,23.926,36.133,0
1579272464.584,28.320,39.062,-77.148,29.297,82.031,0
1579272464.588,34.668,42.480,-70.801,33.203,20.020,0
1579272464.592,30.762,46.387,-67.871,29.785,-10.254,0
1579272464.596,20.020,47.852,-63.477,23.438,15.137,0
1579272464.600,23.438,44.922,-63.477,21.973,-32.227,0
1579272464.603,21.973,41.992,-63.965,27.344,-7.812,0
1579272464.607,13.184,41.016,-61.523,27.344,70.801,0
1579272464.611,23.926,38.574,-59.082,25.391,83.496,0
1579272464.615,20.508,36.621,-56.152,23.926,60.059,0
1579272464.619,13.184,35.156,-56.152,24.902,1.953,0
1579272464.617,20.996,33.203,-53.711,32.715,-20.508,0
1579272464.621,34.180,35.156,-49.805,33.203,17.090,0
1579272464.625,39.062,41.016,-44.922,31.250,31.738,0
1579272464.629,25.391,41.992,-44.434,32.227,69.824,0
1579272464.633,20.020,39.551,-43.945,33.691,60.547,0
1579272464.637,25.879,39.551,-40.527,37.109,62.988,0
1579272464.641,27.832,43.945,-38.574,34.180,65.430,0
1579272464.644,29.785,42.969,-33.203,34.668,55.176,0
1579272464.648,35.156,41.992,-30.273,35.156,14.160,0
1579272464.652,34.180,40.527,-27.344,39.062,-13.184,0
1579272464.656,32.715,38.086,-24.414,37.598,6.836,0
1579272464.660,34.180,41.992,-23.926,33.691,59.570,0
1579272464.676,37.109,41.016,-24.414,34.668,41.992,0
1579272464.680,34.180,41.016,-21.484,34.668,16.113,0
1579272464.684,51.758,48.340,-18.555,36.621,72.754,0
1579272464.688,48.828,49.805,-12.207,41.016,90.820,0
1579272464.692,29.785,49.805,-7.324,41.016,48.340,0
1579272464.696,50.293,46.875,-8.789,42.480,43.945,0
1579272464.700,45.898,43.457,-9.277,44.434,62.012,0
1579272464.703,35.156,48.340,-10.254,41.016,5.371,0
1579272464.707,47.852,48.340,-11.230,44.434,24.902,0
1579272464.711,42.969,39.551,-13.184,44.922,41.016,0
1579272464.715,39.551,39.062,-14.160,40.039,10.254,0
1579272464.719,43.945,41.016,-15.137,39.551,31.738,0
1579272464.716,45.410,39.062,-14.648,39.551,55.176,0
1579272464.720,44.922,43.945,-11.230,41.016,36.133,0
1579272464.724,40.527,48.828,-7.324,38.574,55.176,0
1579272464.728,38.574,47.363,-6.348,36.133,63.477,0
1579272464.732,39.551,47.852,-5.859,37.598,32.227,0
1579272464.736,39.551,45.898,0.000,47.363,10.254,0
1579272464.740,46.875,41.016,5.371,55.664,-3.418,0
1579272464.743,43.945,44.434,3.418,41.992,25.879,0
1579272464.747,33.691,50.293,-2.441,32.227,68.359,0
1579272464.751,37.598,53.223,-6.348,33.203,64.453,0
1579272464.755,28.809,49.316,-3.906,22.949,54.199,0
1579272464.759,22.949,48.828,0.000,20.996,71.777,0
1579272464.756,45.898,52.246,0.000,25.391,96.191,0
1579272464.760,53.711,48.828,-1.465,27.344,91.309,0
1579272464.764,30.273,47.363,0.488,33.203,59.082,0
1579272464.768,18.555,46.875,1.465,30.273,46.387,0
1579272464.772,21.484,40.527,0.000,23.438,42.480,0
1579272464.776,34.180,44.434,2.441,28.320,-26.855,0
1579272464.780,37.598,49.805,3.418,29.297,25.879,0
1579272464.783,36.133,50.781,3.906,30.762,69.824,0
1579272464.787,36.133,49.316,9.766,31.738,6.836,0
1579272464.791,39.062,45.898,7.812,22.949,40.527,0
1579272464.795,43.457,44.922,4.883,27.344,26.367,0
1579272464.799,41.016,40.527,3.906,35.156,-38.574,0
1579272464.816,43.457,41.992,-4.395,39.062,0.977,0
1579272464.820,44.434,50.293,0.977,39.551,21.973,0
1579272464.824,37.598,53.711,17.578,31.250,20.996,0
1579272464.828,35.645,54.688,24.414,37.598,29.297,0
1579272464.832,41.504,47.363,16.602,40.527,67.383,0
1579272464.836,51.758,45.898,9.766,37.109,59.082,0
1579272464.840,55.664,52.246,13.672,36.133,19.043,0
1579272464.843,41.016,53.711,13.672,37.109,-3.418,0
1579272464.847,32.227,50.781,10.254,36.621,0.000,0
1579272464.851,27.344,43.457,10.742,26.855,69.824,0
1579272464.855,33.691,37.109,13.672,29.297,57.129,0
1579272464.859,35.156,36.133,13.672,40.527,-11.230,0
1579272464.857,29.785,45.410,10.742,40.527,-21.973,0
1579272464.861,32.227,52.246,12.695,29.785,15.137,0
1579272464.865,44.434,53.711,15.625,26.855,59.570,0
1579272464.869,42.480,46.387,11.719,32.227,61.035,0
1579272464.873,28.809,48.828,6.836,37.598,49.316,0
1579272464.877,27.832,57.617,9.277,29.785,73.242,0
1579272464.881,37.109,55.664,3.906,19.043,62.988,0
1579272464.884,63.477,55.176,-1.465,40.527,61.523,0
1579272464.888,67.871,48.828,6.348,52.734,33.691,0
1579272464.892,37.598,38.086,16.113,24.902,49.805,0
1579272464.896,0.488,33.691,22.461,-9.277,77.637,0
1579272464.900,-21.484,25.879,16.602,-25.879,47.852,0
1579272464.896,-34.668,20.996,14.160,-30.762,66.406,0
1579272464.900,-63.477,18.066,18.555,-51.270,41.504,0
1579272464.904,-93.262,19.043,24.902,-82.031,25.391,0
1579272464.908,-110.840,22.461,39.551,-109.863,12.207,0
1579272464.912,-126.953,18.066,47.852,-121.094,-20.996,0
1579272464.916,-137.695,10.254,48.828,-127.441,8.301,0
1579272464.920,-153.809,6.836,42.969,-145.508,42.969,0
1579272464.923,-163.086,1.465,45.898,-153.809,48.828,0
1579272464.927,-166.016,0.488,42.969,-157.715,34.180,0
1579272464.931,-177.734,-5.371,31.250,-167.969,40.039,0
1579272464.935,-195.801,-9.277,33.691,-180.176,74.707,0
1579272464.939,-199.707,2.930,30.762,-177.246,90.820,0
1579272464.956,-193.848,3.906,41.016,-175.781,30.273,0
1579272464.960,-201.172,0.000,47.363,-190.918,21.484,0
1579272464.964,-185.059,10.254,46.875,-172.852,66.406,0
1579272464.968,-183.105,15.137,47.852,-176.758,4.883,0
1579272464.972,-192.871,7.812,33.691,-187.500,-12.695,0
1579272464.976,-172.363,2.930,25.391,-163.574,21.484,0
1579272464.980,-176.270,3.418,35.156,-167.480,0.000,0
1579272464.983,-166.504,15.625,34.180,-164.551,8.301,0
1579272464.987,-152.344,18.066,21.484,-157.227,70.801,0
1579272464.991,-145.996,16.113,20.020,-151.367,35.645,0
1579272464.995,-130.859,24.414,19.531,-134.277,-1.953,0
1579272464.999,-124.512,27.344,18.555,-125.488,42.969,0
1579272464.996,-106.934,21.484,20.020,-110.352,105.469,0
1579272465.000,-88.379,23.926,13.184,-92.773,129.883,0
1579272465.004,-73.730,29.297,9.277,-70.801,59.082,0
1579272465.008,-54.199,33.691,22.949,-53.711,-5.859,0
1579272465.012,-41.016,32.715,32.227,-41.016,-0.977,0
1579272465.016,-29.297,37.109,27.344,-24.902,14.160,0
1579272465.020,-22.949,41.016,21.973,-18.066,16.113,0
1579272465.023,-17.578,35.156,26.855,-17.090,48.340,0
1579272465.027,-5.371,36.133,28.320,-14.648,30.273,0
1579272465.031,-6.836,38.574,18.555,-8.301,74.219,0
1579272465.035,-3.906,35.645,19.043,0.977,67.383,0
1579272465.039,6.348,39.551,27.344,8.789,45.898,0
1579272465.036,5.859,42.480,26.855,6.836,82.031,0
1579272465.040,-2.441,33.691,19.531,2.930,90.820,0
1579272465.044,11.719,40.039,20.020,18.555,80.078,0
1579272465.048,25.391,48.340,25.391,27.832,51.270,0
1579272465.052,21.973,40.527,20.996,21.973,45.898,0
1579272465.056,24.902,37.109,20.020,22.949,3.906,0
1579272465.060,26.367,37.598,19.043,25.391,8.789,0
1579272465.063,24.902,37.598,15.137,31.250,23.926,0
1579272465.067,28.809,41.504,15.137,36.621,44.434,0
1579272465.071,33.203,43.945,24.414,37.109,55.664,0
1579272465.075,43.457,43.457,23.926,42.480,-2.930,0
1579272465.079,48.828,41.016,13.184,48.340,0.488,0
1579272465.097,42.480,41.992,17.578,49.805,16.113,0
1579272465.101,49.316,43.457,25.879,50.781,8.301,0
1579272465.105,51.270,45.410,20.020,47.852,50.781,0
1579272465.109,42.480,48.828,17.578,52.734,48.828,0
1579272465.113,44.922,48.340,19.043,54.199,25.879,0
1579272465.117,47.852,48.828,25.879,54.199,34.180,0
1579272465.121,48.340,51.270,35.156,55.664,61.523,0
1579272465.124,38.574,43.945,25.391,44.922,78.613,0
1579272465.128,34.180,42.480,23.438,45.898,16.113,0
1579272465.132,38.574,47.852,26.367,52.246,58.594,0
1579272465.136,39.551,45.898,14.160,46.875,21.973,0
1579272465.140,41.016,40.039,3.418,44.922,-27.344,0
1579272465.136,42.969,35.645,14.160,50.781,22.949,0
1579272465.140,38.574,44.434,32.227,50.293,-2.930,0
1579272465.144,39.062,45.410,30.762,48.828,-23.438,0
1579272465.148,43.457,46.875,17.578,49.316,-1.465,0
1579272465.152,46.875,49.316,15.625,48.828,58.105,0
1579272465.156,47.852,42.480,27.832,51.270,30.762,0
1579272465.160,45.898,42.480,30.762,51.758,27.344,0
1579272465.163,42.969,43.945,25.391,48.828,37.598,0
1579272465.167,39.551,44.922,19.043,48.340,12.695,0
1579272465.171,44.922,51.270,18.066,54.688,7.324,0
1579272465.175,43.945,52.246,13.672,51.270,23.926,0
1579272465.179,31.738,43.457,9.766,40.039,41.016,0
1579272465.176,32.715,42.480,23.438,42.480,45.410,0
1579272465.180,39.062,47.852,28.809,50.293,97.168,0
1579272465.184,37.598,50.781,21.484,50.781,82.520,0
1579272465.188,35.645,47.363,14.648,43.945,37.109,0
1579272465.192,37.598,40.039,14.648,39.551,31.738,0
1579272465.196,37.598,33.203,18.555,47.852,29.297,0
1579272465.200,50.781,43.457,18.555,60.547,33.691,0
1579272465.203,47.852,60.547,15.625,40.527,40.039,0
1579272465.207,20.508,58.594,12.207,10.254,31.738,0
1579272465.211,14.160,53.711,11.719,8.789,35.645,0
1579272465.215,11.230,50.781,10.742,12.207,27.344,0
1579272465.219,8.789,46.875,7.812,13.184,-14.648,0
1579272465.236,11.230,51.758,2.930,18.555,3.906,0
1579272465.240,10.742,51.270,-4.883,23.926,65.918,0
1579272465.244,13.672,42.480,4.395,29.297,77.637,0
1579272465.248,15.625,43.945,18.555,26.855,35.156,0
1579272465.252,15.625,42.969,20.508,23.438,64.941,0
1579272465.256,14.160,38.574,18.555,22.949,69.824,0
1579272465.260,12.207,43.457,12.207,19.043,21.973,0
1579272465.263,14.648,50.781,7.812,19.531,11.230,0
1579272465.267,27.832,59.570,22.949,28.809,-27.344,0
1579272465.271,28.320,54.199,18.555,26.367,-4.395,0
1579272465.275,18.555,42.480,-0.977,19.531,67.871,0
1579272465.279,18.555,42.480,11.719,22.949,46.875,0
1579272465.276,24.414,41.504,16.113,27.344,-7.812,0
1579272465.280,26.855,39.062,4.395,30.762,9.277,0
1579272465.284,28.809,39.551,12.207,36.621,53.711,0
1579272465.288,34.180,49.316,20.020,39.062,7.324,0
1579272465.292,37.109,54.688,16.602,37.598,0.488,0
1579272465.296,36.133,40.039,19.043,36.133,45.410,0
1579272465.300,31.250,38.574,22.949,35.645,30.273,0
1579272465.303,33.691,51.270,24.902,41.992,20.996,0
1579272465.307,37.109,49.805,21.484,42.969,18.066,0
1579272465.311,40.527,49.805,7.324,36.133,-13.672,0
1579272465.315,39.062,51.270,11.719,38.086,42.480,0
1579272465.319,30.762,48.340,20.020,43.945,93.750,0
1579272465.317,27.344,41.992,13.672,41.992,87.402,0
1579272465.321,31.250,40.527,21.484,40.039,50.293,0
1579272465.325,28.809,39.062,24.902,39.062,30.762,0
1579272465.329,30.273,41.016,20.996,44.434,23.926,0
1579272465.333,34.180,36.133,22.461,44.922,14.160,0
1579272465.337,33.691,33.691,24.414,38.574,42.969,0
1579272465.341,37.109,45.898,19.531,38.574,50.781,0
1579272465.344,41.504,42.969,21.973,41.504,36.621,0
1579272465.348,46.875,40.039,22.949,43.945,37.598,0
1579272465.352,47.363,48.828,11.230,46.387,0.977,0
1579272465.356,46.875,48.828,9.766,43.457,-35.645,0
1579272465.360,54.199,47.363,19.043,44.434,53.223,0
1579272465.376,55.176,48.340,27.344,52.734,17.090,0
1579272465.380,41.016,48.828,31.250,52.734,-19.531,0
1579272465.384,31.738,42.480,22.949,40.039,20.020,0
1579272465.388,31.250,37.598,21.484,37.109,13.184,0
1579272465.392,38.086,37.109,27.344,39.551,32.715,0
1579272465.396,37.598,39.551,27.832,38.086,48.828,0
1579272465.400,25.391,41.992,19.531,34.180,14.160,0
1579272465.403,23.926,37.598,18.066,34.668,-44.922,0
1579272465.407,28.809,40.527,22.461,37.598,-38.086,0
1579272465.411,28.320,40.527,22.461,39.551,-4.395,0
1579272465.415,26.855,38.086,22.461,42.480,0.977,0
1579272465.419,32.715,43.457,18.555,39.551,9.277,0
1579272465.417,29.785,39.062,22.949,39.551,46.387,0
1579272465.421,31.250,39.062,27.344,43.457,72.754,0
1579272465.425,34.668,44.922,24.902,38.086,45.410,0
1579272465.429,32.227,51.758,26.855,40.527,16.113,0
1579272465.433,36.133,47.363,28.320,43.945,2.930,0
1579272465.437,30.273,32.715,23.926,37.109,32.715,0
1579272465.441,30.762,40.527,18.555,40.527,39.062,0
1579272465.444,39.062,45.898,19.531,44.434,24.902,0
1579272465.448,37.598,45.898,25.391,36.621,39.551,0
1579272465.452,35.645,52.246,25.879,27.832,20.996,0
1579272465.456,29.297,53.711,26.855,26.367,49.805,0
1579272465.460,29.785,53.223,28.320,29.785,74.707,0
1579272465.456,31.738,52.246,29.297,30.273,60.547,0
1579272465.460,29.297,48.340,22.949,32.227,64.453,0
1579272465.464,32.227,42.969,11.230,36.133,48.340,0
1579272465.468,35.156,46.875,17.090,35.156,43.457,0
1579272465.472,34.180,50.293,24.902,37.109,21.973,0
1579272465.476,41.016,49.805,29.297,46.875,-9.277,0
1579272465.480,33.691,46.387,31.738,43.457,-18.066,0
1579272465.483,31.738,37.598,26.855,36.621,36.133,0
1579272465.487,30.762,38.086,23.926,36.621,79.590,0
1579272465.491,25.879,45.898,20.996,37.598,43.457,0
1579272465.495,36.621,46.387,23.926,40.039,18.066,0
1579272465.499,35.645,44.922,23.438,46.387,15.137,0
1579272465.516,35.645,49.316,20.996,45.898,63.965,0
1579272465.520,43.945,54.688,27.344,42.480,59.570,0
1579272465.524,44.922,47.852,33.203,48.828,16.113,0
1579272465.528,40.039,43.457,28.809,46.875,53.223,0
1579272465.532,40.039,48.828,22.949,41.992,69.824,0
1579272465.536,36.133,45.898,28.809,39.551,65.918,0
1579272465.540,43.945,51.270,29.297,45.410,52.246,0
1579272465.543,45.898,51.758,27.344,48.828,38.574,0
1579272465.547,37.598,39.062,30.762,35.645,22.461,0
1579272465.551,32.227,36.621,31.250,32.227,18.066,0
1579272465.555,32.227,42.969,26.855,33.203,131.348,0
1579272465.559,36.133,50.781,18.555,35.156,163.086,0
1579272465.557,31.250,45.410,18.066,37.598,67.871,0
1579272465.561,29.785,43.945,26.367,34.668,81.543,0
1579272465.565,30.762,44.922,28.320,30.762,66.895,0
1579272465.569,20.996,42.480,26.367,33.203,13.184,0
1579272465.573,21.973,41.992,27.344,40.039,6.836,0
1579272465.577,23.438,38.574,31.738,38.574,44.922,0
1579272465.581,22.949,36.133,30.273,32.715,5.371,0
1579272465.584,29.297,37.598,26.367,33.691,-25.391,0
1579272465.588,32.227,41.504,19.531,39.062,-12.207,0
1579272465.592,25.391,42.969,18.555,37.109,-18.555,0
1579272465.596,29.297,47.852,32.715,38.086,39.551,0
1579272465.600,34.668,53.711,39.062,46.875,94.238,0
1579272465.596,28.809,46.875,26.855,42.969,45.410,0
1579272465.600,30.762,40.527,21.973,36.133,24.414,0
1579272465.604,34.668,38.086,29.297,39.062,52.734,0
1579272465.608,29.297,36.133,28.809,38.574,71.777,0
1579272465.612,28.809,37.598,22.949,39.551,72.266,0
1579272465.616,29.785,40.039,25.391,41.504,40.527,0
1579272465.620,29.297,41.992,33.203,34.180,51.270,0
1579272465.623,29.297,40.527,35.645,29.785,61.035,0
1579272465.627,26.367,41.504,28.809,33.691,2.441,0
1579272465.631,26.367,36.621,23.438,36.621,2.441,0
1579272465.635,22.461,36.133,22.461,30.273,81.055,0
1579272465.639,32.227,52.734,20.508,32.715,51.270,0
1579272465.656,36.621,54.688,26.367,39.062,47.363,0
1579272465.660,25.391,38.086,28.320,29.785,122.070,0
1579272465.664,31.738,35.645,29.297,29.297,72.754,0
1579272465.668,38.574,42.480,36.133,37.598,34.668,0
1579272465.672,34.668,42.969,29.297,38.086,83.008,0
1579272465.676,36.133,43.457,16.113,36.621,40.039,0
1579272465.680,43.457,48.340,23.926,39.062,37.109,0
1579272465.683,43.457,51.270,32.227,38.574,98.633,0
1579272465.687,37.109,45.410,30.762,37.109,42.480,0
1579272465.691,37.109,50.293,24.414,37.109,7.324,0
1579272465.695,41.016,58.105,21.973,36.621,40.039,0
1579272465.699,37.598,51.758,28.809,28.320,7.812,0
1579272465.696,26.855,49.805,37.598,26.367,-3.418,0
1579272465.700,31.738,51.270,36.621,37.598,23.926,0
1579272465.704,39.551,42.969,26.855,36.133,-0.977,0
1579272465.708,29.785,38.574,25.879,25.879,-19.531,0
1579272465.712,25.391,40.039,22.949,24.414,57.129,0
1579272465.716,36.621,40.527,20.020,33.691,65.430,0
1579272465.720,36.133,39.062,26.367,40.039,31.738,0
1579272465.723,32.715,41.504,33.691,38.574,-1.465,0
1579272465.727,37.598,48.828,34.668,41.016,-23.438,0
1579272465.731,32.227,48.340,26.855,41.016,25.879,0
1579272465.735,25.391,47.852,24.902,35.645,5.371,0
1579272465.739,23.926,44.922,31.250,35.645,-19.043,0
1579272465.743,25.391,41.992,31.250,29.297,24.902,0
1579272465.747,23.438,41.016,25.391,19.043,48.340,0
1579272465.751,25.879,48.340,26.855,27.832,0.977,0
1579272465.755,24.902,48.828,22.949,33.203,45.410,0
1579272465.759,20.508,35.645,8.301,22.461,48.340,0
1579272465.763,28.320,41.992,17.090,26.367,-13.184,0
1579272465.767,29.297,48.828,32.227,35.156,65.430,0
1579272465.770,25.391,39.551,31.738,35.645,103.516,0
1579272465.774,27.832,31.738,30.762,36.621,91.797,0
1579272465.778,29.785,39.062,31.250,39.062,39.551,0
1579272465.782,30.273,47.852,24.414,41.016,17.090,0
1579272465.786,31.250,49.316,23.926,43.457,52.246,0
1579272465.797,37.109,51.270,29.297,42.480,37.598,0
1579272465.801,40.039,53.711,23.438,44.922,19.531,0
1579272465.805,29.785,42.969,17.578,40.039,20.508,0
1579272465.809,24.414,34.180,25.391,32.715,41.504,0
1579272465.813,27.832,39.062,34.668,35.645,22.461,0
1579272465.817,28.809,41.016,29.785,27.344,16.602,0
1579272465.821,32.715,45.898,26.855,24.414,41.992,0
1579272465.824,43.457,50.293,28.320,37.598,15.625,0
1579272465.828,43.457,50.781,27.832,40.039,8.301,0
1579272465.832,31.738,47.852,34.668,32.227,19.043,0
1579272465.836,34.180,39.062,29.785,26.855,12.207,0
1579272465.840,37.109,41.016,35.156,34.180,-18.555,0
1579272465.836,31.738,48.340,39.551,38.086,21.973,0
1579272465.840,28.320,46.387,28.809,32.227,73.730,0
1579272465.844,42.969,53.711,37.598,41.504,60.547,0
1579272465.848,36.621,50.293,41.504,36.133,22.461,0
1579272465.852,21.484,43.945,36.133,24.414,51.758,0
1579272465.856,15.137,49.805,35.156,24.414,83.984,0
1579272465.860,8.789,55.664,38.574,19.043,32.715,0
1579272465.863,20.020,62.500,43.945,25.391,21.973,0
1579272465.867,16.113,62.012,45.898,27.344,6.836,0
1579272465.871,-14.160,54.688,47.852,1.953,24.414,0
1579272465.875,-41.992,60.547,40.039,-34.180,47.363,0
1579272465.879,-68.359,65.918,34.668,-62.012,28.809,0
1579272465.896,-81.055,66.406,37.109,-64.941,49.316,0
1579272465.900,-99.609,65.918,38.086,-81.543,94.238,0
1579272465.904,-135.742,69.336,35.645,-125.000,46.387,0
1579272465.908,-141.113,83.984,35.645,-132.324,-27.344,0
1579272465.912,-143.555,95.215,33.203,-132.812,-5.371,0
1579272465.916,-159.668,82.031,32.227,-153.809,73.730,0
1579272465.920,-152.832,66.406,29.297,-151.855,23.926,0
1579272465.923,-152.344,62.012,32.227,-148.926,-40.527,0
1579272465.927,-138.184,71.289,50.293,-134.766,16.113,0
1579272465.931,-113.281,68.359,58.594,-107.910,36.621,0
1579272465.935,-124.023,55.664,62.012,-109.375,48.828,0
1579272465.939,-98.633,60.059,54.688,-96.191,89.355,0
1579272465.936,-69.824,59.570,50.293,-70.801,88.379,0
1579272465.940,-80.078,57.129,58.594,-68.359,28.320,0
1579272465.944,-48.828,54.199,55.176,-47.363,44.922,0
1579272465.948,-24.414,55.176,40.527,-37.109,61.523,0
1579272465.952,-26.367,58.105,33.691,-41.992,20.996,0
1579272465.956,-1.953,45.898,39.062,-11.719,40.039,0
1579272465.960,9.766,38.086,34.668,5.371,22.949,0
1579272465.963,9.766,36.133,25.391,13.672,17.578,0
1579272465.967,28.320,36.133,34.180,39.551,21.973,0
1579272465.971,29.785,42.480,38.574,47.363,36.133,0
1579272465.975,30.762,41.992,27.344,45.898,42.969,0
1579272465.979,45.410,36.621,26.367,54.688,79.102,0
1579272465.976,53.223,37.109,32.715,62.012,36.133,0
1579272465.980,57.617,41.992,24.414,64.453,-26.855,0
1579272465.984,63.477,35.156,14.160,63.965,35.156,0
1579272465.988,64.941,33.691,20.996,64.453,87.402,0
1579272465.992,75.684,42.480,20.996,74.707,70.312,0
1579272465.996,85.449,40.527,13.184,81.543,49.316,0
1579272466.000,84.961,34.180,13.184,86.426,-17.090,0
1579272466.003,95.703,34.180,19.043,96.191,-39.062,0
1579272466.007,101.562,32.715,17.090,99.121,42.969,0
1579272466.011,100.098,34.180,11.719,98.633,30.762,0
1579272466.015,104.492,37.109,20.020,105.957,-46.875,0
1579272466.019,107.422,38.574,24.414,113.281,-24.902,0
1579272466.036,104.492,35.645,23.438,107.422,22.461,0
1579272466.040,102.051,28.809,17.578,95.215,51.270,0
1579272466.044,97.656,31.250,13.672,94.238,93.262,0
1579272466.048,97.656,34.180,14.648,100.098,28.320,0
1579272466.052,96.191,36.133,16.113,100.586,-13.672,0
1579272466.056,99.121,41.016,20.508,97.168,37.109,0
1579272466.060,103.516,41.016,26.855,100.586,57.617,0
1579272466.063,99.609,36.133,29.297,104.004,96.191,0
1579272466.067,93.262,37.598,29.297,99.121,46.387,0
1579272466.071,85.449,38.086,29.297,92.773,33.691,0
1579272466.075,88.379,39.551,32.715,96.680,68.359,0
1579272466.079,90.332,36.133,26.367,95.703,10.742,0
1579272466.076,80.078,27.832,13.672,82.031,22.461,0
1579272466.080,76.660,29.297,15.625,76.660,36.133,0
1579272466.084,77.148,35.156,22.949,74.707,22.949,0
1579272466.088,76.660,39.551,28.809,76.660,20.996,0
1579272466.092,81.055,38.086,26.367,81.543,56.641,0
1579272466.096,82.031,36.133,29.297,83.496,3.418,0
1579272466.100,82.520,41.504,31.250,80.078,2.441,0
1579272466.103,82.031,42.969,27.832,79.102,75.195,0
1579272466.107,72.754,38.086,29.297,78.125,86.426,0
1579272466.111,69.824,40.039,26.855,79.590,89.355,0
1579272466.115,68.848,41.992,31.250,78.613,98.633,0
1579272466.119,53.711,35.156,29.297,64.941,19.043,0
1579272466.116,50.293,32.227,27.344,63.965,19.531,0
1579272466.120,55.664,37.109,32.227,71.777,38.086,0
1579272466.124,66.406,41.992,26.367,71.289,-6.348,0
1579272466.128,73.730,40.527,21.973,69.336,-22.949,0
1579272466.132,61.523,35.645,22.461,70.312,9.277,0
1579272466.136,60.059,39.062,22.461,72.266,5.859,0
1579272466.140,63.477,40.039,25.879,68.848,-2.441,0
1579272466.143,59.082,38.086,30.762,68.359,-0.977,0
1579272466.147,60.059,41.504,36.621,70.312,-2.441,0
1579272466.151,59.570,41.992,35.645,64.941,47.363,0
1579272466.155,62.500,47.852,30.273,65.430,86.914,0
1579272466.159,63.477,46.875,34.668,66.406,26.367,0
1579272466.176,48.828,37.109,29.785,59.082,98.633,0
1579272466.180,48.340,37.598,21.973,57.129,115.723,0
1579272466.184,52.246,39.062,28.809,58.594,54.199,0
1579272466.188,47.363,40.039,36.621,56.641,15.625,0
1579272466.192,44.922,37.109,31.738,57.129,-18.066,0
1579272466.196,46.875,38.574,29.297,61.523,28.320,0
1579272466.200,54.688,42.969,35.156,60.547,11.230,0
1579272466.203,53.223,41.992,38.086,54.688,3.418,0
1579272466.207,56.152,46.387,29.785,56.641,6.836,0
1579272466.211,56.641,51.270,22.461,62.012,21.973,0
1579272466.215,44.922,41.504,23.926,55.176,1.465,0
1579272466.219,37.598,38.574,32.227,45.898,37.598,0
1579272466.216,41.016,40.039,37.109,45.898,108.398,0
1579272466.220,41.504,38.574,36.621,42.969,130.859,0
1579272466.224,35.645,41.016,28.809,41.504,87.891,0
1579272466.228,34.180,41.016,26.855,39.551,100.586,0
1579272466.232,42.480,41.016,32.227,36.621,140.137,0
1579272466.236,40.039,41.016,29.785,37.598,71.777,0
1579272466.240,34.668,43.945,23.926,41.016,37.109,0
1579272466.243,34.668,43.945,27.344,41.992,26.367,0
1579272466.247,30.762,39.062,31.738,42.480,8.789,0
1579272466.251,29.297,36.133,26.367,45.898,-37.109,0
1579272466.255,33.203,40.527,27.832,43.457,5.371,0
1579272466.259,34.180,42.480,25.391,39.551,44.434,0
1579272466.257,40.527,44.434,26.855,42.480,4.883,0
1579272466.261,46.387,45.410,38.086,45.410,30.762,0
1579272466.265,38.086,37.598,34.180,44.434,62.500,0
1579272466.269,40.527,41.992,30.762,45.410,56.152,0
1579272466.273,42.969,47.363,29.297,45.898,51.270,0
1579272466.277,38.086,42.969,29.785,43.457,10.254,0
1579272466.281,42.480,40.039,30.273,45.898,1.953,0
1579272466.284,41.504,39.551,30.762,48.340,93.262,0
1579272466.288,31.250,40.527,30.273,39.062,71.289,0
1579272466.292,34.180,43.945,24.902,34.180,44.434,0
1579272466.296,38.574,46.875,22.461,41.992,89.355,0
1579272466.300,39.551,47.852,29.297,46.387,23.438,0
1579272466.316,36.621,38.086,20.508,37.598,62.988,0
1579272466.320,38.574,34.668,27.832,34.180,92.285,0
1579272466.324,35.645,42.969,40.527,31.250,0.488,0
1579272466.328,31.738,40.527,37.109,37.109,4.883,0
1579272466.332,43.945,30.273,36.133,57.129,38.086,0
1579272466.336,48.340,36.133,34.180,53.223,14.648,0
1579272466.340,29.785,48.828,23.926,23.438,34.668,0
1579272466.343,23.438,52.246,19.531,18.066,44.434,0
1579272466.347,37.598,49.805,24.414,33.691,99.121,0
1579272466.351,34.180,43.945,20.020,28.320,57.617,0
1579272466.355,36.133,46.875,24.902,30.762,21.973,0
1579272466.359,43.457,49.805,32.715,41.504,53.711,0
1579272466.356,34.180,39.062,19.531,32.715,25.879,0
1579272466.360,37.109,41.016,9.766,31.250,43.457,0
1579272466.364,44.922,48.340,15.625,37.109,2.441,0
1579272466.368,47.852,46.387,20.020,37.598,-15.625,0
1579272466.372,44.434,45.410,27.832,41.016,-2.930,0
1579272466.376,41.504,42.969,28.809,42.969,20.508,0
1579272466.380,43.945,46.387,22.949,40.527,52.734,0
1579272466.383,45.410,47.363,29.785,41.016,69.824,0
1579272466.387,39.551,41.504,30.762,40.039,60.059,0
1579272466.391,42.480,46.875,31.738,45.898,-20.996,0
1579272466.395,41.504,47.852,34.180,41.504,21.973,0
1579272466.399,33.691,42.480,25.391,31.738,67.871,0
1579272466.396,37.598,47.363,19.043,38.086,-18.066,0
1579272466.400,39.062,45.898,23.438,40.039,-29.785,0
1579272466.404,42.480,46.875,26.855,41.016,63.477,0
1579272466.408,38.086,46.387,32.715,39.062,110.352,0
1579272466.412,31.738,42.969,35.645,41.016,83.496,0
1579272466.416,32.227,45.898,28.320,42.969,12.695,0
1579272466.420,32.715,41.016,22.461,37.598,-13.184,0
1579272466.423,40.039,44.922,29.297,42.480,44.434,0
1579272466.427,46.387,48.828,29.785,43.457,63.965,0
1579272466.431,39.062,37.109,20.020,39.551,82.031,0
1579272466.435,34.668,35.156,20.996,41.992,61.035,0
1579272466.439,43.945,41.992,25.391,37.598,10.254,0
1579272466.456,43.457,41.016,31.250,37.598,7.324,0
1579272466.460,35.645,43.457,33.691,40.527,0.977,0
1579272466.464,37.109,47.852,33.691,41.992,25.391,0
1579272466.468,35.645,44.922,26.367,39.551,49.316,0
1579272466.472,36.621,46.387,22.461,34.180,32.715,0
1579272466.476,40.039,44.434,29.785,36.133,38.574,0
1579272466.480,41.992,41.016,32.715,41.016,35.645,0
1579272466.483,40.039,33.203,30.762,43.457,-37.598,0
1579272466.487,39.062,31.738,23.438,41.016,-23.926,0
1579272466.491,26.855,41.504,17.578,26.855,14.160,0
1579272466.495,16.602,46.387,20.996,16.602,64.941,0
1579272466.499,25.391,49.805,23.438,19.043,83.496,0
1579272466.496,21.973,47.363,22.949,14.648,49.316,0
1579272466.500,15.137,41.016,20.508,13.672,34.180,0
1579272466.504,19.531,42.480,9.277,22.949,-10.254,0
1579272466.508,24.414,48.340,12.695,31.738,10.254,0
1579272466.512,23.438,46.875,23.926,27.344,64.453,0
1579272466.516,26.855,40.527,26.367,29.785,35.156,0
1579272466.520,25.391,36.133,26.855,30.273,28.320,0
1579272466.523,27.344,41.504,27.344,28.809,30.273,0
1579272466.527,34.668,45.410,24.902,32.715,39.062,0
1579272466.531,35.156,47.852,25.391,29.297,11.719,0
1579272466.535,38.086,50.293,32.715,32.227,-34.180,0
1579272466.539,43.457,51.270,32.227,39.062,20.508,0
1579272466.537,44.922,51.758,34.180,40.527,25.879,0
1579272466.541,43.945,49.805,30.273,42.480,-18.555,0
1579272466.545,35.645,48.340,19.043,38.574,52.734,0
1579272466.549,31.738,48.828,20.996,39.062,51.758,0
1579272466.553,39.062,45.898,27.344,41.016,-30.762,0
1579272466.557,37.598,45.898,30.762,37.598,21.973,0
1579272466.561,33.203,46.875,37.109,36.133,78.613,0
1579272466.564,40.039,42.969,38.086,37.109,82.031,0
1579272466.568,38.574,41.504,29.785,38.086,79.590,0
1579272466.572,32.227,44.922,25.391,32.715,25.391,0
1579272466.576,33.691,51.758,36.621,36.621,32.227,0
1579272466.580,36.133,54.199,43.945,40.527,69.824,0
1579272466.596,34.668,41.504,27.832,31.250,72.754,0
1579272466.600,29.785,41.016,14.648,29.297,45.898,0
1579272466.604,20.996,48.340,21.973,28.320,56.641,0
1579272466.608,25.879,46.387,33.691,28.809,25.879,0
1579272466.612,29.785,40.527,34.668,33.691,26.855,0
1579272466.616,29.785,38.086,32.227,36.133,112.793,0
1579272466.620,36.133,40.039,26.367,31.250,58.594,0
1579272466.623,38.574,43.457,28.320,25.879,-25.879,0
1579272466.627,37.598,49.316,37.598,38.086,41.504,0
1579272466.631,37.109,50.781,42.480,47.852,122.559,0
1579272466.635,30.273,46.875,34.668,39.551,59.082,0
1579272466.639,31.250,42.480,19.531,37.109,38.574,0
1579272466.637,33.691,40.039,18.555,38.574,18.066,0
1579272466.641,36.621,44.434,25.391,35.156,10.254,0
1579272466.645,41.016,47.852,30.762,35.156,37.109,0
1579272466.649,39.551,49.805,36.621,36.621,20.996,0
1579272466.653,35.645,48.340,28.809,39.062,61.523,0
1579272466.657,36.621,43.457,24.414,36.621,53.223,0
1579272466.661,41.992,47.852,35.156,37.598,41.504,0
1579272466.664,40.039,49.805,36.133,38.574,47.363,0
1579272466.668,31.250,39.062,19.531,34.668,40.039,0
1579272466.672,30.273,39.062,29.297,37.598,42.969,0
1579272466.676,35.645,47.852,33.691,39.551,50.781,0
1579272466.680,34.180,51.270,25.391,37.598,54.688,0
1579272466.676,34.668,50.293,32.227,38.574,71.777,0
1579272466.680,39.062,43.457,40.039,42.969,50.781,0
1579272466.684,43.945,46.875,46.875,43.945,38.086,0
1579272466.688,40.527,46.387,41.992,35.645,29.297,0
1579272466.692,27.832,37.598,29.785,26.367,25.391,0
1579272466.696,27.344,37.109,29.785,28.809,66.895,0
1579272466.700,31.250,41.992,30.762,32.715,24.414,0
1579272466.703,32.715,42.480,33.203,31.250,5.859,0
1579272466.707,31.738,43.945,28.809,31.738,37.598,0
1579272466.711,25.391,46.875,27.832,37.598,13.672,0
1579272466.715,23.438,42.480,32.227,41.992,7.324,0
1579272466.719,21.484,42.969,30.273,33.691,36.621,0
1579272466.736,20.508,42.969,41.016,30.273,-7.324,0
1579272466.740,23.438,38.574,35.645,32.227,-50.781,0
1579272466.744,24.902,38.574,24.902,28.809,26.855,0
1579272466.748,20.996,39.551,31.738,30.273,65.918,0
1579272466.752,30.762,38.086,33.203,32.227,57.617,0
1579272466.756,62.988,42.969,28.320,57.129,107.910,0
1579272466.760,70.312,46.387,37.109,74.219,33.203,0
1579272466.763,32.227,39.062,46.387,44.434,13.672,0
1579272466.767,12.207,32.715,42.480,29.785,66.406,0
1579272466.771,31.738,35.156,44.922,51.270,30.273,0
1579272466.775,38.574,28.809,44.922,58.105,76.660,0
1579272466.779,40.039,20.020,41.016,57.129,91.309,0
1579272466.776,44.434,26.367,40.527,52.246,88.867,0
1579272466.780,43.457,34.180,38.086,44.922,126.465,0
1579272466.784,62.500,41.016,39.551,63.965,45.410,0
1579272466.788,69.336,41.016,39.062,70.312,12.695,0
1579272466.792,65.430,40.039,32.227,63.965,44.922,0
1579272466.796,67.871,42.480,29.785,64.941,28.320,0
1579272466.800,67.383,47.363,26.367,66.406,39.551,0
1579272466.803,65.918,54.199,40.039,74.219,48.340,0
1579272466.807,60.547,44.434,46.875,72.754,35.645,0
1579272466.811,53.223,38.574,43.945,58.105,20.996,0
1579272466.815,48.340,43.457,44.434,53.223,-34.668,0
1579272466.819,47.852,46.387,39.062,62.988,-74.219,0
1579272466.816,50.293,46.875,40.039,66.895,-18.555,0
1579272466.820,46.875,43.945,36.133,58.105,-4.883,0
1579272466.824,46.387,40.527,36.133,54.199,8.301,0
1579272466.828,49.316,34.668,26.367,58.105,78.125,0
1579272466.832,41.016,35.645,24.414,59.570,44.434,0
1579272466.836,41.992,39.551,42.969,49.805,-11.230,0
1579272466.840,49.805,47.363,49.805,47.852,64.453,0
1579272466.843,39.551,51.270,45.410,44.434,98.633,0
1579272466.847,28.320,41.504,37.598,31.738,20.020,0
1579272466.851,31.250,36.621,32.227,34.668,33.203,0
1579272466.855,37.109,41.016,35.645,33.691,67.383,0
1579272466.859,40.527,44.434,37.598,30.273,81.055,0
1579272466.877,37.598,43.457,36.133,34.180,67.871,0
1579272466.881,34.668,42.480,36.133,34.668,10.254,0
1579272466.885,37.598,41.504,35.156,29.297,10.742,0
1579272466.889,46.875,41.992,27.344,29.297,15.137,0
1579272466.893,42.480,41.992,17.578,33.203,29.297,0
1579272466.897,38.574,51.270,35.645,37.109,20.020,0
1579272466.901,37.109,46.875,48.340,31.250,-3.906,0
1579272466.904,36.133,29.785,34.180,31.738,39.062,0
1579272466.908,43.457,36.133,29.297,41.016,43.457,0
1579272466.912,29.785,47.852,31.250,24.414,59.570,0
1579272466.916,19.043,46.387,33.203,5.859,44.922,0
1579272466.920,13.184,46.387,38.086,0.488,-38.574,0
1579272466.916,18.066,52.246,34.180,5.371,6.836,0
1579272466.920,28.809,51.758,26.855,19.043,8.301,0
1579272466.924,24.902,51.270,28.320,22.949,18.555,0
1579272466.928,27.344,49.805,24.414,23.926,108.887,0
1579272466.932,36.133,54.199,28.320,32.715,61.523,0
1579272466.936,32.715,48.340,29.297,29.785,13.672,0
1579272466.940,22.949,39.551,26.855,24.902,2.441,0
1579272466.943,27.344,42.969,35.645,24.902,-0.977,0
1579272466.947,28.320,40.527,40.039,24.902,40.527,0
1579272466.951,31.250,36.621,41.016,31.738,68.359,0
1579272466.955,33.691,39.062,41.504,34.180,63.965,0
1579272466.959,31.738,43.457,40.527,31.738,-9.277,0
1579272466.956,31.250,41.992,35.645,28.809,-18.555,0
1579272466.960,37.598,43.945,37.598,35.645,-0.977,0
1579272466.964,41.504,45.898,35.156,39.551,27.344,0
1579272466.968,34.668,43.457,20.020,28.320,48.828,0
1579272466.972,30.273,50.293,15.137,27.344,12.695,0
1579272466.976,31.738,50.293,22.949,34.668,50.293,0
1579272466.980,32.227,45.410,36.621,35.156,54.688,0
1579272466.983,36.133,46.387,40.527,33.691,67.871,0
1579272466.987,38.574,45.410,37.598,28.320,84.961,0
1579272466.991,31.738,46.387,39.062,34.668,44.922,0
1579272466.995,36.133,48.828,38.086,41.016,41.992,0
1579272466.999,31.738,46.387,35.156,38.574,72.266,0
1579272467.016,24.902,48.828,34.668,39.551,64.453,0
1579272467.020,21.973,50.781,33.691,32.227,23.926,0
1579272467.024,24.414,50.293,22.461,33.691,-17.090,0
1579272467.028,27.344,45.410,16.113,38.086,23.926,0
1579272467.032,28.809,37.598,30.273,31.738,65.430,0
1579272467.036,35.645,36.133,36.133,30.273,47.852,0
1579272467.040,38.574,41.992,34.668,27.832,67.871,0
1579272467.043,31.250,43.457,33.691,31.250,73.730,0
1579272467.047,32.715,46.387,30.273,35.645,14.160,0
1579272467.051,39.062,55.664,31.250,39.062,-4.395,0
1579272467.055,35.156,51.758,29.297,40.527,43.945,0
1579272467.059,31.738,45.898,24.414,29.785,15.137,0
1579272467.056,32.715,43.945,25.391,27.832,-51.758,0
1579272467.060,34.180,35.645,29.297,31.250,-10.742,0
1579272467.064,33.691,35.156,34.668,33.203,11.230,0
1579272467.068,34.180,38.574,37.598,38.574,12.207,0
1579272467.072,31.738,40.039,44.922,36.133,71.289,0
1579272467.076,41.016,41.016,35.156,37.598,20.020,0
1579272467.080,55.176,45.898,28.320,50.781,38.086,0
1579272467.083,39.551,41.992,33.691,44.434,64.453,0
1579272467.087,21.973,43.457,42.480,37.109,12.207,0
1579272467.091,16.602,39.551,49.805,34.180,98.145,0
1579272467.095,18.066,27.344,41.992,26.367,82.520,0
1579272467.099,12.695,21.484,44.922,29.297,-13.672,0
1579272467.097,7.812,18.066,52.246,29.785,26.855,0
1579272467.101,13.672,21.484,42.969,30.273,50.781,0
1579272467.105,17.578,26.855,37.109,34.180,26.367,0
1579272467.109,20.996,31.738,51.758,39.551,10.742,0
1579272467.113,24.414,35.156,57.617,40.527,29.785,0
1579272467.117,25.391,35.156,50.781,38.086,20.996,0
1579272467.121,30.273,34.668,45.410,38.086,-3.906,0
1579272467.124,30.273,41.992,48.340,38.574,-34.668,0
1579272467.128,24.902,37.598,38.086,36.621,31.250,0
1579272467.132,22.461,31.250,34.668,30.273,74.219,0
1579272467.136,19.531,38.086,37.598,28.809,10.254,0
1579272467.140,29.297,38.574,27.344,29.785,46.387,0
1579272467.156,33.203,41.016,40.039,36.621,41.992,0
1579272467.160,24.414,41.504,53.711,38.574,-35.156,0
1579272467.164,32.227,37.109,54.199,34.668,-6.348,0
1579272467.168,32.227,37.109,52.734,33.691,38.574,0
1579272467.172,24.414,42.480,51.270,37.109,35.645,0
1579272467.176,38.086,46.875,45.898,42.480,33.203,0
1579272467.180,37.109,40.039,39.551,38.574,14.160,0
1579272467.183,31.738,37.598,33.203,33.691,-13.184,0
1579272467.187,32.715,44.434,21.484,35.645,-4.395,0
1579272467.191,33.203,45.410,23.926,40.527,29.297,0
1579272467.195,38.574,42.480,39.062,42.480,42.969,0
1579272467.199,38.574,40.527,46.387,39.062,44.922,0
1579272467.197,37.109,41.504,40.527,36.621,51.270,0
1579272467.201,43.945,44.434,40.039,42.480,3.906,0
1579272467.205,48.340,45.898,41.016,44.434,-15.625,0
1579272467.209,44.434,50.781,42.969,46.875,23.438,0
1579272467.213,35.156,48.340,35.645,48.340,54.199,0
1579272467.217,26.367,37.109,22.949,39.062,0.000,0
1579272467.221,32.227,35.645,35.645,38.574,-30.762,0
1579272467.224,37.598,42.969,40.527,38.574,10.254,0
1579272467.228,42.480,46.387,39.551,37.598,54.199,0
1579272467.232,46.387,45.410,34.668,37.598,109.863,0
1579272467.236,41.016,46.387,29.297,37.598,110.352,0
1579272467.240,32.715,44.922,38.086,38.574,68.848,0
1579272467.237,33.203,47.852,41.992,41.992,75.195,0
1579272467.241,41.504,51.758,47.363,45.410,66.406,0
1579272467.245,38.574,43.457,29.785,38.574,46.875,0
1579272467.249,32.227,39.551,13.672,37.109,11.230,0
1579272467.253,38.086,45.410,34.180,37.598,-10.742,0
1579272467.257,38.574,47.852,42.969,35.645,49.805,0
1579272467.261,33.691,45.410,35.156,39.551,36.133,0
1579272467.264,37.109,48.828,33.691,43.457,-23.926,0
1579272467.268,43.457,55.664,34.668,41.504,2.930,0
1579272467.272,46.875,48.340,38.086,37.598,3.418,0
1579272467.276,43.945,45.410,34.668,42.969,13.672,0
1579272467.280,35.645,45.898,24.902,46.875,43.457,0
1579272467.296,40.039,42.969,26.367,41.016,59.082,0
1579272467.300,40.039,45.410,36.621,36.133,9.277,0
1579272467.304,39.551,45.898,38.574,41.992,-19.531,0
1579272467.308,40.039,48.340,30.762,46.387,69.824,0
1579272467.312,39.551,50.781,29.785,41.016,74.707,0
1579272467.316,41.016,48.828,29.297,36.621,20.508,0
1579272467.320,37.109,50.781,32.227,34.668,-35.156,0
1579272467.323,29.297,47.852,33.203,34.180,6.348,0
1579272467.327,36.133,51.758,33.203,41.016,102.051,0
1579272467.331,41.992,55.664,33.691,41.992,57.129,0
1579272467.335,36.133,42.480,29.785,28.320,24.902,0
1579272467.339,33.691,41.016,28.809,26.855,57.617,0
1579272467.336,35.645,47.363,26.855,33.203,15.625,0
1579272467.340,39.062,51.270,28.809,31.250,-36.621,0
1579272467.344,36.621,48.828,35.645,33.203,-7.324,0
1579272467.348,43.945,48.828,39.551,39.062,4.395,0
1579272467.352,45.898,50.781,40.039,41.992,16.113,0
1579272467.356,36.621,44.922,37.598,35.645,30.273,0
1579272467.360,37.109,48.828,40.527,32.227,107.422,0
1579272467.363,45.898,53.711,35.156,35.645,124.023,0
1579272467.367,31.250,44.434,26.367,31.250,62.500,0
1579272467.371,24.902,38.086,29.785,27.832,54.688,0
1579272467.375,29.785,42.969,28.320,32.715,86.426,0
1579272467.379,23.926,45.898,28.320,32.715,90.332,0
1579272467.396,27.344,44.434,35.156,37.598,51.270,0
1579272467.400,33.203,48.340,35.645,41.992,72.266,0
1579272467.404,36.621,42.969,37.109,34.180,48.828,0
1579272467.408,38.086,39.551,38.574,35.645,-9.277,0
1579272467.412,40.527,47.852,40.039,43.945,35.156,0
1579272467.416,32.715,45.898,39.551,41.992,68.359,0
1579272467.420,26.367,40.039,37.109,36.621,20.020,0
1579272467.423,31.738,42.480,40.039,31.738,-20.996,0
1579272467.427,34.180,46.387,36.621,33.691,-18.555,0
1579272467.431,26.855,43.457,32.715,40.039,6.836,0
1579272467.435,31.250,44.922,33.203,38.574,52.734,0
1579272467.439,32.227,49.316,29.785,34.180,45.898,0
1579272467.436,30.273,49.316,35.645,38.574,14.648,0
1579272467.440,35.156,50.781,45.898,40.039,10.254,0
1579272467.444,40.527,57.617,50.781,41.992,9.277,0
1579272467.448,33.203,57.129,36.133,37.109,34.668,0
1579272467.452,27.344,44.922,19.043,28.809,45.898,0
1579272467.456,34.180,40.527,26.367,31.738,72.754,0
1579272467.460,35.645,41.992,33.691,30.762,106.934,0
1579272467.463,37.598,41.504,35.645,25.879,79.102,0
1579272467.467,33.203,39.551,34.668,24.414,47.852,0
1579272467.471,28.320,45.898,31.738,29.785,16.113,0
1579272467.475,31.738,50.781,29.785,35.645,11.719,0
1579272467.479,25.391,47.363,29.785,34.180,-12.207,0
1579272467.476,24.902,43.457,32.715,31.250,33.691,0
1579272467.480,32.227,51.270,36.133,35.645,83.496,0
1579272467.484,23.926,51.270,23.926,36.621,38.574,0
1579272467.488,21.484,42.969,17.090,28.809,34.668,0
1579272467.492,26.855,42.969,39.062,23.926,19.531,0
1579272467.496,22.949,43.945,44.922,19.531,-1.953,0
1579272467.500,27.344,45.410,39.062,25.879,34.180,0
1579272467.503,32.715,45.410,35.156,34.668,41.992,0
1579272467.507,32.715,45.410,32.715,29.297,-4.395,0
1579272467.511,31.738,42.969,30.762,23.926,-13.672,0
1579272467.515,30.762,41.504,31.738,28.809,35.645,0
1579272467.519,37.109,44.922,32.227,33.203,58.594,0
1579272467.536,29.297,42.480,22.461,27.832,88.867,0
1579272467.540,25.879,45.410,28.320,24.414,120.117,0
1579272467.544,26.855,46.875,31.250,26.367,18.066,0
1579272467.548,23.926,42.480,32.227,28.809,-7.812,0
1579272467.552,31.250,41.016,36.621,28.320,31.250,0
1579272467.556,31.250,44.434,33.203,24.414,45.898,0
1579272467.560,33.691,45.898,30.762,26.367,58.105,0
1579272467.563,37.598,41.992,31.738,28.320,72.754,0
1579272467.567,27.832,39.062,31.250,25.879,95.215,0
1579272467.571,29.785,46.387,43.457,34.180,72.754,0
1579272467.575,36.621,51.270,44.434,40.039,47.363,0
1579272467.579,29.297,40.039,29.297,29.785,44.434,0
1579272467.576,25.391,35.645,28.320,26.855,24.902,0
1579272467.580,33.691,42.480,33.203,27.344,32.715,0
1579272467.584,31.738,41.016,36.133,23.438,72.266,0
1579272467.588,30.273,39.062,30.762,31.250,63.965,0
1579272467.592,31.738,42.969,22.949,35.156,12.695,0
1579272467.596,31.250,44.922,26.855,30.273,24.414,0
1579272467.600,35.156,45.898,38.574,29.297,106.934,0
1579272467.603,38.086,43.945,34.668,31.250,50.293,0
1579272467.607,41.016,47.852,26.855,37.109,-23.438,0
1579272467.611,36.133,53.711,35.645,37.598,-23.438,0
1579272467.615,31.250,49.805,32.715,28.809,-10.254,0
1579272467.619,37.109,43.457,28.809,32.715,27.344,0
1579272467.616,33.203,38.574,30.273,36.133,81.055,0
1579272467.620,17.578,38.086,33.691,23.438,93.750,0
1579272467.624,20.508,34.668,41.992,21.973,56.152,0
1579272467.628,32.227,37.598,44.922,32.715,63.965,0
1579272467.632,31.738,42.969,39.551,34.180,88.867,0
1579272467.636,32.227,42.480,41.016,35.156,42.969,0
1579272467.640,41.016,50.293,53.711,45.898,20.996,0
1579272467.643,38.574,45.410,35.645,41.504,45.410,0
1579272467.647,28.809,38.086,23.926,31.250,67.383,0
1579272467.651,35.156,45.410,43.945,37.109,22.461,0
1579272467.655,36.621,48.828,52.734,40.527,20.020,0
1579272467.659,36.133,51.270,52.734,36.621,62.012,0
1579272467.676,36.133,50.781,41.016,38.086,72.266,0
1579272467.680,40.527,41.016,43.945,41.016,28.320,0
1579272467.684,41.016,35.156,53.223,35.156,-13.672,0
1579272467.688,34.668,37.598,46.875,35.156,27.344,0
1579272467.692,46.875,48.340,56.641,46.387,32.227,0
1579272467.696,46.387,49.805,65.918,46.875,68.359,0
1579272467.700,34.668,45.410,53.711,41.504,99.121,0
1579272467.703,42.480,43.945,45.898,38.574,24.414,0
1579272467.707,46.387,46.387,46.875,38.086,29.297,0
1579272467.711,39.551,51.270,51.270,43.945,20.996,0
1579272467.715,37.598,45.898,39.062,43.457,15.137,0
1579272467.719,41.992,42.969,23.926,42.480,52.734,0
1579272467.717,44.434,48.340,34.180,41.992,27.832,0
1579272467.721,51.270,52.734,46.387,49.805,21.484,0
1579272467.725,52.734,49.316,44.922,53.711,75.195,0
1579272467.729,40.039,37.109,36.621,41.504,134.766,0
1579272467.733,31.738,33.691,29.785,34.180,76.172,0
1579272467.737,38.086,40.527,28.320,39.062,71.289,0
1579272467.741,36.621,41.504,22.949,43.945,74.219,0
1579272467.744,38.086,40.039,24.902,45.410,-5.371,0
1579272467.748,40.039,45.410,27.344,45.898,-18.555,0
1579272467.752,39.551,48.340,20.508,46.875,35.156,0
1579272467.756,41.016,47.852,33.203,48.828,118.164,0
1579272467.760,34.668,48.340,43.945,49.805,127.441,0
1579272467.756,36.621,50.781,40.527,50.781,7.324,0
1579272467.760,34.180,45.410,37.109,40.527,-47.363,0
1579272467.764,25.391,35.645,30.273,35.645,-16.602,0
1579272467.768,25.391,36.133,26.855,41.016,-5.859,0
1579272467.772,27.344,38.086,28.809,35.645,-33.691,0
1579272467.776,31.250,41.504,32.227,34.668,-27.344,0
1579272467.780,36.621,42.480,27.832,40.527,12.207,0
1579272467.783,37.598,43.945,26.855,42.969,73.242,0
1579272467.787,39.062,50.293,37.598,40.527,109.375,0
1579272467.791,47.852,53.711,38.086,43.457,14.160,0
1579272467.795,47.852,52.734,20.996,44.922,2.930,0
1579272467.799,39.062,46.875,16.602,41.016,38.574,0
1579272467.816,38.086,43.457,25.879,41.504,61.035,0
1579272467.820,41.504,46.875,34.180,41.016,16.602,0
1579272467.824,46.387,48.340,32.715,42.969,30.762,0
1579272467.828,45.898,47.363,29.785,46.875,100.098,0
1579272467.832,40.039,47.852,33.203,43.945,10.742,0
1579272467.836,38.086,45.410,32.227,39.062,19.043,0
1579272467.840,41.016,43.945,21.973,36.621,50.293,0
1579272467.843,44.922,48.828,27.832,41.992,30.762,0
1579272467.847,47.852,52.734,34.180,49.805,17.090,0
1579272467.851,39.062,45.898,18.066,39.551,20.020,0
1579272467.855,40.039,43.945,14.648,34.180,89.355,0
1579272467.859,38.086,45.410,23.438,38.086,63.965,0
1579272467.856,33.691,45.410,30.273,37.109,55.176,0
1579272467.860,35.645,46.387,40.039,35.645,48.828,0
1579272467.864,37.598,48.828,35.156,35.645,14.160,0
1579272467.868,41.504,50.781,21.973,36.133,-6.836,0
1579272467.872,42.480,45.898,30.762,35.156,-7.812,0
1579272467.876,40.039,41.992,28.809,32.715,25.879,0
1579272467.880,41.992,48.828,24.414,36.133,105.469,0
1579272467.883,36.621,45.898,31.738,31.738,97.656,0
1579272467.887,31.250,43.945,28.320,27.832,0.000,0
1579272467.891,31.738,46.875,19.531,29.785,28.809,0
1579272467.895,29.785,45.410,22.949,27.344,38.574,0
1579272467.899,33.691,47.363,26.367,28.809,-11.230,0
1579272467.896,34.180,43.457,21.484,31.738,34.180,0
1579272467.900,31.250,41.992,28.809,30.762,47.852,0
1579272467.904,29.785,46.387,34.668,28.809,38.574,0
1579272467.908,31.250,47.363,30.273,28.320,24.902,0
1579272467.912,24.902,43.457,26.855,25.879,-14.648,0
1579272467.916,20.508,42.969,30.273,25.879,6.348,0
1579272467.920,28.809,45.410,25.879,27.832,5.371,0
1579272467.923,31.738,48.340,17.090,27.832,35.645,0
1579272467.927,30.762,51.270,15.625,26.367,25.879,0
1579272467.931,34.180,48.340,21.973,29.297,7.812,0
1579272467.935,33.203,45.898,22.461,28.809,45.410,0
1579272467.939,31.250,45.410,31.738,22.461,36.133,0
1579272467.956,37.109,50.293,42.969,28.320,34.668,0
1579272467.960,35.156,51.270,36.133,36.133,15.137,0
1579272467.964,30.273,41.016,26.367,31.250,65.430,0
1579272467.968,32.715,42.480,28.809,30.273,94.727,0
1579272467.972,31.250,47.852,29.785,29.297,95.703,0
1579272467.976,38.086,52.734,15.137,36.621,77.148,0
1579272467.980,43.457,53.223,15.625,41.016,24.902,0
1579272467.983,28.320,40.039,34.668,30.762,54.688,0
1579272467.987,23.438,37.109,37.598,26.855,74.219,0
1579272467.991,25.879,44.434,32.227,24.902,77.148,0
1579272467.995,28.809,46.875,29.297,29.297,48.340,0
1579272467.999,34.180,52.734,28.809,37.598,27.832,0
1579272467.996,27.832,47.852,31.250,31.250,37.109,0
1579272468.000,27.832,42.969,35.156,25.391,-20.996,0
1579272468.004,25.391,40.039,28.320,27.344,-13.672,0
1579272468.008,24.414,32.227,26.367,37.109,48.828,0
1579272468.012,45.410,36.133,40.039,47.852,49.316,0
1579272468.016,40.527,41.016,34.668,36.133,12.207,0
1579272468.020,20.508,45.898,26.367,20.996,-16.602,0
1579272468.023,21.973,55.664,26.367,22.949,20.020,0
1579272468.027,28.320,55.176,22.949,26.367,53.223,0
1579272468.031,27.832,51.270,14.648,15.625,28.320,0
1579272468.035,24.414,54.688,14.160,12.207,-24.414,0
1579272468.039,21.973,60.059,10.742,16.602,-13.672,0
1579272468.037,28.320,57.617,3.906,14.160,27.344,0
1579272468.041,33.203,60.059,-3.418,9.277,42.480,0
1579272468.045,24.902,65.918,-0.977,2.930,109.375,0
1579272468.049,35.156,68.359,6.348,16.602,70.801,0
1579272468.053,40.039,63.477,-3.906,19.043,7.812,0
1579272468.057,39.551,57.129,-0.977,11.719,60.547,0
1579272468.061,40.039,58.594,4.883,17.578,61.035,0
1579272468.064,31.250,54.199,-0.488,18.066,18.066,0
1579272468.068,30.273,48.828,4.883,13.672,10.742,0
1579272468.072,26.855,49.805,1.465,13.184,30.762,0
1579272468.076,31.738,49.316,0.000,16.602,57.129,0
1579272468.080,32.715,47.363,12.695,19.043,115.234,0
1579272468.096,26.367,50.293,14.160,22.461,79.590,0
1579272468.100,40.039,55.176,16.113,28.809,47.363,0
1579272468.104,54.199,57.617,23.926,33.691,47.852,0
1579272468.108,42.480,50.781,14.160,27.832,16.113,0
1579272468.112,39.551,51.270,13.184,32.227,-4.883,0
1579272468.116,47.363,51.270,8.301,36.133,25.879,0
1579272468.120,44.434,51.270,8.789,30.762,65.918,0
1579272468.123,47.363,56.152,27.832,35.156,39.062,0
1579272468.127,42.480,52.246,28.809,40.527,45.898,0
1579272468.131,39.062,52.246,25.391,41.992,11.230,0
1579272468.135,46.875,56.641,31.250,43.457,-3.418,0
1579272468.139,38.086,45.410,28.320,36.133,26.855,0
1579272468.137,40.039,45.410,23.438,39.551,54.688,0
1579272468.141,43.457,54.199,31.250,42.969,86.426,0
1579272468.145,39.062,51.270,35.645,37.598,30.762,0
1579272468.149,42.969,47.852,28.320,35.645,21.973,0
1579272468.153,52.246,50.781,20.020,40.039,20.996,0
1579272468.157,42.480,51.270,20.020,43.945,-15.137,0
1579272468.161,32.715,48.828,25.391,38.086,-20.996,0
1579272468.164,41.016,55.664,37.598,40.039,4.883,0
1579272468.168,39.062,48.340,39.551,42.480,58.105,0
1579272468.172,33.691,39.551,33.691,38.574,53.711,0
1579272468.176,34.668,43.945,28.320,36.621,75.684,0
1579272468.180,36.621,49.316,24.414,36.133,83.008,0
1579272468.176,38.086,50.781,30.273,36.621,42.480,0
1579272468.180,39.551,46.875,34.668,39.062,-46.875,0
1579272468.184,44.434,48.828,26.855,39.551,-31.738,0
1579272468.188,43.457,46.875,26.367,31.738,76.660,0
1579272468.192,35.645,44.434,29.785,32.227,38.086,0
1579272468.196,44.922,52.246,25.391,45.410,28.320,0
1579272468.200,44.922,51.270,21.973,45.898,27.344,0
1579272468.203,36.621,41.992,27.832,37.598,-12.695,0
1579272468.207,44.922,44.434,38.086,36.133,35.156,0
1579272468.211,45.898,47.852,33.691,37.598,66.895,0
1579272468.215,42.969,47.852,25.879,41.016,20.996,0
1579272468.219,48.340,43.945,33.203,39.062,45.410,0
1579272468.237,44.434,41.016,35.156,36.621,40.039,0
1579272468.241,33.691,42.969,35.645,37.598,21.484,0
1579272468.245,37.109,38.574,30.762,45.898,12.695,0
1579272468.249,48.828,46.387,32.227,58.594,3.418,0
1579272468.253,47.363,55.176,33.203,49.805,30.762,0
1579272468.257,31.738,45.410,24.414,30.273,47.363,0
1579272468.261,30.273,43.457,27.832,24.902,20.020,0
1579272468.264,32.227,46.875,34.668,25.391,-67.383,0
1579272468.268,34.180,46.875,27.344,23.438,-21.484,0
1579272468.272,37.598,45.898,26.367,22.949,25.879,0
1579272468.276,34.668,45.898,39.551,28.809,10.254,0
1579272468.280,32.227,50.293,39.062,31.738,54.688,0
1579272468.277,31.738,54.199,39.551,30.762,86.914,0
1579272468.281,37.598,51.758,43.457,36.621,124.023,0
1579272468.285,39.551,45.898,34.668,35.645,43.945,0
1579272468.289,37.109,44.434,22.461,33.203,-45.898,0
1579272468.293,34.668,44.434,20.996,35.156,20.020,0
1579272468.297,28.320,44.434,31.738,32.715,83.984,0
1579272468.301,26.855,45.898,38.086,30.762,87.891,0
1579272468.304,27.832,45.898,33.691,34.668,25.879,0
1579272468.308,27.344,46.387,24.414,33.203,52.734,0
1579272468.312,32.227,46.387,23.438,28.320,103.516,0
1579272468.316,36.133,47.363,32.227,35.645,33.203,0
1579272468.320,35.645,49.316,40.039,42.969,29.297,0
1579272468.316,27.344,47.363,31.250,34.180,82.031,0
1579272468.320,30.762,44.922,17.578,31.250,54.688,0
1579272468.324,42.969,47.363,24.902,36.133,51.270,0
1579272468.328,45.410,51.270,38.574,38.086,46.875,0
1579272468.332,41.504,49.805,39.551,44.434,-8.789,0
1579272468.336,39.551,48.340,37.109,41.992,24.902,0
1579272468.340,40.039,39.062,28.809,32.227,64.941,0
1579272468.343,44.922,38.086,29.297,41.504,25.879,0
1579272468.347,42.969,49.316,41.992,50.781,-19.531,0
1579272468.351,34.180,47.363,36.133,39.062,-12.207,0
1579272468.355,37.598,43.457,24.902,31.250,48.340,0
1579272468.359,39.551,43.457,20.020,35.645,33.691,0
1579272468.376,34.668,41.016,26.855,38.086,52.734,0
1579272468.380,38.086,44.922,37.598,35.645,51.270,0
1579272468.384,44.922,46.875,39.551,34.668,22.461,0
1579272468.388,40.527,43.457,33.203,32.715,20.996,0
1579272468.392,40.039,45.898,34.180,38.574,20.020,0
1579272468.396,43.945,46.387,38.574,43.945,82.520,0
1579272468.400,38.574,42.480,29.297,33.691,109.863,0
1579272468.403,38.086,47.852,22.461,27.344,96.191,0
1579272468.407,37.109,46.387,22.949,32.715,41.992,0
1579272468.411,35.156,45.410,25.391,39.551,9.277,0
1579272468.415,36.133,46.387,25.391,38.086,14.160,0
1579272468.419,36.621,46.387,27.832,35.645,29.785,0
1579272468.416,38.574,47.363,38.086,39.551,11.230,0
1579272468.420,37.109,43.945,40.039,42.480,2.930,0
1579272468.424,46.387,47.363,42.480,44.922,26.855,0
1579272468.428,47.363,50.293,37.109,38.086,29.297,0
1579272468.432,37.598,41.504,26.855,35.645,38.574,0
1579272468.436,43.945,44.922,31.250,44.434,29.785,0
1579272468.440,43.945,50.781,21.484,40.527,20.020,0
1579272468.443,37.598,48.828,24.414,39.062,35.156,0
1579272468.447,39.551,53.711,42.480,41.992,69.824,0
1579272468.451,38.086,48.828,40.039,38.086,53.223,0
1579272468.455,39.062,46.387,32.227,37.598,38.086,0
1579272468.459,41.016,44.922,33.203,37.109,46.387,0
1579272468.456,31.738,39.551,29.297,27.344,-0.488,0
1579272468.460,22.949,40.527,29.297,25.391,7.324,0
1579272468.464,24.902,38.574,30.273,31.250,41.504,0
1579272468.468,36.133,47.363,32.227,38.086,49.316,0
1579272468.472,37.109,52.246,40.039,34.668,39.551,0
1579272468.476,53.711,47.363,31.738,38.574,27.832,0
1579272468.480,58.594,44.922,31.250,50.293,83.496,0
1579272468.483,29.297,43.457,54.688,42.480,44.922,0
1579272468.487,10.742,33.691,53.223,27.344,65.918,0
1579272468.491,11.719,26.367,40.527,23.438,127.930,0
1579272468.495,20.996,33.691,39.062,30.762,90.820,0
1579272468.499,24.414,34.180,42.969,36.621,68.359,0
1579272468.516,26.855,37.598,39.062,36.621,39.551,0
1579272468.520,29.297,44.922,23.926,36.621,13.184,0
1579272468.524,33.691,43.457,29.297,42.969,72.266,0
1579272468.528,36.133,41.016,42.480,45.410,84.473,0
1579272468.532,38.086,44.922,48.828,44.922,67.383,0
1579272468.536,43.457,50.781,52.246,49.316,97.168,0
1579272468.540,39.062,42.480,38.086,44.434,31.250,0
1579272468.543,30.762,40.039,35.156,38.574,-7.324,0
1579272468.547,31.738,41.016,39.062,41.016,20.508,0
1579272468.551,41.504,38.574,36.133,39.062,35.156,0
1579272468.555,38.086,43.945,36.621,34.668,21.484,0
1579272468.559,34.668,47.363,38.086,38.086,25.391,0
1579272468.560,40.527,41.992,37.598,38.086,80.566,0
1579272468.564,41.016,42.480,35.156,33.203,56.152,0
1579272468.568,40.527,50.293,38.574,37.598,0.977,0
1579272468.572,37.109,46.387,35.156,30.762,-17.090,0
1579272468.576,29.297,42.969,26.367,27.832,-13.184,0
1579272468.580,28.809,43.457,35.645,34.180,-26.367,0
1579272468.584,33.203,45.410,38.086,28.320,48.340,0
1579272468.587,36.621,46.875,27.344,28.320,93.750,0
1579272468.591,35.645,41.992,27.832,36.133,82.520,0
1579272468.595,33.203,46.387,38.086,35.645,59.082,0
1579272468.599,29.297,47.363,39.062,31.250,82.031,0
1579272468.603,37.598,49.316,40.039,39.551,39.551,0
1579272468.596,36.621,47.852,34.668,41.504,-2.441,0
1579272468.600,29.785,40.527,29.297,33.691,25.879,0
1579272468.604,36.133,41.504,21.973,31.250,42.969,0
1579272468.608,41.016,50.781,16.602,34.668,45.898,0
1579272468.612,41.016,53.223,31.738,41.016,8.789,0
1579272468.616,35.645,43.945,39.062,36.133,14.648,0
1579272468.620,34.180,41.504,38.574,30.762,25.391,0
1579272468.623,33.691,42.480,37.598,29.297,-16.113,0
1579272468.627,38.574,47.852,38.574,35.645,19.531,0
1579272468.631,41.016,51.270,42.969,45.898,19.043,0
1579272468.635,32.715,44.434,37.109,37.109,-37.598,0
1579272468.639,35.156,42.480,30.762,34.180,-42.969,0
1579272468.656,43.457,47.363,21.484,41.992,7.324,0
1579272468.660,44.434,44.922,19.043,41.992,37.109,0
1579272468.664,42.480,47.363,34.180,40.527,33.203,0
1579272468.668,41.016,51.270,39.062,38.574,37.109,0
1579272468.672,40.039,45.410,34.668,38.086,54.688,0
1579272468.676,36.133,42.969,38.086,37.109,60.059,0
1579272468.680,36.621,48.828,45.410,35.156,10.254,0
1579272468.683,41.992,47.852,41.992,31.738,32.227,0
1579272468.687,38.086,43.945,33.691,29.785,53.223,0
1579272468.691,35.156,43.457,32.227,37.598,33.203,0
1579272468.695,35.645,45.898,26.855,41.992,-15.137,0
1579272468.699,35.156,42.969,15.625,37.109,-14.648,0
1579272468.696,41.504,39.062,23.438,37.598,-4.883,0
1579272468.700,53.223,47.363,38.086,57.129,12.207,0
1579272468.704,49.805,48.340,38.086,59.082,92.285,0
1579272468.708,25.391,41.992,45.898,35.156,123.047,0
1579272468.712,13.672,36.621,47.363,21.973,45.898,0
1579272468.716,21.973,34.668,42.480,25.391,40.039,0
1579272468.720,26.855,35.645,45.898,34.180,76.172,0
1579272468.723,33.691,32.227,39.551,35.156,44.922,0
1579272468.727,37.598,37.598,34.180,33.203,43.945,0
1579272468.731,32.715,45.410,36.133,36.133,63.965,0
1579272468.735,37.109,46.387,31.738,46.387,41.504,0
1579272468.739,43.457,47.852,23.926,52.734,7.324,0
1579272468.736,41.992,50.293,37.598,46.387,21.973,0
1579272468.740,37.598,41.016,45.898,37.109,56.152,0
1579272468.744,37.598,38.086,48.828,44.434,42.969,0
1579272468.748,33.203,44.922,43.457,45.410,47.852,0
1579272468.752,32.715,42.480,34.668,37.109,62.012,0
1579272468.756,40.039,41.992,42.480,36.133,53.223,0
1579272468.760,34.668,43.945,40.527,35.645,6.348,0
1579272468.763,32.227,42.480,32.715,37.598,35.645,0
1579272468.767,37.598,48.828,34.668,40.039,49.805,0
1579272468.771,33.203,47.363,36.133,37.109,3.906,0
1579272468.775,26.367,41.992,41.504,31.738,13.672,0
1579272468.779,26.367,41.992,44.434,33.203,4.883,0
1579272468.796,30.273,42.480,40.039,36.133,28.809,0
1579272468.800,29.297,43.457,37.109,35.645,24.414,0
1579272468.804,27.344,41.016,27.832,35.156,24.414,0
1579272468.808,39.551,45.898,40.039,42.969,41.992,0
1579272468.812,39.062,47.363,40.039,45.898,57.617,0
1579272468.816,45.410,48.340,26.367,38.086,93.750,0
1579272468.820,48.340,48.828,39.551,40.039,52.734,0
1579272468.823,30.762,39.551,32.715,42.969,20.020,0
1579272468.827,32.715,40.039,29.297,41.016,-2.441,0
1579272468.831,32.227,47.852,38.574,36.133,-16.113,0
1579272468.835,37.109,51.758,37.598,37.598,32.715,0
1579272468.839,41.504,46.387,34.668,40.527,24.414,0
1579272468.836,38.086,43.457,37.109,41.016,30.762,0
1579272468.840,41.992,48.340,39.062,39.551,40.039,0
1579272468.844,42.969,49.316,38.086,36.621,-43.457,0
1579272468.848,36.621,45.410,31.250,39.062,20.996,0
1579272468.852,40.527,49.805,26.367,47.852,89.355,0
1579272468.856,41.992,49.316,32.227,43.945,12.695,0
1579272468.860,38.086,48.340,36.133,29.785,28.809,0
1579272468.863,38.574,44.434,37.598,27.832,35.645,0
1579272468.867,42.480,41.016,36.621,34.180,29.297,0
1579272468.871,32.227,43.945,37.598,30.762,55.664,0
1579272468.875,28.320,45.898,35.645,27.832,87.891,0
1579272468.879,33.691,48.340,39.551,34.180,32.715,0
1579272468.877,36.133,49.805,44.434,39.551,-26.855,0
1579272468.881,34.668,48.340,37.109,30.762,22.949,0
1579272468.885,31.738,44.922,22.461,24.902,57.129,0
1579272468.889,32.715,47.363,20.020,26.367,-17.578,0
1579272468.893,27.832,47.852,34.668,30.273,-3.906,0
1579272468.897,37.109,46.875,47.363,40.039,100.586,0
1579272468.901,41.016,48.340,43.945,39.062,93.750,0
1579272468.904,34.180,44.434,29.785,30.273,56.641,0
1579272468.908,39.551,43.457,26.855,34.180,46.875,0
1579272468.912,44.434,50.781,38.574,45.410,26.855,0
1579272468.916,36.133,52.246,40.527,41.992,12.695,0
1579272468.920,28.809,47.363,30.762,29.785,-12.207,0
1579272468.936,28.809,45.410,32.227,29.785,-40.527,0
1579272468.940,27.832,43.457,29.297,35.156,-27.344,0
1579272468.944,28.809,41.504,28.320,35.156,-22.949,0
1579272468.948,30.273,42.480,29.785,31.250,-36.621,0
1579272468.952,34.180,54.688,31.738,35.156,4.883,0
1579272468.956,34.668,54.199,36.621,34.180,49.316,0
1579272468.960,34.180,44.922,41.504,29.785,33.203,0
1579272468.963,41.016,48.340,44.922,31.738,7.324,0
1579272468.967,38.086,50.293,41.016,30.273,11.230,0
1579272468.971,34.180,46.387,35.645,27.832,16.113,0
1579272468.975,36.133,45.410,28.809,26.855,10.742,0
1579272468.979,31.738,44.434,28.320,25.391,41.992,0
1579272468.976,34.668,42.969,32.715,23.926,72.754,0
1579272468.980,37.109,40.527,24.902,27.344,35.156,0
1579272468.984,29.297,41.016,28.809,31.250,5.371,0
1579272468.988,27.344,44.434,32.715,31.250,31.738,0
1579272468.992,28.809,41.016,25.391,28.320,60.059,0
1579272468.996,34.180,45.898,38.086,36.621,77.148,0
1579272469.000,31.738,47.852,43.945,38.574,56.152,0
1579272469.003,24.414,40.039,35.645,34.668,49.316,0
1579272469.007,26.367,45.898,33.691,34.180,74.219,0
1579272469.011,33.203,51.758,35.645,30.762,55.176,0
1579272469.015,31.250,43.945,28.320,36.133,21.973,0
1579272469.019,27.832,41.992,24.902,40.527,60.059,0
1579272469.036,35.156,42.969,36.621,37.598,59.082,0
1579272469.040,33.203,39.551,45.410,36.621,34.180,0
1579272469.044,31.738,48.828,51.758,43.457,35.645,0
1579272469.048,36.621,54.688,40.527,44.434,67.383,0
1579272469.052,34.668,46.875,27.344,35.645,49.316,0
1579272469.056,36.621,47.852,29.785,37.598,34.180,0
1579272469.060,38.086,48.340,25.391,37.109,70.312,0
1579272469.063,41.016,43.945,35.645,37.109,89.844,0
1579272469.067,36.133,43.945,43.945,41.992,31.250,0
1579272469.071,31.250,44.434,35.156,35.645,16.602,0
1579272469.075,28.320,46.387,35.645,28.320,43.457,0
1579272469.079,25.391,49.805,39.062,30.762,16.602,0
1579272469.076,30.273,53.223,42.969,36.133,24.902,0
1579272469.080,39.062,59.082,42.480,39.551,42.969,0
1579272469.084,38.574,53.223,31.250,33.691,17.578,0
1579272469.088,48.340,46.387,25.391,46.387,23.926,0
1579272469.092,44.434,45.410,27.832,47.852,-14.648,0
1579272469.096,25.879,42.969,34.180,26.367,7.324,0
1579272469.100,19.531,39.551,38.574,19.043,54.199,0
1579272469.103,20.020,41.016,46.387,25.879,44.434,0
1579272469.107,29.297,43.457,42.969,36.133,51.270,0
1579272469.111,23.438,37.598,33.203,24.902,55.664,0
1579272469.115,23.438,44.922,48.828,22.461,28.809,0
1579272469.119,33.203,48.340,54.688,31.738,38.574,0
1579272469.117,29.785,37.109,41.504,26.855,37.598,0
1579272469.121,31.250,40.039,42.480,30.762,-6.348,0
1579272469.125,33.203,46.875,40.527,30.762,0.977,0
1579272469.129,23.438,44.434,25.879,27.344,46.387,0
1579272469.133,21.973,41.016,29.297,35.156,28.809,0
1579272469.137,31.738,45.410,40.039,39.551,21.973,0
1579272469.141,28.320,47.852,37.598,31.250,-6.348,0
1579272469.144,32.715,46.387,41.992,34.180,40.039,0
1579272469.148,42.969,45.898,39.551,40.039,51.270,0
1579272469.152,37.598,41.016,26.367,34.180,10.254,0
1579272469.156,39.062,43.457,36.133,38.086,41.016,0
1579272469.160,37.598,44.922,49.805,39.551,53.711,0
1579272469.176,32.227,35.645,39.551,34.668,20.020,0
1579272469.180,40.527,41.504,33.203,38.086,38.086,0
1579272469.184,44.434,46.387,37.598,41.992,39.551,0
1579272469.188,41.992,36.133,39.062,37.598,-2.441,0
1579272469.192,46.387,38.574,31.738,41.016,32.227,0
1579272469.196,50.781,49.316,29.297,53.223,67.383,0
1579272469.200,41.992,47.363,37.598,45.898,80.566,0
1579272469.203,33.691,41.992,37.598,36.133,51.270,0
1579272469.207,36.621,40.527,34.668,37.598,46.875,0
1579272469.211,38.574,45.410,32.227,43.945,34.668,0
1579272469.215,34.668,44.922,36.621,43.945,53.711,0
1579272469.219,29.785,39.062,37.598,38.086,82.031,0
1579272469.217,34.180,45.898,37.109,38.574,16.113,0
1579272469.221,39.062,48.828,38.574,42.969,0.488,0
1579272469.225,34.668,42.480,32.715,41.992,57.129,0
1579272469.229,30.762,41.504,40.039,37.598,80.566,0
1579272469.233,33.691,47.363,47.852,36.133,49.805,0
1579272469.237,29.297,44.434,35.156,30.273,-20.508,0
1579272469.241,28.809,42.969,32.715,31.250,0.488,0
1579272469.244,28.809,45.410,39.551,31.738,43.945,0
1579272469.248,25.879,44.434,36.133,27.832,29.785,0
1579272469.252,31.738,45.898,26.367,30.762,26.367,0
1579272469.256,33.203,44.922,19.043,31.738,20.508,0
1579272469.260,27.832,44.434,34.668,31.738,25.391,0
1579272469.256,37.598,47.852,54.199,37.598,20.020,0
1579272469.260,43.945,49.316,49.805,41.016,25.879,0
1579272469.264,34.180,44.434,37.109,39.062,62.988,0
1579272469.268,33.203,43.945,28.809,35.645,58.105,0
1579272469.272,35.645,46.875,29.297,37.109,-7.324,0
1579272469.276,36.621,44.434,35.645,38.086,31.250,0
1579272469.280,37.109,43.457,32.715,39.551,47.852,0
1579272469.283,35.645,43.457,31.250,42.969,20.020,0
1579272469.287,37.598,41.504,35.645,38.086,40.039,0
1579272469.291,38.086,41.016,28.809,34.180,11.719,0
1579272469.295,43.457,51.270,37.598,46.387,38.086,0
1579272469.299,44.434,50.293,46.387,50.293,68.359,0
1579272469.316,34.668,45.410,32.715,41.504,49.805,0
1579272469.320,39.062,52.246,33.203,39.062,41.992,0
1579272469.324,33.691,44.434,33.691,33.203,-3.418,0
1579272469.328,35.156,39.062,27.832,33.203,25.879,0
1579272469.332,36.621,43.457,35.156,36.133,68.848,0
1579272469.336,32.715,45.410,37.598,32.715,24.414,0
1579272469.340,35.645,48.828,28.809,35.156,29.297,0
1579272469.343,36.133,52.734,36.133,40.527,18.066,0
1579272469.347,45.410,57.617,48.828,46.387,7.812,0
1579272469.351,44.922,60.547,38.574,45.410,13.184,0
1579272469.355,33.691,57.129,26.855,37.109,10.254,0
1579272469.359,35.156,50.293,33.203,35.156,12.207,0
1579272469.356,33.691,44.922,36.621,36.621,48.828,0
1579272469.360,34.180,48.340,37.109,41.016,103.516,0
1579272469.364,38.086,50.781,42.969,38.574,49.805,0
1579272469.368,42.480,45.410,44.434,38.574,6.836,0
1579272469.372,41.504,48.828,31.250,40.527,32.227,0
1579272469.376,40.527,57.129,30.762,41.016,56.152,0
1579272469.380,35.645,52.734,32.715,31.250,63.965,0
1579272469.383,32.715,44.434,22.949,19.043,12.207,0
1579272469.387,35.156,52.734,20.508,27.832,-28.809,0
1579272469.391,30.762,52.734,22.461,32.227,-30.762,0
1579272469.395,30.762,44.922,33.203,27.344,20.996,0
1579272469.399,34.180,46.387,37.109,31.250,53.223,0
1579272469.396,36.621,46.387,34.180,34.668,50.293,0
1579272469.400,35.156,46.387,28.320,36.133,26.367,0
1579272469.404,32.227,46.875,25.391,41.504,73.242,0
1579272469.408,35.156,51.270,36.621,41.016,62.012,0
1579272469.412,37.109,52.734,34.668,41.504,-8.789,0
1579272469.416,30.762,49.316,28.320,43.457,68.848,0
1579272469.420,33.691,44.434,31.250,41.016,65.918,0
1579272469.423,38.086,43.945,35.156,41.016,45.410,0
1579272469.427,36.133,47.852,38.086,44.434,41.992,0
1579272469.431,31.250,44.434,32.715,43.945,13.184,0
1579272469.435,36.621,42.969,26.367,39.551,62.012,0
1579272469.439,38.574,43.457,22.461,35.156,41.016,0
1579272469.456,34.668,44.922,35.156,40.527,18.555,0
1579272469.460,36.621,49.805,49.805,43.457,100.098,0
1579272469.464,30.273,44.922,40.039,33.691,105.957,0
1579272469.468,27.832,41.992,31.738,34.668,61.035,0
1579272469.472,30.762,38.086,33.691,37.109,67.383,0
1579272469.476,33.203,36.621,31.738,38.086,65.430,0
1579272469.480,38.086,43.945,30.762,40.527,16.113,0
1579272469.483,39.551,42.969,31.738,36.621,-24.902,0
1579272469.487,40.527,43.945,23.926,35.156,5.371,0
1579272469.491,49.316,52.246,31.738,47.363,62.988,0
1579272469.495,46.875,48.340,35.645,45.410,2.930,0
1579272469.499,37.109,41.992,29.297,34.668,4.883,0
1579272469.497,45.898,45.898,32.227,40.527,24.902,0
1579272469.501,54.688,42.480,30.762,47.852,9.766,0
1579272469.505,32.715,35.156,37.109,37.109,13.184,0
1579272469.509,14.160,35.645,40.039,26.367,7.812,0
1579272469.513,13.672,36.621,42.969,20.996,29.297,0
1579272469.517,19.531,36.621,49.316,23.438,69.824,0
1579272469.521,20.508,38.086,53.711,29.785,59.082,0
1579272469.524,16.113,38.574,56.641,30.762,39.551,0
1579272469.528,21.973,39.062,44.922,31.250,33.203,0
1579272469.532,20.996,37.598,35.156,31.250,95.215,0
1579272469.536,18.555,34.668,38.574,26.855,100.586,0
1579272469.540,26.855,36.621,37.598,33.691,15.137,0
1579272469.536,32.715,38.086,32.715,40.039,-0.977,0
1579272469.540,31.738,39.062,31.250,35.645,79.102,0
1579272469.544,32.227,43.457,39.062,35.156,103.027,0
1579272469.548,34.180,45.410,48.340,36.133,55.664,0
1579272469.552,42.969,50.293,54.199,46.387,63.477,0
1579272469.556,36.133,45.898,44.922,39.551,82.031,0
1579272469.560,26.855,36.133,36.621,30.273,32.715,0
1579272469.563,33.691,37.598,32.715,40.527,-29.297,0
1579272469.567,35.645,41.016,34.180,40.527,20.508,0
1579272469.571,32.227,43.457,29.297,35.645,61.523,0
1579272469.575,31.738,39.551,24.902,36.621,25.391,0
1579272469.579,33.203,38.086,37.109,37.109,-15.137,0
1579272469.596,31.738,41.504,44.922,37.109,11.719,0
1579272469.600,38.086,49.805,54.688,42.480,107.422,0
1579272469.604,39.062,46.875,49.805,40.527,78.125,0
1579272469.608,27.832,33.203,34.180,29.297,18.555,0
1579272469.612,20.996,32.715,29.785,33.203,-0.977,0
1579272469.616,28.809,37.109,28.809,37.598,5.859,0
1579272469.620,35.156,41.504,31.738,35.156,32.715,0
1579272469.623,27.344,43.945,33.691,37.109,32.227,0
1579272469.627,29.785,44.434,28.320,43.945,58.105,0
1579272469.631,31.738,44.434,25.391,41.504,18.555,0
1579272469.635,37.109,49.316,35.645,40.039,28.809,0
1579272469.639,29.297,42.969,40.527,29.785,80.566,0
1579272469.636,14.160,32.715,35.645,24.414,35.156,0
1579272469.640,22.949,35.645,34.668,32.227,18.555,0
1579272469.644,30.762,40.039,31.738,29.297,42.480,0
1579272469.648,27.344,40.527,24.902,25.391,58.594,0
1579272469.652,33.203,43.945,27.832,32.715,22.461,0
1579272469.656,34.668,46.387,31.738,37.109,21.973,0
1579272469.660,25.879,46.387,31.738,32.227,5.859,0
1579272469.663,29.297,50.293,36.133,30.273,31.738,0
1579272469.667,27.832,42.969,22.949,25.391,56.152,0
1579272469.671,29.297,36.621,24.902,24.414,56.641,0
1579272469.675,38.086,42.969,40.527,25.391,55.176,0
1579272469.679,39.551,50.781,35.645,25.391,26.855,0
1579272469.676,36.621,51.758,29.297,27.344,42.969,0
1579272469.680,34.668,50.293,34.180,32.715,54.688,0
1579272469.684,37.109,49.805,35.156,35.156,100.098,0
1579272469.688,40.039,51.758,27.832,35.156,87.402,0
1579272469.692,39.551,60.059,28.809,38.086,80.078,0
1579272469.696,37.598,57.129,36.621,34.668,47.852,0
1579272469.700,38.574,44.434,33.203,31.250,41.016,0
1579272469.703,35.156,41.504,31.250,26.855,81.055,0
1579272469.707,30.762,43.457,33.203,19.531,85.449,0
1579272469.711,35.645,41.992,26.855,22.949,63.477,0
1579272469.715,42.480,42.969,19.531,33.691,17.090,0
1579272469.719,39.551,50.293,26.367,31.738,21.973,0
1579272469.736,34.180,49.316,39.062,28.320,6.348,0
1579272469.740,30.762,44.922,30.273,31.738,-13.184,0
1579272469.744,29.297,52.246,29.297,40.527,-7.324,0
1579272469.748,29.297,50.781,38.574,41.016,-8.789,0
1579272469.752,17.090,36.621,31.250,24.414,-15.625,0
1579272469.756,13.184,35.156,28.320,22.461,36.621,0
1579272469.760,19.043,40.039,32.715,28.809,46.387,0
1579272469.763,21.484,42.969,30.273,24.902,-6.836,0
1579272469.767,33.203,49.316,26.855,26.855,-0.977,0
1579272469.771,40.039,44.434,30.762,29.297,-0.977,0
1579272469.775,41.016,46.387,35.156,35.156,-3.418,0
1579272469.779,43.457,54.199,34.668,42.969,40.039,0
1579272469.776,40.527,44.922,26.855,33.203,73.730,0
1579272469.780,34.180,44.434,32.227,27.832,43.457,0
1579272469.784,34.668,43.945,38.574,33.203,46.387,0
1579272469.788,42.969,40.527,39.062,37.109,32.715,0
1579272469.792,44.434,41.992,33.203,39.062,39.062,0
1579272469.796,41.016,41.992,29.297,36.133,49.316,0
1579272469.800,35.645,39.551,26.855,34.180,39.062,0
1579272469.803,37.598,42.969,32.715,44.434,83.008,0
1579272469.807,47.363,54.199,46.875,48.340,42.480,0
1579272469.811,39.551,49.316,38.086,35.645,-21.484,0
1579272469.815,31.250,36.621,21.973,26.367,62.012,0
1579272469.819,32.715,37.109,28.320,33.691,91.309,0
1579272469.817,32.715,41.992,37.598,35.156,50.781,0
1579272469.821,38.086,40.527,34.668,35.156,16.113,0
1579272469.825,38.574,38.574,28.809,37.598,9.766,0
1579272469.829,30.762,41.016,35.645,37.598,50.293,0
1579272469.833,37.598,50.293,39.062,46.387,54.199,0
1579272469.837,39.551,54.688,39.062,45.410,48.828,0
1579272469.841,30.762,48.828,31.250,33.203,46.875,0
1579272469.844,31.738,46.875,22.949,37.109,43.945,0
1579272469.848,32.227,44.922,34.180,42.480,23.438,0
1579272469.852,28.320,41.992,42.969,40.527,37.598,0
1579272469.856,27.344,39.062,43.945,37.109,117.676,0
1579272469.860,36.133,44.434,43.945,43.945,64.941,0
1579272469.876,38.086,47.852,37.598,43.457,-15.625,0
1579272469.880,41.504,48.340,39.551,41.504,20.996,0
1579272469.884,39.551,48.828,36.133,42.969,8.789,0
1579272469.888,34.668,46.387,23.926,35.645,-25.391,0
1579272469.892,36.621,45.898,30.273,35.156,-21.484,0
1579272469.896,34.668,38.086,32.227,37.109,31.738,0
1579272469.900,37.598,36.133,33.691,32.715,62.012,0
1579272469.903,33.203,38.574,37.109,28.809,39.551,0
1579272469.907,34.180,44.922,37.598,34.668,40.039,0
1579272469.911,40.039,48.828,35.156,39.062,60.547,0
1579272469.915,37.598,47.852,34.180,38.086,68.359,0
1579272469.919,43.945,52.246,34.180,39.062,-1.465,0
1579272469.916,41.992,55.664,25.879,41.016,-53.711,0
1579272469.920,34.668,53.223,30.273,41.992,-12.207,0
1579272469.924,32.715,46.387,33.691,37.109,82.520,0
1579272469.928,29.785,38.086,22.461,28.809,55.176,0
1579272469.932,35.156,40.039,25.879,33.203,45.410,0
1579272469.936,39.551,41.992,30.762,33.691,54.199,0
1579272469.940,40.527,42.480,34.668,31.738,-28.809,0
1579272469.943,41.504,41.992,37.598,34.180,30.273,0
1579272469.947,42.969,45.898,38.574,39.551,76.172,0
1579272469.951,43.945,46.875,32.715,35.156,33.691,0
1579272469.955,41.016,45.410,28.809,27.832,8.789,0
1579272469.959,35.645,48.828,31.738,29.785,9.277,0
1579272469.956,36.621,48.340,31.250,31.738,9.766,0
1579272469.960,39.062,47.363,30.273,39.062,25.391,0
1579272469.964,35.156,46.387,33.691,38.574,43.457,0
1579272469.968,34.668,42.480,31.738,33.691,24.902,0
1579272469.972,35.156,42.969,35.645,32.715,99.121,0
1579272469.976,26.855,40.039,38.086,24.902,98.633,0
1579272469.980,29.297,40.527,37.598,26.367,50.293,0
1579272469.983,29.297,45.410,32.227,25.879,93.262,0
1579272469.987,26.367,49.316,26.367,22.461,91.309,0
1579272469.991,28.320,47.852,36.133,25.879,75.195,0
1579272469.995,30.273,42.969,32.715,30.762,33.691,0
1579272469.999,33.691,41.016,22.949,32.227,-72.266,0
1579272470.016,41.016,46.387,40.527,34.180,-19.531,0
1579272470.020,40.527,50.293,49.805,34.180,28.809,0
1579272470.024,28.320,46.387,38.574,33.203,39.551,0
1579272470.028,29.785,46.387,32.715,36.133,54.199,0
1579272470.032,23.438,44.922,28.809,29.785,31.738,0
1579272470.036,21.484,44.922,32.715,24.414,36.133,0
1579272470.040,30.762,40.039,27.832,25.391,41.992,0
1579272470.043,28.809,39.551,24.414,27.344,58.594,0
1579272470.047,31.738,48.340,34.668,30.273,56.152,0
1579272470.051,36.621,50.781,38.086,33.203,57.617,0
1579272470.055,28.809,39.551,31.250,27.832,25.879,0
1579272470.059,28.809,38.574,31.738,31.250,-12.207,0
1579272470.058,37.109,44.922,38.086,34.668,-3.906,0
1579272470.062,33.203,43.945,34.668,28.809,22.949,0
1579272470.066,35.645,43.945,24.902,34.180,-14.648,0
1579272470.070,43.457,43.945,29.785,40.527,-1.953,0
1579272470.074,41.504,44.434,39.551,42.969,79.590,0
1579272470.078,39.062,47.852,36.621,42.969,118.164,0
1579272470.082,45.410,42.969,26.855,39.062,98.145,0
1579272470.085,39.062,39.062,22.949,34.180,14.160,0
1579272470.089,30.273,42.480,25.391,32.715,-7.324,0
1579272470.093,30.273,43.945,30.273,30.273,43.457,0
1579272470.097,24.414,44.922,35.156,22.949,84.961,0
1579272470.101,24.902,44.434,37.109,21.484,50.781,0
1579272470.096,26.367,41.992,30.762,24.902,19.043,0
1579272470.100,29.785,38.574,29.297,23.926,47.852,0
1579272470.104,30.273,39.551,30.273,20.996,70.801,0
1579272470.108,26.367,44.434,20.996,21.484,86.426,0
1579272470.112,31.738,49.805,27.344,29.297,102.539,0
1579272470.116,29.297,44.922,32.227,26.367,69.336,0
1579272470.120,26.367,41.504,33.203,22.949,13.672,0
1579272470.123,27.832,43.457,34.180,28.809,36.621,0
1579272470.127,26.855,37.598,28.809,28.809,23.926,0
1579272470.131,30.273,37.598,30.762,31.250,-19.531,0
1579272470.135,34.668,47.363,34.180,31.250,25.391,0
1579272470.139,34.668,45.898,31.250,31.738,59.082,0
1579272470.156,35.156,42.480,36.621,42.480,37.109,0
1579272470.160,39.062,43.945,41.016,41.992,44.922,0
1579272470.164,41.504,42.969,27.832,37.598,27.344,0
1579272470.168,47.852,43.457,23.926,42.969,31.250,0
1579272470.172,45.410,42.969,34.668,49.805,22.949,0
1579272470.176,45.898,45.410,43.457,58.594,48.340,0
1579272470.180,45.898,42.969,35.156,52.734,96.680,0
1579272470.183,44.434,41.504,27.344,45.410,56.152,0
1579272470.187,46.875,42.480,34.668,45.410,-26.855,0
1579272470.191,46.875,44.434,34.668,45.898,1.953,0
1579272470.195,45.410,51.270,30.762,44.922,67.871,0
1579272470.199,35.645,45.410,26.367,31.738,66.406,0
1579272470.196,31.250,45.410,23.438,31.250,22.461,0
1579272470.200,25.879,48.340,22.461,35.156,44.922,0
1579272470.204,26.367,43.945,24.414,33.203,19.043,0
1579272470.208,27.832,43.945,27.832,32.227,3.418,0
1579272470.212,27.344,47.363,35.156,29.297,20.996,0
1579272470.216,28.320,47.363,30.762,32.715,28.809,0
1579272470.220,23.926,44.434,25.391,31.738,50.293,0
1579272470.223,33.203,51.758,39.551,34.180,68.359,0
1579272470.227,36.621,47.852,41.016,31.250,50.293,0
1579272470.231,26.367,38.086,24.414,20.020,52.734,0
1579272470.235,33.203,45.410,20.996,30.762,37.598,0
1579272470.239,39.062,49.316,27.344,38.574,20.996,0
1579272470.236,36.621,49.805,35.645,32.715,20.020,0
1579272470.240,36.133,51.758,34.668,36.621,37.598,0
1579272470.244,38.574,50.781,25.391,43.457,9.766,0
1579272470.248,43.457,50.293,27.344,38.574,-76.172,0
1579272470.252,48.828,53.711,40.039,35.645,-60.059,0
1579272470.256,34.668,46.387,43.457,31.250,25.391,0
1579272470.260,29.297,39.551,26.855,31.250,74.219,0
1579272470.263,30.762,42.480,23.438,32.715,51.758,0
1579272470.267,30.762,42.969,37.598,31.250,2.441,0
1579272470.271,34.668,45.898,41.016,29.785,-6.348,0
1579272470.275,31.250,44.922,27.344,27.832,10.254,0
1579272470.279,30.273,42.969,23.926,31.250,51.758,0
1579272470.297,29.785,46.875,34.668,30.762,73.730,0
1579272470.301,34.668,53.711,37.598,34.180,44.434,0
1579272470.305,38.086,49.805,37.109,36.621,49.805,0
1579272470.309,35.156,39.062,27.344,34.668,31.738,0
1579272470.313,32.227,40.527,24.902,36.621,58.105,0
1579272470.317,17.090,41.992,35.645,23.438,18.066,0
1579272470.321,14.648,44.434,42.480,19.043,-20.020,0
1579272470.324,27.832,48.340,39.551,29.785,66.406,0
1579272470.328,34.180,48.828,28.320,33.203,81.543,0
1579272470.332,32.227,49.316,17.578,29.297,-29.297,0
1579272470.336,31.738,46.387,20.020,23.926,-25.391,0
1579272470.340,36.621,53.223,36.133,32.227,43.945,0
1579272470.336,36.133,58.105,36.621,37.109,46.387,0
1579272470.340,28.809,49.805,31.738,25.391,54.688,0
1579272470.344,28.809,47.363,38.574,23.438,80.078,0
1579272470.348,31.738,43.457,35.645,26.855,70.801,0
1579272470.352,34.180,41.504,31.250,28.809,57.129,0
1579272470.356,27.832,42.480,21.484,25.879,41.504,0
1579272470.360,25.391,41.504,23.438,22.461,44.922,0
1579272470.363,30.273,42.969,31.738,28.809,65.918,0
1579272470.367,34.180,49.805,41.016,37.598,62.012,0
1579272470.371,35.156,52.246,44.922,33.691,26.855,0
1579272470.375,27.832,43.945,32.227,28.320,-25.391,0
1579272470.379,23.926,37.598,23.438,29.785,73.730,0
1579272470.376,27.344,39.551,20.020,30.273,87.402,0
1579272470.380,28.320,37.598,28.809,32.227,45.410,0
1579272470.384,28.809,39.551,34.668,29.785,22.461,0
1579272470.388,28.320,42.969,28.809,27.832,7.812,0
1579272470.392,32.227,45.410,32.227,34.180,58.594,0
1579272470.396,43.945,54.199,41.504,43.945,47.852,0
1579272470.400,35.645,50.781,36.621,38.574,22.461,0
1579272470.403,27.344,45.898,26.855,27.832,8.789,0
1579272470.407,30.762,43.945,27.344,27.832,7.812,0
1579272470.411,35.645,43.945,31.738,34.668,12.695,0
1579272470.415,34.180,44.922,28.320,38.086,27.344,0
1579272470.419,33.691,41.504,25.391,32.715,45.898,0
1579272470.436,35.645,43.945,27.832,30.273,42.969,0
1579272470.440,35.156,50.781,35.156,38.574,44.434,0
1579272470.444,40.527,50.781,42.480,41.016,55.664,0
1579272470.448,39.551,49.316,37.109,32.227,37.598,0
1579272470.452,37.598,48.828,31.738,30.762,23.926,0
1579272470.456,41.504,47.852,28.320,36.133,37.109,0
1579272470.460,43.457,51.270,32.227,40.039,-1.465,0
1579272470.463,46.875,49.805,33.203,37.598,-2.930,0
1579272470.467,45.898,49.316,29.297,35.156,45.410,0
1579272470.471,35.645,48.828,28.809,41.992,91.797,0
1579272470.475,30.762,45.898,36.621,44.434,76.172,0
1579272470.479,39.551,52.734,41.992,45.898,27.344,0
1579272470.476,36.133,49.316,40.039,43.945,19.531,0
1579272470.480,30.273,39.551,35.645,37.598,25.879,0
1579272470.484,31.250,42.969,30.762,40.039,11.230,0
1579272470.488,27.344,44.922,28.809,40.527,0.000,0
1579272470.492,35.156,45.410,34.668,38.574,1.465,0
1579272470.496,33.203,39.551,38.574,35.156,30.762,0
1579272470.500,28.320,36.133,33.203,30.762,2.930,0
1579272470.503,36.621,43.457,38.086,34.180,-20.996,0
1579272470.507,38.086,44.922,46.875,33.203,12.207,0
1579272470.511,26.855,38.086,39.551,20.020,-33.691,0
1579272470.515,22.461,38.574,29.297,23.438,4.395,0
1579272470.519,31.250,41.504,26.855,28.809,62.988,0
1579272470.536,38.574,46.387,27.832,26.855,34.180,0
1579272470.540,41.992,46.875,32.715,28.809,25.879,0
1579272470.544,35.645,41.504,35.156,32.715,35.645,0
1579272470.548,29.297,42.480,35.645,34.668,53.711,0
1579272470.552,31.738,47.852,43.945,35.645,46.387,0
1579272470.556,26.367,41.504,40.039,28.320,25.879,0
1579272470.560,27.344,39.062,33.203,27.832,25.879,0
1579272470.563,30.762,45.410,32.227,30.762,56.152,0
1579272470.567,33.203,45.898,33.203,29.785,34.180,0
1579272470.571,34.180,45.410,28.320,29.297,87.891,0
1579272470.575,35.156,45.898,28.809,28.809,103.516,0
1579272470.579,33.203,44.922,35.645,33.203,73.242,0
1579272470.576,30.273,41.504,30.762,35.156,68.848,0
1579272470.580,30.762,40.039,32.227,32.227,74.219,0
1579272470.584,38.574,47.852,38.574,36.133,84.473,0
1579272470.588,39.551,47.852,40.527,39.062,-13.184,0
1579272470.592,34.180,43.945,35.645,37.598,11.230,0
1579272470.596,35.645,46.387,27.832,38.574,72.754,0
1579272470.600,33.691,41.504,30.762,31.738,49.316,0
1579272470.603,32.715,41.016,34.180,35.156,32.715,0
1579272470.607,40.039,42.969,28.320,41.016,9.277,0
1579272470.611,39.551,41.992,18.066,37.109,40.039,0
1579272470.615,36.621,47.363,30.762,33.691,83.008,0
1579272470.619,40.527,43.945,41.992,35.156,35.156,0
1579272470.616,29.785,39.551,36.133,32.715,28.320,0
1579272470.620,30.273,45.410,36.133,32.715,66.406,0
1579272470.624,37.109,45.410,35.156,34.180,56.152,0
1579272470.628,34.668,42.969,34.180,32.715,8.789,0
1579272470.632,34.180,40.527,32.715,36.133,26.367,0
1579272470.636,37.598,40.527,35.645,33.691,39.062,0
1579272470.640,35.156,39.551,30.762,25.391,-28.809,0
1579272470.643,34.180,42.969,24.902,28.809,21.973,0
1579272470.647,31.738,45.410,29.297,35.645,41.504,0
1579272470.651,25.879,41.504,24.414,33.203,9.277,0
1579272470.655,27.832,44.922,29.297,27.344,32.227,0
1579272470.659,27.832,46.387,41.016,27.344,2.930,0
1579272470.677,31.250,41.504,38.086,32.715,-34.180,0
1579272470.681,32.715,41.016,29.785,31.738,6.836,0
1579272470.685,32.715,42.480,26.367,29.785,24.414,0
1579272470.689,34.668,43.457,19.531,29.297,30.762,0
1579272470.693,40.039,50.293,22.461,34.180,60.547,0
1579272470.697,37.598,46.387,30.762,35.645,27.832,0
1579272470.701,36.621,43.945,29.785,31.250,-16.602,0
1579272470.704,37.109,45.410,34.668,29.785,-17.578,0
1579272470.708,27.832,38.086,33.203,23.926,-2.930,0
1579272470.712,26.855,44.922,31.738,25.879,27.832,0
1579272470.716,30.762,44.434,32.227,33.203,49.805,0
1579272470.720,31.250,38.086,33.691,31.738,68.359,0
1579272470.717,42.480,48.828,29.297,35.156,62.988,0
1579272470.721,39.062,51.270,23.926,35.156,47.363,0
1579272470.725,20.996,42.969,32.227,26.367,41.992,0
1579272470.729,23.926,42.969,35.156,25.879,7.324,0
1579272470.733,31.250,47.363,28.320,26.367,35.645,0
1579272470.737,30.273,48.828,29.785,30.273,92.773,0
1579272470.741,28.809,45.898,30.762,31.250,74.707,0
1579272470.744,23.438,40.527,27.832,24.902,78.125,0
1579272470.748,22.949,40.039,27.344,27.832,65.918,0
1579272470.752,27.344,39.551,35.156,32.715,80.078,0
1579272470.756,21.973,35.156,23.438,28.320,101.074,0
1579272470.760,25.879,39.551,9.277,32.715,118.652,0
1579272470.757,32.715,43.457,20.996,38.574,91.309,0
1579272470.761,35.156,47.363,32.715,35.645,12.207,0
1579272470.765,31.250,44.922,36.133,38.086,-10.742,0
1579272470.769,32.715,44.922,37.598,42.480,17.578,0
1579272470.773,31.738,42.969,34.180,37.109,62.988,0
1579272470.777,37.598,39.062,30.762,36.133,6.836,0
1579272470.781,41.504,39.062,34.180,37.598,2.930,0
1579272470.784,24.902,34.180,24.414,33.203,4.395,0
1579272470.788,26.855,33.691,15.137,31.250,31.738,0
1579272470.792,39.062,41.016,31.250,31.738,66.895,0
1579272470.796,38.574,45.410,41.016,34.180,43.945,0
1579272470.800,32.715,41.504,35.156,36.133,77.148,0
1579272470.816,32.715,41.016,36.621,35.645,81.055,0
1579272470.820,34.180,46.875,38.574,33.203,42.480,0
1579272470.824,35.645,46.875,34.668,31.738,35.645,0
1579272470.828,40.039,46.875,33.203,40.527,-26.367,0
1579272470.832,43.945,49.805,26.855,42.480,-15.625,0
1579272470.836,34.668,41.992,23.926,30.762,15.137,0
1579272470.840,30.273,39.551,28.809,27.832,-7.812,0
1579272470.843,34.668,44.922,25.879,31.738,25.879,0
1579272470.847,36.133,47.363,28.809,34.180,4.883,0
1579272470.851,41.016,45.410,37.598,34.180,-15.625,0
1579272470.855,44.434,44.434,37.598,34.180,27.832,0
1579272470.859,49.805,44.434,37.109,40.039,40.527,0
1579272470.856,48.340,45.898,41.504,46.387,21.484,0
1579272470.860,36.133,40.527,33.203,40.527,37.109,0
1579272470.864,32.715,42.969,24.414,36.621,62.500,0
1579272470.868,39.062,47.852,13.184,38.086,43.457,0
1579272470.872,41.504,45.898,16.602,39.062,59.082,0
1579272470.876,39.551,44.434,40.039,37.109,45.898,0
1579272470.880,32.227,42.480,41.504,32.227,9.766,0
1579272470.883,30.273,41.992,36.621,33.691,11.719,0
1579272470.887,33.203,41.016,34.180,36.621,-12.207,0
1579272470.891,38.086,45.410,34.180,43.457,8.301,0
1579272470.895,35.645,41.504,34.668,36.133,36.621,0
1579272470.899,31.250,36.133,31.250,26.367,56.152,0
1579272470.896,35.645,46.387,31.738,35.156,42.969,0
1579272470.900,31.250,43.945,24.902,34.180,19.043,0
1579272470.904,26.367,37.598,6.836,28.320,45.898,0
1579272470.908,28.809,42.969,20.020,28.320,29.785,0
1579272470.912,30.273,47.363,42.480,27.832,52.246,0
1579272470.916,31.250,43.945,41.016,27.344,95.215,0
1579272470.920,33.691,43.945,36.621,26.855,14.160,0
1579272470.923,40.527,51.758,40.527,34.668,21.973,0
1579272470.927,38.574,44.434,41.992,33.203,71.289,0
1579272470.931,29.297,38.086,29.297,24.414,63.965,0
1579272470.935,28.320,41.016,26.367,29.297,80.078,0
1579272470.939,32.227,41.504,34.180,30.762,25.879,0
1579272470.956,31.250,45.898,23.926,32.227,43.457,0
1579272470.960,34.668,48.828,26.367,34.180,56.152,0
1579272470.964,32.227,42.969,34.180,33.203,3.906,0
1579272470.968,33.203,49.316,32.715,35.156,8.301,0
1579272470.972,35.156,50.293,41.504,32.715,24.414,0
1579272470.976,25.391,41.016,38.086,31.738,34.668,0
1579272470.980,26.367,42.969,32.227,36.621,16.602,0
1579272470.983,28.809,42.969,30.273,33.203,-10.254,0
1579272470.987,30.762,41.504,31.250,30.762,-18.555,0
1579272470.991,29.785,43.457,31.250,35.645,9.766,0
1579272470.995,27.832,44.922,20.020,36.133,39.062,0
1579272470.999,29.785,43.457,20.996,35.156,65.918,0
1579272470.997,33.203,44.434,33.203,35.156,41.992,0
1579272471.001,32.227,41.016,36.621,30.762,37.109,0
1579272471.005,28.320,38.574,38.086,32.715,39.551,0
1579272471.009,25.879,36.621,30.762,30.762,69.824,0
1579272471.013,27.344,37.109,25.391,25.391,72.266,0
1579272471.017,33.203,41.504,28.809,27.832,65.430,0
1579272471.021,37.598,43.945,25.879,32.227,62.012,0
1579272471.024,32.715,41.504,21.484,33.691,62.988,0
1579272471.028,39.551,47.363,28.320,35.645,65.430,0
1579272471.032,40.527,49.805,33.691,30.273,37.598,0
1579272471.036,33.691,45.410,36.133,24.902,32.715,0
1579272471.040,36.621,47.363,35.645,30.762,-5.371,0
1579272471.036,38.086,44.922,30.762,31.738,-3.418,0
1579272471.040,38.086,46.387,29.297,32.227,43.457,0
1579272471.044,31.250,42.969,30.762,29.785,28.809,0
1579272471.048,34.180,41.992,29.297,30.273,28.809,0
1579272471.052,40.039,47.363,34.180,36.621,41.992,0
1579272471.056,32.227,44.434,31.250,31.250,-26.855,0
1579272471.060,27.832,44.434,26.367,22.461,23.926,0
1579272471.063,33.691,48.340,33.691,27.832,42.969,0
1579272471.067,33.691,43.945,39.062,29.297,-41.992,0
1579272471.071,29.297,44.434,40.039,27.344,51.270,0
1579272471.075,30.762,42.480,41.016,27.344,106.445,0
1579272471.079,30.273,36.621,34.668,26.855,64.941,0
1579272471.096,32.227,41.016,29.297,28.809,43.945,0
1579272471.100,38.574,52.734,41.016,36.621,37.598,0
1579272471.104,28.320,50.293,41.016,31.738,62.012,0
1579272471.108,21.484,41.016,33.691,29.785,100.098,0
1579272471.112,25.879,38.086,38.086,36.133,112.305,0
1579272471.116,30.273,39.551,36.621,34.180,65.430,0
1579272471.120,30.762,44.434,38.574,30.273,52.734,0
1579272471.123,29.785,46.387,40.527,31.738,69.336,0
1579272471.127,38.086,44.434,28.320,39.551,54.688,0
1579272471.131,41.016,43.457,29.297,42.480,51.758,0
1579272471.135,31.250,36.133,36.133,31.250,17.090,0
1579272471.139,29.297,30.273,35.156,31.738,51.758,0
1579272471.136,36.133,40.039,42.969,45.898,31.738,0
1579272471.140,35.156,43.945,33.691,42.480,-41.992,0
1579272471.144,32.227,41.504,33.203,32.715,16.602,0
1579272471.148,32.227,47.852,41.992,34.668,101.074,0
1579272471.152,35.156,50.293,34.180,36.621,25.391,0
1579272471.156,39.551,51.758,26.367,41.504,0.488,0
1579272471.160,39.062,49.805,33.691,42.969,37.598,0
1579272471.163,29.785,40.527,29.785,27.832,10.742,0
1579272471.167,29.785,38.574,25.391,28.320,30.762,0
1579272471.171,31.738,39.551,34.668,32.715,37.109,0
1579272471.175,24.414,40.039,42.480,29.297,-5.859,0
1579272471.179,26.367,38.086,44.922,34.180,6.836,0
1579272471.176,34.180,36.133,30.762,35.156,18.066,0
1579272471.180,36.621,41.504,27.344,41.504,15.137,0
1579272471.184,38.574,45.410,42.480,42.480,59.082,0
1579272471.188,34.180,39.062,41.016,32.227,79.102,0
1579272471.192,29.785,37.109,34.668,25.879,57.129,0
1579272471.196,35.645,42.480,26.367,25.879,52.246,0
1579272471.200,39.062,43.457,30.273,33.203,84.961,0
1579272471.203,35.156,40.527,39.551,36.133,33.691,0
1579272471.207,32.715,40.527,39.062,36.621,14.648,0
1579272471.211,34.668,42.969,41.504,43.457,54.688,0
1579272471.215,42.969,48.828,41.016,50.293,19.043,0
1579272471.219,39.551,46.875,26.855,40.527,38.086,0
1579272471.236,29.785,42.480,14.648,32.227,27.344,0
1579272471.240,34.180,42.969,27.832,35.156,-2.441,0
1579272471.244,39.062,43.457,33.691,37.109,59.082,0
1579272471.248,31.738,41.016,31.738,32.227,133.301,0
1579272471.252,28.320,39.551,38.086,28.320,128.418,0
1579272471.256,33.203,45.898,43.457,33.691,64.941,0
1579272471.260,25.879,43.945,32.227,25.879,15.137,0
1579272471.263,30.273,47.852,29.297,28.320,10.254,0
1579272471.267,36.133,49.316,28.809,31.738,37.598,0
1579272471.271,23.438,37.109,19.531,20.020,53.711,0
1579272471.275,21.484,38.574,25.879,27.832,102.539,0
1579272471.279,25.391,42.969,32.227,32.227,65.430,0
1579272471.276,26.855,42.480,31.250,28.320,-20.508,0
1579272471.280,29.297,41.992,30.762,27.344,-17.090,0
1579272471.284,32.715,39.551,27.832,34.180,-11.230,0
1579272471.288,49.316,41.016,27.344,52.734,53.711,0
1579272471.292,52.246,53.223,27.832,41.016,-18.066,0
1579272471.296,31.738,54.199,29.297,9.277,12.207,0
1579272471.300,22.949,48.828,30.762,12.695,135.254,0
1579272471.303,21.484,45.410,25.391,19.043,41.992,0
1579272471.307,26.367,39.551,23.438,20.508,-1.953,0
1579272471.311,27.832,39.062,20.020,25.391,-9.766,0
1579272471.315,26.855,38.574,22.949,25.879,23.438,0
1579272471.319,32.715,36.133,22.949,30.762,32.715,0
1579272471.316,36.621,45.410,24.902,36.621,-44.434,0
1579272471.320,28.320,50.293,26.367,27.344,-23.438,0
1579272471.324,23.926,43.457,19.531,20.020,1.465,0
1579272471.328,24.902,43.457,21.484,25.879,-4.395,0
1579272471.332,22.949,39.062,20.020,26.855,47.363,0
1579272471.336,29.785,37.598,26.367,27.344,-17.578,0
1579272471.340,29.297,39.551,29.297,25.391,-23.438,0
1579272471.343,26.855,36.621,21.973,25.391,43.457,0
1579272471.347,33.203,38.574,25.391,30.762,8.789,0
1579272471.351,39.062,44.434,34.668,34.180,32.715,0
1579272471.355,34.180,39.062,20.996,29.785,57.129,0
1579272471.359,28.320,35.645,16.113,27.832,32.715,0
1579272471.376,28.809,39.551,23.438,30.273,16.113,0
1579272471.380,28.809,42.480,24.902,34.180,20.020,0
1579272471.384,31.738,45.410,31.250,31.250,35.645,0
1579272471.388,32.227,41.992,32.227,30.762,28.320,0
1579272471.392,27.832,35.645,24.902,35.156,35.645,0
1579272471.396,32.227,42.969,27.832,40.039,39.551,0
1579272471.400,36.621,48.828,31.738,41.992,46.875,0
1579272471.403,29.297,39.062,23.926,29.785,12.207,2
1579272471.407,25.391,33.203,27.832,25.879,-5.859,0
1579272471.411,25.879,34.668,29.785,33.691,73.242,0
1579272471.415,27.344,36.133,29.297,32.227,79.102,0
1579272471.419,27.344,37.109,39.551,27.344,-9.766,0
1579272471.416,28.809,40.527,40.039,33.203,9.766,0
1579272471.420,31.250,37.109,33.203,37.598,62.500,0
1579272471.424,35.156,42.969,30.762,38.086,22.949,0
1579272471.428,38.086,51.270,25.391,36.133,-9.277,0
1579272471.432,34.180,44.434,27.344,33.203,17.090,0
1579272471.436,30.273,39.062,27.832,35.645,17.090,0
1579272471.440,31.738,38.086,18.066,32.715,-23.926,0
1579272471.443,35.645,43.945,18.066,30.762,34.668,0
1579272471.447,34.180,40.039,27.344,25.879,71.289,0
1579272471.451,30.762,34.668,26.855,22.461,14.648,0
1579272471.455,29.297,41.992,30.273,28.809,16.113,0
1579272471.459,37.109,50.293,35.645,38.574,24.902,0
1579272471.456,38.574,39.551,28.320,35.156,53.223,0
1579272471.460,33.203,36.133,15.137,33.203,83.008,0
1579272471.464,34.180,41.992,9.766,36.621,21.484,0
1579272471.468,37.109,43.457,22.949,35.645,16.602,0
1579272471.472,34.668,44.434,30.762,31.738,37.109,0
1579272471.476,36.133,48.340,25.879,32.715,34.668,0
1579272471.480,34.180,42.969,27.344,36.133,47.363,0
1579272471.483,32.715,46.387,36.621,36.621,53.223,0
1579272471.487,42.969,56.152,36.621,36.133,-4.395,0
1579272471.491,30.762,43.945,20.996,26.855,6.348,0
1579272471.495,22.949,37.109,20.020,26.367,69.336,0
1579272471.499,27.344,41.992,27.832,34.180,27.344,0
1579272471.516,29.785,43.945,29.297,29.785,11.719,0
1579272471.520,28.809,40.527,32.715,25.391,59.082,0
1579272471.524,28.320,43.945,31.738,31.250,78.613,0
1579272471.528,26.855,42.480,25.879,31.250,0.977,0
1579272471.532,33.691,44.922,33.203,34.668,-2.441,0
1579272471.536,39.062,49.805,45.410,33.203,25.879,0
1579272471.540,31.250,40.039,36.621,23.438,7.812,0
1579272471.543,27.344,33.203,32.227,26.855,-4.883,0
1579272471.547,31.250,38.574,32.715,32.715,20.996,0
1579272471.551,29.785,41.504,23.926,32.227,2.441,0
1579272471.555,20.996,37.598,22.949,30.762,-38.574,0
1579272471.559,24.414,37.109,32.227,32.227,-1.953,0
1579272471.556,27.832,33.203,31.250,32.715,10.742,0
1579272471.560,31.738,39.551,32.715,31.738,22.949,0
1579272471.564,36.621,47.363,38.086,35.645,62.500,0
1579272471.568,31.738,40.039,28.320,33.203,96.191,0
1579272471.572,29.785,37.109,33.203,26.367,70.312,0
1579272471.576,29.297,33.203,35.156,29.297,-20.996,0
1579272471.580,32.227,34.668,26.855,32.227,27.344,0
1579272471.583,35.156,38.574,27.832,28.320,44.922,0
1579272471.587,29.785,39.062,34.668,30.762,-10.254,0
1579272471.591,30.762,40.527,37.109,35.645,-3.418,0
1579272471.595,34.180,42.969,27.344,31.250,19.043,0
1579272471.599,25.879,39.062,19.531,25.879,86.914,0
1579272471.596,25.879,42.480,27.344,28.809,58.594,0
1579272471.600,28.320,41.992,32.715,27.832,41.504,0
1579272471.604,19.531,33.691,24.414,20.508,76.172,0
1579272471.608,21.484,25.391,21.484,31.250,-1.465,0
1579272471.612,39.062,23.926,37.109,52.246,6.348,0
1579272471.616,35.645,37.598,35.156,33.203,40.527,0
1579272471.620,15.137,47.852,30.762,0.977,22.949,0
1579272471.623,14.648,49.805,26.367,0.977,36.133,0
1579272471.627,20.020,45.898,15.137,8.301,-16.602,0
1579272471.631,13.184,41.992,13.672,6.348,5.859,0
1579272471.635,16.602,46.387,17.578,5.371,49.316,0
1579272471.639,25.391,48.828,16.602,6.348,22.461,0
1579272471.656,28.320,48.828,6.836,13.184,42.969,0
1579272471.660,28.320,53.711,17.578,20.996,41.016,0
1579272471.664,20.996,53.711,24.902,15.625,30.762,0
1579272471.668,24.414,53.711,21.973,14.648,27.832,0
1579272471.672,26.855,57.129,26.367,19.531,45.898,0
1579272471.676,23.926,48.340,20.020,17.578,48.828,0
1579272471.680,26.367,40.039,13.184,14.160,17.578,0
1579272471.683,29.297,42.969,20.508,16.602,9.277,0
1579272471.687,31.250,48.340,24.414,24.902,28.320,0
1579272471.691,40.527,51.270,28.320,35.645,42.480,0
1579272471.695,45.410,47.363,35.645,35.645,79.102,0
1579272471.699,31.738,44.922,27.344,26.367,20.020,0
1579272471.696,35.156,49.805,27.344,32.715,8.301,0
1579272471.700,36.621,49.316,34.668,34.668,16.602,0
1579272471.704,30.762,43.945,20.508,26.367,43.457,0
1579272471.708,39.551,43.945,9.766,28.320,66.895,0
1579272471.712,40.527,41.504,22.949,33.691,-2.930,0
1579272471.716,40.039,40.527,25.879,35.645,47.852,0
1579272471.720,40.039,43.457,27.344,35.156,65.918,0
1579272471.723,40.527,45.898,34.180,33.203,36.133,0
1579272471.727,44.434,49.805,26.855,37.598,78.613,0
1579272471.731,45.410,49.805,33.691,45.410,88.379,0
1579272471.735,41.016,42.480,35.645,41.016,94.727,0
1579272471.739,40.527,41.504,27.832,35.156,78.125,0
1579272471.736,37.598,39.551,32.227,31.738,8.789,0
1579272471.740,34.668,36.133,30.762,33.203,33.203,0
1579272471.744,38.086,38.086,21.973,38.574,74.219,0
1579272471.748,36.133,39.551,28.809,37.109,43.457,0
1579272471.752,34.668,42.480,36.133,33.691,14.160,0
1579272471.756,38.086,49.805,31.738,36.621,67.383,0
1579272471.760,39.551,47.852,25.391,39.551,93.262,0
1579272471.763,29.297,41.016,27.344,31.738,62.988,0
1579272471.767,20.996,40.039,31.738,19.531,60.547,0
1579272471.771,28.809,37.109,33.691,24.414,90.820,0
1579272471.775,33.691,35.156,36.133,34.668,90.820,0
1579272471.779,29.785,37.598,39.551,34.180,52.734,0
1579272471.797,33.203,41.992,29.785,30.762,-3.418,0
1579272471.801,40.039,44.922,25.879,31.250,5.371,0
1579272471.805,38.574,46.387,35.645,36.133,52.734,0
1579272471.809,40.039,47.363,37.109,40.039,71.289,0
1579272471.813,41.016,48.340,35.156,41.504,32.715,0
1579272471.817,38.086,41.992,24.902,33.691,41.504,0
1579272471.821,41.504,41.016,14.648,29.297,104.980,0
1579272471.824,39.062,43.945,22.461,32.715,61.035,0
1579272471.828,38.086,41.016,34.668,34.180,50.293,0
1579272471.832,38.574,41.016,34.180,33.691,31.738,0
1579272471.836,37.598,44.434,29.785,31.738,13.672,0
1579272471.840,43.457,48.828,38.086,38.574,115.723,0
1579272471.837,41.992,46.387,38.574,41.016,82.520,0
1579272471.841,29.297,38.574,25.879,27.344,55.176,0
1579272471.845,27.344,39.062,25.391,18.555,81.543,0
1579272471.849,28.320,41.504,23.438,22.949,39.062,0
1579272471.853,29.297,45.898,26.855,30.273,-45.898,0
1579272471.857,29.297,45.410,31.250,28.320,-16.602,0
1579272471.861,30.762,44.434,29.785,28.809,21.484,0
1579272471.864,36.133,43.945,31.250,31.738,-23.926,0
1579272471.868,41.504,45.410,36.621,33.203,18.066,0
1579272471.872,38.574,43.945,31.738,32.227,48.828,0
1579272471.876,32.227,36.621,18.066,28.320,20.996,0
1579272471.880,30.762,40.039,21.484,25.391,27.344,0
1579272471.876,25.391,41.992,30.762,21.973,23.438,0
1579272471.880,27.344,40.039,31.250,23.926,-25.879,0
1579272471.884,32.227,41.504,29.297,21.484,-29.297,0
1579272471.888,33.203,42.480,35.645,24.902,-8.789,0
1579272471.892,33.203,40.527,38.086,29.785,3.906,0
1579272471.896,35.645,46.875,35.156,33.203,19.043,0
1579272471.900,28.320,44.434,29.785,31.738,45.410,0
1579272471.903,18.555,37.109,30.762,18.066,76.660,0
1579272471.907,20.508,41.992,27.344,20.508,80.566,0
1579272471.911,21.484,39.062,25.391,29.785,35.156,0
1579272471.915,25.391,44.922,38.574,31.250,-26.367,0
1579272471.919,27.344,48.828,37.109,27.832,-2.930,0
1579272471.937,24.902,39.551,32.227,27.344,41.016,0
1579272471.941,31.250,42.480,31.250,35.645,44.434,0
1579272471.945,41.016,50.293,33.691,44.434,81.543,0
1579272471.949,36.621,41.016,36.621,35.645,43.457,0
1579272471.953,32.227,35.156,31.738,28.320,36.621,0
1579272471.957,35.645,40.527,27.344,35.645,63.965,0
1579272471.961,34.668,40.039,26.367,41.992,52.246,0
1579272471.964,30.762,42.480,36.133,43.457,36.621,0
1579272471.968,28.809,43.945,36.621,40.039,20.996,0
1579272471.972,26.855,40.527,32.715,40.527,98.145,0
1579272471.976,27.344,41.504,41.504,45.898,139.160,0
1579272471.980,22.949,36.133,36.621,40.039,53.223,0
1579272471.976,21.484,33.203,21.484,34.180,33.203,0
1579272471.980,25.391,35.156,23.438,35.645,2.930,0
1579272471.984,25.391,35.645,35.645,36.133,-1.953,0
1579272471.988,23.926,39.551,37.109,30.762,-15.625,0
1579272471.992,27.344,40.527,31.250,25.391,-32.715,0
1579272471.996,29.297,43.945,33.203,27.832,-11.230,0
1579272472.000,24.902,40.039,35.156,30.273,26.367,0
1579272472.003,28.809,35.645,24.902,28.809,43.945,0
1579272472.007,34.668,41.016,29.785,29.297,72.266,0
1579272472.011,36.133,39.551,40.039,27.832,75.195,0
1579272472.015,31.738,32.715,29.785,27.344,60.059,0
1579272472.019,25.879,32.715,27.344,29.785,36.133,0
1579272472.036,25.879,34.668,36.621,28.809,-4.395,0
1579272472.040,34.668,40.527,40.039,32.227,28.809,0
1579272472.044,33.691,41.992,33.691,33.203,59.082,0
1579272472.048,33.203,37.598,31.738,29.785,26.367,0
1579272472.052,35.645,37.598,31.738,26.367,52.246,0
1579272472.056,36.621,42.480,32.227,31.250,68.359,0
1579272472.060,42.969,48.340,33.691,38.574,11.719,0
1579272472.063,37.109,43.945,21.484,32.715,23.926,0
1579272472.067,36.621,37.109,19.043,30.273,37.109,0
1579272472.071,42.969,38.086,30.762,33.203,39.551,0
1579272472.075,41.504,41.504,30.762,31.738,13.184,0
1579272472.079,47.363,41.992,30.762,35.645,-5.371,0
1579272472.076,49.316,43.457,40.039,38.086,24.902,0
1579272472.080,45.410,49.316,40.527,38.574,41.992,0
1579272472.084,42.480,44.434,34.668,36.133,52.246,0
1579272472.088,45.410,41.992,36.133,38.086,47.852,0
1579272472.092,45.410,42.969,37.109,42.969,76.660,0
1579272472.096,38.086,37.598,23.926,37.109,71.289,0
1579272472.100,36.621,40.039,21.973,34.180,20.508,0
1579272472.103,37.598,42.969,30.273,42.480,23.438,0
1579272472.107,40.527,44.922,39.062,47.363,24.414,0
1579272472.111,43.457,40.527,34.668,43.945,-16.602,0
1579272472.115,43.457,38.086,26.855,42.969,-17.578,0
1579272472.119,44.922,39.062,30.273,41.992,44.922,0
1579272472.116,48.828,40.039,30.762,48.340,47.363,0
1579272472.120,49.805,45.898,40.039,49.805,27.344,0
1579272472.124,43.945,43.945,42.480,39.551,16.113,0
1579272472.128,43.457,40.527,29.785,37.598,44.922,0
1579272472.132,41.992,40.527,24.414,35.156,61.035,0
1579272472.136,42.969,41.992,32.715,34.180,43.457,0
1579272472.140,43.945,38.574,33.203,34.180,2.930,0
1579272472.143,40.527,39.062,25.879,32.227,-28.809,0
1579272472.147,36.621,41.504,22.949,29.785,27.832,0
1579272472.151,45.410,47.363,31.250,36.621,34.668,0
1579272472.155,47.363,47.363,28.809,40.039,-36.621,0
1579272472.159,34.180,39.062,13.184,30.273,-20.996,0
1579272472.176,41.016,41.992,22.461,31.250,48.340,0
1579272472.180,39.551,46.387,34.180,31.250,56.641,0
1579272472.184,31.250,45.898,29.785,30.762,91.309,0
1579272472.188,37.109,43.945,35.645,33.203,50.293,0
1579272472.192,33.203,44.434,37.598,33.203,9.277,0
1579272472.196,29.297,44.434,25.391,35.645,30.762,0
1579272472.200,33.203,42.969,23.438,34.668,77.148,0
1579272472.203,29.785,43.945,33.203,28.320,67.383,0
1579272472.207,35.645,50.781,45.898,35.156,4.395,0
1579272472.211,31.250,45.898,38.086,36.621,-16.113,0
1579272472.215,25.879,42.480,25.879,28.320,4.395,0
1579272472.219,33.203,45.410,28.320,29.297,56.641,0
1579272472.216,37.109,45.898,33.203,31.738,9.766,0
1579272472.220,35.156,51.758,31.250,37.109,-5.371,0
1579272472.224,35.156,51.758,21.484,39.551,22.461,0
1579272472.228,32.227,42.480,18.555,34.668,50.781,0
1579272472.232,37.109,46.875,31.738,38.086,105.469,0
1579272472.236,43.457,53.223,36.621,41.504,24.902,0
1579272472.240,28.809,38.086,25.879,32.715,-8.789,0
1579272472.243,28.320,34.180,26.367,30.273,1.953,0
1579272472.247,36.621,44.434,30.273,33.203,12.695,0
1579272472.251,36.621,46.387,29.297,37.598,20.996,0
1579272472.255,36.621,42.969,28.320,40.527,46.387,0
1579272472.259,30.762,41.504,31.250,40.039,8.301,0
1579272472.256,29.785,42.480,36.621,39.551,2.441,0
1579272472.260,30.273,39.551,30.273,36.133,22.949,0
1579272472.264,30.762,40.039,30.273,38.574,14.160,0
1579272472.268,36.621,46.387,37.109,44.922,65.430,0
1579272472.272,24.902,37.598,22.461,33.203,90.820,0
1579272472.276,22.461,35.156,18.555,30.762,51.758,0
1579272472.280,24.414,39.062,32.227,35.156,-5.371,0
1579272472.283,19.043,36.133,38.574,29.785,65.918,0
1579272472.287,20.996,32.227,40.039,26.855,79.102,0
1579272472.291,23.926,29.785,35.645,27.832,-48.828,0
1579272472.295,34.180,39.062,31.738,34.668,-17.090,0
1579272472.299,37.109,42.480,34.180,35.645,28.809,0
1579272472.316,38.574,46.387,37.598,36.621,59.082,0
1579272472.320,34.180,45.410,31.738,30.273,83.984,0
1579272472.324,21.973,34.180,24.414,25.879,63.965,0
1579272472.328,23.438,37.598,23.438,33.691,84.961,0
1579272472.332,29.785,39.551,19.043,34.180,106.445,0
1579272472.336,36.133,41.992,29.297,36.133,8.789,0
1579272472.340,39.062,46.875,41.992,40.527,29.785,0
1579272472.343,33.203,46.387,32.715,41.504,124.023,0
1579272472.347,32.715,44.922,23.438,41.504,57.129,0
1579272472.351,31.738,40.039,28.320,38.574,3.418,0
1579272472.355,30.273,46.387,35.645,33.203,61.523,0
1579272472.359,30.273,52.246,35.156,36.133,66.895,0
1579272472.356,25.879,40.039,27.832,33.203,45.898,0
1579272472.360,23.926,34.180,24.414,27.344,65.918,0
1579272472.364,25.879,36.133,19.043,26.855,68.359,0
1579272472.368,29.297,34.668,21.484,25.879,47.852,0
1579272472.372,25.879,36.133,35.645,30.273,49.316,0
1579272472.376,24.414,41.992,35.645,32.227,63.965,0
1579272472.380,26.367,42.480,21.973,30.273,73.730,0
1579272472.383,28.809,45.898,28.320,35.156,45.410,0
1579272472.387,29.785,44.434,35.645,40.527,59.570,0
1579272472.391,19.043,34.668,31.738,38.086,111.328,0
1579272472.395,18.555,30.762,29.785,36.133,20.996,0
1579272472.399,29.297,31.738,31.250,38.574,48.828,0
1579272472.396,28.809,34.668,31.250,42.969,70.312,0
1579272472.400,28.809,38.086,21.484,46.875,51.270,0
1579272472.404,35.645,40.527,24.414,42.480,49.805,0
1579272472.408,33.691,40.039,34.668,35.156,20.020,0
1579272472.412,28.809,38.574,37.109,35.645,27.832,0
1579272472.416,28.320,38.086,34.180,36.133,34.180,0
1579272472.420,29.297,42.969,36.133,34.668,-3.906,0
1579272472.423,25.391,38.086,30.762,27.344,-2.441,1
1579272472.427,23.926,35.156,20.508,26.367,40.039,0
1579272472.431,26.367,37.598,27.344,32.715,75.195,0
1579272472.435,29.785,38.086,34.180,32.227,67.383,0
1579272472.439,29.785,35.156,30.273,27.832,38.574,0
1579272472.456,26.855,35.156,22.461,29.297,42.480,0
1579272472.460,27.832,38.086,12.695,30.762,2.930,0
1579272472.464,28.809,41.016,20.020,33.203,9.277,0
1579272472.468,25.391,39.062,33.691,27.832,61.035,0
1579272472.472,30.273,46.387,43.457,27.344,70.801,0
1579272472.476,33.203,47.852,36.621,33.691,57.617,0
1579272472.480,23.438,31.738,25.879,30.762,50.293,0
1579272472.483,23.926,37.109,28.320,23.926,45.410,0
1579272472.487,30.762,45.410,30.762,22.949,38.086,0
1579272472.491,29.297,43.945,27.344,28.809,21.484,0
1579272472.495,26.367,46.875,19.531,30.762,5.859,0
1579272472.499,29.785,44.922,25.879,26.855,5.371,0
1579272472.496,32.227,40.527,29.297,28.809,39.062,0
1579272472.500,26.855,36.621,25.391,29.297,52.734,0
1579272472.504,22.949,32.715,30.273,22.949,94.238,0
1579272472.508,21.484,36.133,34.668,24.414,56.152,0
1579272472.512,25.879,40.527,32.715,25.391,21.973,0
1579272472.516,26.367,39.062,33.203,23.926,78.125,0
1579272472.520,25.879,37.109,34.668,31.250,68.359,0
1579272472.523,33.203,45.898,34.668,34.180,32.227,0
1579272472.527,27.832,48.828,33.691,25.879,40.039,0
1579272472.531,26.367,43.945,38.574,26.855,34.668,0
1579272472.535,29.297,43.945,29.785,30.273,9.277,0
1579272472.539,33.691,46.387,26.855,34.668,56.152,0
1579272472.536,38.574,46.875,45.898,36.621,71.289,0
1579272472.540,33.203,46.387,47.363,29.297,22.949,0
1579272472.544,33.203,41.504,35.645,25.391,40.039,0
1579272472.548,35.645,37.598,32.227,26.367,32.227,0
1579272472.552,35.156,44.434,35.645,32.715,41.504,0
1579272472.556,35.156,45.898,36.133,32.715,48.828,0
1579272472.560,37.109,44.922,33.203,32.227,31.738,0
1579272472.563,35.645,45.410,30.273,39.062,91.797,0
1579272472.567,29.297,41.992,36.133,34.180,84.961,0
1579272472.571,31.738,45.898,38.086,31.738,32.227,0
1579272472.575,35.156,48.828,27.344,34.180,59.082,0
1579272472.579,34.180,44.922,30.762,32.715,86.914,0
1579272472.596,31.250,39.062,36.133,31.738,14.160,0
1579272472.600,33.691,37.598,38.574,31.250,-37.598,0
1579272472.604,36.621,41.016,37.598,30.762,-13.184,0
1579272472.608,32.715,44.922,36.621,35.156,22.461,0
1579272472.612,24.902,42.969,34.668,33.203,15.137,0
1579272472.616,21.973,41.016,28.809,28.320,3.418,0
1579272472.620,23.438,42.480,33.691,28.320,-4.883,0
1579272472.623,30.762,47.852,42.480,28.809,6.836,0
1579272472.627,27.832,41.504,28.320,27.832,2.441,0
1579272472.631,21.973,34.180,20.508,26.367,6.836,0
1579272472.635,28.320,39.551,35.156,24.902,58.594,0
1579272472.639,22.461,41.016,38.574,25.391,83.008,0
1579272472.636,20.996,42.969,34.668,24.414,12.207,0
1579272472.640,27.344,45.898,34.180,24.902,-16.602,0
1579272472.644,27.832,41.016,32.715,24.902,53.711,0
1579272472.648,25.391,36.621,27.344,23.926,106.445,0
1579272472.652,31.738,41.992,40.527,33.691,76.172,0
1579272472.656,34.668,44.434,46.875,36.133,38.086,0
1579272472.660,24.414,34.668,35.645,22.461,22.949,0
1579272472.663,22.949,33.691,20.508,18.066,51.270,0
1579272472.667,21.484,38.086,13.672,21.484,69.824,0
1579272472.671,24.902,38.574,26.367,26.367,49.316,0
1579272472.675,31.738,40.527,33.691,26.855,63.477,0
1579272472.679,34.180,39.062,34.668,28.320,21.484,0
1579272472.676,34.180,34.668,32.715,31.738,-3.418,0
1579272472.680,41.992,37.109,37.598,41.992,51.270,0
1579272472.684,47.852,40.527,48.340,45.410,92.285,0
1579272472.688,41.992,34.180,38.086,33.203,83.984,0
1579272472.692,33.691,34.668,25.879,34.180,45.410,0
1579272472.696,23.438,37.598,27.832,40.527,21.973,0
1579272472.700,23.438,39.551,31.250,43.457,49.316,0
1579272472.703,25.879,37.109,31.250,41.992,56.641,0
1579272472.707,21.973,31.250,36.133,32.715,21.973,0
1579272472.711,20.020,29.785,41.016,34.180,1.465,0
1579272472.715,23.438,32.227,33.203,32.715,4.883,0
1579272472.719,32.715,41.992,30.762,29.785,21.484,0
1579272472.736,31.250,44.434,33.203,26.855,44.922,0
1579272472.740,25.391,35.645,28.320,17.090,28.320,0
1579272472.744,23.926,35.156,32.715,18.066,39.062,0
1579272472.748,22.949,44.922,33.203,23.438,26.367,0
1579272472.752,29.785,46.387,23.438,20.020,-2.930,0
1579272472.756,29.297,35.645,24.902,17.090,18.066,0
1579272472.760,28.320,35.645,31.250,22.949,20.020,0
1579272472.763,26.855,40.039,33.203,24.414,-3.418,0
1579272472.767,22.949,39.062,30.762,17.578,24.902,0
1579272472.771,22.461,35.156,26.855,16.602,18.555,0
1579272472.775,29.785,41.992,39.551,29.785,-23.926,0
1579272472.779,30.762,46.875,43.457,31.738,52.246,0
1579272472.776,23.438,37.109,31.738,20.020,67.871,0
1579272472.780,26.367,36.133,25.391,20.020,40.527,0
1579272472.784,29.785,35.156,28.320,26.855,61.523,0
1579272472.788,33.691,36.621,35.645,33.691,21.973,0
1579272472.792,34.668,40.527,32.715,29.297,41.992,0
1579272472.796,27.832,38.086,37.598,19.043,92.773,0
1579272472.800,23.438,37.598,39.551,15.137,-12.695,0
1579272472.803,30.273,40.039,37.598,22.949,-11.719,0
1579272472.807,29.297,44.922,31.738,28.809,51.270,0
1579272472.811,28.809,40.527,18.066,18.066,30.273,0
1579272472.815,36.133,37.598,20.996,18.555,47.363,0
1579272472.819,30.762,39.062,33.203,26.367,80.078,0
1579272472.816,28.809,36.133,32.227,25.879,66.895,0
1579272472.820,30.762,37.109,30.273,26.367,41.016,0
1579272472.824,30.273,40.039,35.645,28.809,67.871,0
1579272472.828,30.762,40.039,32.227,30.273,45.898,0
1579272472.832,26.367,41.016,26.367,27.832,38.574,0
1579272472.836,29.297,41.016,32.227,27.344,13.184,0
1579272472.840,39.062,45.410,40.527,31.738,1.953,0
1579272472.843,32.715,41.016,31.250,29.297,59.082,0
1579272472.847,31.250,31.250,24.902,29.297,27.344,0
1579272472.851,30.273,31.250,24.414,25.879,-14.160,0
1579272472.855,29.297,36.133,11.719,28.809,5.371,0
1579272472.859,33.691,38.086,10.742,34.668,44.434,0
1579272472.876,33.691,39.551,31.738,31.738,69.336,0
1579272472.880,37.598,41.504,34.180,35.156,0.488,0
1579272472.884,35.156,39.062,29.785,33.691,16.602,0
1579272472.888,34.180,42.480,38.086,32.715,53.223,0
1579272472.892,35.156,38.574,34.180,31.738,46.875,0
1579272472.896,34.180,32.715,26.855,31.738,79.590,0
1579272472.900,28.809,37.109,28.809,30.762,67.871,0
1579272472.903,25.391,37.598,28.320,25.879,66.895,0
1579272472.907,27.832,36.621,21.973,34.668,76.660,0
1579272472.911,32.227,41.992,21.484,40.039,61.035,0
1579272472.915,34.180,44.922,22.949,34.180,19.531,0
1579272472.919,33.203,46.387,28.809,31.250,-6.836,0
1579272472.916,34.180,47.852,28.809,36.621,-37.109,0
1579272472.920,36.133,48.340,35.156,40.039,36.133,0
1579272472.924,29.297,41.504,42.969,30.762,62.012,0
1579272472.928,21.484,34.668,36.133,23.926,57.129,0
1579272472.932,20.020,34.180,29.785,23.926,60.059,0
1579272472.936,21.484,36.133,27.344,27.832,82.520,0
1579272472.940,28.809,40.039,27.344,32.715,112.305,0
1579272472.943,34.180,41.992,19.043,31.250,69.336,0
1579272472.947,33.203,41.016,15.625,30.273,32.227,0
1579272472.951,31.738,41.504,37.598,31.250,31.250,0
1579272472.955,36.621,43.945,48.828,36.133,42.480,0
1579272472.959,33.203,41.992,36.621,36.621,8.789,0
1579272472.956,23.438,37.598,21.973,24.902,-30.762,0
1579272472.960,24.902,39.062,18.555,22.949,4.395,0
1579272472.964,30.762,40.527,28.320,30.273,9.766,0
1579272472.968,28.809,41.504,35.645,32.715,-12.695,0
1579272472.972,30.762,47.363,37.598,30.273,23.438,0
1579272472.976,40.527,46.387,37.598,34.668,16.602,0
1579272472.980,40.527,39.551,20.996,37.598,2.930,0
1579272472.983,33.691,38.574,12.207,39.062,15.137,0
1579272472.987,35.645,44.922,34.668,40.527,-13.184,0
1579272472.991,27.344,40.039,41.504,32.715,1.465,0
1579272472.995,23.438,33.203,35.645,31.250,0.977,0
1579272472.999,28.320,35.645,29.785,36.133,10.254,0
1579272473.016,25.391,38.086,24.902,33.691,68.848,0
1579272473.020,26.855,39.062,32.227,29.297,101.562,0
1579272473.024,27.344,38.574,34.668,33.203,42.480,0
1579272473.028,27.344,39.551,24.902,35.156,34.180,0
1579272473.032,27.832,39.062,26.855,29.785,59.570,0
1579272473.036,31.738,42.969,33.203,34.180,15.625,0
1579272473.040,33.691,45.898,21.484,35.645,61.523,0
1579272473.043,34.180,46.875,23.438,35.645,52.734,0
1579272473.047,31.250,39.551,36.133,28.809,42.969,0
1579272473.051,24.902,29.785,39.062,19.531,80.566,0
1579272473.055,30.273,33.691,39.551,24.902,32.715,0
1579272473.059,31.738,37.109,32.715,27.832,39.062,0
1579272473.057,25.391,35.645,28.809,27.344,87.891,0
1579272473.061,29.297,40.039,28.320,27.344,70.312,0
1579272473.065,28.809,42.480,26.855,23.926,-0.488,0
1579272473.069,34.180,45.898,31.250,30.273,18.555,0
1579272473.073,41.016,52.246,39.062,37.598,10.254,0
1579272473.077,30.762,48.828,34.668,27.832,1.953,0
1579272473.081,24.414,40.527,17.578,20.996,29.785,0
1579272473.084,34.668,40.039,20.508,30.273,4.883,0
1579272473.088,41.016,44.434,39.062,37.598,34.668,0
1579272473.092,36.621,41.016,41.016,33.203,68.359,0
1579272473.096,30.273,37.109,35.645,27.344,-3.906,0
1579272473.100,33.203,35.156,33.203,30.762,-4.883,0
1579272473.096,34.180,37.109,21.973,34.668,70.801,0
