timestamps,TP9,AF7,AF8,TP10,Right AUX,Marker0
1579294698.343,56.641,35.645,34.668,52.734,23.438,0
1579294698.347,7.812,62.500,24.414,34.180,62.988,0
1579294698.351,70.801,40.039,26.855,63.965,35.156,0
1579294698.355,83.008,36.133,15.137,71.289,23.438,0
1579294698.359,40.527,22.949,20.508,66.406,34.180,0
1579294698.363,78.125,33.691,23.926,92.285,26.855,0
1579294698.367,109.863,31.250,18.555,108.887,32.715,0
1579294698.370,129.395,16.113,22.949,119.141,62.012,0
1579294698.374,152.344,17.578,22.461,128.418,80.566,0
1579294698.378,122.559,27.344,12.695,113.281,38.086,0
1579294698.382,150.391,10.742,15.625,140.137,5.371,0
1579294698.386,143.066,31.738,9.766,128.906,-3.906,0
1579294698.383,141.602,23.438,11.719,126.465,1.953,0
1579294698.387,120.117,23.438,20.020,125.000,-7.324,0
1579294698.391,116.699,30.762,20.996,117.676,-34.668,0
1579294698.395,159.180,23.926,18.066,144.531,-44.922,0
1579294698.399,112.793,37.598,15.137,109.375,27.832,0
1579294698.403,61.035,31.738,6.348,88.379,50.781,0
1579294698.407,90.820,28.809,16.602,101.562,25.879,0
1579294698.410,136.719,20.020,29.297,106.445,40.527,0
1579294698.414,100.098,23.438,13.184,95.215,47.363,0
1579294698.418,67.871,29.785,29.785,70.801,40.527,0
1579294698.422,54.688,29.785,35.156,48.340,66.895,0
1579294698.426,19.043,31.738,28.809,29.785,89.844,0
1579294698.423,-23.438,31.250,47.363,-10.742,55.176,0
1579294698.427,-52.246,33.691,48.828,-37.598,20.996,0
1579294698.431,-71.289,56.152,36.621,-59.082,41.016,0
1579294698.435,-63.965,50.293,42.969,-78.613,41.992,0
1579294698.439,-75.195,49.316,32.715,-82.520,20.996,0
1579294698.443,-107.422,52.246,27.832,-102.051,20.508,0
1579294698.447,-94.727,31.250,33.691,-99.121,92.773,0
1579294698.450,-75.684,39.062,38.574,-88.867,99.121,0
1579294698.454,-141.113,73.242,37.109,-131.348,14.648,0
1579294698.458,-123.047,54.688,32.227,-123.047,-2.930,0
1579294698.462,-76.172,51.270,32.715,-107.422,52.734,0
1579294698.466,-94.238,71.777,30.273,-118.164,50.293,0
1579294698.483,-77.148,60.547,36.621,-109.375,5.859,0
1579294698.487,-61.035,39.062,47.852,-90.332,25.391,0
1579294698.491,-75.195,31.250,41.504,-87.891,18.555,0
1579294698.495,-123.047,70.801,18.555,-109.375,16.113,0
1579294698.499,-101.074,70.801,30.762,-93.750,32.227,0
1579294698.503,-68.848,59.082,48.340,-103.516,76.172,0
1579294698.507,-55.664,38.086,48.340,-98.145,85.449,0
1579294698.510,-45.898,56.641,22.461,-73.242,28.320,0
1579294698.514,-47.852,69.824,24.902,-57.129,46.875,0
1579294698.518,-28.320,33.691,45.898,-39.551,66.406,0
1579294698.522,-19.043,49.805,22.461,-34.668,52.734,0
1579294698.526,-44.922,80.566,4.883,-53.711,33.691,0
1579294698.523,15.625,34.668,53.711,-18.555,-2.441,0
1579294698.527,45.410,13.184,58.105,24.902,7.324,0
1579294698.531,10.742,74.219,17.090,24.902,46.875,0
1579294698.535,9.277,82.031,20.020,24.902,23.926,0
1579294698.539,42.969,22.949,33.691,47.852,-4.883,0
1579294698.543,66.895,25.879,21.973,93.262,57.617,0
1579294698.547,120.117,15.625,32.715,135.254,101.562,0
1579294698.550,160.645,1.953,44.434,138.184,79.102,0
1579294698.554,117.188,12.207,36.133,140.625,62.988,0
1579294698.558,120.605,29.297,17.090,153.320,26.367,0
1579294698.562,96.191,72.754,-4.883,123.535,14.648,0
1579294698.566,112.793,16.113,0.488,154.785,12.207,0
1579294698.563,164.062,1.465,19.043,187.012,21.973,0
1579294698.567,178.223,2.441,33.691,176.270,54.688,0
1579294698.571,158.203,19.043,15.137,156.738,38.086,0
1579294698.575,168.457,15.137,22.461,148.926,-4.395,0
1579294698.579,188.477,-14.160,23.438,174.316,41.016,0
1579294698.583,158.691,9.277,9.766,167.480,72.754,0
1579294698.587,156.738,25.391,10.742,159.668,56.152,0
1579294698.590,166.504,22.461,16.602,162.109,19.043,0
1579294698.594,181.152,-4.883,23.926,166.016,2.930,0
1579294698.598,144.531,26.855,13.184,166.992,20.996,0
1579294698.602,147.461,22.461,22.461,180.664,41.504,0
1579294698.606,184.082,-4.395,33.203,176.758,54.688,0
1579294698.623,200.684,8.301,20.508,164.062,39.551,0
1579294698.627,179.688,34.668,13.672,151.367,6.348,0
1579294698.631,121.094,15.137,29.785,127.441,41.504,0
1579294698.635,157.715,-1.953,17.090,157.715,50.781,0
1579294698.639,168.457,28.809,5.859,165.039,23.926,0
1579294698.643,134.766,30.273,23.438,138.672,43.457,0
1579294698.647,128.418,24.414,26.367,138.184,71.777,0
1579294698.650,138.184,37.598,37.598,145.508,57.617,0
1579294698.654,121.094,32.227,29.785,133.301,34.668,0
1579294698.658,73.242,28.809,17.090,95.703,61.523,0
1579294698.662,78.613,15.137,33.691,101.074,41.016,0
1579294698.666,107.422,1.953,31.250,107.910,0.488,0
1579294698.663,106.934,21.484,37.109,105.469,28.320,0
1579294698.667,87.402,14.648,37.598,103.516,38.086,0
1579294698.671,119.629,3.418,15.625,124.023,60.059,0
1579294698.675,82.031,51.758,10.742,112.305,67.871,0
1579294698.679,65.918,37.109,21.484,87.402,36.133,0
1579294698.683,86.914,41.016,21.973,81.055,39.062,0
1579294698.687,87.891,40.039,41.992,71.289,98.633,0
1579294698.690,64.453,14.160,45.898,74.707,114.258,0
1579294698.694,3.418,56.641,14.648,29.297,47.363,0
1579294698.698,62.012,27.832,37.109,36.133,20.020,0
1579294698.702,29.297,21.973,38.086,2.441,-16.113,0
1579294698.706,6.348,32.715,30.273,6.836,13.672,0
1579294698.703,74.707,17.090,34.180,49.805,0.488,0
1579294698.707,66.406,36.133,33.691,20.020,-22.461,0
1579294698.711,-55.176,40.527,45.898,-13.184,18.066,0
1579294698.715,-51.758,41.992,36.133,-10.742,18.555,0
1579294698.719,27.344,57.617,29.785,23.926,35.156,0
1579294698.723,8.789,26.367,65.430,-9.766,36.621,0
1579294698.727,-19.043,24.414,65.430,-27.832,56.641,0
1579294698.730,-47.852,58.105,37.598,-40.039,38.086,0
1579294698.734,-34.180,49.805,42.969,-50.293,-35.645,0
1579294698.738,-54.199,28.320,65.918,-67.383,10.254,0
1579294698.742,-128.418,33.203,56.152,-120.117,63.965,0
1579294698.746,-105.469,62.500,41.016,-113.770,49.316,0
1579294698.763,-92.285,50.293,52.734,-96.680,22.949,0
1579294698.767,-135.254,37.109,47.852,-103.027,44.434,0
1579294698.771,-126.465,61.523,38.086,-120.605,27.344,0
1579294698.775,-100.586,50.293,40.527,-124.023,-6.836,0
1579294698.779,-55.664,42.969,48.828,-100.586,-11.230,0
1579294698.783,-100.098,62.988,47.363,-121.094,4.395,0
1579294698.787,-151.367,69.336,40.527,-136.230,10.254,0
1579294698.790,-85.449,44.922,50.781,-101.074,31.250,0
1579294698.794,-62.500,48.340,51.270,-87.891,17.578,0
1579294698.798,-55.176,51.270,44.434,-67.383,6.348,0
1579294698.802,-76.172,46.875,47.852,-75.684,-14.648,0
1579294698.806,-96.191,53.223,48.340,-69.824,28.320,0
1579294698.803,-38.574,49.805,41.504,-45.898,44.434,0
1579294698.807,-32.227,41.992,42.480,-34.180,-15.625,0
1579294698.811,-43.945,34.668,58.594,-40.039,52.246,0
1579294698.815,1.465,29.785,52.246,-19.043,68.359,0
1579294698.819,42.480,40.039,33.203,35.156,31.250,0
1579294698.823,52.246,38.574,40.527,44.922,11.719,0
1579294698.827,47.852,29.785,43.457,48.828,-1.465,0
1579294698.830,65.918,24.902,37.109,51.270,-12.695,0
1579294698.834,80.078,27.832,39.551,62.012,0.000,0
1579294698.838,101.074,34.668,23.438,85.449,50.293,0
1579294698.842,124.023,36.133,15.625,88.867,77.148,0
1579294698.846,115.234,31.250,22.949,102.051,67.383,0
1579294698.843,122.559,38.086,17.578,119.141,22.949,0
1579294698.847,138.184,36.621,19.531,109.375,80.566,0
1579294698.851,135.254,32.227,16.602,104.004,135.254,0
1579294698.855,121.094,36.133,11.230,118.652,84.961,0
1579294698.859,126.953,36.621,9.277,109.375,70.801,0
1579294698.863,140.137,33.691,11.230,97.168,72.266,0
1579294698.867,107.422,32.715,12.207,104.004,67.871,0
1579294698.870,88.379,32.227,15.137,107.422,28.809,0
1579294698.874,93.750,24.414,23.926,95.703,15.625,0
1579294698.878,93.262,26.855,21.484,100.098,32.227,0
1579294698.882,100.098,29.297,15.137,120.605,3.906,0
1579294698.886,109.375,31.250,16.602,112.793,5.859,0
1579294698.903,106.934,32.715,19.531,86.914,31.250,0
1579294698.907,95.215,27.832,20.996,82.520,52.734,0
1579294698.911,102.539,27.832,22.461,96.680,47.852,0
1579294698.915,102.539,33.691,21.484,92.285,33.203,0
1579294698.919,98.633,35.645,21.484,90.820,48.828,0
1579294698.923,106.934,36.621,22.461,101.074,92.285,0
1579294698.927,111.328,37.109,27.344,93.262,95.215,0
1579294698.930,110.352,36.621,30.762,84.961,51.758,0
1579294698.934,104.004,39.551,22.949,89.355,8.789,0
1579294698.938,108.887,32.715,25.879,104.004,-15.625,0
1579294698.942,118.652,39.551,24.902,88.379,-8.301,0
1579294698.946,98.633,44.434,20.508,55.664,43.945,0
1579294698.943,72.754,35.156,30.762,62.988,53.223,0
1579294698.947,101.562,34.180,28.320,76.660,57.617,0
1579294698.951,94.238,39.062,12.207,80.566,20.508,0
1579294698.955,81.055,40.527,16.113,93.750,-7.324,0
1579294698.959,94.238,34.668,30.762,85.449,56.152,0
1579294698.963,90.820,39.062,26.855,77.637,71.289,0
1579294698.967,88.379,41.992,26.855,91.309,19.531,0
1579294698.970,84.473,35.156,33.691,96.680,35.645,0
1579294698.974,84.961,36.133,31.250,87.891,108.398,0
1579294698.978,72.266,41.016,24.414,68.359,77.637,0
1579294698.982,66.895,37.109,25.391,59.570,0.488,0
1579294698.986,74.707,37.598,25.879,69.824,5.371,0
1579294698.983,77.637,41.504,25.879,75.195,-29.297,0
1579294698.987,60.547,36.133,34.180,69.824,-18.555,0
1579294698.991,47.852,35.156,31.250,58.594,55.176,0
1579294698.995,61.523,37.598,28.320,60.059,78.613,0
1579294698.999,55.664,38.086,34.668,54.199,49.316,0
1579294699.003,44.434,39.551,36.133,54.199,40.527,0
1579294699.007,64.453,44.922,30.273,67.383,64.453,0
1579294699.010,70.801,42.969,39.551,74.707,50.293,0
1579294699.014,54.688,41.504,36.621,67.871,55.664,0
1579294699.018,53.223,45.410,25.391,56.641,15.137,0
1579294699.022,61.035,41.992,26.855,59.570,-18.555,0
1579294699.026,67.871,39.062,30.273,50.293,-3.418,0
1579294699.043,55.664,41.504,33.203,58.594,21.973,0
1579294699.047,47.852,42.480,31.250,65.430,15.625,0
1579294699.051,56.641,40.527,33.203,49.805,32.715,0
1579294699.055,54.688,36.621,36.621,62.012,74.219,0
1579294699.059,41.992,36.621,38.086,62.500,42.480,0
1579294699.063,38.086,41.504,34.668,43.945,6.836,0
1579294699.067,54.688,44.434,27.832,44.922,14.160,0
1579294699.070,57.129,42.969,32.715,48.340,-25.391,0
1579294699.074,53.711,42.480,34.180,45.410,15.137,0
1579294699.078,60.059,45.410,36.621,37.598,41.504,0
1579294699.082,50.293,47.363,34.180,30.762,42.969,0
1579294699.086,33.203,41.504,34.180,35.645,51.270,0
1579294699.083,39.551,36.621,35.156,41.992,80.078,0
1579294699.087,40.039,34.180,37.598,27.832,61.035,0
1579294699.091,44.922,37.598,31.738,14.648,74.707,0
1579294699.095,26.367,41.504,31.250,7.812,92.285,0
1579294699.099,-6.836,36.621,36.133,8.789,20.020,0
1579294699.103,6.836,37.109,25.879,40.039,10.254,0
1579294699.107,33.203,42.480,26.855,41.504,14.160,0
1579294699.110,49.316,41.504,31.250,31.738,16.113,0
1579294699.114,46.387,42.480,31.738,42.969,-1.953,0
1579294699.118,18.066,34.180,41.016,53.223,65.430,0
1579294699.122,23.926,32.227,40.039,38.086,31.738,0
1579294699.126,64.941,41.016,29.785,38.086,3.906,0
1579294699.123,60.059,36.621,34.180,40.527,69.336,0
1579294699.127,7.324,32.715,43.945,21.973,30.762,0
1579294699.131,-10.742,34.180,41.504,14.160,72.266,0
1579294699.135,24.902,38.086,37.109,10.742,90.332,0
1579294699.139,21.973,38.086,36.133,20.020,52.246,0
1579294699.143,15.625,35.645,30.762,20.020,30.762,0
1579294699.147,31.250,35.156,28.809,5.859,2.441,0
1579294699.150,23.926,33.691,36.621,27.832,32.715,0
1579294699.154,25.879,31.250,36.133,36.621,73.730,0
1579294699.158,36.621,36.133,30.273,7.324,46.387,0
1579294699.162,15.625,34.668,37.598,26.855,53.711,0
1579294699.166,26.855,34.668,40.527,55.176,41.992,0
1579294699.183,67.383,42.480,34.668,54.688,10.742,0
1579294699.187,64.453,44.434,37.109,55.664,58.594,0
1579294699.191,38.574,44.434,36.133,30.762,92.773,0
1579294699.195,51.270,47.363,30.762,30.762,62.012,0
1579294699.199,60.059,45.898,35.156,54.199,-15.625,0
1579294699.203,36.133,50.781,32.715,52.246,-2.441,0
1579294699.207,45.410,47.363,40.039,54.199,62.500,0
1579294699.210,49.316,38.574,42.969,45.898,81.055,0
1579294699.214,30.762,37.598,34.668,32.715,99.609,0
1579294699.218,36.621,40.039,30.762,28.809,68.359,0
1579294699.222,39.551,42.969,28.320,22.461,54.199,0
1579294699.226,13.184,35.156,28.320,40.527,12.695,0
1579294699.223,7.324,32.715,31.738,47.363,-11.230,0
1579294699.227,30.762,34.668,39.551,33.203,48.828,0
1579294699.231,41.992,33.691,43.457,48.828,62.500,0
1579294699.235,28.809,36.133,30.762,52.734,45.410,0
1579294699.239,10.254,38.086,22.461,28.809,-7.324,0
1579294699.243,39.062,39.551,30.273,33.203,-21.973,0
1579294699.247,46.875,38.086,33.691,34.180,6.836,0
1579294699.250,38.574,36.621,38.574,31.738,48.340,0
1579294699.254,32.227,34.180,60.059,37.109,47.363,0
1579294699.258,-6.836,34.180,47.363,40.527,12.207,0
1579294699.262,10.254,37.598,42.969,40.039,72.266,0
1579294699.266,52.246,38.086,52.246,72.266,101.562,0
1579294699.283,65.430,44.434,34.668,77.148,30.762,0
1579294699.287,72.266,49.805,21.484,63.477,48.828,0
1579294699.291,57.617,43.457,41.504,73.242,99.609,0
1579294699.295,31.250,39.062,41.016,60.059,72.266,0
1579294699.299,41.016,40.527,31.250,56.641,48.340,0
1579294699.303,55.664,45.410,15.625,65.918,34.180,0
1579294699.307,37.109,42.480,23.926,49.316,45.898,0
1579294699.310,20.020,38.086,44.434,39.551,13.184,0
1579294699.314,27.344,44.922,19.531,32.227,-3.418,0
1579294699.318,30.273,41.504,25.391,32.715,26.367,0
1579294699.322,20.020,35.645,36.133,28.809,-32.715,0
1579294699.326,20.996,35.645,32.227,14.648,-22.461,0
1579294699.323,12.207,29.297,44.434,22.949,40.527,0
1579294699.327,17.090,31.250,28.809,36.621,59.082,0
1579294699.331,32.715,31.738,32.227,46.875,76.172,0
1579294699.335,33.691,31.250,42.969,42.480,46.387,0
1579294699.339,21.973,35.156,28.809,26.855,31.738,0
1579294699.343,23.926,35.156,38.086,38.574,48.828,0
1579294699.347,42.969,37.109,41.016,54.688,50.781,0
1579294699.350,44.434,41.992,19.043,32.715,41.992,0
1579294699.354,43.945,43.945,23.926,30.273,-10.254,0
1579294699.358,38.574,40.527,35.156,39.551,36.621,0
1579294699.362,32.715,40.039,32.715,48.340,41.992,0
1579294699.366,39.062,43.457,26.367,38.574,-0.977,0
1579294699.363,42.969,41.992,25.391,0.488,39.551,0
1579294699.367,37.598,41.504,36.133,14.648,54.688,0
1579294699.371,34.668,42.480,28.809,46.875,65.918,0
1579294699.375,35.645,43.457,22.461,40.039,7.812,0
1579294699.379,52.734,42.969,34.668,34.180,-36.133,0
1579294699.383,48.340,41.016,33.203,26.367,-24.902,0
1579294699.387,31.250,41.016,28.809,45.898,-21.484,0
1579294699.390,34.180,40.039,36.621,53.223,11.230,0
1579294699.394,35.156,41.016,29.785,33.691,26.855,0
1579294699.398,34.668,40.039,23.438,40.039,-2.441,0
1579294699.402,28.809,36.133,29.297,40.527,-8.301,0
1579294699.406,16.602,35.156,31.738,25.391,-41.016,0
1579294699.423,25.391,38.086,27.832,29.785,-21.484,0
1579294699.427,44.434,41.016,29.785,37.598,26.367,0
1579294699.431,35.156,43.457,31.250,36.133,6.836,0
1579294699.435,21.973,42.480,34.180,35.156,7.812,0
1579294699.439,20.996,43.945,35.156,23.438,19.043,0
1579294699.443,13.184,45.898,35.156,9.766,41.992,0
1579294699.447,2.441,43.457,37.598,9.277,47.363,0
1579294699.450,-8.789,42.480,42.480,-4.395,49.316,0
1579294699.454,-29.297,37.109,42.480,-28.809,137.207,0
1579294699.458,-34.668,36.133,36.621,-34.180,108.887,0
1579294699.462,-39.551,44.434,34.180,-42.480,1.465,0
1579294699.466,-45.410,48.340,34.668,-51.270,15.625,0
1579294699.463,-55.176,48.340,36.621,-54.199,56.641,0
1579294699.467,-61.523,51.758,39.062,-68.848,60.059,0
1579294699.471,-66.895,51.758,43.457,-75.684,43.457,0
1579294699.475,-76.660,51.270,43.457,-73.242,36.621,0
1579294699.479,-73.730,57.129,41.504,-83.008,71.289,0
1579294699.483,-73.730,61.035,42.969,-91.797,71.777,0
1579294699.487,-78.125,60.059,43.457,-87.402,-7.324,0
1579294699.490,-78.613,58.105,47.363,-82.031,-39.062,0
1579294699.494,-81.055,54.199,52.734,-77.637,-20.508,0
1579294699.498,-79.102,52.246,55.176,-73.242,5.859,0
1579294699.502,-69.824,53.711,55.176,-74.219,14.648,0
1579294699.506,-68.848,51.270,52.734,-68.359,51.270,0
1579294699.503,-71.777,43.457,53.711,-65.918,86.426,0
1579294699.507,-62.988,39.551,55.176,-65.918,22.461,0
1579294699.511,-53.223,39.062,53.711,-58.594,25.391,0
1579294699.515,-41.504,41.016,49.316,-46.875,74.219,0
1579294699.519,-31.250,41.504,45.898,-36.133,46.875,0
1579294699.523,-24.414,39.062,45.410,-24.414,30.273,0
1579294699.527,-17.090,37.598,39.551,-17.090,79.102,0
1579294699.530,-5.371,36.621,31.250,-10.254,59.570,0
1579294699.534,4.395,34.180,30.273,4.395,83.496,0
1579294699.538,4.395,30.762,35.156,11.719,81.055,0
1579294699.542,12.207,28.320,27.832,11.719,77.148,0
1579294699.546,21.484,25.879,20.996,15.137,72.266,0
1579294699.563,27.832,29.785,24.414,23.926,-69.824,0
1579294699.567,35.645,32.715,27.344,31.250,-38.574,0
1579294699.571,50.293,33.691,22.461,43.945,23.926,0
1579294699.575,60.059,36.133,21.484,56.641,0.977,0
1579294699.579,62.988,37.109,23.438,63.477,7.324,0
1579294699.583,68.359,36.133,24.902,66.406,16.602,0
1579294699.587,74.707,35.156,28.809,66.406,52.734,0
1579294699.590,76.172,33.203,29.785,67.871,53.711,0
1579294699.594,74.707,32.227,29.297,68.359,-3.906,0
1579294699.598,72.266,31.738,26.855,70.312,-26.367,0
1579294699.602,71.289,31.250,27.344,70.801,3.418,0
1579294699.606,71.289,29.785,31.250,61.523,36.621,0
1579294699.603,71.777,27.344,28.320,51.758,38.086,0
1579294699.607,66.895,25.879,27.344,45.410,50.293,0
1579294699.611,59.570,26.367,27.832,42.969,19.531,0
1579294699.615,61.035,26.367,25.879,40.039,-20.020,0
1579294699.619,57.617,29.297,25.391,39.062,39.062,0
1579294699.623,50.781,30.273,22.461,40.527,61.523,0
1579294699.627,50.781,28.809,25.391,41.504,23.438,0
1579294699.630,48.828,29.297,29.785,41.504,36.621,0
1579294699.634,57.129,32.227,23.926,46.875,30.273,0
1579294699.638,62.012,34.180,20.508,52.734,27.344,0
1579294699.642,65.430,35.156,24.414,60.547,62.500,0
1579294699.646,67.383,31.250,26.855,68.359,54.199,0
1579294699.643,65.430,30.762,28.809,68.359,53.711,0
1579294699.647,71.289,34.180,33.203,71.289,41.504,0
1579294699.651,70.801,34.180,37.598,77.637,41.992,0
1579294699.655,68.359,32.227,38.086,80.078,8.301,0
1579294699.659,65.430,32.227,35.645,70.801,20.508,0
1579294699.663,62.988,34.668,36.621,64.941,38.086,0
1579294699.667,60.547,35.156,41.016,63.477,59.082,0
1579294699.670,57.129,32.227,37.109,60.059,57.617,0
1579294699.674,50.781,31.738,32.715,51.758,12.695,0
1579294699.678,41.504,29.297,33.691,43.457,27.344,0
1579294699.682,40.527,28.809,32.227,41.992,-13.672,0
1579294699.686,39.062,31.738,31.738,39.551,4.395,0
1579294699.703,33.691,30.273,33.203,31.250,17.090,0
1579294699.707,30.762,29.785,32.227,27.832,37.598,0
1579294699.711,39.551,31.250,29.297,32.227,34.180,0
1579294699.715,45.410,31.250,32.227,35.156,9.766,0
1579294699.719,45.898,30.273,34.180,33.691,44.922,0
1579294699.723,49.805,31.738,35.156,27.832,49.316,0
1579294699.727,52.734,32.715,36.621,36.133,29.785,0
1579294699.730,59.082,33.691,32.715,54.199,-24.902,0
1579294699.734,61.035,33.691,40.039,61.035,6.348,0
1579294699.738,62.012,31.250,46.875,62.500,51.758,0
1579294699.742,68.848,33.691,39.062,68.359,75.684,0
1579294699.746,72.266,38.574,37.109,72.266,79.102,0
1579294699.743,64.941,38.574,41.016,75.195,67.871,0
1579294699.747,59.570,36.621,39.062,67.871,58.594,0
1579294699.751,55.664,38.086,37.598,60.059,62.012,0
1579294699.755,45.410,38.574,36.133,51.758,53.711,0
1579294699.759,38.574,37.109,35.156,49.316,53.223,0
1579294699.763,36.621,36.621,30.762,47.363,42.969,0
1579294699.767,35.645,35.645,31.250,38.086,43.945,0
1579294699.770,29.785,32.227,39.062,37.109,44.434,0
1579294699.774,29.785,28.320,38.086,37.109,29.297,0
1579294699.778,27.832,26.367,41.016,40.039,40.039,0
1579294699.782,27.344,28.320,44.922,37.598,49.805,0
1579294699.786,36.621,29.785,39.551,42.969,12.695,0
1579294699.783,34.180,32.715,36.621,48.828,-7.324,0
1579294699.787,33.203,35.156,37.598,40.527,43.945,0
1579294699.791,39.551,36.133,41.992,41.992,75.684,0
1579294699.795,43.457,36.621,44.434,43.457,44.434,0
1579294699.799,46.875,40.527,38.086,44.922,43.457,0
1579294699.803,38.574,41.504,37.598,36.621,52.246,0
1579294699.807,31.738,38.574,39.551,23.926,93.750,0
1579294699.810,38.086,38.574,34.668,26.367,39.062,0
1579294699.814,44.922,40.527,31.738,24.902,-19.531,0
1579294699.818,45.898,41.992,30.762,29.297,3.906,0
1579294699.822,41.504,40.039,29.785,36.133,32.227,0
1579294699.826,39.551,35.156,29.785,40.039,36.621,0
1579294699.843,38.574,34.180,33.691,43.457,1.465,0
1579294699.847,45.410,35.156,36.621,54.688,-7.324,0
1579294699.851,46.875,34.180,39.551,59.082,-20.996,0
1579294699.855,43.945,34.180,39.551,46.875,-3.418,0
1579294699.859,48.340,36.621,38.086,46.387,4.883,0
1579294699.863,48.828,38.086,37.598,48.340,13.184,0
1579294699.867,41.504,38.574,36.621,42.969,-14.648,0
1579294699.870,37.109,38.574,35.645,40.039,17.090,0
1579294699.874,35.156,37.109,32.715,35.156,83.496,0
1579294699.878,34.668,36.133,29.297,30.762,0.000,0
1579294699.882,29.785,34.668,32.715,27.344,-4.883,0
1579294699.886,29.785,33.203,36.621,28.320,20.996,0
1579294699.883,36.621,34.668,35.645,35.645,22.949,0
1579294699.887,39.551,33.691,38.086,36.133,66.895,0
1579294699.891,33.691,33.691,37.109,31.250,45.410,0
1579294699.895,33.203,34.180,35.645,33.203,18.555,0
1579294699.899,37.598,35.156,36.133,39.551,25.391,0
1579294699.903,34.180,34.180,35.645,43.457,13.184,0
1579294699.907,37.109,33.203,36.621,45.898,81.055,0
1579294699.910,37.598,34.180,36.133,37.598,59.570,0
1579294699.914,34.668,32.227,35.645,35.645,52.246,0
1579294699.918,32.227,32.715,33.203,38.574,115.234,0
1579294699.922,26.855,32.227,32.715,38.086,27.344,0
1579294699.926,19.043,27.832,36.133,32.715,9.766,0
1579294699.923,19.531,29.297,36.133,27.832,20.020,0
1579294699.927,27.344,34.180,32.227,31.738,-0.977,0
1579294699.931,29.785,38.574,29.297,35.645,20.020,0
1579294699.935,29.297,37.598,27.344,32.227,11.230,0
1579294699.939,31.250,36.133,27.832,28.809,35.645,0
1579294699.943,34.180,38.086,30.762,28.809,67.383,0
1579294699.947,34.668,39.551,31.250,30.762,13.184,0
1579294699.950,31.738,41.992,29.785,34.180,14.648,0
1579294699.954,36.133,39.062,30.762,34.668,36.621,0
1579294699.958,39.551,37.109,32.715,32.227,67.871,0
1579294699.962,36.621,39.062,36.133,33.691,21.484,0
1579294699.966,41.016,38.086,35.645,40.527,56.152,0
1579294699.983,48.828,38.086,35.156,46.387,68.848,0
1579294699.987,45.410,38.574,37.598,44.922,-16.113,0
1579294699.991,38.574,37.109,34.668,40.527,-13.672,0
1579294699.995,32.715,35.156,31.738,39.062,25.879,0
1579294699.999,27.832,35.156,34.180,42.969,50.293,0
1579294700.003,23.438,35.156,38.086,36.621,19.043,0
1579294700.007,21.484,37.109,37.598,22.949,28.809,0
1579294700.010,22.949,38.086,37.598,27.344,31.250,0
1579294700.014,17.090,34.668,36.621,33.203,24.414,0
1579294700.018,17.090,34.180,34.668,32.715,57.617,0
1579294700.022,26.855,34.180,34.668,35.156,16.602,0
1579294700.026,28.809,34.180,35.645,39.551,56.641,0
1579294700.023,28.320,33.691,38.086,42.969,65.430,0
1579294700.027,32.715,37.109,36.133,37.109,-8.301,0
1579294700.031,33.203,38.086,34.180,31.250,20.996,0
1579294700.035,26.855,35.645,33.691,28.320,28.809,0
1579294700.039,20.508,36.133,32.715,24.902,-4.395,0
1579294700.043,20.508,36.621,33.691,21.484,27.832,0
1579294700.047,22.461,35.156,35.645,12.207,71.289,0
1579294700.050,23.438,36.621,33.691,14.160,22.461,0
1579294700.054,26.855,41.504,29.785,26.855,17.090,0
1579294700.058,31.250,41.504,30.273,32.715,12.207,0
1579294700.062,34.180,38.086,32.227,29.785,67.871,0
1579294700.066,39.551,38.574,31.738,29.297,85.449,0
1579294700.063,44.434,39.551,28.809,32.227,47.852,0
1579294700.067,41.992,38.574,27.344,38.574,41.504,0
1579294700.071,40.039,36.133,30.762,42.969,66.895,0
1579294700.075,34.180,33.691,32.227,37.109,64.941,0
1579294700.079,29.785,33.691,33.203,37.598,71.777,0
1579294700.083,28.320,34.668,33.203,41.992,65.430,0
1579294700.087,26.855,32.715,34.668,35.156,42.969,0
1579294700.090,28.809,33.203,36.621,31.738,45.898,0
1579294700.094,24.414,33.203,37.109,30.762,59.570,0
1579294700.098,21.484,30.273,37.109,30.762,36.621,0
1579294700.102,23.438,30.762,36.621,35.156,-17.578,0
1579294700.106,28.320,35.156,37.109,32.715,33.203,0
1579294700.123,29.297,38.086,34.668,25.391,28.809,0
1579294700.127,21.484,37.109,32.227,26.855,16.602,0
1579294700.131,10.742,36.133,31.250,19.531,24.902,0
1579294700.135,13.184,36.133,28.809,15.137,20.020,0
1579294700.139,25.879,34.668,30.762,26.367,44.922,0
1579294700.143,32.227,33.691,32.227,29.297,43.457,0
1579294700.147,36.133,34.668,35.645,27.344,42.969,0
1579294700.150,43.945,35.156,37.598,27.344,78.125,0
1579294700.154,49.316,36.621,38.086,34.668,64.941,0
1579294700.158,51.758,35.645,40.039,41.992,5.371,0
1579294700.162,48.340,35.645,37.598,45.410,68.359,0
1579294700.166,41.992,36.133,36.133,41.016,117.188,0
1579294700.163,37.598,35.156,36.133,34.668,32.227,0
1579294700.167,36.133,35.645,38.086,30.273,22.461,0
1579294700.171,44.434,36.133,39.551,34.668,54.688,0
1579294700.175,49.805,38.086,39.062,43.457,19.531,0
1579294700.179,48.340,39.551,35.645,40.527,24.414,0
1579294700.183,43.457,38.574,33.691,36.133,83.984,0
1579294700.187,34.668,39.062,34.668,38.574,43.457,0
1579294700.190,27.832,36.621,33.203,32.715,12.207,0
1579294700.194,31.738,36.621,31.738,28.320,18.066,0
1579294700.198,30.762,39.551,31.738,26.855,29.297,0
1579294700.202,22.949,36.621,29.785,20.508,-5.859,0
1579294700.206,20.508,36.133,31.250,21.973,-5.859,0
1579294700.203,19.043,37.109,34.668,21.973,-1.465,0
1579294700.207,20.020,36.621,34.180,20.020,-20.508,0
1579294700.211,20.508,36.621,31.738,26.367,39.551,0
1579294700.215,17.578,39.062,31.250,32.227,78.125,0
1579294700.219,18.066,37.598,32.227,33.203,0.977,0
1579294700.223,17.090,36.133,35.156,29.297,-14.160,0
1579294700.227,22.949,40.039,35.645,39.062,-4.883,0
1579294700.230,27.344,39.551,37.598,47.363,-18.066,0
1579294700.234,27.344,36.621,41.992,43.945,50.781,0
1579294700.238,30.273,31.738,41.016,41.504,74.707,0
1579294700.242,24.414,29.297,37.598,42.480,54.688,0
1579294700.246,17.578,29.785,38.574,43.945,44.434,0
1579294700.263,17.090,29.785,39.062,41.016,15.625,0
1579294700.267,24.902,30.762,37.598,39.551,5.859,0
1579294700.271,29.785,31.250,39.062,38.086,24.902,0
1579294700.275,25.391,32.227,37.598,35.645,19.043,0
1579294700.279,26.367,34.180,35.156,39.551,0.977,0
1579294700.283,28.320,39.062,33.691,41.016,33.691,0
1579294700.287,30.762,39.062,32.715,35.645,71.289,0
1579294700.290,32.227,39.551,29.785,34.180,53.711,0
1579294700.294,33.691,42.969,27.344,44.434,63.965,0
1579294700.298,42.969,42.480,30.762,48.340,47.363,0
1579294700.302,52.246,43.945,36.133,46.387,52.246,0
1579294700.306,53.711,42.969,37.598,46.875,63.477,0
1579294700.303,53.711,39.062,34.180,51.758,0.000,0
1579294700.307,55.176,38.086,33.691,47.852,-27.344,0
1579294700.311,51.270,37.109,37.598,36.133,0.000,0
1579294700.315,50.293,36.133,38.086,26.367,32.227,0
1579294700.319,43.945,33.691,37.598,23.926,31.250,0
1579294700.323,30.762,34.668,35.156,26.367,21.484,0
1579294700.327,28.320,34.180,34.668,21.973,38.574,0
1579294700.330,25.391,32.227,38.574,23.926,68.359,0
1579294700.334,25.391,35.645,37.109,30.762,86.426,0
1579294700.338,29.297,39.062,36.133,35.645,50.293,0
1579294700.342,25.879,36.133,38.574,33.691,56.641,0
1579294700.346,30.273,34.668,38.086,30.273,33.203,0
1579294700.343,40.039,35.645,37.598,33.691,3.906,0
1579294700.347,42.480,39.062,37.109,40.039,19.043,0
1579294700.351,30.762,40.039,36.621,40.039,13.672,0
1579294700.355,28.809,37.598,36.133,35.156,2.441,0
1579294700.359,35.156,37.109,35.645,32.227,20.508,0
1579294700.363,30.762,38.574,37.109,29.785,43.945,0
1579294700.367,27.832,39.551,35.645,32.227,1.465,0
1579294700.370,34.180,39.551,34.180,37.109,1.953,0
1579294700.374,36.621,36.621,36.133,36.621,79.102,0
1579294700.378,39.062,36.133,38.086,36.621,100.098,0
1579294700.382,46.875,39.551,32.227,36.133,49.805,0
1579294700.386,53.711,42.480,28.320,32.227,41.504,0
1579294700.403,52.246,41.504,29.785,28.320,53.223,0
1579294700.407,44.434,40.039,27.832,24.414,11.230,0
1579294700.411,39.062,41.016,24.414,23.926,17.090,0
1579294700.415,41.504,42.969,21.973,23.926,56.641,0
1579294700.419,41.992,41.016,24.902,16.602,98.145,0
1579294700.423,39.062,40.527,28.809,23.438,77.148,0
1579294700.427,41.992,40.039,30.762,31.738,9.766,0
1579294700.430,38.574,37.598,32.227,34.180,5.371,0
1579294700.434,36.133,39.551,35.156,36.133,12.207,0
1579294700.438,41.992,38.086,37.598,36.621,22.461,0
1579294700.442,40.527,36.133,35.156,45.410,49.316,0
1579294700.446,29.297,34.668,37.109,42.480,40.039,0
1579294700.443,28.320,33.691,38.086,36.621,26.367,0
1579294700.447,28.320,32.715,36.133,34.668,53.223,0
1579294700.451,25.879,33.691,37.109,37.598,16.113,0
1579294700.455,20.996,33.203,37.109,39.062,-6.836,0
1579294700.459,11.719,31.250,34.668,36.133,-30.273,0
1579294700.463,9.277,29.297,33.691,35.645,9.277,0
1579294700.467,15.625,27.832,33.691,36.133,55.664,0
1579294700.470,17.090,26.855,34.668,43.457,64.453,0
1579294700.474,19.043,26.367,34.180,48.340,38.574,0
1579294700.478,22.949,27.832,34.668,42.480,48.828,0
1579294700.482,24.414,29.785,37.109,38.086,69.824,0
1579294700.486,27.832,28.809,35.156,43.457,45.410,0
1579294700.483,30.273,29.297,35.156,49.316,48.340,0
1579294700.487,36.621,31.250,36.133,46.387,32.715,0
1579294700.491,48.340,31.250,32.227,36.133,16.113,0
1579294700.495,52.246,31.250,31.738,31.738,47.363,0
1579294700.499,46.387,31.738,32.715,32.227,67.383,0
1579294700.503,43.945,35.645,33.203,32.715,44.434,0
1579294700.507,41.016,35.156,34.180,27.832,20.508,0
1579294700.510,34.668,33.203,30.273,17.578,62.988,0
1579294700.514,36.621,35.156,25.391,15.137,112.793,0
1579294700.518,32.227,33.203,25.391,17.090,97.656,0
1579294700.522,23.438,33.691,29.297,14.648,74.219,0
1579294700.526,21.484,34.180,31.250,15.137,-18.066,0
1579294700.543,20.508,33.203,27.344,28.320,-19.043,0
1579294700.547,14.160,31.250,30.273,28.809,16.602,0
1579294700.551,13.672,34.180,32.715,26.367,27.344,0
1579294700.555,17.578,38.086,30.273,29.785,21.484,0
1579294700.559,18.066,36.621,31.738,33.691,-13.672,0
1579294700.563,19.043,36.621,33.203,33.203,28.809,0
1579294700.567,13.184,37.109,35.645,32.715,69.824,0
1579294700.570,14.160,35.645,34.180,29.785,59.570,0
1579294700.574,25.391,36.621,32.227,29.297,41.016,0
1579294700.578,23.926,36.133,35.156,39.551,-35.645,0
1579294700.582,22.461,37.109,35.645,36.621,-44.434,0
1579294700.586,18.555,37.109,36.621,28.809,20.508,0
1579294700.583,9.766,33.203,38.574,30.762,-2.930,0
1579294700.587,9.766,28.320,37.109,32.227,-20.508,0
1579294700.591,14.160,27.832,37.109,29.297,50.781,0
1579294700.595,16.113,28.809,33.691,26.855,39.551,0
1579294700.599,17.578,27.832,34.180,25.879,51.270,0
1579294700.603,23.926,32.227,34.180,30.762,56.641,0
1579294700.607,32.715,37.109,31.250,39.551,29.297,0
1579294700.610,37.109,39.551,31.738,36.133,30.762,0
1579294700.614,40.527,41.992,31.738,33.203,37.598,0
1579294700.618,39.551,42.969,29.297,28.320,56.641,0
1579294700.622,35.156,40.527,25.879,18.066,10.742,0
1579294700.626,36.621,40.527,24.414,11.230,35.156,0
1579294700.623,38.574,39.551,24.414,5.371,50.781,0
1579294700.627,33.203,37.598,23.926,3.418,56.152,0
1579294700.631,26.367,37.109,24.902,3.906,44.922,0
1579294700.635,27.832,36.133,25.391,1.465,62.988,0
1579294700.639,30.273,36.621,26.367,4.883,97.168,0
1579294700.643,32.715,37.109,27.832,16.602,40.527,0
1579294700.647,38.574,35.156,30.762,26.855,12.207,0
1579294700.650,37.598,34.668,35.645,37.109,11.719,0
1579294700.654,33.691,31.738,36.621,34.180,36.621,0
1579294700.658,31.738,31.738,35.156,36.133,43.457,0
1579294700.662,26.855,36.133,30.762,39.062,20.020,0
1579294700.666,25.391,36.621,30.762,45.898,22.461,0
1579294700.683,21.484,33.691,37.109,53.223,27.832,0
1579294700.687,13.672,32.227,41.016,41.016,40.039,0
1579294700.691,10.742,31.738,40.039,39.551,45.898,0
1579294700.695,2.930,29.785,44.434,41.992,20.996,0
1579294700.699,6.348,28.320,47.852,42.969,-3.418,0
1579294700.703,12.207,29.785,42.969,38.086,0.488,0
1579294700.707,11.719,29.785,43.457,30.273,21.484,0
1579294700.710,25.879,31.738,42.969,37.109,-15.137,0
1579294700.714,38.574,33.203,39.551,41.016,-11.230,0
1579294700.718,43.457,34.668,40.527,38.574,18.066,0
1579294700.722,47.852,39.062,39.551,46.387,-1.465,0
1579294700.726,51.270,38.086,36.133,51.270,9.277,0
1579294700.723,56.641,37.109,38.574,41.992,12.207,0
1579294700.727,54.199,36.133,40.527,27.832,31.250,0
1579294700.731,47.852,34.180,42.480,22.461,60.547,0
1579294700.735,50.781,35.645,40.039,31.250,76.172,0
1579294700.739,50.781,37.109,36.133,31.738,95.215,0
1579294700.743,41.504,38.574,35.156,21.484,80.566,0
1579294700.747,37.598,39.062,34.668,20.508,24.902,0
1579294700.750,34.668,36.621,33.203,16.602,22.461,0
1579294700.754,25.391,38.086,33.691,17.578,74.707,0
1579294700.758,23.926,40.039,29.785,17.578,56.641,0
1579294700.762,20.996,36.133,25.879,5.371,29.297,0
1579294700.766,16.113,34.668,28.809,5.859,28.320,0
1579294700.783,19.531,36.621,28.809,16.602,59.082,0
1579294700.787,20.508,37.109,31.250,22.949,57.129,0
1579294700.791,21.973,37.598,33.691,22.949,40.527,0
1579294700.795,22.949,38.086,32.715,24.414,22.461,0
1579294700.799,19.531,36.621,34.180,31.738,17.090,0
1579294700.803,20.508,37.109,34.668,39.062,40.527,0
1579294700.807,30.273,38.086,34.668,43.457,64.453,0
1579294700.810,30.273,35.156,39.062,32.227,61.035,0
1579294700.814,27.832,34.668,38.574,33.691,31.738,0
1579294700.818,31.250,35.156,36.133,41.992,25.879,0
1579294700.822,29.297,30.762,37.109,31.738,0.488,0
1579294700.826,27.832,31.738,35.645,31.250,-6.836,0
1579294700.823,31.250,34.180,34.180,40.527,-20.508,0
1579294700.827,39.062,33.691,31.738,41.504,21.973,0
1579294700.831,38.574,34.668,32.715,30.762,5.859,0
1579294700.835,41.504,36.621,32.715,28.809,-32.227,0
1579294700.839,49.316,37.598,33.203,34.668,57.617,0
1579294700.843,51.270,37.598,37.109,34.180,52.734,0
1579294700.847,48.828,39.551,35.645,29.785,18.555,0
1579294700.850,51.270,38.086,34.180,29.297,40.039,0
1579294700.854,52.734,40.039,35.645,34.180,20.996,0
1579294700.858,46.875,42.969,32.227,37.109,72.266,0
1579294700.862,47.852,42.969,31.250,37.598,122.559,0
1579294700.866,49.316,44.434,35.156,36.133,52.734,0
1579294700.863,48.828,44.434,32.715,36.133,30.762,0
1579294700.867,48.340,46.387,29.297,39.551,73.730,0
1579294700.871,51.758,47.363,30.273,39.062,46.875,0
1579294700.875,53.223,44.922,30.273,35.156,47.852,0
1579294700.879,51.758,41.992,33.691,30.273,82.031,0
1579294700.883,51.758,42.480,34.668,30.273,2.930,0
1579294700.887,46.387,38.574,30.762,36.133,-22.461,0
1579294700.890,44.434,35.156,32.715,40.527,35.645,0
1579294700.894,44.922,38.574,33.691,35.156,65.430,0
1579294700.898,28.320,39.062,33.203,34.668,45.898,0
1579294700.902,18.066,39.551,31.738,41.992,-36.621,0
1579294700.906,21.973,41.992,29.297,41.504,-38.574,0
1579294700.923,18.555,41.992,26.855,37.598,22.949,0
1579294700.927,15.137,40.039,26.367,30.762,13.672,0
1579294700.931,13.184,40.527,25.391,29.297,24.902,0
1579294700.935,12.207,39.551,22.461,30.762,61.523,0
1579294700.939,12.695,38.086,24.414,33.203,83.496,0
1579294700.943,17.578,36.621,25.879,30.273,56.152,0
1579294700.947,25.879,38.574,25.391,37.109,34.668,0
1579294700.950,33.203,40.527,28.809,46.387,21.973,0
1579294700.954,41.992,38.086,28.320,41.504,37.598,0
1579294700.958,42.480,36.621,28.809,36.621,71.777,0
1579294700.962,42.969,38.086,28.809,32.227,76.660,0
1579294700.966,44.434,39.062,28.809,31.250,86.426,0
1579294700.963,41.504,37.598,29.785,27.344,53.711,0
1579294700.967,42.969,39.551,25.879,26.367,35.156,0
1579294700.971,41.016,41.504,25.391,30.762,1.953,0
1579294700.975,35.156,38.086,27.832,34.180,29.785,0
1579294700.979,33.203,36.133,29.297,31.250,52.246,0
1579294700.983,35.156,38.574,29.297,25.879,33.691,0
1579294700.987,30.762,37.109,30.273,24.902,49.805,0
1579294700.990,24.414,32.715,36.133,25.879,3.906,0
1579294700.994,24.414,31.250,35.156,20.508,1.465,0
1579294700.998,28.809,33.691,29.785,24.414,92.285,0
1579294701.002,28.320,32.715,32.715,23.926,36.133,0
1579294701.006,29.297,34.668,33.691,25.391,-26.855,0
1579294701.003,34.180,37.598,34.668,37.598,8.789,0
1579294701.007,34.180,37.109,33.691,37.109,36.133,0
1579294701.011,34.668,39.062,33.203,30.273,61.035,0
1579294701.015,34.180,41.504,32.715,33.691,35.156,0
1579294701.019,31.738,41.016,28.320,37.598,-2.930,0
1579294701.023,33.203,40.039,26.855,41.504,52.246,0
1579294701.027,34.180,39.062,29.785,37.598,89.844,0
1579294701.030,28.320,39.062,29.785,28.809,17.578,0
1579294701.034,27.832,38.574,31.250,34.180,13.672,0
1579294701.038,30.273,36.133,34.668,35.645,64.941,0
1579294701.042,32.715,37.598,33.203,29.297,46.875,0
1579294701.046,36.133,35.156,32.715,23.438,48.828,0
1579294701.063,39.062,33.691,33.691,27.832,19.531,0
1579294701.067,43.457,34.668,33.691,34.668,-14.160,0
1579294701.071,41.016,34.668,33.203,34.668,12.695,0
1579294701.075,39.551,36.621,34.180,30.762,10.254,0
1579294701.079,41.016,37.598,33.203,28.809,22.461,0
1579294701.083,43.945,38.574,29.297,35.645,64.941,0
1579294701.087,43.457,40.039,29.297,31.738,69.336,0
1579294701.090,38.574,41.016,28.320,24.414,76.660,0
1579294701.094,37.598,41.016,29.785,27.832,79.590,0
1579294701.098,35.156,40.527,33.691,29.297,53.711,0
1579294701.102,38.574,42.480,32.227,31.250,29.297,0
1579294701.106,43.945,41.992,32.227,31.250,59.570,0
1579294701.103,39.551,38.574,32.715,26.367,49.805,0
1579294701.107,39.062,37.598,32.715,28.320,-48.828,0
1579294701.111,37.598,41.016,33.691,23.926,15.137,0
1579294701.115,35.156,40.039,33.691,20.508,42.969,0
1579294701.119,35.645,37.598,32.715,27.832,10.254,0
1579294701.123,36.133,37.109,33.691,32.227,47.363,0
1579294701.127,35.645,38.574,33.203,38.574,55.664,0
1579294701.130,35.156,41.992,31.250,35.156,67.383,0
1579294701.134,33.203,41.504,34.180,23.438,38.574,0
1579294701.138,35.156,40.039,33.691,28.320,68.848,0
1579294701.142,39.551,39.062,33.691,33.203,111.328,0
1579294701.146,39.062,36.621,35.156,34.180,62.012,0
1579294701.143,27.832,35.645,39.551,30.273,-0.488,0
1579294701.147,20.508,34.180,40.527,24.414,-28.320,0
1579294701.151,24.414,31.738,37.598,37.598,56.641,0
1579294701.155,21.973,30.273,41.504,38.086,91.797,0
1579294701.159,25.879,28.809,39.062,31.250,44.922,0
1579294701.163,33.691,27.344,36.133,37.598,54.199,0
1579294701.167,36.621,29.785,37.109,42.969,58.594,0
1579294701.170,41.992,32.227,37.109,50.781,-24.414,0
1579294701.174,44.922,34.180,34.668,50.781,-0.977,0
1579294701.178,42.969,36.133,32.715,40.039,56.152,0
1579294701.182,36.133,33.691,33.203,36.621,79.102,0
1579294701.186,36.133,33.691,34.180,37.109,75.195,0
1579294701.203,31.250,33.691,34.668,32.227,10.254,0
1579294701.207,25.879,34.180,34.180,26.855,28.809,0
1579294701.211,32.227,36.621,33.203,26.855,27.344,0
1579294701.215,33.203,36.621,31.738,30.762,15.625,0
1579294701.219,29.297,35.645,30.762,33.691,62.012,0
1579294701.223,23.438,35.645,30.273,34.668,74.219,0
1579294701.227,22.949,37.109,29.785,22.461,58.105,0
1579294701.230,16.602,35.156,33.203,15.137,42.969,0
1579294701.234,12.695,34.668,34.180,23.438,11.719,0
1579294701.238,18.555,38.574,32.715,22.949,12.695,0
1579294701.242,12.695,39.062,32.715,19.043,-2.441,0
1579294701.246,15.625,37.598,34.668,27.832,-19.531,0
1579294701.243,16.113,34.668,35.645,29.297,27.344,0
1579294701.247,12.207,31.738,36.133,22.949,10.742,0
1579294701.251,18.066,33.691,39.062,29.297,40.527,0
1579294701.255,24.414,34.668,37.598,31.738,129.395,0
1579294701.259,28.320,34.668,34.668,34.668,43.945,0
1579294701.263,32.715,38.574,36.133,41.992,41.016,0
1579294701.267,39.062,38.574,40.039,42.969,44.922,0
1579294701.270,41.992,37.598,38.574,42.969,38.086,0
1579294701.274,33.691,34.668,40.527,40.527,73.242,0
1579294701.278,35.156,34.668,41.992,44.922,19.043,0
1579294701.282,40.039,36.133,40.527,43.457,-2.930,0
1579294701.286,30.273,32.227,39.551,39.062,26.367,0
1579294701.283,27.832,33.203,32.227,42.969,57.617,0
1579294701.287,28.320,35.156,30.762,41.992,45.410,0
1579294701.291,21.973,32.715,37.598,34.180,-0.488,0
1579294701.295,12.695,30.273,39.062,27.832,-5.371,0
1579294701.299,10.254,29.297,34.668,31.738,44.434,0
1579294701.303,17.578,30.762,35.156,32.715,27.832,0
1579294701.307,21.484,31.738,38.574,28.320,-11.719,0
1579294701.310,22.949,30.762,38.574,25.391,67.871,0
1579294701.314,26.855,33.203,36.621,30.273,41.016,0
1579294701.318,28.320,32.227,36.621,30.762,15.625,0
1579294701.322,33.203,30.762,36.621,32.227,-2.930,0
1579294701.326,31.738,32.715,35.645,35.156,-3.906,0
1579294701.343,29.785,33.203,36.133,31.250,99.121,0
1579294701.347,36.133,35.645,36.621,31.738,65.430,0
1579294701.351,41.016,37.109,36.133,30.762,-22.461,0
1579294701.355,43.945,39.551,34.668,31.250,51.758,0
1579294701.359,46.875,41.992,34.180,34.668,76.172,0
1579294701.363,43.945,42.480,34.180,33.691,39.062,0
1579294701.367,33.203,39.551,34.180,28.320,107.910,0
1579294701.370,26.367,38.086,33.691,24.414,102.051,0
1579294701.374,22.949,38.574,32.227,22.461,91.797,0
1579294701.378,20.508,37.109,34.180,22.461,63.477,0
1579294701.382,18.555,32.227,35.645,24.902,27.832,0
1579294701.386,20.996,30.273,38.574,28.809,46.387,0
1579294701.383,24.414,30.273,40.039,30.273,10.742,0
1579294701.387,28.809,29.297,39.062,33.691,18.555,0
1579294701.391,34.668,29.297,39.062,41.504,31.250,0
1579294701.395,34.180,28.809,38.086,42.969,-0.488,0
1579294701.399,41.992,32.227,37.598,42.480,20.020,0
1579294701.403,46.875,33.203,35.645,44.922,59.570,0
1579294701.407,41.016,31.738,36.133,50.293,68.359,0
1579294701.410,41.016,33.203,35.156,45.898,34.668,0
1579294701.414,41.016,33.203,33.203,37.598,20.508,0
1579294701.418,40.527,34.180,34.180,40.039,24.414,0
1579294701.422,42.969,38.574,34.180,39.062,91.309,0
1579294701.426,36.621,39.551,34.180,33.203,52.734,0
1579294701.423,29.297,39.551,34.668,22.461,7.324,0
1579294701.427,28.809,41.992,35.645,18.066,54.199,0
1579294701.431,31.738,43.945,32.715,25.391,63.477,0
1579294701.435,35.156,41.504,35.156,26.855,35.645,0
1579294701.439,35.156,38.086,36.621,20.996,-19.531,0
1579294701.443,38.086,40.039,34.180,24.414,6.348,0
1579294701.447,38.574,39.551,34.180,32.227,43.945,0
1579294701.450,36.621,39.062,35.645,35.156,31.250,0
1579294701.454,40.039,40.527,38.086,34.180,29.297,0
1579294701.458,47.363,39.062,34.668,36.621,70.801,0
1579294701.462,49.805,35.645,35.156,45.898,45.898,0
1579294701.466,41.504,34.180,41.016,47.363,-3.418,0
1579294701.483,35.156,32.715,41.016,45.898,-26.855,0
1579294701.487,34.180,31.250,39.062,37.109,4.395,0
1579294701.491,29.297,29.785,37.598,34.180,27.344,0
1579294701.495,24.414,30.273,39.062,39.062,25.391,0
1579294701.499,22.949,31.250,43.945,37.598,23.438,0
1579294701.503,24.414,34.180,47.852,35.645,46.387,0
1579294701.507,27.832,36.621,50.293,32.227,59.082,0
1579294701.510,27.832,34.668,51.758,35.156,38.086,0
1579294701.514,26.855,32.227,56.152,38.574,71.777,0
1579294701.518,26.367,29.785,58.105,36.621,80.078,0
1579294701.522,31.250,30.273,52.734,36.621,41.016,0
1579294701.526,35.645,32.227,48.828,40.527,65.430,0
1579294701.523,37.109,32.715,47.363,48.828,35.156,0
1579294701.527,38.574,32.227,46.387,47.363,-27.344,0
1579294701.531,36.133,31.250,45.898,42.969,-20.020,0
1579294701.535,34.668,31.738,44.922,39.062,-12.695,0
1579294701.539,31.738,31.250,45.410,35.645,42.480,0
1579294701.543,30.273,29.785,45.410,34.668,21.484,0
1579294701.547,27.832,31.250,45.898,28.320,22.949,0
1579294701.550,23.926,30.273,45.410,26.367,65.430,0
1579294701.554,20.996,27.832,43.945,27.832,43.457,0
1579294701.558,25.391,27.344,45.898,30.273,90.820,0
1579294701.562,26.855,27.344,45.898,31.738,74.219,0
1579294701.566,25.879,28.320,44.434,32.227,25.391,0
1579294701.563,27.832,34.180,41.992,36.621,41.016,0
1579294701.567,31.738,36.621,42.480,46.387,49.316,0
1579294701.571,29.297,35.645,42.969,43.457,55.664,0
1579294701.575,26.367,37.598,41.504,36.133,43.457,0
1579294701.579,28.320,38.574,41.504,39.062,41.992,0
1579294701.583,26.855,34.668,42.969,40.039,22.461,0
1579294701.587,23.926,32.227,45.898,32.715,61.523,0
1579294701.590,20.020,31.738,42.969,26.855,76.660,0
1579294701.594,23.438,29.785,39.062,28.809,15.137,0
1579294701.598,21.973,29.297,41.504,32.227,34.668,0
1579294701.602,21.484,30.762,42.480,40.039,45.898,0
1579294701.606,23.926,29.785,39.551,37.598,70.312,0
1579294701.623,28.320,31.250,39.062,33.691,99.609,0
1579294701.627,33.203,37.109,38.574,40.527,92.773,0
1579294701.631,29.785,37.109,36.133,38.086,47.363,0
1579294701.635,23.438,37.109,35.645,33.691,29.297,0
1579294701.639,26.855,36.621,36.133,29.297,56.152,0
1579294701.643,30.762,35.156,35.645,27.344,99.609,0
1579294701.647,23.926,35.645,36.133,28.809,90.820,0
1579294701.650,23.438,36.133,36.621,27.344,60.547,0
1579294701.654,25.391,33.691,35.156,26.855,41.016,0
1579294701.658,25.879,33.691,33.203,26.367,20.020,0
1579294701.662,26.855,35.645,32.227,29.785,15.625,0
1579294701.666,27.344,35.645,31.738,31.738,14.160,0
1579294701.663,27.832,38.086,31.738,26.367,-0.977,0
1579294701.667,23.438,36.621,32.715,21.484,-11.719,0
1579294701.671,19.531,35.156,30.762,20.996,50.293,0
1579294701.675,19.531,35.645,30.273,23.926,71.289,0
1579294701.679,20.996,35.156,31.250,22.461,26.367,0
1579294701.683,20.508,34.180,34.180,20.996,-2.930,0
1579294701.687,23.926,34.668,34.180,25.879,20.996,0
1579294701.690,25.879,34.668,31.250,26.367,13.184,0
1579294701.694,24.414,34.180,33.691,28.320,-1.465,0
1579294701.698,26.367,38.574,36.133,26.855,-32.715,0
1579294701.702,29.297,40.039,36.621,26.367,-1.953,0
1579294701.706,28.809,36.621,36.133,36.621,54.199,0
1579294701.703,25.879,37.109,33.691,30.273,34.668,0
1579294701.707,27.344,37.598,31.250,21.484,15.625,0
1579294701.711,28.809,37.598,31.250,24.902,8.301,0
1579294701.715,27.344,36.133,30.762,29.785,14.160,0
1579294701.719,28.809,34.668,33.691,29.297,-27.832,0
1579294701.723,35.156,33.691,33.691,26.367,-24.414,0
1579294701.727,37.109,34.180,30.273,21.973,24.414,0
1579294701.730,31.250,36.133,31.250,21.484,-21.484,0
1579294701.734,30.762,36.133,30.762,26.855,46.875,0
1579294701.738,38.574,37.598,30.273,30.762,76.172,0
1579294701.742,41.016,41.504,27.832,26.855,27.344,0
1579294701.746,31.250,39.551,29.785,26.367,-3.418,0
1579294701.763,30.273,41.016,32.715,32.715,19.531,0
1579294701.767,38.086,41.992,30.273,31.738,28.320,0
1579294701.771,39.551,37.598,31.250,31.738,22.461,0
1579294701.775,38.574,38.086,32.227,33.203,74.219,0
1579294701.779,36.621,40.527,26.855,34.668,44.922,0
1579294701.783,23.438,38.574,26.855,27.344,49.316,0
1579294701.787,18.555,37.109,30.273,18.555,53.711,0
1579294701.790,22.949,37.109,30.273,23.438,18.066,0
1579294701.794,22.461,35.645,32.227,33.203,25.879,0
1579294701.798,19.043,35.156,32.715,29.785,15.625,0
1579294701.802,19.043,37.109,34.180,26.855,45.898,0
1579294701.806,24.902,39.551,33.691,30.762,77.148,0
1579294701.803,21.484,38.086,32.227,34.180,44.922,0
1579294701.807,21.973,35.156,31.250,34.668,21.973,0
1579294701.811,31.738,33.691,28.809,30.762,-13.672,0
1579294701.815,28.809,32.715,28.809,30.273,-3.906,0
1579294701.819,24.414,31.250,29.297,24.414,8.301,0
1579294701.823,25.879,32.715,32.227,23.438,40.527,0
1579294701.827,26.855,33.203,33.203,22.949,20.020,0
1579294701.830,26.367,32.715,31.738,20.020,-1.953,0
1579294701.834,28.809,34.668,34.180,22.461,30.762,0
1579294701.838,33.203,35.156,35.645,29.785,64.453,0
1579294701.842,35.156,34.668,33.203,30.762,76.660,0
1579294701.846,36.133,33.691,33.203,23.926,88.867,0
1579294701.843,33.203,33.691,36.621,21.973,68.848,0
1579294701.847,37.109,38.574,36.133,23.438,32.715,0
1579294701.851,39.551,38.086,35.645,24.414,45.410,0
1579294701.855,40.527,33.203,38.574,28.320,14.648,0
1579294701.859,41.504,34.180,38.086,31.738,-16.113,0
1579294701.863,37.598,33.691,37.109,31.250,13.184,0
1579294701.867,33.203,33.691,34.668,33.691,14.648,0
1579294701.870,34.668,35.645,36.133,34.180,21.484,0
1579294701.874,35.156,34.180,39.551,29.297,88.867,0
1579294701.878,37.109,35.156,39.062,36.621,99.609,0
1579294701.882,34.180,35.156,39.551,45.410,-3.418,0
1579294701.886,21.973,35.156,40.039,41.992,-19.531,0
1579294701.903,24.902,39.551,39.551,43.457,11.719,0
1579294701.907,26.855,41.504,39.551,41.992,-25.391,0
1579294701.911,26.855,41.504,38.086,36.133,23.438,0
1579294701.915,30.273,41.016,36.621,41.504,48.340,0
1579294701.919,32.715,39.062,37.598,41.992,33.203,0
1579294701.923,34.180,39.062,36.621,39.551,0.000,0
1579294701.927,30.762,37.598,35.156,38.574,4.883,0
1579294701.930,25.391,35.156,35.645,33.203,14.648,0
1579294701.934,27.344,34.180,34.668,31.738,1.465,0
1579294701.938,23.438,30.273,36.621,32.227,22.461,0
1579294701.942,25.879,32.227,37.598,39.062,46.387,0
1579294701.946,34.668,38.086,37.109,41.504,72.754,0
1579294701.943,33.203,41.016,34.668,28.809,66.895,0
1579294701.947,36.621,41.992,32.227,24.902,21.484,0
1579294701.951,38.574,41.504,27.832,25.879,-7.324,0
1579294701.955,34.668,40.527,27.832,28.320,19.531,0
1579294701.959,36.621,42.969,29.297,33.203,56.152,0
1579294701.963,38.574,42.969,28.809,30.762,46.387,0
1579294701.967,36.133,43.457,27.832,28.320,20.020,0
1579294701.970,34.180,44.434,26.855,30.762,27.344,0
1579294701.974,36.621,42.969,28.320,41.504,53.223,0
1579294701.978,34.180,40.527,30.273,41.992,76.660,0
1579294701.982,33.203,38.574,31.250,34.668,38.086,0
1579294701.986,37.598,40.039,33.691,36.133,63.477,0
1579294701.983,41.504,38.086,35.645,35.645,106.934,0
1579294701.987,40.039,38.086,34.180,28.809,75.195,0
1579294701.991,36.133,39.551,30.762,15.625,39.551,0
1579294701.995,34.668,37.109,29.297,16.113,45.898,0
1579294701.999,30.762,37.598,28.320,20.508,38.574,0
1579294702.003,29.297,41.504,28.809,18.555,50.781,0
1579294702.007,30.273,40.527,27.344,12.695,81.543,0
1579294702.010,31.250,40.039,26.855,16.602,63.477,0
1579294702.014,34.180,40.527,27.832,23.926,41.016,0
1579294702.018,27.832,39.551,27.832,22.949,83.008,0
1579294702.022,28.320,41.016,29.297,22.949,35.156,0
1579294702.026,34.668,42.969,30.273,29.785,-1.465,0
1579294702.043,36.133,42.969,27.832,34.668,29.785,0
1579294702.047,35.156,41.016,28.809,37.109,12.207,0
1579294702.051,34.180,41.016,29.297,36.133,-80.078,0
1579294702.055,31.738,38.086,27.832,27.832,-89.355,0
1579294702.059,25.879,37.598,29.785,29.297,2.441,0
1579294702.063,26.367,37.598,29.785,36.621,46.875,0
1579294702.067,29.785,35.156,29.297,34.180,3.906,0
1579294702.070,29.297,35.156,34.668,25.879,-23.438,0
1579294702.074,23.926,34.180,35.645,21.484,4.395,0
1579294702.078,24.902,33.691,31.250,29.785,13.184,0
1579294702.082,29.785,36.621,30.762,30.762,54.688,0
1579294702.086,30.762,36.133,31.250,23.926,33.203,0
1579294702.083,31.738,33.691,30.273,28.320,32.227,0
1579294702.087,27.832,38.086,28.809,30.273,56.152,0
1579294702.091,30.762,39.062,30.762,28.320,18.555,0
1579294702.095,36.621,38.086,34.180,26.367,62.500,0
1579294702.099,33.691,37.109,31.738,22.461,75.684,0
1579294702.103,34.668,37.109,31.738,26.855,31.738,0
1579294702.107,33.203,38.574,31.250,28.809,36.621,0
1579294702.110,27.344,36.133,29.785,24.414,48.340,0
1579294702.114,27.832,35.645,34.668,19.043,83.496,0
1579294702.118,33.691,38.086,31.738,24.414,63.477,0
1579294702.122,31.738,37.109,29.785,30.273,21.484,0
1579294702.126,26.855,35.645,32.715,30.762,32.715,0
1579294702.123,31.250,37.109,32.227,28.320,13.672,0
1579294702.127,35.156,36.621,32.715,30.762,72.266,0
1579294702.131,35.645,36.621,36.621,36.621,93.262,0
1579294702.135,35.645,37.598,32.715,36.133,-4.395,0
1579294702.139,35.645,40.527,31.738,34.668,-10.742,0
1579294702.143,37.109,41.504,34.180,35.156,65.430,0
1579294702.147,35.156,41.016,30.273,35.645,56.641,0
1579294702.150,33.203,41.992,30.273,31.250,32.715,0
1579294702.154,35.645,40.527,31.250,28.320,7.812,0
1579294702.158,37.109,41.992,29.297,30.762,37.109,0
1579294702.162,32.715,42.969,30.762,34.180,48.828,0
1579294702.166,27.832,41.016,35.156,34.180,37.109,0
1579294702.183,28.320,39.551,37.109,27.832,3.906,0
1579294702.187,24.414,36.621,33.691,19.531,-25.879,0
1579294702.191,24.902,35.156,32.227,26.855,-2.441,0
1579294702.195,27.832,35.156,34.180,34.180,50.781,0
1579294702.199,20.508,34.180,33.203,25.391,18.555,0
1579294702.203,20.508,34.180,33.691,27.832,20.996,0
1579294702.207,23.926,34.180,36.133,30.273,19.043,0
1579294702.210,24.414,35.645,36.133,31.250,-20.020,0
1579294702.214,24.902,37.598,33.203,32.227,46.875,0
1579294702.218,26.855,38.086,29.785,29.297,63.965,0
1579294702.222,28.809,36.621,33.691,27.832,11.230,0
1579294702.226,25.879,34.180,37.109,26.367,-15.625,0
1579294702.223,26.367,34.180,36.621,32.227,15.137,0
1579294702.227,30.762,36.133,33.203,35.645,86.914,0
1579294702.231,33.203,35.156,33.691,30.273,64.453,0
1579294702.235,41.016,35.156,37.109,39.551,46.875,0
1579294702.239,42.969,36.133,37.598,47.363,60.059,0
1579294702.243,39.062,34.668,37.598,43.945,1.953,0
1579294702.247,34.668,33.203,34.668,38.086,21.973,0
1579294702.250,28.320,32.715,33.691,35.645,13.184,0
1579294702.254,31.250,34.180,34.668,43.457,9.277,0
1579294702.258,29.785,36.133,31.250,39.551,32.227,0
1579294702.262,26.367,36.621,29.785,20.996,42.969,0
1579294702.266,27.832,40.527,28.809,17.578,22.949,0
1579294702.283,28.320,42.969,26.367,21.973,42.969,0
1579294702.287,27.344,40.527,27.344,20.996,69.336,0
1579294702.291,24.902,40.527,26.367,19.531,66.406,0
1579294702.295,25.391,40.527,23.926,18.555,57.617,0
1579294702.299,28.809,40.039,23.926,22.949,69.336,0
1579294702.303,30.273,39.062,23.926,29.785,18.066,0
1579294702.307,30.762,38.086,24.414,28.809,-18.555,0
1579294702.310,32.715,41.016,25.879,25.391,57.129,0
1579294702.314,30.762,40.527,25.879,26.367,65.918,0
1579294702.318,27.832,35.645,26.367,29.297,37.109,0
1579294702.322,26.367,34.180,25.879,26.855,36.621,0
1579294702.326,23.438,32.227,27.344,17.578,37.598,0
1579294702.323,22.461,32.227,27.344,16.602,-52.734,0
1579294702.327,23.926,33.691,24.902,21.484,-9.766,0
1579294702.331,27.832,32.227,25.391,25.391,61.523,0
1579294702.335,32.715,34.180,25.391,21.973,0.977,0
1579294702.339,30.273,36.133,24.414,18.555,1.465,0
1579294702.343,25.391,40.039,25.879,26.855,36.133,0
1579294702.347,22.949,39.551,28.809,28.320,59.082,0
1579294702.350,23.438,35.645,28.320,22.461,106.445,0
1579294702.354,20.996,35.645,28.809,22.949,95.703,0
1579294702.358,20.996,35.645,31.250,30.273,50.293,0
1579294702.362,28.320,35.156,32.715,34.180,56.152,0
1579294702.366,28.809,32.227,30.762,25.391,62.500,0
1579294702.363,22.949,30.762,27.832,21.973,62.012,0
1579294702.367,22.949,32.227,26.367,25.391,56.152,0
1579294702.371,23.438,35.156,29.785,25.879,71.777,0
1579294702.375,24.414,36.133,33.691,29.785,42.969,0
1579294702.379,27.344,35.156,34.668,33.691,4.883,0
1579294702.383,32.715,37.598,33.203,37.109,-2.441,0
1579294702.387,37.109,38.574,34.668,38.574,-5.859,0
1579294702.390,30.273,36.133,37.598,35.156,70.312,0
1579294702.394,28.320,34.668,38.086,34.180,105.469,0
1579294702.398,37.109,36.133,37.598,38.574,49.316,0
1579294702.402,34.180,34.668,36.133,40.527,32.715,0
1579294702.406,32.715,34.180,36.133,39.062,63.477,0
1579294702.423,36.621,34.668,37.598,32.227,67.383,0
1579294702.427,35.156,37.109,37.109,27.832,29.297,0
1579294702.431,34.180,39.551,34.180,31.250,42.969,0
1579294702.435,32.227,40.527,34.180,31.250,63.965,0
1579294702.439,29.297,40.039,35.156,26.367,11.719,0
1579294702.443,30.273,36.133,34.668,25.879,14.648,0
1579294702.447,31.250,36.621,35.645,29.785,12.207,0
1579294702.450,25.879,38.574,34.180,29.785,28.320,0
1579294702.454,21.973,37.109,30.762,25.879,69.336,0
1579294702.458,27.344,39.062,31.250,24.902,31.738,0
1579294702.462,26.855,38.086,33.203,29.785,-5.371,0
1579294702.466,28.320,39.551,32.227,38.574,27.344,0
1579294702.463,34.180,41.992,34.180,40.527,51.270,0
1579294702.467,32.715,38.086,35.645,38.086,-8.789,0
1579294702.471,30.273,37.598,34.180,41.016,-41.504,0
1579294702.475,32.227,37.109,35.645,41.992,-3.906,0
1579294702.479,30.762,35.156,34.668,41.504,14.160,0
1579294702.483,33.203,36.621,34.180,39.062,-12.695,0
1579294702.487,28.809,37.109,35.645,32.715,11.230,0
1579294702.490,19.043,33.203,36.133,28.320,36.133,0
1579294702.494,21.973,33.203,35.156,35.645,14.160,0
1579294702.498,23.438,34.180,34.180,34.668,71.777,0
1579294702.502,23.438,31.250,33.691,29.297,87.402,0
1579294702.506,26.855,31.738,32.227,33.691,29.297,0
1579294702.503,29.297,33.203,33.203,35.156,-2.930,0
1579294702.507,32.715,32.715,34.668,32.715,1.953,0
1579294702.511,33.203,31.250,35.645,31.250,32.715,0
1579294702.515,30.762,31.738,34.668,32.715,21.484,0
1579294702.519,27.832,33.691,31.738,32.715,50.781,0
1579294702.523,25.879,34.180,32.227,29.785,30.762,0
1579294702.527,23.926,35.645,34.668,29.785,1.465,0
1579294702.530,26.367,35.645,33.203,32.227,0.488,0
1579294702.534,25.879,35.156,32.715,34.668,23.926,0
1579294702.538,25.391,34.180,32.715,29.297,46.875,0
1579294702.542,31.250,31.738,32.227,22.461,-14.160,0
1579294702.546,34.668,32.715,32.227,22.949,-4.883,0
1579294702.563,31.250,33.691,33.691,27.832,72.266,0
1579294702.567,29.297,34.180,33.691,33.203,52.734,0
1579294702.571,29.297,35.156,32.715,29.785,-29.297,0
1579294702.575,26.367,36.621,34.668,24.414,37.598,0
1579294702.579,27.344,38.086,32.227,29.785,20.996,0
1579294702.583,33.203,35.645,30.762,37.598,-9.277,0
1579294702.587,35.156,36.133,33.203,36.133,72.266,0
1579294702.590,28.809,37.109,33.203,31.250,97.168,0
1579294702.594,25.391,36.133,35.156,29.297,67.383,0
1579294702.598,31.250,34.668,35.156,33.691,31.738,0
1579294702.602,30.762,33.203,34.180,39.551,-3.418,0
1579294702.606,32.715,36.133,33.691,36.133,4.395,0
1579294702.603,31.250,37.109,36.621,26.367,-30.762,0
1579294702.607,27.832,36.621,37.109,29.297,-0.977,0
1579294702.611,33.203,40.039,33.691,28.809,41.992,0
1579294702.615,34.180,41.016,31.738,27.832,48.340,0
1579294702.619,29.785,40.527,33.691,32.227,41.992,0
1579294702.623,27.832,38.574,34.180,31.738,51.270,0
1579294702.627,27.832,35.645,35.645,30.762,84.961,0
1579294702.630,28.809,35.645,34.180,28.320,91.309,0
1579294702.634,31.738,37.598,31.738,26.367,97.656,0
1579294702.638,32.715,35.156,34.180,25.391,60.059,0
1579294702.642,32.715,33.691,33.691,30.762,45.898,0
1579294702.646,33.691,35.156,34.668,34.668,55.176,0
1579294702.643,31.250,34.180,35.645,28.809,43.457,0
1579294702.647,32.715,32.715,36.621,31.738,30.762,0
1579294702.651,28.320,32.227,38.086,36.133,101.074,0
1579294702.655,28.809,34.180,33.691,35.645,66.406,0
1579294702.659,38.574,39.062,28.809,33.691,11.719,0
1579294702.663,38.086,39.062,31.250,34.668,48.340,0
1579294702.667,36.621,38.574,32.227,36.133,23.438,0
1579294702.670,38.086,38.574,32.227,35.156,38.086,0
1579294702.674,35.645,37.109,34.668,29.297,68.848,0
1579294702.678,30.273,36.621,33.691,21.973,-29.297,0
1579294702.682,24.902,33.691,36.621,26.855,-53.711,0
1579294702.686,22.461,31.250,38.086,33.691,50.293,0
1579294702.703,22.949,36.133,33.691,27.344,37.109,0
1579294702.707,23.438,37.598,35.645,22.461,-15.625,0
1579294702.711,22.461,34.668,33.691,22.461,12.207,0
1579294702.715,25.391,37.109,28.809,24.902,-7.324,0
1579294702.719,28.809,35.645,28.320,28.320,11.719,0
1579294702.723,28.809,34.180,28.320,25.391,68.848,0
1579294702.727,30.762,35.156,26.367,24.902,30.762,0
1579294702.730,25.391,32.715,29.785,24.414,50.781,0
1579294702.734,21.484,30.273,32.715,28.320,51.270,0
1579294702.738,32.715,32.227,32.227,35.156,10.742,0
1579294702.742,35.156,35.645,36.621,36.621,81.543,0
1579294702.746,33.691,35.156,41.016,35.645,75.684,0
1579294702.743,33.691,33.203,40.039,37.109,1.953,0
1579294702.747,33.691,34.668,37.109,40.039,-39.062,0
1579294702.751,33.691,32.715,39.062,41.504,22.461,0
1579294702.755,31.738,31.250,37.598,39.062,49.316,0
1579294702.759,32.227,35.156,32.227,39.551,46.875,0
1579294702.763,34.668,36.621,30.762,38.574,75.195,0
1579294702.767,34.180,36.621,29.297,27.344,47.852,0
1579294702.770,28.809,36.133,27.832,20.020,17.090,0
1579294702.774,29.785,34.668,28.809,20.996,41.992,0
1579294702.778,28.320,35.645,32.715,23.438,48.340,0
1579294702.782,27.832,40.527,34.668,21.484,-0.977,0
1579294702.786,33.203,40.039,37.109,27.344,-32.227,0
1579294702.783,32.227,36.133,40.039,35.156,-16.602,0
1579294702.787,29.785,34.180,39.062,33.203,-2.930,0
1579294702.791,31.738,35.156,38.086,31.738,16.113,0
1579294702.795,31.250,36.133,39.062,26.855,59.570,0
1579294702.799,30.273,36.133,39.551,31.250,83.008,0
1579294702.803,32.227,38.086,38.086,36.621,62.500,0
1579294702.807,37.598,39.551,36.133,37.598,23.926,0
1579294702.810,39.551,39.062,38.574,33.691,-10.254,0
1579294702.814,36.621,39.062,40.039,35.156,-7.324,0
1579294702.818,33.691,39.551,38.574,38.574,-3.906,0
1579294702.822,30.762,38.086,35.156,32.715,41.504,0
1579294702.826,31.738,38.086,35.156,26.855,59.570,0
1579294702.843,27.344,38.086,36.133,27.344,48.828,0
1579294702.847,22.949,38.086,32.227,28.809,18.555,0
1579294702.851,23.438,40.039,27.832,27.832,5.859,0
1579294702.855,22.949,42.480,29.785,18.066,57.129,0
1579294702.859,26.855,41.016,30.273,18.066,68.359,0
1579294702.863,28.320,37.598,26.855,28.320,78.613,0
1579294702.867,32.227,39.062,27.344,32.227,90.332,0
1579294702.870,33.203,37.598,28.809,31.250,29.297,0
1579294702.874,31.250,33.691,33.203,28.320,12.207,0
1579294702.878,34.180,35.645,34.180,32.227,18.066,0
1579294702.882,32.715,36.133,30.762,31.250,53.711,0
1579294702.886,30.762,36.621,32.227,25.879,70.801,0
1579294702.884,33.203,38.086,29.785,22.461,25.391,0
1579294702.888,34.180,36.621,28.320,18.555,28.809,0
1579294702.892,33.691,34.668,29.785,22.461,63.477,0
1579294702.896,35.645,36.133,31.738,27.344,68.359,0
1579294702.900,36.133,39.062,32.227,26.367,41.992,0
1579294702.904,27.832,36.621,29.297,25.879,-1.465,0
1579294702.908,22.949,38.086,33.203,30.762,13.184,0
1579294702.911,24.902,41.504,36.621,33.203,43.945,0
1579294702.915,17.090,36.621,34.180,26.855,65.918,0
1579294702.919,15.137,36.133,36.133,29.785,42.969,0
1579294702.923,16.113,36.621,37.598,29.785,48.828,0
1579294702.927,15.625,35.156,32.715,26.855,7.812,0
1579294702.923,21.484,32.227,33.203,32.227,14.648,0
1579294702.927,22.461,28.809,36.621,32.227,74.219,0
1579294702.931,28.320,33.203,37.109,35.156,43.945,0
1579294702.935,36.133,35.645,38.086,42.480,73.242,0
1579294702.939,40.039,34.180,37.598,44.922,83.984,0
1579294702.943,42.969,35.645,31.738,38.086,25.879,0
1579294702.947,40.527,37.109,32.227,36.133,25.879,0
1579294702.950,39.551,37.109,32.715,41.016,55.664,0
1579294702.954,34.180,38.574,31.250,31.250,0.488,0
1579294702.958,28.320,34.180,29.297,22.461,-62.988,0
1579294702.962,27.344,28.809,29.297,26.855,29.785,0
1579294702.966,31.250,32.227,33.203,35.156,48.340,0
1579294702.983,36.133,32.715,33.203,30.762,29.785,0
1579294702.987,31.250,31.738,33.203,20.996,70.312,0
1579294702.991,24.902,31.738,36.621,21.484,72.266,0
1579294702.995,27.344,31.738,36.621,27.832,50.293,0
1579294702.999,27.832,34.180,34.180,30.273,7.812,0
1579294703.003,26.367,35.645,33.203,34.180,3.906,0
1579294703.007,27.832,37.109,34.668,28.320,25.879,0
1579294703.010,23.438,37.598,35.156,25.391,23.438,0
1579294703.014,23.438,37.598,34.668,30.762,45.410,0
1579294703.018,33.691,39.551,39.062,32.227,18.555,0
1579294703.022,36.133,37.598,36.621,30.273,-44.922,0
1579294703.026,33.691,35.156,33.691,29.297,-12.207,0
1579294703.023,37.598,36.621,35.156,32.715,20.020,0
1579294703.027,41.016,37.109,33.691,26.367,3.906,0
1579294703.031,37.598,39.062,31.250,23.926,16.602,0
1579294703.035,34.180,39.551,29.297,23.438,31.738,0
1579294703.039,39.551,38.574,29.785,31.250,14.160,0
1579294703.043,38.574,38.086,34.668,30.273,31.738,0
1579294703.047,31.250,38.574,35.156,20.508,16.602,0
1579294703.050,31.250,40.039,32.715,26.855,1.953,0
1579294703.054,31.738,37.598,33.203,29.297,44.922,0
1579294703.058,32.715,36.133,36.133,29.297,12.695,0
1579294703.062,33.203,38.574,35.645,30.762,-9.277,0
1579294703.066,30.273,36.133,35.156,28.809,38.574,0
1579294703.063,30.273,34.180,35.645,24.902,39.551,0
1579294703.067,27.832,34.180,33.691,24.414,18.066,0
1579294703.071,24.414,32.227,32.715,27.344,33.691,0
1579294703.075,26.367,32.227,32.715,29.785,77.637,0
1579294703.079,27.832,32.227,31.250,29.785,70.312,0
1579294703.083,25.879,31.738,31.250,33.691,50.781,0
1579294703.087,24.414,33.691,32.227,36.621,1.465,0
1579294703.090,24.414,35.156,35.645,37.109,3.418,0
1579294703.094,28.320,34.668,36.621,39.551,53.223,0
1579294703.098,27.832,34.180,35.156,40.039,33.691,0
1579294703.102,30.273,33.691,33.691,40.039,25.391,0
1579294703.106,34.668,32.227,34.180,33.691,65.430,0
1579294703.123,34.668,34.180,35.645,24.902,30.762,0
1579294703.127,29.785,34.668,35.156,19.531,-1.465,0
1579294703.131,30.273,32.715,35.645,21.973,58.105,0
1579294703.135,38.086,34.180,32.715,26.855,83.008,0
1579294703.139,39.551,36.621,30.273,22.461,49.805,0
1579294703.143,39.551,37.598,32.227,24.902,46.875,0
1579294703.147,40.527,39.551,36.621,29.297,25.879,0
1579294703.150,40.527,43.457,36.621,24.414,-0.488,0
1579294703.154,35.645,46.387,34.180,20.996,26.367,0
1579294703.158,22.949,42.480,37.109,11.719,40.527,0
1579294703.162,20.996,41.504,41.016,14.160,10.742,0
1579294703.166,28.809,45.410,40.527,28.320,37.109,0
1579294703.163,21.973,48.340,41.016,19.531,93.262,0
1579294703.167,10.254,49.805,42.969,3.906,4.395,0
1579294703.171,1.465,49.316,41.992,-0.488,-49.316,0
1579294703.175,-2.441,52.246,43.945,-0.977,12.695,0
1579294703.179,-17.578,52.246,45.410,-18.555,20.508,0
1579294703.183,-34.668,53.223,47.363,-34.668,45.898,0
1579294703.187,-48.340,51.758,51.270,-43.945,81.055,0
1579294703.190,-65.430,46.875,49.316,-60.059,83.496,0
1579294703.194,-65.430,51.270,48.340,-60.059,53.711,0
1579294703.198,-60.547,52.246,50.293,-63.477,1.953,0
1579294703.202,-73.730,52.246,49.805,-83.008,45.898,0
1579294703.206,-82.520,54.199,48.340,-87.402,58.105,0
1579294703.203,-77.637,51.270,46.387,-83.008,27.344,0
1579294703.207,-76.660,46.875,48.828,-83.984,5.859,0
1579294703.211,-76.172,50.781,49.316,-83.984,16.113,0
1579294703.215,-71.777,54.688,44.922,-76.660,19.531,0
1579294703.219,-73.242,53.711,42.480,-77.637,46.875,0
1579294703.223,-76.660,49.805,46.875,-81.055,32.715,0
1579294703.227,-73.730,45.410,50.781,-70.801,-26.367,0
1579294703.230,-70.312,47.852,44.922,-63.477,-11.230,0
1579294703.234,-67.871,45.898,41.504,-54.688,-5.371,0
1579294703.238,-62.500,45.410,42.969,-50.781,19.043,0
1579294703.242,-55.176,49.316,43.457,-49.805,21.973,0
1579294703.246,-45.898,49.316,40.039,-44.922,6.836,0
1579294703.263,-36.133,50.293,35.645,-39.551,13.184,0
1579294703.267,-29.297,52.246,33.203,-36.133,-28.320,0
1579294703.271,-20.996,51.758,30.762,-28.320,9.766,0
1579294703.275,-13.672,47.363,30.273,-20.996,20.996,0
1579294703.279,-4.883,42.480,31.738,-9.277,-10.742,0
1579294703.283,6.836,39.551,34.180,3.906,6.836,0
1579294703.287,17.578,38.086,34.180,10.742,85.938,0
1579294703.290,36.133,36.621,33.691,20.020,80.566,0
1579294703.294,51.270,34.180,31.250,34.180,12.695,0
1579294703.298,57.617,33.691,29.297,47.852,108.887,0
1579294703.302,63.477,31.250,29.785,58.594,111.328,0
1579294703.306,67.871,28.809,31.250,66.406,42.969,0
1579294703.303,67.871,29.297,29.297,71.289,36.133,0
1579294703.307,68.359,28.320,26.855,72.266,40.527,0
1579294703.311,70.312,27.344,26.855,74.707,73.242,0
1579294703.315,75.195,29.785,25.391,78.125,75.195,0
1579294703.319,73.242,27.832,28.809,78.613,78.613,0
1579294703.323,73.242,25.391,30.273,83.008,52.246,0
1579294703.327,75.684,24.902,26.367,87.402,94.238,0
1579294703.330,72.266,25.391,24.902,85.449,89.355,0
1579294703.334,72.754,22.461,27.832,89.844,40.527,0
1579294703.338,74.219,22.949,28.809,91.797,96.680,0
1579294703.342,74.219,24.414,28.809,88.379,61.035,0
1579294703.346,72.754,22.949,27.832,83.496,46.875,0
1579294703.343,71.777,25.391,28.320,78.613,45.410,0
1579294703.347,71.289,29.297,27.832,83.496,34.180,0
1579294703.351,70.312,27.832,25.879,81.055,81.055,0
1579294703.355,69.824,25.391,26.855,73.730,25.879,0
1579294703.359,72.754,25.391,24.902,74.707,1.953,0
1579294703.363,76.172,26.367,22.949,72.266,34.180,0
1579294703.367,79.102,25.391,21.973,66.895,-4.883,0
1579294703.370,80.566,26.367,21.973,68.359,-29.785,0
1579294703.374,81.543,31.738,21.484,68.359,7.324,0
1579294703.378,83.496,30.762,21.484,70.312,45.898,0
1579294703.382,85.449,29.297,23.926,79.590,66.895,0
1579294703.386,79.590,29.297,27.344,79.102,65.918,0
1579294703.403,76.660,30.273,27.344,72.754,67.383,0
1579294703.407,72.754,31.250,28.809,73.730,64.453,0
1579294703.411,69.824,28.809,28.809,83.984,64.453,0
1579294703.415,70.801,26.367,31.738,83.496,72.266,0
1579294703.419,66.406,24.902,29.785,69.336,56.152,0
1579294703.423,62.988,28.809,27.832,61.035,98.633,0
1579294703.427,54.199,29.297,28.809,62.988,62.012,0
1579294703.430,49.316,26.855,25.391,61.035,31.250,0
1579294703.434,52.734,26.367,26.367,47.363,-38.086,0
1579294703.438,56.641,23.438,27.344,41.992,-55.176,0
1579294703.442,61.523,25.879,24.902,50.293,48.340,0
1579294703.446,60.059,28.320,27.344,52.734,6.836,0
1579294703.443,60.059,26.855,28.320,53.711,-1.953,0
1579294703.447,62.500,25.879,31.738,56.641,64.941,0
1579294703.451,62.500,25.879,32.227,63.965,61.523,0
1579294703.455,62.012,26.855,29.785,65.430,87.402,0
1579294703.459,62.500,29.297,30.762,69.824,109.863,0
1579294703.463,65.918,29.785,29.785,75.195,48.828,0
1579294703.467,66.406,30.273,31.738,68.848,31.250,0
1579294703.470,64.941,32.715,32.715,70.801,74.707,0
1579294703.474,71.777,34.668,31.250,75.195,41.992,0
1579294703.478,73.730,36.621,30.273,72.266,27.832,0
1579294703.482,67.871,36.133,30.762,70.312,78.613,0
1579294703.486,66.406,34.668,30.762,70.801,15.137,0
1579294703.483,69.336,38.086,30.762,75.195,5.371,0
1579294703.487,64.941,38.574,31.738,69.824,20.020,0
1579294703.491,60.547,35.645,32.715,61.523,-9.277,0
1579294703.495,56.641,38.086,33.203,58.594,36.133,0
1579294703.499,45.898,37.598,34.180,52.734,56.152,0
1579294703.503,41.992,36.133,33.691,46.387,26.855,0
1579294703.507,41.992,34.180,35.156,42.969,57.129,0
1579294703.510,41.016,36.133,33.203,43.945,54.199,0
1579294703.514,36.621,37.598,28.809,41.016,54.199,0
1579294703.518,34.180,33.203,31.250,40.527,75.684,0
1579294703.522,36.133,33.691,34.180,43.945,63.965,0
1579294703.526,32.715,34.668,35.156,38.086,45.898,0
1579294703.543,26.367,34.180,36.621,34.180,17.578,0
1579294703.547,28.320,36.621,34.668,41.016,-15.625,0
1579294703.551,27.344,36.621,32.715,40.527,-27.832,0
1579294703.555,21.484,32.715,34.180,37.598,-23.926,0
1579294703.559,27.344,32.227,32.715,41.504,11.719,0
1579294703.563,31.738,34.668,31.738,43.945,0.488,0
1579294703.567,34.668,33.691,33.691,46.387,-18.066,0
1579294703.570,39.551,31.738,33.203,48.828,23.926,0
1579294703.574,43.457,32.227,32.715,52.246,28.320,0
1579294703.578,50.781,32.715,35.645,60.059,-23.926,0
1579294703.582,50.781,32.715,39.062,57.617,-11.230,0
1579294703.586,46.387,32.715,38.086,46.387,30.762,0
1579294703.583,49.805,34.668,32.715,44.434,39.551,0
1579294703.587,49.805,36.133,29.297,45.410,20.508,0
1579294703.591,42.969,36.133,28.320,44.922,-12.695,0
1579294703.595,44.922,38.574,26.367,40.527,16.113,0
1579294703.599,48.828,41.504,26.855,34.668,55.664,0
1579294703.603,41.992,40.039,29.785,33.691,44.922,0
1579294703.607,41.504,40.039,30.273,35.645,-4.883,0
1579294703.610,43.945,41.504,28.320,38.574,12.207,0
1579294703.614,43.945,40.527,28.320,43.945,52.734,0
1579294703.618,45.898,40.527,28.320,41.016,64.941,0
1579294703.622,38.086,37.598,31.738,38.086,78.613,0
1579294703.626,31.250,34.668,35.156,33.203,64.453,0
1579294703.623,28.320,35.156,31.250,19.043,55.176,0
1579294703.627,25.391,36.621,30.762,22.949,62.988,0
1579294703.631,25.391,35.156,35.156,33.203,96.680,0
1579294703.635,29.297,37.109,34.668,35.156,88.379,0
1579294703.639,27.344,38.574,35.156,32.227,20.020,0
1579294703.643,26.367,37.109,37.598,31.250,11.719,0
1579294703.647,30.273,36.621,36.133,41.016,68.848,0
1579294703.650,26.855,33.691,37.109,44.434,86.914,0
1579294703.654,28.809,34.180,37.598,39.062,48.340,0
1579294703.658,36.133,33.691,38.574,39.062,4.883,0
1579294703.662,35.645,33.203,39.062,41.992,15.625,0
1579294703.666,36.133,35.645,36.133,47.363,78.613,0
1579294703.683,44.434,35.156,32.715,48.828,58.594,0
1579294703.687,45.898,32.715,31.738,40.527,14.648,0
1579294703.691,44.434,35.645,34.180,37.109,46.387,0
1579294703.695,43.457,38.086,33.691,37.109,4.883,0
1579294703.699,38.574,36.133,33.691,34.668,-16.602,0
1579294703.703,32.227,37.598,32.715,27.344,24.414,0
1579294703.707,32.227,38.574,30.762,23.438,17.578,0
1579294703.710,31.738,33.691,31.250,26.367,25.391,0
1579294703.714,29.785,36.133,30.273,28.320,0.000,0
1579294703.718,32.227,38.086,29.785,29.785,-12.695,0
1579294703.722,36.133,37.598,31.738,31.738,72.266,0
1579294703.726,31.738,37.109,31.738,30.762,74.707,0
1579294703.723,29.297,34.668,32.227,29.785,68.359,0
1579294703.727,28.809,34.668,29.785,26.367,55.664,0
1579294703.731,24.414,36.133,29.297,20.508,41.992,0
1579294703.735,17.578,36.621,30.273,19.043,73.730,0
1579294703.739,17.090,35.645,31.738,23.438,39.551,0
1579294703.743,22.949,35.645,30.762,23.926,41.016,0
1579294703.747,26.855,39.062,29.297,23.438,43.457,0
1579294703.750,31.738,39.062,32.715,25.391,6.348,0
1579294703.754,35.156,36.133,32.715,30.762,15.625,0
1579294703.758,39.062,36.621,32.227,37.109,11.230,0
1579294703.762,33.203,34.180,34.180,30.273,36.621,0
1579294703.766,27.832,34.180,31.250,25.391,72.754,0
1579294703.763,30.762,36.621,28.320,24.902,43.945,0
1579294703.767,27.344,34.668,27.832,24.902,10.742,0
1579294703.771,25.391,36.133,26.367,25.879,-1.953,0
1579294703.775,26.855,34.668,29.297,25.879,34.668,0
1579294703.779,26.367,33.691,30.762,27.344,1.465,0
1579294703.783,22.949,33.203,33.203,35.645,-64.453,0
1579294703.787,30.762,32.227,32.715,40.527,-36.621,0
1579294703.790,32.715,35.645,29.297,34.180,56.152,0
1579294703.794,24.414,35.156,27.832,26.367,76.660,0
1579294703.798,30.762,36.621,27.832,32.227,69.824,0
1579294703.802,36.133,39.062,27.344,31.250,54.199,0
1579294703.806,37.598,41.016,27.344,24.414,45.410,0
1579294703.823,36.133,40.527,29.785,26.855,76.660,0
1579294703.827,30.273,37.109,29.785,29.297,81.543,0
1579294703.831,26.855,36.133,27.832,27.344,29.785,0
1579294703.835,26.367,34.180,28.809,28.809,24.414,0
1579294703.839,32.715,35.645,28.320,31.250,33.691,0
1579294703.843,38.574,39.062,26.367,31.738,-9.766,0
1579294703.847,35.156,39.062,26.367,30.273,40.039,0
1579294703.850,27.832,37.109,25.391,20.508,87.402,0
1579294703.854,28.809,37.109,26.367,20.996,45.898,0
1579294703.858,27.344,36.621,28.320,24.414,0.000,0
1579294703.862,23.438,35.645,30.762,19.043,6.836,0
1579294703.866,24.902,35.645,32.227,17.578,19.531,0
1579294703.863,21.484,34.180,33.203,12.695,26.367,0
1579294703.867,13.672,33.203,31.738,10.254,9.277,0
1579294703.871,10.742,35.645,29.297,18.066,89.355,0
1579294703.875,16.113,34.180,31.250,21.484,123.047,0
1579294703.879,22.461,33.203,31.738,17.578,35.156,0
1579294703.883,21.973,35.156,32.227,22.461,3.906,0
1579294703.887,19.531,36.621,31.738,24.902,10.254,0
1579294703.890,20.996,36.133,30.273,18.066,-0.488,0
1579294703.894,23.926,37.598,31.738,21.973,32.227,0
1579294703.898,26.855,40.039,33.691,21.973,73.242,0
1579294703.902,29.785,36.133,33.691,20.020,41.992,0
1579294703.906,30.273,35.645,31.738,21.484,62.988,0
1579294703.903,27.344,37.598,31.250,19.531,74.707,0
1579294703.907,31.738,38.086,31.250,25.879,44.922,0
1579294703.911,33.691,38.574,29.785,20.020,45.410,0
1579294703.915,29.785,37.598,29.785,16.602,38.086,0
1579294703.919,29.297,37.598,32.227,26.367,41.992,0
1579294703.923,29.785,39.551,29.785,29.297,19.531,0
1579294703.927,24.902,39.062,30.762,31.250,4.395,0
1579294703.930,24.414,37.109,32.227,29.785,30.762,0
1579294703.934,22.461,33.203,32.715,27.344,9.277,0
1579294703.938,17.090,31.250,31.738,27.344,58.594,0
1579294703.942,16.113,32.715,30.762,28.809,33.691,0
1579294703.946,14.160,32.227,33.203,34.180,35.645,0
1579294703.963,15.137,36.133,32.715,31.250,116.699,0
1579294703.967,19.531,38.086,32.227,21.484,64.453,0
1579294703.971,21.484,37.109,32.227,19.043,-2.441,0
1579294703.975,23.438,40.039,31.738,26.367,2.930,0
1579294703.979,26.855,37.598,31.250,24.902,22.461,0
1579294703.983,30.273,36.621,30.273,17.090,12.207,0
1579294703.987,30.273,37.598,31.250,23.926,-3.418,0
1579294703.990,30.273,37.109,33.203,31.738,53.223,0
1579294703.994,30.273,36.133,34.180,33.691,65.918,0
1579294703.998,31.250,34.180,31.250,34.668,54.199,0
1579294704.002,33.691,36.133,31.250,32.715,63.965,0
1579294704.006,30.762,37.109,34.668,31.250,48.340,0
1579294704.003,28.320,32.227,36.621,40.527,69.336,0
1579294704.007,32.715,30.273,37.109,45.410,59.570,0
1579294704.011,34.180,31.738,34.668,34.668,30.273,0
1579294704.015,36.133,37.109,34.668,31.250,61.523,0
1579294704.019,37.598,39.062,35.645,36.133,34.180,0
1579294704.023,36.621,38.574,32.715,28.809,8.789,0
1579294704.027,35.645,37.109,32.715,21.484,11.230,0
1579294704.030,38.086,34.668,36.133,27.832,-4.395,0
1579294704.034,40.527,37.598,36.133,29.785,51.270,0
1579294704.038,35.645,39.062,35.156,24.902,53.223,0
1579294704.042,34.668,36.621,32.715,24.414,40.039,0
1579294704.046,35.645,37.598,33.691,21.973,52.246,0
1579294704.063,32.227,36.621,33.203,25.391,16.113,0
1579294704.067,35.156,35.156,32.227,26.855,15.625,0
1579294704.071,37.109,37.109,30.762,24.902,42.480,0
1579294704.075,29.785,36.621,30.762,24.414,41.504,0
1579294704.079,25.879,37.109,33.203,26.367,40.527,0
1579294704.083,26.367,36.621,31.738,34.668,92.773,0
1579294704.087,25.391,35.156,32.227,33.691,116.699,0
1579294704.090,28.809,35.156,33.203,26.855,84.961,0
1579294704.094,34.180,32.715,34.180,28.809,71.777,0
1579294704.098,33.691,34.668,36.621,37.598,9.766,0
1579294704.102,33.691,35.156,34.180,41.016,-8.301,0
1579294704.106,36.133,34.668,33.203,33.691,34.668,0
1579294704.103,34.668,34.668,33.203,32.227,19.043,0
1579294704.107,33.203,34.180,31.250,34.668,54.688,0
1579294704.111,28.320,33.203,33.691,24.902,37.109,0
1579294704.115,29.297,31.738,32.715,21.484,-6.836,0
1579294704.119,34.180,34.180,31.250,22.461,33.203,0
1579294704.123,30.762,33.691,33.203,23.926,84.473,0
1579294704.127,26.855,31.250,31.738,24.414,25.391,0
1579294704.130,27.344,32.715,30.762,24.414,13.672,0
1579294704.134,31.738,34.668,30.762,21.484,30.762,0
1579294704.138,31.250,34.180,33.203,25.879,48.828,0
1579294704.142,31.250,34.668,39.062,37.598,33.203,0
1579294704.146,33.691,31.738,40.039,35.645,-5.859,0
1579294704.143,31.250,30.273,39.551,26.367,23.438,0
1579294704.147,29.297,29.297,40.039,29.785,57.617,0
1579294704.151,26.367,27.832,39.551,36.621,52.734,0
1579294704.155,23.926,29.785,40.039,33.691,-18.555,0
1579294704.159,25.879,29.785,36.133,28.320,-27.344,0
1579294704.163,24.902,29.785,33.203,25.879,-14.648,0
1579294704.167,20.020,28.320,37.109,22.461,-24.902,0
1579294704.170,18.555,27.832,38.086,22.949,-70.801,0
1579294704.174,27.832,33.203,34.180,31.250,-36.621,0
1579294704.178,32.227,36.621,35.645,34.180,47.363,0
1579294704.182,32.715,36.621,39.062,38.574,25.879,0
1579294704.186,37.109,36.621,39.551,36.621,37.598,0
1579294704.203,38.086,36.133,38.574,25.879,22.949,0
1579294704.207,36.621,36.133,36.133,23.438,11.230,0
1579294704.211,40.527,36.621,37.109,26.367,43.457,0
1579294704.215,42.969,36.133,38.086,38.086,70.801,0
1579294704.219,47.363,36.621,40.039,45.898,60.547,0
1579294704.223,48.340,34.180,42.969,42.969,5.371,0
1579294704.227,49.316,34.180,39.062,46.875,-14.648,0
1579294704.230,50.293,36.133,37.109,50.293,2.441,0
1579294704.234,43.945,34.668,38.086,51.758,17.090,0
1579294704.238,41.504,33.691,37.598,47.363,44.922,0
1579294704.242,41.504,33.203,38.086,44.434,-8.789,0
1579294704.246,38.086,34.668,41.016,50.781,1.953,0
1579294704.243,35.645,36.133,41.992,48.828,32.715,0
1579294704.247,34.668,36.133,41.504,41.016,21.973,0
1579294704.251,32.715,36.133,40.527,34.180,16.602,0
1579294704.255,29.785,35.156,42.480,30.762,32.227,0
1579294704.259,25.879,36.621,42.480,37.109,77.637,0
1579294704.263,22.461,36.133,40.527,31.250,62.988,0
1579294704.267,26.367,34.668,41.504,20.020,-16.602,0
1579294704.270,32.715,37.109,38.574,23.926,23.438,0
1579294704.274,35.156,39.551,35.645,30.273,97.656,0
1579294704.278,38.086,38.086,36.621,31.250,22.461,0
1579294704.282,38.574,38.574,35.645,23.926,4.883,0
1579294704.286,32.715,36.133,33.691,21.484,34.668,0
1579294704.283,30.273,34.668,36.621,24.414,5.371,0
1579294704.287,27.344,34.668,38.574,25.391,11.230,0
1579294704.291,23.926,34.180,37.598,24.902,87.891,0
1579294704.295,29.785,36.621,36.621,29.297,49.316,0
1579294704.299,33.203,37.109,37.598,35.645,12.207,0
1579294704.303,37.109,36.621,37.109,41.016,0.000,0
1579294704.307,44.434,36.133,37.598,46.875,3.418,0
1579294704.310,52.734,35.645,36.621,48.828,71.289,0
1579294704.314,51.758,36.133,38.574,49.316,50.781,0
1579294704.318,44.922,34.668,40.039,49.805,76.660,0
1579294704.322,43.457,33.691,39.551,51.270,98.145,0
1579294704.326,37.109,32.227,39.551,41.016,59.082,0
1579294704.343,23.438,28.809,37.598,33.203,77.637,0
1579294704.347,18.066,30.762,36.621,36.621,61.523,0
1579294704.351,16.113,30.762,34.180,35.156,83.008,0
1579294704.355,18.066,29.785,31.738,27.344,96.191,0
1579294704.359,20.020,32.715,31.738,18.555,44.434,0
1579294704.363,19.043,33.691,29.785,17.090,17.578,0
1579294704.367,18.555,34.180,29.785,21.973,27.344,0
1579294704.370,20.996,37.598,31.738,19.043,32.227,0
1579294704.374,23.438,40.039,28.809,12.695,77.637,0
1579294704.378,27.344,40.039,28.320,11.719,63.965,0
1579294704.382,28.809,39.551,27.832,19.531,21.484,0
1579294704.386,29.297,39.062,30.273,23.438,34.668,0
1579294704.383,34.180,37.598,35.156,19.531,86.914,0
1579294704.387,38.574,36.133,33.691,25.391,126.465,0
1579294704.391,39.062,37.109,31.250,32.715,94.238,0
1579294704.395,36.621,39.551,29.297,30.762,37.598,0
1579294704.399,39.062,40.039,28.320,27.832,-20.996,0
1579294704.403,40.527,36.133,26.855,31.738,-3.418,0
1579294704.407,37.598,33.691,28.809,32.715,-1.465,0
1579294704.410,33.691,34.668,28.809,35.156,31.250,0
1579294704.414,28.320,35.156,28.320,33.691,41.504,0
1579294704.418,26.367,36.133,31.250,32.227,-12.695,0
1579294704.422,27.344,34.668,31.738,34.180,-12.695,0
1579294704.426,23.926,33.203,30.273,28.809,17.090,0
1579294704.423,21.973,31.250,32.227,25.391,20.508,0
1579294704.427,24.902,32.715,29.297,30.762,64.453,0
1579294704.431,25.391,34.668,29.297,35.645,63.477,0
1579294704.435,21.973,34.180,32.227,36.133,6.348,0
1579294704.439,17.578,34.180,30.273,32.227,11.230,0
1579294704.443,19.531,33.691,29.785,27.344,41.504,0
1579294704.447,21.484,32.715,30.273,24.902,56.152,0
1579294704.450,20.508,32.715,28.320,24.902,46.387,0
1579294704.454,24.414,34.668,28.320,22.949,25.391,0
1579294704.458,25.391,35.645,29.785,17.578,-31.738,0
1579294704.462,24.902,33.691,32.715,16.602,6.348,0
1579294704.466,27.344,33.691,34.180,19.043,38.574,0
1579294704.483,24.902,34.180,33.203,16.113,8.301,0
1579294704.487,26.855,34.668,29.297,21.484,41.016,0
1579294704.491,35.645,35.645,28.320,25.879,-0.977,0
1579294704.495,38.574,36.621,31.250,29.297,24.414,0
1579294704.499,39.062,37.109,32.227,34.668,127.930,0
1579294704.503,35.156,34.668,34.668,34.668,78.613,0
1579294704.507,32.227,34.180,36.133,32.715,35.645,0
1579294704.510,34.668,34.668,34.180,29.785,79.590,0
1579294704.514,33.691,33.691,35.156,37.109,87.402,0
1579294704.518,31.250,32.715,35.156,34.668,25.391,0
1579294704.522,33.203,30.762,35.645,28.320,40.527,0
1579294704.526,32.715,31.250,38.086,34.180,120.117,0
1579294704.523,28.809,34.180,35.645,34.180,106.445,0
1579294704.527,27.344,35.156,35.156,32.227,-12.695,0
1579294704.531,25.879,34.668,37.598,33.691,-18.555,0
1579294704.535,23.926,36.133,36.621,35.645,43.457,0
1579294704.539,22.461,34.668,36.621,37.109,71.777,0
1579294704.543,21.484,32.227,37.598,38.574,19.043,0
1579294704.547,20.508,32.715,36.133,34.180,26.855,0
1579294704.550,21.484,31.738,32.715,27.832,69.824,0
1579294704.554,26.367,31.738,27.344,28.320,69.336,0
1579294704.558,24.902,31.738,26.855,32.227,32.715,0
1579294704.562,25.879,34.668,27.832,27.344,-14.648,0
1579294704.566,29.297,34.668,28.809,19.043,18.066,0
1579294704.563,27.832,34.668,29.297,21.973,24.414,0
1579294704.567,29.785,36.621,29.785,28.320,-5.859,0
1579294704.571,30.273,38.574,28.320,27.832,45.898,0
1579294704.575,32.227,41.016,27.832,16.602,70.801,0
1579294704.579,33.691,39.551,30.762,18.555,63.477,0
1579294704.583,33.203,37.598,31.250,27.832,43.945,0
1579294704.587,34.180,39.062,31.738,28.809,17.578,0
1579294704.590,34.180,40.527,31.738,29.297,20.996,0
1579294704.594,31.738,39.062,31.250,23.926,35.156,0
1579294704.598,30.273,36.133,32.227,25.879,-16.113,0
1579294704.602,34.180,38.574,32.715,32.715,-0.488,0
1579294704.606,38.574,40.527,33.203,30.762,38.086,0
1579294704.623,40.039,37.109,33.691,33.203,23.438,0
1579294704.627,40.527,36.621,33.203,42.969,66.406,0
1579294704.631,41.016,38.574,32.227,48.828,16.113,0
1579294704.635,40.039,37.598,31.738,45.410,-3.906,0
1579294704.639,35.645,36.133,30.273,41.504,43.945,0
1579294704.643,33.691,37.598,31.250,44.922,64.941,0
1579294704.647,28.320,37.598,28.809,41.504,9.277,0
1579294704.650,26.855,36.621,26.367,33.203,34.668,0
1579294704.654,23.438,34.668,31.250,28.809,104.980,0
1579294704.658,17.578,37.109,34.668,28.320,41.992,0
1579294704.662,16.602,39.062,31.250,25.879,7.812,0
1579294704.666,19.531,36.621,30.273,25.879,83.008,0
1579294704.663,19.531,35.156,32.227,21.484,83.984,0
1579294704.667,15.625,35.645,32.715,16.113,62.012,0
1579294704.671,15.625,35.156,29.297,19.043,23.438,0
1579294704.675,14.648,34.180,25.879,15.137,3.906,0
1579294704.679,16.113,38.574,26.367,4.395,52.734,0
1579294704.683,20.508,41.504,26.855,3.418,13.184,0
1579294704.687,25.391,40.039,28.320,12.207,-3.906,0
1579294704.690,28.320,38.086,32.227,21.973,21.484,0
1579294704.694,33.691,39.062,34.180,25.391,44.434,0
1579294704.698,37.109,40.527,32.715,29.297,80.078,0
1579294704.702,32.715,39.062,32.227,32.227,45.410,0
1579294704.706,32.227,36.621,34.668,39.062,6.836,0
1579294704.703,36.133,36.621,37.598,41.504,14.160,0
1579294704.707,38.086,35.156,37.598,35.156,-13.672,0
1579294704.711,35.645,34.668,37.109,36.133,-27.344,0
1579294704.715,34.668,34.180,35.645,39.551,60.547,0
1579294704.719,37.109,34.180,35.156,38.574,51.270,0
1579294704.723,40.039,36.621,35.156,42.969,-14.648,0
1579294704.727,36.621,36.621,37.109,44.922,66.406,0
1579294704.730,36.133,36.133,39.551,45.410,85.938,0
1579294704.734,36.133,38.086,38.574,45.898,0.977,0
1579294704.738,35.645,38.086,35.645,44.434,-23.438,0
1579294704.742,34.180,35.156,37.109,40.527,-18.066,0
1579294704.746,28.320,34.180,39.551,39.551,47.363,0
1579294704.763,22.461,35.645,37.109,38.574,85.938,0
1579294704.767,19.531,36.621,36.133,31.738,27.344,0
1579294704.771,14.648,36.133,40.527,25.391,17.578,0
1579294704.775,11.719,32.715,42.480,27.344,45.410,0
1579294704.779,17.578,29.297,39.062,36.133,23.926,0
1579294704.783,20.508,30.273,36.621,31.250,18.066,0
1579294704.787,26.367,33.691,37.109,26.367,66.406,0
1579294704.790,28.320,34.668,36.133,26.367,70.312,0
1579294704.794,27.344,34.180,35.645,24.902,30.273,0
1579294704.798,27.832,35.645,35.645,29.785,29.785,0
1579294704.802,25.879,37.598,36.133,29.785,46.875,0
1579294704.806,25.391,37.109,35.645,19.043,-15.625,0
1579294704.803,17.578,36.621,32.227,14.648,9.277,0
1579294704.807,13.184,39.062,30.762,13.672,37.598,0
1579294704.811,19.531,40.039,31.250,10.254,44.922,0
1579294704.815,24.414,39.551,29.297,16.113,33.203,0
1579294704.819,27.344,40.527,28.809,24.414,19.531,0
1579294704.823,28.320,39.551,30.273,23.438,27.344,0
1579294704.827,29.785,37.109,32.715,24.902,-0.488,0
1579294704.830,34.668,35.645,32.227,28.320,41.016,0
1579294704.834,34.180,34.668,29.297,26.855,75.684,0
1579294704.838,34.668,34.668,32.227,34.180,31.738,0
1579294704.842,41.504,38.086,33.203,39.062,-63.965,0
1579294704.846,39.551,40.039,33.203,36.133,15.137,0
1579294704.843,32.715,37.598,31.738,33.203,23.438,0
1579294704.847,33.203,37.598,30.273,37.109,3.418,0
1579294704.851,32.227,40.039,31.250,41.504,81.543,0
1579294704.855,28.320,37.109,30.762,37.109,77.148,0
1579294704.859,30.273,36.621,30.273,36.133,59.570,0
1579294704.863,35.645,37.109,29.297,39.551,9.766,0
1579294704.867,38.574,34.668,30.273,41.992,-32.715,0
1579294704.870,35.156,32.227,31.250,40.527,-16.113,0
1579294704.874,23.926,29.297,31.250,29.297,22.949,0
1579294704.878,17.090,28.809,30.273,23.926,26.855,0
1579294704.882,15.137,32.715,30.273,24.902,-3.906,0
1579294704.886,12.207,33.203,31.738,22.461,27.344,0
1579294704.903,16.113,34.180,31.250,20.508,51.758,0
1579294704.907,17.578,37.598,29.297,17.090,13.184,0
1579294704.911,18.555,37.598,29.297,22.949,32.715,0
1579294704.915,26.855,36.621,30.762,26.367,86.426,0
1579294704.919,30.273,36.621,29.785,22.461,14.648,0
1579294704.923,27.344,36.621,30.273,18.555,22.461,0
1579294704.927,31.250,35.645,32.227,26.367,64.941,0
1579294704.930,39.551,35.645,33.203,37.109,-11.719,0
1579294704.934,37.598,35.156,33.203,30.762,35.645,0
1579294704.938,38.086,36.621,32.715,31.250,86.914,0
1579294704.942,36.621,34.668,32.715,33.691,56.152,0
1579294704.946,30.273,31.738,34.180,34.180,77.148,0
1579294704.943,28.809,34.668,33.203,36.621,75.684,0
1579294704.947,33.691,37.598,28.320,34.668,55.176,0
1579294704.951,35.156,33.203,30.273,26.855,18.555,0
1579294704.955,31.250,33.203,34.180,26.367,28.809,0
1579294704.959,35.156,35.645,35.645,36.621,55.664,0
1579294704.963,36.133,33.691,38.086,34.668,44.434,0
1579294704.967,32.715,31.738,34.180,28.320,85.449,0
1579294704.970,35.645,32.715,33.203,36.133,87.891,0
1579294704.974,34.668,35.645,34.668,36.621,56.152,0
1579294704.978,29.785,36.133,33.203,25.879,6.348,0
1579294704.982,30.273,33.691,34.180,25.391,9.277,0
1579294704.986,23.926,31.250,36.133,28.320,51.270,0
1579294704.983,18.555,30.273,35.645,36.133,10.254,0
1579294704.987,16.602,31.738,33.691,31.250,20.996,0
1579294704.991,11.230,32.227,35.645,23.438,55.176,0
1579294704.995,12.207,33.203,36.621,31.250,31.738,0
1579294704.999,15.625,34.180,33.691,33.203,24.902,0
1579294705.003,19.043,33.203,31.738,28.809,33.203,0
1579294705.007,24.414,32.227,32.715,21.484,13.672,0
1579294705.010,26.367,34.180,31.738,19.043,12.695,0
1579294705.014,23.438,35.645,31.250,19.043,-1.953,0
1579294705.018,21.973,35.156,27.832,14.160,7.812,0
1579294705.022,26.855,36.133,24.414,16.602,26.367,0
1579294705.026,34.180,36.133,26.855,20.020,-34.668,0
1579294705.043,37.109,36.621,29.297,25.879,-11.719,0
1579294705.047,38.086,36.133,28.809,36.133,61.035,0
1579294705.051,42.480,36.133,29.297,37.109,38.574,0
1579294705.055,39.551,33.203,32.715,38.086,-15.137,0
1579294705.059,39.551,32.227,34.180,46.387,3.418,0
1579294705.063,42.969,34.668,33.691,48.340,39.062,0
1579294705.067,39.551,35.156,35.156,49.805,3.906,0
1579294705.070,36.621,33.691,34.668,42.480,-1.953,0
1579294705.074,36.621,32.227,33.691,43.945,44.922,0
1579294705.078,34.668,35.156,34.668,54.199,19.043,0
1579294705.082,29.297,35.645,36.133,52.734,69.336,0
1579294705.086,26.855,32.227,37.598,40.527,110.352,0
1579294705.083,27.832,30.762,38.574,32.715,48.828,0
1579294705.087,32.227,34.180,39.551,38.086,21.484,0
1579294705.091,30.273,35.156,37.109,36.621,20.020,0
1579294705.095,25.879,34.668,35.156,24.902,21.484,0
1579294705.099,23.438,32.227,34.668,21.484,29.297,0
1579294705.103,25.879,31.738,36.133,26.855,47.363,0
1579294705.107,26.855,32.227,36.621,28.809,56.152,0
1579294705.110,25.879,29.785,34.668,30.762,56.641,0
1579294705.114,27.344,28.809,34.180,33.203,78.613,0
1579294705.118,26.367,30.273,33.691,29.785,50.781,0
1579294705.122,27.344,29.785,32.715,28.809,57.617,0
1579294705.126,23.438,29.297,34.180,34.668,48.340,0
1579294705.123,20.020,29.297,36.621,35.645,30.762,0
1579294705.127,24.902,28.320,36.621,36.621,41.992,0
1579294705.131,28.809,29.297,36.133,35.645,46.875,0
1579294705.135,28.320,31.738,36.621,29.297,-23.926,0
1579294705.139,29.297,33.203,34.180,23.438,-55.176,0
1579294705.143,37.598,34.668,30.762,26.367,-37.109,0
1579294705.147,37.598,35.645,27.832,32.715,-26.367,0
1579294705.150,31.250,36.621,25.879,31.738,14.648,0
1579294705.154,28.809,37.109,27.344,24.902,-26.855,0
1579294705.158,25.879,35.645,30.762,22.461,23.438,0
1579294705.162,27.832,36.621,30.762,29.297,86.426,0
1579294705.166,29.785,38.574,30.762,35.156,67.871,0
1579294705.183,25.391,40.039,31.250,32.715,114.746,0
1579294705.187,23.438,40.527,29.785,26.855,82.520,0
1579294705.191,22.461,40.039,27.344,27.344,-26.855,0
1579294705.195,19.531,39.062,29.297,27.832,-27.832,0
1579294705.199,23.438,35.156,33.203,30.273,30.273,0
1579294705.203,27.832,36.133,31.738,27.832,67.871,0
1579294705.207,31.738,38.086,29.785,23.926,88.379,0
1579294705.210,36.621,35.645,31.250,31.250,69.824,0
1579294705.214,30.273,35.645,35.156,27.832,-6.348,0
1579294705.218,27.344,35.156,38.574,20.508,1.953,0
1579294705.222,34.180,36.133,37.598,26.855,73.730,0
1579294705.226,34.180,38.086,36.133,26.855,76.172,0
1579294705.223,33.691,39.551,34.668,24.414,21.973,0
1579294705.227,34.668,40.039,34.180,25.391,-27.344,0
1579294705.231,35.156,38.086,32.715,21.484,-10.742,0
1579294705.235,33.691,34.668,30.273,26.855,4.883,0
1579294705.239,30.762,33.691,30.762,35.645,9.277,0
1579294705.243,26.855,34.180,32.227,35.156,25.391,0
1579294705.247,22.949,30.762,35.156,26.855,32.227,0
1579294705.250,25.879,31.738,35.645,29.297,91.309,0
1579294705.254,30.273,34.180,32.715,39.062,91.797,0
1579294705.258,36.621,32.715,33.203,41.504,72.754,0
1579294705.262,42.969,33.203,33.691,43.457,52.734,0
1579294705.266,48.828,38.086,33.691,47.363,9.277,0
1579294705.263,47.852,40.527,39.062,44.922,10.254,0
1579294705.267,49.316,39.062,41.504,48.340,47.852,0
1579294705.271,49.805,38.574,38.086,46.387,90.820,0
1579294705.275,48.340,39.062,35.645,40.039,80.078,0
1579294705.279,48.828,38.574,35.645,43.945,24.902,0
1579294705.283,41.504,37.598,36.621,35.645,27.344,0
1579294705.287,39.062,38.086,34.180,25.391,31.250,0
1579294705.290,41.504,37.598,31.250,23.438,15.625,0
1579294705.294,40.527,36.621,31.250,24.902,15.625,0
1579294705.298,35.645,33.691,32.715,29.297,33.691,0
1579294705.302,32.715,33.203,34.180,33.691,19.043,0
1579294705.306,28.320,30.762,35.156,28.809,40.527,0
1579294705.323,20.508,28.320,36.133,31.738,64.941,0
1579294705.327,19.043,30.762,38.086,43.457,23.438,0
1579294705.331,20.508,31.250,35.645,41.016,-5.859,0
1579294705.335,19.531,32.227,36.621,38.574,23.438,0
1579294705.339,18.555,32.715,37.598,42.480,28.320,0
1579294705.343,22.461,33.203,35.156,38.574,3.418,0
1579294705.347,21.973,34.180,35.156,33.691,17.090,0
1579294705.350,15.625,33.691,34.180,28.809,32.227,0
1579294705.354,20.020,33.203,37.598,31.250,41.992,0
1579294705.358,21.973,32.227,36.133,38.086,21.973,0
1579294705.362,27.832,35.156,32.715,34.180,55.664,0
1579294705.366,33.203,35.156,34.180,32.227,82.031,0
1579294705.363,31.738,33.691,33.203,30.762,54.688,0
1579294705.367,29.785,34.180,33.691,27.832,43.945,0
1579294705.371,26.855,35.156,33.203,26.367,34.668,0
1579294705.375,26.855,37.109,33.691,23.438,33.203,0
1579294705.379,27.832,36.621,36.621,25.879,29.297,0
1579294705.383,33.203,36.133,37.598,34.180,28.809,0
1579294705.387,37.598,37.109,36.621,37.598,-12.695,0
1579294705.390,32.715,35.645,34.668,39.062,-33.691,0
1579294705.394,26.855,33.691,34.668,40.527,0.488,0
1579294705.398,26.855,34.668,34.668,34.180,-19.043,0
1579294705.402,28.320,37.109,31.738,30.273,17.578,0
1579294705.406,30.762,40.527,28.809,30.273,61.035,0
1579294705.403,26.855,40.527,28.320,26.367,69.824,0
1579294705.407,26.367,38.574,25.879,29.785,75.195,0
1579294705.411,30.273,41.504,24.902,37.598,59.082,0
1579294705.415,33.203,41.504,28.320,40.039,54.688,0
1579294705.419,32.715,38.574,32.715,40.039,65.918,0
1579294705.423,34.180,38.086,33.691,43.457,70.801,0
1579294705.427,32.227,34.180,34.668,46.387,54.199,0
1579294705.430,28.809,35.156,31.738,40.527,9.766,0
1579294705.434,28.809,35.156,30.762,24.902,21.973,0
1579294705.438,25.879,32.715,32.227,11.719,33.691,0
1579294705.442,20.996,34.180,31.250,9.766,55.664,3
1579294705.446,21.484,36.133,29.785,15.137,43.945,0
1579294705.463,20.996,38.086,27.344,18.555,21.973,0
1579294705.467,19.043,38.086,24.414,12.695,24.902,0
1579294705.471,20.020,37.598,23.438,14.648,-0.488,0
1579294705.475,20.996,39.551,23.926,17.090,14.160,0
1579294705.479,23.926,39.551,23.926,21.973,32.715,0
1579294705.483,24.902,35.645,23.926,23.926,32.227,0
1579294705.487,27.832,33.691,25.879,19.531,-4.883,0
1579294705.490,33.691,34.180,29.297,28.809,-41.992,0
1579294705.494,37.109,36.621,30.273,32.227,22.949,0
1579294705.498,36.133,35.645,31.738,29.785,89.844,0
1579294705.502,32.227,33.203,34.180,25.391,93.262,0
1579294705.506,27.832,35.156,34.668,21.484,55.664,0
1579294705.503,30.273,37.598,32.715,27.832,33.203,0
1579294705.507,33.691,39.551,33.203,28.320,13.184,0
1579294705.511,34.180,39.062,32.715,19.043,-9.766,0
1579294705.515,31.738,37.109,33.203,15.625,-6.836,0
1579294705.519,30.762,36.133,32.715,21.973,-17.578,0
1579294705.523,31.738,35.156,31.738,31.250,-19.043,0
1579294705.527,32.715,33.203,33.203,24.902,33.691,0
1579294705.530,36.621,33.691,33.203,20.996,64.453,0
1579294705.534,38.086,37.109,33.691,33.691,9.766,0
1579294705.538,40.527,36.621,35.156,40.039,9.766,0
1579294705.542,43.945,35.645,34.668,36.621,42.480,0
1579294705.546,46.875,38.574,33.203,38.086,40.527,0
1579294705.563,47.852,41.016,34.180,43.457,40.039,0
1579294705.567,43.457,42.480,34.668,41.016,43.457,0
1579294705.571,40.039,44.434,35.156,39.062,16.602,0
1579294705.575,38.086,43.457,34.180,38.574,29.785,0
1579294705.579,33.203,43.945,33.691,32.715,44.434,0
1579294705.583,31.250,44.434,35.645,35.645,23.926,0
1579294705.587,28.809,39.551,36.133,35.645,69.824,0
1579294705.590,24.902,35.645,33.691,24.414,31.738,0
1579294705.594,22.949,33.691,35.645,21.484,13.184,0
1579294705.598,23.438,37.109,37.598,27.832,50.293,0
1579294705.602,23.926,36.133,35.645,27.832,20.020,0
1579294705.606,25.391,36.133,35.156,23.438,38.086,0
1579294705.603,25.879,37.598,34.180,23.438,27.832,0
1579294705.607,24.414,37.109,34.180,30.762,64.453,0
1579294705.611,22.949,37.598,35.156,27.832,112.305,0
1579294705.615,25.391,37.598,31.250,21.484,54.688,0
1579294705.619,29.297,37.598,31.250,22.461,32.715,0
1579294705.623,27.344,40.039,32.715,25.879,90.332,0
1579294705.627,28.809,40.039,30.273,29.785,53.711,0
1579294705.630,32.715,38.086,33.691,31.738,11.719,0
1579294705.634,32.227,35.156,33.691,33.203,35.645,0
1579294705.638,31.250,34.180,32.715,36.621,69.824,0
1579294705.642,34.180,38.086,32.227,42.969,104.980,0
1579294705.646,31.250,39.551,32.715,38.574,85.938,0
1579294705.643,24.414,36.133,35.645,26.855,44.434,0
1579294705.647,20.996,34.668,37.598,28.809,54.199,0
1579294705.651,17.578,34.668,35.156,32.715,20.020,0
1579294705.655,17.578,34.668,32.715,30.762,-19.531,0
1579294705.659,20.020,35.645,33.691,26.367,-25.391,0
1579294705.663,20.996,34.668,34.180,25.391,-1.953,0
1579294705.667,18.555,33.691,33.691,26.855,33.691,0
1579294705.670,13.672,34.668,30.762,23.438,48.340,0
1579294705.674,10.742,35.156,27.832,19.531,49.316,0
1579294705.678,15.137,36.133,26.855,16.602,44.922,0
1579294705.682,16.602,36.133,30.273,17.090,-13.672,0
1579294705.686,16.113,37.109,31.250,23.438,-27.832,0
1579294705.703,25.879,38.086,28.809,26.855,58.594,0
1579294705.707,25.391,38.086,32.715,24.414,11.230,0
1579294705.711,22.461,41.016,33.203,34.668,-94.727,0
1579294705.715,24.902,39.062,31.250,37.109,-36.621,0
1579294705.719,21.484,35.645,31.738,27.344,-4.883,0
1579294705.723,20.996,34.668,31.738,25.391,-21.973,0
1579294705.727,19.531,32.227,31.250,22.461,46.387,0
1579294705.730,18.555,31.250,31.738,22.461,79.102,0
1579294705.734,20.996,30.762,35.156,24.414,88.379,0
1579294705.738,21.973,32.227,34.180,23.438,41.504,0
1579294705.742,24.902,32.715,34.180,22.461,79.102,0
1579294705.746,30.762,33.691,34.180,30.762,115.723,0
1579294705.743,35.645,35.156,30.762,39.062,55.664,0
1579294705.747,40.527,35.156,31.738,36.133,33.203,0
1579294705.751,40.039,35.645,34.180,29.785,40.039,0
1579294705.755,37.109,34.668,32.715,30.273,11.230,0
1579294705.759,36.133,32.715,32.715,37.598,30.762,0
1579294705.763,35.645,34.668,34.668,41.016,104.492,0
1579294705.767,39.062,36.621,33.203,38.574,68.359,0
1579294705.770,37.109,36.621,31.250,36.133,43.945,0
1579294705.774,33.691,38.574,31.250,38.574,83.984,0
1579294705.778,34.668,39.062,28.320,38.086,95.215,0
1579294705.782,33.203,39.062,27.832,28.809,45.410,0
1579294705.786,30.273,40.039,29.297,25.879,81.055,0
1579294705.783,29.785,40.039,28.320,30.273,108.398,0
1579294705.787,27.344,40.039,29.297,30.762,92.773,0
1579294705.791,26.367,39.551,34.180,25.391,44.434,0
1579294705.795,26.367,37.598,38.574,25.879,18.555,0
1579294705.799,23.438,33.691,40.039,23.438,71.289,0
1579294705.803,29.297,35.645,36.621,23.438,36.133,0
1579294705.807,34.180,37.598,35.645,29.297,14.160,0
1579294705.810,26.367,34.668,40.039,25.391,-4.883,0
1579294705.814,27.832,37.109,37.109,20.508,61.035,0
1579294705.818,36.133,38.086,31.250,24.902,57.129,0
1579294705.822,39.551,38.086,31.250,26.367,-36.133,0
1579294705.826,39.551,39.551,30.762,22.461,8.301,0
1579294705.844,38.574,37.598,30.762,26.855,45.410,0
1579294705.848,39.062,38.574,30.273,31.738,77.148,0
1579294705.852,37.598,39.551,33.203,36.621,34.668,0
1579294705.856,40.039,40.527,34.180,34.668,2.441,0
1579294705.860,45.410,41.992,32.227,39.062,4.883,0
1579294705.864,42.969,40.527,33.203,46.875,-13.672,0
1579294705.868,42.480,40.039,31.738,42.480,40.527,0
1579294705.871,41.504,38.086,30.762,34.180,39.062,0
1579294705.875,41.992,39.551,31.250,32.227,8.789,0
1579294705.879,45.410,41.016,29.785,36.133,20.020,0
1579294705.883,42.480,41.016,30.762,37.109,-8.789,0
1579294705.887,41.016,43.457,34.180,34.668,51.270,0
1579294705.883,45.410,41.992,34.668,29.785,71.777,0
1579294705.887,44.434,38.574,31.738,31.250,-22.461,0
1579294705.891,39.062,40.527,33.691,37.109,6.836,0
1579294705.895,37.109,40.039,34.180,39.551,33.691,0
1579294705.899,38.086,36.621,33.691,31.250,0.488,0
1579294705.903,36.133,36.133,34.668,27.344,34.668,0
1579294705.907,34.180,36.621,33.691,34.668,13.184,0
1579294705.910,36.133,37.109,33.203,34.180,-10.254,0
1579294705.914,40.039,37.109,35.645,32.227,53.223,0
1579294705.918,43.945,36.133,35.645,27.832,44.434,0
1579294705.922,42.969,38.086,37.109,30.762,14.160,0
1579294705.926,36.621,37.598,38.086,34.180,27.344,0
1579294705.923,37.598,36.133,38.086,32.715,-22.949,0
1579294705.927,41.992,36.621,38.086,39.062,-51.758,0
1579294705.931,40.527,36.133,38.086,44.434,9.766,0
1579294705.935,40.527,37.109,38.574,45.898,12.695,0
1579294705.939,40.039,36.133,38.574,46.387,3.418,0
1579294705.943,35.156,34.668,38.574,41.992,52.734,0
1579294705.947,31.250,34.180,36.621,39.062,61.035,0
1579294705.950,31.250,35.645,38.574,39.551,33.203,0
1579294705.954,33.691,37.109,42.480,35.156,54.199,0
1579294705.958,35.156,37.109,41.016,34.668,55.664,0
1579294705.962,36.133,34.180,37.109,38.086,-9.766,0
1579294705.966,33.691,33.203,36.621,43.945,2.930,0
1579294705.983,33.691,35.156,37.598,49.316,83.984,0
1579294705.987,35.156,35.645,37.109,48.340,48.828,0
1579294705.991,36.133,34.668,35.645,39.062,22.949,0
1579294705.995,41.992,36.133,38.086,32.715,14.160,0
1579294705.999,41.016,39.062,36.621,33.203,29.297,0
1579294706.003,39.551,40.039,33.203,23.926,50.781,0
1579294706.007,44.922,40.039,36.621,16.113,49.316,0
1579294706.010,45.898,41.016,37.109,20.996,15.625,0
1579294706.014,42.480,38.574,34.668,25.879,48.828,0
1579294706.018,40.527,37.109,32.715,28.809,125.977,0
1579294706.022,41.504,35.645,33.691,28.320,44.434,0
1579294706.026,39.062,36.133,33.691,31.250,-45.410,0
1579294706.023,32.227,35.645,34.180,41.016,71.777,0
1579294706.027,30.273,34.668,37.109,43.945,107.422,0
1579294706.031,26.367,33.203,36.621,38.086,47.852,0
1579294706.035,18.066,33.203,35.156,29.785,17.578,0
1579294706.039,19.043,34.180,35.645,28.809,-40.527,0
1579294706.043,28.809,35.156,38.086,33.203,-17.578,0
1579294706.047,29.785,34.180,40.039,32.715,41.504,0
1579294706.050,29.297,33.691,40.039,30.762,39.551,0
1579294706.054,30.762,33.691,39.062,33.691,84.961,0
1579294706.058,31.738,35.645,37.598,38.574,83.496,0
1579294706.062,30.273,34.668,36.621,33.691,5.859,0
1579294706.066,24.902,34.668,35.156,25.391,31.250,0
1579294706.063,26.855,37.598,38.086,29.785,84.473,0
1579294706.067,31.250,37.598,40.039,34.668,44.922,0
1579294706.071,34.180,36.621,39.062,34.668,22.461,0
1579294706.075,34.180,35.645,41.016,32.715,46.875,0
1579294706.079,37.598,35.645,40.039,37.598,53.223,0
1579294706.083,39.551,37.109,39.551,43.457,69.824,0
1579294706.087,37.109,37.109,39.551,38.086,45.898,0
1579294706.090,34.180,37.109,36.133,31.738,47.852,0
1579294706.094,28.809,37.109,34.180,26.855,34.668,0
1579294706.098,21.484,37.598,35.156,27.344,29.785,0
1579294706.102,18.555,34.668,36.621,27.832,65.918,0
1579294706.106,20.020,33.691,35.156,21.973,56.641,0
1579294706.123,22.461,36.133,32.715,24.902,101.074,0
1579294706.127,24.902,35.645,35.156,20.996,53.223,0
1579294706.131,19.531,34.668,36.133,17.578,-30.273,0
1579294706.135,13.672,31.250,36.133,19.531,49.316,0
1579294706.139,13.672,31.250,36.133,15.137,55.664,0
1579294706.143,17.578,33.691,35.156,25.391,-9.277,0
1579294706.147,19.043,30.762,37.109,31.250,-19.531,0
1579294706.150,19.531,30.762,38.086,28.809,37.109,0
1579294706.154,17.578,31.738,37.598,28.809,69.824,0
1579294706.158,13.184,29.785,37.598,22.461,42.480,0
1579294706.162,14.160,30.273,35.156,25.391,-5.371,0
1579294706.166,22.949,33.203,36.133,37.598,-11.719,0
1579294706.163,27.344,32.715,38.574,35.156,4.883,0
1579294706.167,23.438,30.273,37.109,30.273,49.805,0
1579294706.171,21.973,29.297,33.691,31.738,70.312,0
1579294706.175,24.414,31.250,34.668,29.297,62.988,0
1579294706.179,27.344,35.156,34.668,28.320,86.426,0
1579294706.183,32.227,36.621,31.250,22.949,87.402,0
1579294706.187,38.574,36.621,31.738,21.973,59.570,0
1579294706.190,36.621,36.133,34.180,28.809,47.852,0
1579294706.194,35.156,36.133,35.156,28.809,45.410,0
1579294706.198,34.180,37.109,32.227,25.879,20.020,0
1579294706.202,24.414,36.133,31.738,22.949,13.672,0
1579294706.206,24.414,36.621,32.715,25.391,14.648,0
1579294706.203,28.320,39.062,31.250,30.273,3.906,0
1579294706.207,30.273,38.086,32.227,24.414,65.918,0
1579294706.211,28.320,36.621,31.738,21.484,108.887,0
1579294706.215,23.438,36.133,31.250,30.762,36.621,0
1579294706.219,24.414,37.109,30.273,33.691,40.039,0
1579294706.223,24.902,36.621,29.785,24.902,78.125,0
1579294706.227,24.902,37.109,31.250,26.855,18.555,0
1579294706.230,32.227,38.574,31.250,33.691,3.418,0
1579294706.234,36.621,39.062,31.250,33.691,1.953,0
1579294706.238,30.762,38.574,30.762,31.250,57.617,0
1579294706.242,31.250,37.598,32.715,25.879,62.012,0
1579294706.246,33.691,37.109,33.691,27.832,14.648,0
1579294706.263,35.156,36.133,32.715,36.133,29.297,0
1579294706.267,39.551,35.156,32.227,37.109,55.176,0
1579294706.271,42.969,33.203,31.738,26.855,32.715,0
1579294706.275,44.434,32.715,32.227,24.414,25.391,0
1579294706.279,42.969,35.156,32.227,33.691,14.160,0
1579294706.283,40.527,35.645,32.227,33.691,-13.672,0
1579294706.287,41.016,37.598,30.762,25.879,39.062,0
1579294706.290,38.086,38.574,29.297,21.973,46.875,0
1579294706.294,32.715,37.109,29.785,21.973,16.602,0
1579294706.298,34.668,36.621,30.273,22.949,6.836,0
1579294706.302,39.062,35.645,32.227,26.367,41.504,0
1579294706.306,38.574,33.203,32.715,29.297,66.895,0
1579294706.303,37.598,32.227,31.738,35.156,16.113,0
1579294706.307,33.691,32.227,32.715,42.969,59.082,0
1579294706.311,31.250,33.203,34.180,41.992,39.551,0
1579294706.315,26.367,33.691,34.668,34.668,24.414,0
1579294706.319,16.602,31.738,35.156,28.809,62.012,0
1579294706.323,10.254,32.227,36.621,30.273,92.285,0
1579294706.327,10.254,33.203,36.621,30.273,62.500,0
1579294706.330,16.113,35.156,33.691,24.902,28.809,0
1579294706.334,20.508,35.645,34.668,21.484,46.387,0
1579294706.338,24.414,36.621,36.621,23.438,-25.391,0
1579294706.342,29.785,36.621,33.203,24.902,-4.883,0
1579294706.346,36.621,38.086,30.762,24.414,31.250,0
1579294706.343,41.992,39.062,31.250,30.762,-12.695,0
1579294706.347,46.387,37.598,31.738,37.109,14.160,0
1579294706.351,47.852,37.598,31.250,37.109,47.852,0
1579294706.355,40.527,37.598,33.203,31.250,11.719,0
1579294706.359,36.621,38.574,33.203,32.715,-12.207,0
1579294706.363,34.668,40.039,34.180,34.180,30.762,0
1579294706.367,34.668,41.504,34.180,32.715,12.207,0
1579294706.370,36.133,41.016,33.203,36.133,20.020,0
1579294706.374,35.645,40.039,32.715,31.738,39.551,0
1579294706.378,35.156,40.527,31.738,33.691,49.805,0
1579294706.382,37.109,39.551,30.762,41.504,44.922,0
1579294706.386,45.410,37.598,30.762,45.898,9.277,0
1579294706.403,45.898,36.621,34.180,47.852,26.367,0
1579294706.407,40.527,36.133,35.156,42.480,18.066,0
1579294706.411,36.133,32.715,33.691,41.016,-18.555,0
1579294706.415,25.391,33.203,33.691,39.551,-27.832,0
1579294706.419,15.137,34.180,31.250,28.809,20.508,0
1579294706.423,9.766,35.645,29.785,18.555,76.660,0
1579294706.427,2.930,38.086,28.809,12.695,126.465,0
1579294706.430,2.930,38.574,28.809,10.742,78.613,0
1579294706.434,5.371,37.598,30.273,12.207,28.809,0
1579294706.438,1.465,36.133,29.297,11.719,41.504,0
1579294706.442,2.441,34.180,27.832,13.672,66.895,0
1579294706.446,8.301,34.180,29.297,16.602,28.320,0
1579294706.443,10.254,33.203,33.203,14.648,-20.508,0
1579294706.447,10.742,31.250,34.180,12.695,-0.977,0
1579294706.451,20.020,33.203,32.715,20.508,14.160,0
1579294706.455,29.785,34.668,31.250,30.273,48.340,0
1579294706.459,32.227,37.109,32.715,27.832,55.664,0
1579294706.463,32.227,37.598,37.109,30.273,51.270,0
1579294706.467,37.598,39.062,36.133,45.898,48.828,0
1579294706.470,39.062,38.086,33.691,41.992,33.691,0
1579294706.474,35.645,36.133,34.668,43.457,39.551,0
1579294706.478,40.527,39.062,35.645,44.434,33.203,0
1579294706.482,42.480,39.062,35.645,37.109,55.176,0
1579294706.486,38.086,37.109,38.086,40.527,28.320,0
1579294706.483,34.180,37.109,40.039,41.992,7.324,0
1579294706.487,33.203,39.551,36.133,35.156,14.160,0
1579294706.491,34.668,41.504,33.691,21.484,41.992,0
1579294706.495,35.156,41.992,34.180,22.949,29.785,0
1579294706.499,41.016,44.434,31.738,34.180,-6.348,0
1579294706.503,43.945,43.457,31.250,39.062,53.711,0
1579294706.507,45.898,43.945,31.250,40.039,31.738,0
1579294706.510,43.457,41.992,33.203,33.203,-0.977,0
1579294706.514,36.621,39.062,34.668,37.598,32.715,0
1579294706.518,35.156,37.598,34.180,41.992,51.758,0
1579294706.522,37.598,37.598,35.156,35.645,61.523,0
1579294706.526,42.480,36.621,35.156,40.039,0.488,0
1579294706.543,36.621,33.691,37.598,43.457,-18.555,0
1579294706.547,29.297,34.180,37.598,39.551,-21.973,0
1579294706.551,27.832,37.109,36.621,34.180,3.418,0
1579294706.555,22.949,38.086,37.109,20.508,60.547,0
1579294706.559,16.602,36.133,34.180,18.555,61.035,3
1579294706.563,14.648,34.668,34.180,23.438,69.336,0
1579294706.567,15.137,35.645,33.203,13.672,17.090,0
1579294706.570,21.973,40.039,29.785,15.625,-21.484,0
1579294706.574,26.367,42.480,32.227,21.973,34.180,0
1579294706.578,30.273,38.574,34.180,24.414,60.547,0
1579294706.582,38.086,39.062,34.180,28.320,76.660,0
1579294706.586,41.992,40.527,33.691,27.344,49.805,0
1579294706.583,44.922,39.062,32.715,31.250,0.977,0
1579294706.587,45.898,38.086,33.203,38.574,42.480,0
1579294706.591,42.969,37.598,32.227,39.062,80.566,0
1579294706.595,42.969,36.621,31.250,37.598,52.734,0
1579294706.599,40.527,37.598,32.715,34.180,68.359,0
1579294706.603,36.133,38.086,35.156,33.691,85.938,0
1579294706.607,34.668,36.621,34.668,41.504,60.059,0
1579294706.610,33.691,36.133,32.227,37.598,45.898,0
1579294706.614,34.180,38.574,32.715,32.715,70.801,0
1579294706.618,33.203,38.574,34.180,40.039,24.414,0
1579294706.622,28.809,36.133,32.715,42.969,-9.766,0
1579294706.626,28.320,36.133,35.156,40.039,52.734,0
1579294706.623,27.344,33.203,35.645,34.180,60.547,0
1579294706.627,23.438,30.762,33.203,31.250,53.711,0
1579294706.631,19.043,33.691,34.180,30.762,38.086,0
1579294706.635,18.555,33.691,34.180,25.391,31.738,0
1579294706.639,18.555,32.227,36.133,25.391,8.301,0
1579294706.643,14.648,34.668,39.062,24.414,23.438,0
1579294706.647,16.113,35.156,36.621,27.344,35.156,0
1579294706.650,24.414,39.062,35.645,36.133,20.996,0
1579294706.654,25.879,38.574,35.645,24.902,14.648,0
1579294706.658,22.949,33.691,36.621,24.414,3.906,0
1579294706.662,26.367,32.227,35.645,37.109,5.859,0
1579294706.666,32.715,32.227,34.668,39.551,-22.461,0
1579294706.682,35.156,31.250,36.133,41.992,5.859,0
1579294706.686,37.109,28.320,38.574,40.527,66.406,0
1579294706.690,38.574,27.832,37.598,40.527,18.555,0
1579294706.694,36.133,30.273,34.668,41.992,-6.836,0
1579294706.698,40.527,33.203,36.133,46.387,10.742,0
1579294706.702,41.992,34.668,38.574,45.898,65.430,0
1579294706.706,35.645,32.715,36.621,41.504,66.406,0
1579294706.709,35.645,31.250,35.156,49.805,75.195,0
1579294706.713,33.691,31.250,34.668,53.711,81.055,0
1579294706.717,30.762,31.250,34.668,39.551,7.324,0
1579294706.721,39.062,34.668,34.180,35.645,12.207,0
1579294706.725,39.551,37.109,34.180,44.922,-9.277,0
1579294706.723,34.668,34.668,33.691,44.922,19.043,0
1579294706.727,36.621,35.645,31.250,32.715,62.500,0
1579294706.731,34.180,36.621,31.738,21.484,60.059,0
1579294706.735,28.809,35.645,33.203,24.414,53.223,0
1579294706.739,35.645,39.062,30.273,31.738,49.805,0
1579294706.743,42.969,42.480,29.297,33.691,60.547,0
1579294706.747,40.527,42.480,28.809,29.785,34.180,0
1579294706.750,35.645,42.969,30.762,25.391,54.688,0
1579294706.754,41.992,44.922,30.762,32.227,75.195,0
1579294706.758,42.969,45.410,28.809,26.855,27.344,0
1579294706.762,36.621,42.969,29.297,17.578,-12.207,0
1579294706.766,35.156,42.969,28.809,17.578,-10.254,0
1579294706.763,33.203,41.992,27.344,14.160,47.363,0
1579294706.767,28.320,39.551,25.391,13.184,29.785,0
1579294706.771,24.414,40.039,27.832,10.254,-51.758,0
1579294706.775,25.391,40.527,30.273,14.160,-27.344,0
1579294706.779,27.832,41.992,29.785,25.391,1.465,0
1579294706.783,30.273,41.016,29.297,26.855,5.371,0
1579294706.787,30.762,40.039,31.738,24.902,40.527,0
1579294706.790,32.715,41.992,33.203,33.691,36.133,0
1579294706.794,32.715,40.039,33.203,35.645,9.277,0
1579294706.798,34.180,41.504,33.691,30.273,9.766,0
1579294706.802,40.527,44.922,34.180,35.156,26.855,0
1579294706.806,37.598,42.969,33.203,37.109,48.340,0
1579294706.823,31.250,41.504,31.250,32.227,85.449,0
1579294706.827,31.250,41.504,29.297,29.297,99.609,0
1579294706.831,32.715,38.086,28.320,24.902,53.711,0
1579294706.835,32.227,34.180,31.250,20.508,12.207,0
1579294706.839,35.645,33.203,31.738,25.391,12.207,0
1579294706.843,37.598,35.156,33.691,29.297,75.684,0
1579294706.847,35.156,32.227,36.133,27.832,121.582,0
1579294706.850,40.039,31.738,36.621,31.738,100.586,0
1579294706.854,45.898,34.668,38.574,38.574,38.086,0
1579294706.858,44.434,33.691,40.527,40.039,41.016,0
1579294706.862,46.387,34.180,37.598,39.062,62.012,0
1579294706.866,46.875,38.086,37.598,38.574,30.273,0
1579294706.863,48.828,39.551,36.621,41.992,7.324,0
1579294706.867,48.828,40.527,30.762,39.551,36.133,0
1579294706.871,43.945,41.016,27.344,39.551,72.266,0
1579294706.875,41.016,40.039,30.762,39.062,25.391,0
1579294706.879,42.480,40.527,33.203,33.203,-7.324,0
1579294706.883,39.062,41.504,34.180,32.227,18.555,0
1579294706.887,32.715,38.574,31.738,32.715,12.695,0
1579294706.890,30.762,40.039,30.273,35.156,44.922,0
1579294706.894,29.297,41.992,31.738,34.180,64.941,0
1579294706.898,28.320,40.039,33.691,25.391,38.574,0
1579294706.902,24.902,37.598,36.133,23.438,85.449,0
1579294706.906,20.996,36.133,39.551,27.344,68.848,0
1579294706.923,21.484,37.109,42.480,26.367,-16.602,0
1579294706.927,20.020,38.574,40.039,24.902,-1.465,0
1579294706.931,20.508,38.574,36.621,24.414,25.391,0
1579294706.935,19.531,37.598,36.621,18.555,25.879,0
1579294706.939,24.414,40.527,37.109,20.996,40.039,0
1579294706.943,27.832,41.016,35.645,26.367,72.266,0
1579294706.947,28.809,37.598,35.156,22.461,67.383,0
1579294706.950,35.645,39.062,33.691,31.738,6.836,0
1579294706.954,40.039,40.527,32.227,31.738,21.973,0
1579294706.958,40.527,41.992,33.691,25.391,36.621,0
1579294706.962,41.504,41.504,34.668,31.250,47.363,0
1579294706.966,42.969,38.574,35.645,41.992,23.926,0
1579294706.963,40.527,37.598,37.598,44.922,11.230,0
1579294706.967,35.645,38.086,37.598,37.109,50.293,0
1579294706.971,29.785,37.598,35.645,34.668,1.465,0
1579294706.975,24.902,37.109,37.598,43.457,-20.996,0
1579294706.979,25.879,36.621,38.086,44.922,-11.230,0
1579294706.983,23.926,34.180,38.574,37.109,-11.230,0
1579294706.987,18.066,33.691,35.156,30.273,-2.441,0
1579294706.990,18.555,31.738,33.203,29.297,-38.574,0
1579294706.994,20.020,29.297,35.645,38.574,11.230,0
1579294706.998,12.207,27.832,35.645,31.250,59.082,0
1579294707.002,16.602,31.250,35.645,21.484,33.691,0
1579294707.006,24.414,32.715,36.133,25.391,39.062,0
1579294707.003,23.438,30.273,37.109,33.691,69.824,0
1579294707.007,26.367,32.715,36.133,40.039,58.594,0
1579294707.011,24.902,30.273,35.156,29.297,88.379,0
1579294707.015,26.855,30.273,38.086,23.926,78.613,0
1579294707.019,26.855,32.715,38.574,24.902,42.969,0
1579294707.023,25.391,33.691,36.133,29.297,67.383,0
1579294707.027,28.809,34.180,35.156,27.832,25.879,0
1579294707.030,29.297,34.180,35.156,20.020,-18.066,0
1579294707.034,29.785,36.133,34.180,21.484,25.391,0
1579294707.038,30.273,35.645,32.715,22.461,45.898,0
1579294707.042,31.250,34.668,32.715,23.438,61.523,0
1579294707.046,29.785,34.180,33.691,23.926,64.453,0
1579294707.063,26.855,33.203,35.156,21.973,6.836,0
1579294707.067,28.320,34.180,35.645,26.855,40.527,0
1579294707.071,32.715,34.180,37.598,31.250,82.520,0
1579294707.075,30.762,33.691,37.598,34.668,36.133,0
1579294707.079,32.715,35.645,36.133,39.062,38.574,0
1579294707.083,38.086,35.156,38.574,44.434,49.805,0
1579294707.087,44.922,35.645,39.551,45.410,48.340,0
1579294707.090,46.875,37.598,36.621,37.109,52.246,0
1579294707.094,42.480,38.086,34.180,35.645,-16.113,0
1579294707.098,44.922,39.551,33.691,39.551,7.812,0
1579294707.102,41.992,41.992,31.738,34.668,70.801,0
1579294707.106,35.156,40.039,31.250,27.832,9.277,0
1579294707.103,32.227,38.086,33.203,18.066,-17.090,0
1579294707.107,29.785,39.062,33.691,18.555,45.898,0
1579294707.111,28.809,40.039,32.227,24.902,7.324,0
1579294707.115,23.926,40.039,30.762,18.066,-30.273,0
1579294707.119,20.996,39.062,32.227,13.672,-43.457,0
1579294707.123,19.531,37.598,30.273,12.207,45.898,0
1579294707.127,16.113,38.086,28.320,10.742,59.082,0
1579294707.130,17.090,38.574,27.832,9.766,12.207,0
1579294707.134,12.695,36.133,24.902,6.836,84.961,0
1579294707.138,9.766,35.156,28.320,9.766,32.227,0
1579294707.142,15.137,34.180,31.250,16.113,-58.594,0
1579294707.146,16.602,29.785,32.715,20.996,1.953,0
