timestamps,TP9,AF7,AF8,TP10,Right AUX,Marker0
1579966034.544,508.301,-506.348,-586.426,-68.848,-603.027,0
1579966034.548,-945.801,-682.617,-520.020,-972.168,-598.633,0
1579966034.552,-925.293,-623.535,-602.539,-107.910,-640.625,0
1579966034.556,487.305,-439.453,-658.203,-1000.000,-579.102,0
1579966034.559,379.883,-452.637,-594.727,-413.086,-542.969,0
1579966034.563,-981.445,-626.465,-476.562,-914.062,-410.156,0
1579966034.567,-909.668,-652.344,-516.113,314.453,-437.012,0
1579966034.571,669.922,-467.285,-638.184,-1000.000,-539.062,0
1579966034.575,291.016,-397.949,-524.414,-563.965,-171.875,0
1579966034.579,913.086,-580.566,-441.406,929.688,-239.258,0
1579966034.583,-930.664,-697.754,-551.270,655.762,-648.438,0
1579966034.587,921.875,-539.062,-675.293,-819.824,-713.867,0
1579966034.591,705.078,-406.738,-662.598,-981.934,-577.637,0
1579966034.595,893.066,-525.391,-537.109,361.816,-452.637,0
1579966034.599,-969.238,-698.730,-531.738,-984.863,-619.629,0
1579966034.602,-985.840,-600.586,-632.812,-293.945,-671.387,0
1579966034.606,781.738,-429.199,-692.871,-1000.000,-676.758,0
1579966034.610,799.316,-475.586,-537.598,-62.988,-345.703,0
1579966034.614,-981.934,-647.461,-391.113,-812.500,-98.145,0
1579966034.618,-953.613,-641.113,-552.734,113.281,-495.117,0
1579966034.622,761.230,-471.680,-703.613,-1000.000,-723.145,0
1579966034.626,666.016,-444.824,-617.188,-491.699,-536.133,0
1579966034.630,999.512,-611.328,-474.609,-957.520,-362.305,0
1579966034.634,-939.453,-682.617,-542.969,434.082,-560.547,0
1579966034.638,806.641,-509.766,-678.223,-1000.000,-703.613,0
1579966034.642,607.910,-427.246,-655.273,-816.406,-636.230,0
1579966034.645,967.773,-578.613,-545.898,616.699,-575.684,0
1579966034.649,-957.520,-695.801,-512.695,825.684,-522.949,0
1579966034.653,956.055,-552.246,-612.305,-611.328,-544.434,0
1579966034.657,621.582,-401.855,-628.418,-1000.000,-477.051,0
1579966034.661,823.242,-509.277,-512.207,188.965,-370.605,0
1579966034.665,-952.637,-692.383,-510.742,-896.973,-547.363,0
1579966034.669,-994.141,-589.355,-533.691,-73.242,-303.223,0
1579966034.673,817.383,-411.133,-587.891,-1000.000,-304.199,0
1579966034.677,828.613,-476.074,-609.863,-222.656,-624.512,0
1579966034.681,-981.934,-668.457,-546.387,-819.824,-649.414,0
1579966034.684,-969.238,-644.043,-576.660,197.266,-553.223,0
1579966034.688,845.215,-444.824,-642.090,-1000.000,-489.746,0
1579966034.692,770.508,-437.988,-635.742,-527.344,-619.141,0
1579966034.696,976.562,-620.605,-541.016,980.469,-591.309,0
1579966034.700,-914.551,-699.707,-579.102,555.664,-668.945,0
1579966034.704,750.977,-506.836,-612.793,-939.453,-426.270,0
1579966034.708,381.348,-392.578,-536.621,-899.902,-185.547,0
1579966034.712,918.945,-567.871,-517.578,518.066,-487.793,0
1579966034.716,-945.312,-715.820,-542.969,905.273,-656.250,0
1579966034.720,985.352,-583.008,-646.973,-500.488,-701.172,0
1579966034.724,416.992,-416.992,-645.020,-1000.000,-533.203,0
1579966034.727,590.332,-509.766,-538.574,75.684,-458.984,0
1579966034.731,-937.012,-696.289,-516.602,-851.562,-618.652,0
1579966034.735,-947.266,-628.906,-608.887,-16.113,-667.480,0
1579966034.739,590.332,-439.941,-679.199,-1000.000,-661.621,0
1579966034.743,483.887,-460.938,-565.430,-251.953,-460.938,0
1579966034.747,-985.352,-651.367,-482.422,-815.918,-474.609,0
1579966034.751,-918.457,-654.785,-529.297,383.789,-481.445,0
1579966034.755,675.781,-464.844,-618.164,-1000.000,-490.723,0
1579966034.759,488.770,-421.387,-629.395,-627.441,-616.211,0
1579966034.763,982.910,-557.617,-429.688,906.250,-185.059,0
1579966034.767,-926.758,-648.926,-441.895,608.398,-254.395,0
1579966034.770,824.707,-518.555,-654.785,-874.512,-696.777,0
1579966034.774,429.688,-409.180,-669.434,-977.051,-674.805,0
1579966034.778,844.238,-533.203,-535.156,384.277,-494.141,0
1579966034.782,-939.941,-678.223,-487.305,959.473,-460.449,0
1579966034.786,995.117,-576.660,-625.488,-387.695,-667.480,0
1579966034.790,434.570,-415.039,-672.363,-1000.000,-651.367,0
1579966034.794,555.176,-500.000,-585.938,-34.668,-610.352,0
1579966034.798,-952.148,-663.574,-452.148,-849.121,-343.262,0
1579966034.802,-921.387,-598.145,-460.938,46.387,-147.461,0
1579966034.806,510.254,-444.336,-624.512,-1000.000,-522.461,0
1579966034.809,370.117,-470.703,-616.699,-391.113,-630.859,0
1579966034.813,-986.328,-648.438,-527.832,-898.438,-596.191,0
1579966034.817,-901.367,-668.945,-541.016,420.898,-530.273,0
1579966034.821,632.324,-489.746,-636.719,-1000.000,-550.781,0
1579966034.825,337.402,-428.711,-643.066,-753.418,-629.395,0
1579966034.829,956.543,-586.914,-539.062,745.117,-574.219,0
1579966034.833,-922.852,-694.824,-546.387,691.406,-619.141,0
1579966034.837,861.816,-530.273,-628.418,-791.992,-572.266,0
1579966034.841,505.371,-402.832,-644.531,-1000.000,-564.453,0
1579966034.845,844.727,-520.020,-517.578,311.523,-401.367,0
1579966034.849,-958.984,-676.758,-474.609,-979.004,-413.086,0
1579966034.852,-957.520,-585.938,-630.859,-299.316,-657.227,0
1579966034.856,455.566,-383.789,-586.426,-1000.000,-260.254,0
1579966034.860,482.422,-447.266,-469.238,-111.816,-128.418,0
1579966034.864,-943.848,-669.434,-493.164,-825.195,-501.465,0
1579966034.868,-947.754,-646.973,-610.352,102.539,-670.410,0
1579966034.872,708.008,-450.684,-680.664,-1000.000,-610.352,0
1579966034.876,587.891,-435.059,-593.750,-533.691,-462.402,0
1579966034.880,-993.164,-625.977,-529.297,937.500,-562.988,0
1579966034.884,-946.289,-684.570,-575.195,456.543,-638.672,0
1579966034.888,845.703,-509.277,-687.500,-1000.000,-708.496,0
1579966034.891,649.902,-414.551,-595.703,-640.137,-388.184,0
1579966034.895,973.145,-561.035,-410.156,875.977,-65.430,0
1579966034.899,-974.121,-704.590,-497.559,758.789,-461.914,0
1579966034.903,979.004,-575.195,-668.457,-666.992,-709.961,0
1579966034.907,961.426,-429.199,-689.453,-1000.000,-661.621,0
1579966034.911,987.793,-528.320,-562.500,207.520,-512.207,0
1579966034.915,-994.629,-699.707,-513.184,-958.984,-519.531,0
1579966034.919,996.094,-607.910,-615.234,-232.910,-571.777,0
1579966034.923,-999.512,-428.711,-681.641,-1000.000,-600.586,0
1579966034.927,999.512,-480.957,-618.652,-185.059,-609.375,0
1579966034.931,999.512,-659.180,-512.695,-815.430,-498.047,0
1579966034.934,999.512,-652.832,-590.820,230.469,-591.797,0
1579966034.938,999.512,-457.031,-666.992,-1000.000,-525.391,0
1579966034.942,999.512,-426.270,-600.586,-477.051,-426.758,0
1579966034.946,999.512,-621.582,-547.363,988.281,-569.336,0
1579966034.950,999.512,-676.270,-486.816,749.023,-265.137,0
1579966034.954,999.512,-514.160,-581.543,-749.023,-304.199,0
1579966034.958,999.512,-429.199,-679.199,-882.812,-635.742,0
1579966034.962,999.512,-578.125,-590.332,564.453,-608.887,0
1579966034.966,999.512,-714.844,-545.410,998.047,-540.527,0
1579966034.970,999.512,-588.867,-636.719,-390.625,-547.852,0
1579966034.974,999.512,-427.246,-682.129,-1000.000,-562.500,0
1579966034.977,999.512,-523.438,-558.594,229.980,-423.340,0
1579966034.981,999.512,-722.656,-539.551,-826.172,-598.145,0
1579966034.985,999.512,-634.277,-579.590,46.875,-422.363,0
1579966034.989,999.512,-422.363,-569.336,-1000.000,-145.996,0
1579966034.993,999.512,-462.402,-576.172,-327.148,-429.199,0
1579966034.997,999.512,-668.457,-549.316,-858.398,-609.863,0
1579966035.001,999.512,-687.988,-612.305,323.242,-666.992,0
1579966035.005,999.512,-491.211,-688.477,-1000.000,-600.586,0
1579966035.009,999.512,-437.500,-638.184,-569.824,-533.691,0
1579966035.013,999.512,-616.211,-555.176,943.848,-579.102,0
1579966035.016,999.512,-707.031,-580.078,644.531,-631.348,0
1579966035.020,999.512,-539.551,-691.895,-851.562,-671.387,0
1579966035.024,999.512,-408.203,-665.527,-931.152,-539.062,0
1579966035.028,999.512,-548.828,-558.594,454.102,-505.371,0
1579966035.032,999.512,-687.988,-509.277,974.121,-431.152,0
1579966035.036,999.512,-565.918,-580.078,-353.027,-365.723,0
1579966035.040,999.512,-412.598,-665.527,-1000.000,-526.855,0
1579966035.044,999.512,-479.492,-509.766,100.586,-221.680,0
1579966035.048,999.512,-672.852,-443.848,-814.941,-239.746,0
1579966035.052,999.512,-639.160,-629.883,35.645,-662.109,0
1579966035.056,999.512,-451.172,-725.586,-1000.000,-707.031,0
1579966035.059,999.512,-462.402,-628.418,-302.734,-552.734,0
1579966035.063,999.512,-651.367,-508.789,-833.984,-442.871,0
1579966035.067,999.512,-690.918,-594.238,373.047,-637.207,0
1579966035.071,999.512,-500.000,-694.336,-1000.000,-648.438,0
1579966035.075,999.512,-433.594,-650.391,-640.625,-564.941,0
1579966035.079,999.512,-585.938,-490.723,858.398,-304.199,0
1579966035.083,999.512,-680.664,-435.547,794.922,-123.047,0
1579966035.087,999.512,-559.082,-632.812,-716.797,-546.875,0
1579966035.091,999.512,-426.758,-680.176,-939.453,-593.262,0
1579966035.095,999.512,-546.875,-551.270,464.844,-444.336,0
1579966035.098,999.512,-710.938,-527.344,-949.219,-530.273,0
1579966035.102,999.512,-604.492,-638.184,-237.793,-611.816,0
1579966035.106,999.512,-429.199,-709.473,-1000.000,-674.805,0
1579966035.110,999.512,-483.398,-619.141,-111.816,-604.492,0
1579966035.114,999.512,-673.340,-545.898,-807.617,-599.609,0
1579966035.118,999.512,-648.438,-600.586,204.102,-579.102,0
1579966035.122,999.512,-456.055,-692.871,-1000.000,-609.375,0
1579966035.126,999.512,-444.336,-609.863,-315.430,-465.332,0
1579966035.130,999.512,-637.207,-500.488,-843.262,-409.180,0
1579966035.134,999.512,-694.824,-593.262,462.402,-631.348,0
1579966035.138,999.512,-484.375,-609.375,-1000.000,-301.270,0
1579966035.141,999.512,-401.855,-574.219,-742.188,-240.234,0
1579966035.145,999.512,-594.727,-570.801,712.891,-601.074,0
1579966035.149,999.512,-717.285,-556.152,874.023,-569.336,0
1579966035.153,999.512,-570.312,-629.395,-533.203,-471.680,0
1579966035.157,999.512,-421.387,-661.621,-1000.000,-485.352,0
1579966035.161,999.512,-547.363,-595.703,259.277,-566.895,0
1579966035.165,999.512,-727.539,-555.176,-885.254,-594.238,0
1579966035.169,999.512,-634.766,-661.621,-227.051,-672.852,0
1579966035.173,999.512,-425.781,-659.668,-1000.000,-401.855,0
1579966035.177,999.512,-479.492,-496.094,89.355,-97.168,0
1579966035.181,999.512,-702.637,-502.441,-775.879,-441.406,0
1579966035.184,999.512,-686.035,-636.719,228.516,-668.457,0
1579966035.188,999.512,-487.793,-729.980,-1000.000,-668.457,0
1579966035.192,999.512,-460.938,-654.297,-373.535,-541.016,0
1579966035.196,999.512,-645.508,-545.410,-882.812,-496.582,0
1579966035.200,999.512,-713.867,-605.469,569.336,-632.812,0
1579966035.204,999.512,-538.574,-716.309,-937.988,-669.434,0
1579966035.208,999.512,-430.664,-675.293,-731.445,-520.508,0
1579966035.212,999.512,-582.031,-545.898,728.516,-404.785,0
1579966035.216,999.512,-729.004,-564.453,946.289,-558.594,0
1579966035.220,999.512,-593.262,-646.973,-369.629,-496.094,0
1579966035.223,999.512,-425.781,-668.457,-1000.000,-432.617,0
1579966035.227,999.512,-531.738,-618.652,0.000,-560.547,0
1579966035.231,999.512,-693.359,-475.098,-793.457,-212.402,0
1579966035.235,999.512,-639.160,-559.082,83.984,-269.531,0
1579966035.239,999.512,-478.027,-732.422,-1000.000,-660.645,0
1579966035.243,999.512,-508.301,-665.039,-195.312,-618.652,0
1579966035.247,999.512,-694.824,-547.852,-797.363,-503.418,0
1579966035.251,999.512,-695.801,-589.844,340.820,-492.676,0
1579966035.255,999.512,-518.555,-721.680,-1000.000,-650.879,0
1579966035.259,999.512,-472.168,-680.664,-490.234,-599.121,0
1579966035.263,999.512,-650.879,-584.473,958.496,-590.332,0
1579966035.266,999.512,-723.633,-541.992,846.680,-398.926,0
1579966035.270,999.512,-541.992,-561.035,-545.410,-151.367,0
1579966035.274,999.512,-429.199,-643.555,-922.363,-440.918,0
1579966035.278,999.512,-577.637,-605.469,541.504,-608.398,0
1579966035.282,999.512,-726.074,-579.590,953.613,-613.281,0
1579966035.286,999.512,-592.773,-653.809,-446.777,-541.016,0
1579966035.290,999.512,-422.852,-696.289,-1000.000,-546.387,0
1579966035.294,999.512,-513.672,-630.859,52.246,-603.027,0
1579966035.298,999.512,-703.613,-565.918,-812.500,-602.539,0
1579966035.302,999.512,-650.879,-648.438,77.637,-640.625,0
1579966035.306,999.512,-448.242,-699.219,-1000.000,-559.570,0
1579966035.309,999.512,-462.891,-630.859,-291.504,-539.551,0
1579966035.313,999.512,-651.855,-512.207,-828.125,-411.621,0
1579966035.317,999.512,-681.641,-558.105,404.297,-445.801,0
1579966035.321,999.512,-504.395,-714.844,-1000.000,-667.480,0
1579966035.325,999.512,-427.246,-583.496,-409.668,-240.234,0
1579966035.329,999.512,-608.398,-459.473,-911.133,-204.102,0
1579966035.333,999.512,-722.656,-579.102,686.035,-639.648,0
1579966035.337,999.512,-567.871,-707.031,-762.207,-711.914,0
1579966035.341,999.512,-426.758,-686.523,-947.754,-564.941,0
1579966035.345,999.512,-548.828,-555.664,446.777,-430.664,0
1579966035.348,999.512,-727.539,-553.711,-943.359,-605.469,0
1579966035.352,999.512,-622.070,-663.086,-248.535,-669.434,0
1579966035.356,999.512,-441.406,-720.703,-1000.000,-675.293,0
1579966035.360,999.512,-485.840,-559.082,-20.020,-342.285,0
1579966035.364,999.512,-656.250,-414.551,-803.711,-75.195,0
1579966035.368,999.512,-647.949,-582.031,138.184,-491.699,0
1579966035.372,999.512,-464.844,-726.562,-1000.000,-702.148,0
1579966035.376,999.512,-460.449,-668.457,-373.535,-640.137,0
1579966035.380,999.512,-641.602,-540.527,-879.395,-490.234,0
1579966035.384,999.512,-681.152,-563.477,473.145,-471.680,0
1579966035.388,999.512,-512.207,-707.520,-1000.000,-655.273,0
1579966035.391,999.512,-432.129,-694.824,-726.562,-639.648,0
1579966035.395,999.512,-595.703,-580.566,780.273,-569.824,0
1579966035.399,999.512,-705.078,-560.547,720.215,-514.648,0
1579966035.403,999.512,-556.641,-678.223,-752.930,-594.727,0
1579966035.407,999.512,-415.527,-669.922,-962.891,-470.703,0
1579966035.411,999.512,-539.062,-553.711,343.750,-389.160,0
1579966035.415,999.512,-729.004,-562.988,-861.816,-615.723,0
1579966035.419,999.512,-614.258,-566.406,-30.273,-289.062,0
1579966035.423,999.512,-426.758,-613.281,-1000.000,-268.066,0
1579966035.427,999.512,-508.789,-637.695,-138.184,-609.375,0
1579966035.430,999.512,-706.055,-573.242,-787.109,-617.676,0
1579966035.434,999.512,-687.012,-625.977,245.117,-586.426,0
1579966035.438,999.512,-479.980,-676.758,-1000.000,-439.941,0
1579966035.442,999.512,-461.914,-634.277,-412.598,-445.312,0
1579966035.446,999.512,-658.691,-567.383,-912.598,-551.758,0
1579966035.450,999.512,-725.098,-618.652,567.871,-667.480,0
1579966035.454,999.512,-526.855,-662.109,-939.453,-428.711,0
1579966035.458,999.512,-408.691,-572.266,-745.605,-114.746,0
1579966035.462,999.512,-591.797,-550.293,713.867,-417.480,0
1579966035.466,999.512,-738.281,-603.516,918.457,-653.320,0
1579966035.470,999.512,-603.516,-712.402,-485.352,-695.312,0
1579966035.473,999.512,-437.012,-720.215,-1000.000,-567.383,0
1579966035.477,999.512,-531.738,-612.305,186.035,-481.445,0
1579966035.481,999.512,-720.703,-583.008,-834.473,-604.004,0
1579966035.485,999.512,-657.227,-675.293,0.000,-660.156,0
1579966035.489,999.512,-466.309,-749.023,-1000.000,-653.809,0
1579966035.493,999.512,-496.094,-638.672,-128.906,-495.605,0
1579966035.497,999.512,-685.547,-518.555,-782.715,-374.023,0
1579966035.501,999.512,-693.848,-578.125,384.277,-417.969,0
1579966035.505,999.512,-503.418,-672.852,-1000.000,-440.918,0
1579966035.509,999.512,-467.285,-672.363,-504.883,-529.297,0
1579966035.513,999.512,-628.418,-499.512,-951.172,-204.102,0
1579966035.516,999.512,-702.148,-512.207,554.199,-221.191,0
1579966035.520,999.512,-565.430,-728.027,-923.828,-673.340,0
1579966035.524,999.512,-462.402,-740.723,-847.656,-675.293,0
1579966035.528,999.512,-597.656,-606.445,558.105,-511.230,0
1579966035.532,999.512,-739.746,-558.105,-992.188,-470.703,0
1579966035.536,999.512,-628.418,-693.359,-347.656,-655.762,0
1579966035.540,999.512,-456.543,-742.188,-1000.000,-644.043,0
1579966035.544,999.512,-542.480,-646.973,67.383,-613.770,0
1579966035.548,999.512,-705.566,-517.090,-774.414,-363.770,0
1579966035.552,999.512,-645.020,-532.715,244.141,-173.340,0
1579966035.555,999.512,-466.309,-665.039,-1000.000,-421.875,0
1579966035.559,999.512,-480.957,-649.902,-292.969,-551.758,0
1579966035.563,999.512,-680.176,-586.914,-816.406,-623.047,0
1579966035.567,999.512,-701.172,-618.164,440.430,-581.543,0
1579966035.571,999.512,-517.090,-714.844,-1000.000,-598.633,0
1579966035.575,999.512,-451.172,-704.590,-611.328,-634.277,0
1579966035.579,999.512,-622.559,-594.238,909.668,-587.891,0
1579966035.583,999.512,-729.980,-604.492,742.188,-631.348,0
1579966035.587,999.512,-565.918,-687.988,-716.309,-596.191,0
1579966035.591,999.512,-430.664,-692.871,-977.051,-569.336,0
1579966035.595,999.512,-549.805,-557.129,352.051,-390.137,0
1579966035.598,999.512,-718.262,-516.113,-928.223,-415.039,0
1579966035.602,999.512,-634.277,-671.875,-247.559,-682.617,0
1579966035.606,999.512,-425.781,-626.953,-1000.000,-282.227,0
1579966035.610,999.512,-502.441,-517.578,122.070,-208.008,0
1579966035.614,999.512,-715.820,-529.297,-796.875,-519.531,0
1579966035.618,999.512,-677.734,-632.812,147.949,-624.512,0
1579966035.622,999.512,-480.469,-718.750,-1000.000,-621.094,0
1579966035.626,999.512,-469.727,-634.766,-319.824,-479.980,0
1579966035.630,999.512,-668.945,-564.453,-887.207,-577.637,0
1579966035.634,999.512,-699.707,-611.328,369.629,-632.812,0
1579966035.637,999.512,-515.625,-730.469,-1000.000,-704.590,0
1579966035.641,999.512,-427.246,-640.137,-543.457,-409.668,0
1579966035.645,999.512,-576.660,-449.707,-995.605,-93.750,0
1579966035.649,999.512,-708.008,-534.180,704.590,-465.820,0
1579966035.653,999.512,-570.801,-708.984,-780.762,-712.891,0
1579966035.657,999.512,-429.199,-730.469,-1000.000,-674.805,0
1579966035.661,999.512,-542.480,-600.098,300.781,-519.043,0
1579966035.665,999.512,-718.262,-551.758,-891.113,-541.504,0
1579966035.669,999.512,-634.766,-674.316,-125.000,-685.547,0
1579966035.673,999.512,-440.430,-708.496,-1000.000,-574.219,0
1579966035.677,999.512,-499.023,-625.488,-99.609,-543.457,0
1579966035.680,999.512,-694.824,-548.340,-785.156,-534.180,0
1579966035.684,999.512,-679.688,-624.023,237.305,-597.168,0
1579966035.688,999.512,-479.004,-688.965,-1000.000,-509.766,0
1579966035.692,999.512,-460.938,-617.188,-358.887,-421.875,0
1579966035.696,999.512,-662.598,-569.336,-921.387,-581.055,0
1579966035.700,999.512,-707.520,-517.090,756.348,-294.434,0
1579966035.704,999.512,-540.527,-600.586,-698.242,-306.152,0
1579966035.708,999.512,-447.266,-682.129,-863.281,-584.961,0
1579966035.712,999.512,-593.750,-601.074,557.617,-591.309,0
1579966035.716,999.512,-728.027,-574.707,997.070,-581.055,0
1579966035.720,999.512,-596.680,-660.645,-365.234,-557.617,0
1579966035.723,999.512,-441.406,-722.656,-1000.000,-649.902,0
1579966035.727,999.512,-539.551,-624.023,187.500,-585.938,0
1579966035.731,999.512,-714.844,-550.293,-826.660,-544.434,0
1579966035.735,999.512,-627.441,-587.402,31.250,-381.348,0
1579966035.739,999.512,-418.945,-601.074,-1000.000,-182.617,0
1579966035.743,999.512,-474.609,-600.098,-201.660,-455.078,0
1579966035.747,999.512,-684.082,-577.637,-803.711,-636.230,0
1579966035.751,999.512,-683.594,-643.066,298.828,-678.711,0
1579966035.755,999.512,-489.258,-717.285,-1000.000,-613.770,0
1579966035.759,999.512,-446.777,-663.574,-512.695,-543.945,0
1579966035.762,999.512,-639.648,-581.543,-974.609,-597.168,0
1579966035.766,999.512,-718.750,-605.957,512.695,-623.535,0
1579966035.770,999.512,-545.898,-713.379,-978.027,-662.109,0
1579966035.774,999.512,-437.012,-681.641,-809.082,-550.293,0
1579966035.778,999.512,-583.496,-573.242,570.801,-509.766,0
1579966035.782,999.512,-728.516,-527.832,-948.242,-446.777,0
1579966035.786,999.512,-610.840,-622.559,-289.551,-465.820,0
1579966035.790,999.512,-439.941,-682.129,-1000.000,-515.625,0
1579966035.794,999.512,-503.906,-501.465,182.129,-130.371,0
1579966035.798,999.512,-698.730,-458.008,-809.570,-228.516,0
1579966035.802,999.512,-664.062,-653.320,40.039,-667.480,0
1579966035.805,999.512,-473.633,-749.512,-1000.000,-696.777,0
1579966035.809,999.512,-486.816,-658.691,-252.930,-541.992,0
1579966035.813,999.512,-678.223,-548.340,-814.453,-445.312,0
1579966035.817,999.512,-703.613,-629.395,363.770,-614.746,0
1579966035.821,999.512,-517.090,-733.398,-1000.000,-656.738,0
1579966035.825,999.512,-457.031,-704.590,-637.207,-626.953,0
1579966035.829,999.512,-600.586,-532.227,876.953,-319.336,0
1579966035.833,999.512,-687.988,-468.262,786.621,-113.770,0
1579966035.837,999.512,-565.430,-663.086,-716.309,-506.348,0
1579966035.841,999.512,-446.289,-737.793,-968.262,-684.082,0
1579966035.845,999.512,-559.570,-604.980,417.969,-490.723,0
1579966035.848,999.512,-714.355,-531.250,-947.754,-374.512,0
1579966035.852,999.512,-624.512,-664.062,-254.395,-576.172,0
1579966035.856,999.512,-458.008,-743.652,-1000.000,-668.457,0
1579966035.860,999.512,-528.809,-645.508,-25.879,-590.820,0
1579966035.864,999.512,-717.285,-572.754,-790.039,-588.379,0
1579966035.868,999.512,-676.758,-629.883,175.293,-562.988,0
1579966035.872,999.512,-482.422,-716.797,-1000.000,-598.145,0
1579966035.876,999.512,-475.098,-620.605,-260.254,-434.570,0
1579966035.880,999.512,-671.387,-510.742,-805.176,-386.230,0
1579966035.884,999.512,-709.473,-613.770,342.773,-623.535,0
1579966035.887,999.512,-488.770,-623.535,-1000.000,-289.551,0
1579966035.891,999.512,-416.504,-577.637,-710.449,-232.910,0
1579966035.895,999.512,-610.840,-574.707,763.184,-581.055,0
1579966035.899,999.512,-729.980,-593.750,777.832,-666.992,0
1579966035.903,999.512,-569.824,-672.852,-687.988,-575.684,0
1579966035.907,999.512,-415.527,-661.133,-1000.000,-451.660,0
1579966035.911,999.512,-545.898,-598.633,257.812,-583.984,0
1579966035.915,999.512,-720.215,-560.547,-895.508,-604.492,0
1579966035.919,999.512,-623.535,-648.926,-162.598,-616.211,0
1579966035.923,999.512,-416.504,-655.273,-1000.000,-401.855,0
1579966035.927,999.512,-468.750,-495.605,72.754,-123.047,0
1579966035.930,999.512,-690.430,-498.535,-783.691,-459.473,0
1579966035.934,999.512,-666.016,-639.648,146.973,-705.078,0
1579966035.938,999.512,-471.191,-725.586,-1000.000,-702.148,0
1579966035.942,999.512,-453.125,-639.160,-396.484,-556.641,0
1579966035.946,999.512,-644.043,-530.273,-894.531,-517.578,0
1579966035.950,999.512,-701.660,-591.797,463.379,-661.621,0
1579966035.954,999.512,-519.043,-695.312,-1000.000,-697.266,0
1579966035.958,999.512,-426.758,-673.340,-835.449,-644.531,0
1579966035.962,999.512,-565.918,-531.738,557.129,-457.031,0
1579966035.966,999.512,-701.172,-527.832,844.238,-530.273,0
1579966035.969,999.512,-563.965,-622.070,-553.223,-521.973,0
1579966035.973,999.512,-410.156,-638.672,-1000.000,-470.215,0
1579966035.977,999.512,-525.879,-589.355,114.746,-605.957,0
1579966035.981,999.512,-681.152,-445.312,-824.219,-248.535,0
1579966035.985,999.512,-613.770,-528.320,20.508,-295.410,0
1579966035.989,999.512,-452.148,-702.637,-1000.000,-694.336,0
1579966035.993,999.512,-482.422,-639.160,-218.750,-655.273,0
1579966035.997,999.512,-666.992,-531.738,-856.445,-538.574,0
1579966036.001,999.512,-648.438,-578.125,123.535,-506.348,0
1579966036.005,999.512,-466.309,-700.684,-1000.000,-668.945,0
1579966036.009,999.512,-438.965,-656.738,-546.387,-635.742,0
1579966036.012,999.512,-619.141,-564.453,925.781,-617.676,0
1579966036.016,999.512,-685.059,-521.484,690.430,-412.109,0
1579966036.020,999.512,-502.441,-540.527,-810.059,-158.203,0
1579966036.024,999.512,-413.574,-620.605,-949.219,-456.543,0
1579966036.028,999.512,-568.359,-584.473,480.469,-626.953,0
1579966036.032,999.512,-716.797,-564.941,912.109,-652.344,0
1579966036.036,999.512,-583.008,-644.531,-483.398,-606.445,0
1579966036.040,999.512,-415.527,-671.875,-1000.000,-570.312,0
1579966036.044,999.512,-511.719,-599.121,40.039,-608.887,0
1579966036.048,999.512,-702.148,-542.480,-852.539,-616.211,0
1579966036.052,999.512,-648.438,-632.812,-7.812,-662.109,0
1579966036.055,999.512,-450.195,-678.711,-1000.000,-573.730,0
1579966036.059,999.512,-469.238,-606.445,-301.270,-532.227,0
1579966036.063,999.512,-655.273,-495.605,-839.355,-414.062,0
1579966036.067,999.512,-668.945,-538.086,340.820,-449.707,0
1579966036.071,999.512,-493.652,-695.801,-1000.000,-692.383,0
1579966036.075,999.512,-421.875,-562.500,-494.141,-258.301,0
1579966036.079,999.512,-595.703,-428.223,997.559,-141.113,0
1579966036.083,999.512,-705.566,-560.059,603.516,-617.676,0
1579966036.087,999.512,-543.457,-695.801,-875.000,-733.887,0
1579966036.091,999.512,-412.598,-675.293,-928.711,-592.285,0
1579966036.094,999.512,-538.574,-543.945,465.820,-445.801,0
1579966036.098,999.512,-704.590,-540.527,972.168,-603.027,0
1579966036.102,999.512,-597.656,-658.203,-371.582,-676.270,0
1579966036.106,999.512,-430.664,-716.309,-1000.000,-685.547,0
1579966036.110,999.512,-486.328,-556.641,34.668,-371.094,0
1579966036.114,999.512,-655.273,-410.645,-910.156,-92.285,0
1579966036.118,999.512,-626.953,-573.730,-114.746,-461.914,0
1579966036.122,999.512,-457.520,-720.703,-1000.000,-708.496,0
1579966036.126,999.512,-461.914,-648.926,-381.836,-614.746,0
1579966036.130,999.512,-641.602,-511.230,-899.414,-440.918,0
1579966036.134,999.512,-687.988,-564.941,395.020,-530.273,0
1579966036.137,999.512,-511.719,-681.641,-1000.000,-596.680,0
1579966036.141,999.512,-441.406,-657.227,-726.562,-569.336,0
1579966036.145,999.512,-607.422,-571.289,752.441,-592.285,0
1579966036.149,999.512,-719.727,-550.293,774.902,-542.969,0
1579966036.153,999.512,-573.730,-667.969,-720.703,-617.188,0
1579966036.157,999.512,-420.410,-666.992,-992.676,-501.953,0
1579966036.161,999.512,-540.527,-546.387,350.098,-401.855,0
1579966036.165,999.512,-727.051,-561.035,-902.344,-623.047,0
1579966036.169,999.512,-606.445,-572.266,-114.746,-313.477,0
1579966036.173,999.512,-420.898,-610.352,-1000.000,-254.395,0
1579966036.176,999.512,-503.906,-633.301,-121.094,-592.285,0
1579966036.180,999.512,-698.730,-573.242,-797.363,-637.695,0
1579966036.184,999.512,-663.574,-625.488,197.266,-588.379,0
1579966036.188,999.512,-467.285,-701.660,-1000.000,-553.223,0
1579966036.192,999.512,-449.219,-652.344,-473.145,-530.762,0
1579966036.196,999.512,-631.836,-539.062,-938.965,-433.594,0
1579966036.200,999.512,-710.449,-612.793,539.062,-650.879,0
1579966036.204,999.512,-512.207,-665.039,-1000.000,-460.449,0
1579966036.208,999.512,-410.156,-566.895,-659.180,-131.836,0
1579966036.212,999.512,-602.051,-536.621,801.758,-422.852,0
1579966036.216,999.512,-743.652,-596.680,889.160,-671.875,0
1579966036.219,999.512,-609.863,-717.773,-530.762,-721.191,0
1579966036.223,999.512,-444.336,-716.309,-1000.000,-587.402,0
1579966036.227,999.512,-555.176,-604.004,288.574,-510.254,0
1579966036.231,999.512,-742.676,-581.055,-834.473,-624.023,0
1579966036.235,999.512,-664.551,-675.293,-16.602,-675.781,0
1579966036.239,999.512,-475.586,-746.094,-1000.000,-664.551,0
1579966036.243,999.512,-520.020,-641.113,-65.918,-524.414,0
1579966036.247,999.512,-717.285,-562.012,-763.672,-519.043,0
1579966036.251,999.512,-702.637,-621.094,349.121,-500.488,0
1579966036.255,999.512,-497.070,-685.547,-1000.000,-413.086,0
1579966036.259,999.512,-483.398,-676.758,-346.191,-507.324,0
1579966036.262,999.512,-652.344,-519.043,-890.137,-219.238,0
1579966036.266,999.512,-720.703,-536.621,740.723,-251.465,0
1579966036.270,999.512,-590.820,-754.395,-756.348,-695.312,0
1579966036.274,999.512,-484.863,-773.926,-675.293,-687.988,0
1579966036.278,999.512,-625.000,-641.113,786.621,-535.156,0
1579966036.282,999.512,-759.766,-604.980,-897.461,-492.676,0
1579966036.286,999.512,-654.785,-744.141,-204.590,-681.152,0
1579966036.290,999.512,-487.305,-787.598,-952.148,-650.391,0
1579966036.294,999.512,-592.773,-696.777,346.191,-625.488,0
1579966036.298,999.512,-745.605,-576.660,-761.719,-376.465,0
1579966036.301,999.512,-687.988,-584.961,380.371,-166.016,0
1579966036.305,999.512,-533.203,-748.047,-1000.000,-535.156,0
1579966036.309,999.512,-545.898,-713.379,-79.590,-562.988,0
1579966036.313,999.512,-727.051,-599.609,-793.457,-453.125,0
1579966036.317,999.512,-762.695,-663.574,682.129,-572.266,0
1579966036.321,999.512,-587.891,-778.320,-821.777,-633.789,0
1579966036.325,999.512,-530.273,-765.137,-343.750,-654.297,0
1579966036.329,999.512,-708.984,-653.809,-908.203,-597.656,0
1579966036.333,999.512,-795.898,-674.805,976.074,-648.926,0
1579966036.337,999.512,-643.066,-760.742,-400.391,-608.887,0
1579966036.341,999.512,-508.789,-754.883,-600.586,-509.766,0
1579966036.344,999.512,-643.555,-640.625,832.520,-421.387,0
1579966036.348,999.512,-778.320,-601.562,-794.922,-386.230,0
1579966036.352,999.512,-692.383,-754.883,-22.949,-632.812,0
1579966036.356,999.512,-500.488,-733.398,-713.867,-316.406,0
1579966036.360,999.512,-588.867,-615.723,646.973,-224.121,0
1579966036.364,999.512,-785.645,-664.062,-803.711,-621.094,0
1579966036.368,999.512,-731.934,-741.699,327.148,-609.375,0
1579966036.372,999.512,-539.551,-787.598,-874.023,-485.352,0
1579966036.376,999.512,-557.617,-727.051,69.336,-482.422,0
1579966036.380,999.512,-751.465,-668.945,-801.270,-580.566,0
1579966036.384,999.512,-781.738,-722.656,729.980,-626.953,0
1579966036.387,999.512,-607.910,-837.891,-762.207,-696.777,0
1579966036.391,999.512,-523.926,-749.023,-246.094,-399.414,0
1579966036.395,999.512,-675.781,-553.223,-898.926,-66.406,0
1579966036.399,999.512,-791.504,-638.184,-942.383,-427.734,0
1579966036.403,999.512,-679.688,-813.477,-228.027,-703.125,0
1579966036.407,999.512,-539.062,-836.914,-607.910,-642.578,0
1579966036.411,999.512,-661.621,-707.031,805.664,-493.164,0
1579966036.415,999.512,-802.246,-661.621,-791.992,-476.074,0
1579966036.419,999.512,-743.164,-789.062,257.324,-660.156,0
1579966036.423,999.512,-567.383,-857.910,-849.121,-640.625,0
1579966036.426,999.512,-610.352,-743.652,285.645,-460.449,0
1579966036.430,999.512,-782.227,-646.484,-784.180,-377.441,0
1579966036.434,999.512,-783.203,-750.000,632.324,-562.500,0
1579966036.438,999.512,-612.793,-819.824,-439.941,-486.328,0
1579966036.442,999.512,-601.562,-751.953,227.539,-400.391,0
1579966036.446,999.512,-774.902,-707.520,-908.691,-543.945,0
1579966036.450,999.512,-783.691,-658.203,-919.434,-223.633,0
1579966036.454,999.512,-648.926,-747.559,-42.969,-278.320,0
1579966036.458,999.512,-593.750,-843.262,-145.020,-625.000,0
1579966036.462,999.512,-734.863,-746.582,-963.867,-570.801,0
1579966036.466,999.512,-812.988,-718.262,-838.379,-483.398,0
1579966036.469,999.512,-707.031,-805.176,216.797,-512.695,0
1579966036.473,999.512,-589.844,-866.211,-254.395,-626.465,0
1579966036.477,999.512,-688.477,-764.648,922.363,-543.457,0
1579966036.481,999.512,-811.523,-730.957,-893.555,-533.691,0
1579966036.485,999.512,-745.117,-768.066,636.230,-404.785,0
1579966036.489,999.512,-617.676,-740.723,292.969,-154.785,0
1579966036.493,999.512,-683.594,-737.793,799.805,-393.066,0
1579966036.497,999.512,-805.176,-734.375,-882.812,-523.926,0
1579966036.501,999.512,-797.363,-801.270,803.223,-578.613,0
1579966036.505,999.512,-657.715,-872.559,-52.734,-568.359,0
1579966036.508,999.512,-640.625,-823.730,432.617,-504.883,0
1579966036.512,999.512,-779.785,-749.023,-929.688,-501.465,0
1579966036.516,999.512,-814.941,-781.250,-927.734,-520.020,0
1579966036.520,999.512,-709.961,-887.207,281.250,-628.418,0
1579966036.524,999.512,-630.371,-856.934,168.945,-519.531,0
1579966036.528,999.512,-739.258,-752.930,-965.820,-438.477,0
1579966036.532,999.512,-796.387,-719.238,-888.184,-292.969,0
1579966036.536,999.512,-722.168,-809.082,525.391,-394.531,0
1579966036.540,999.512,-638.184,-895.508,218.262,-642.090,0
1579966036.544,999.512,-669.922,-709.473,946.289,-169.922,0
1579966036.548,999.512,-759.766,-637.695,-889.160,-40.527,0
1579966036.551,999.512,-755.859,-808.105,708.984,-490.234,0
1579966036.555,999.512,-641.602,-906.738,118.164,-647.461,0
1579966036.559,999.512,-657.715,-821.777,708.496,-495.605,0
1579966036.563,999.512,-770.508,-716.309,-903.320,-303.223,0
1579966036.567,999.512,-786.133,-800.781,950.195,-502.441,0
1579966036.571,999.512,-673.828,-898.926,262.695,-629.883,0
1579966036.575,999.512,-645.996,-870.117,444.824,-603.027,0
1579966036.579,999.512,-741.699,-707.031,-942.871,-227.539,0
1579966036.583,999.512,-760.742,-645.996,-920.898,42.969,0
1579966036.587,999.512,-694.824,-827.637,417.969,-418.457,0
1579966036.591,999.512,-637.695,-896.973,290.527,-617.188,0
1579966036.594,999.512,-733.398,-792.969,-986.816,-485.840,0
1579966036.598,999.512,-787.598,-734.375,-888.184,-300.781,0
1579966036.602,999.512,-717.285,-807.617,573.242,-359.375,0
1579966036.606,999.512,-622.559,-891.113,178.223,-585.938,0
1579966036.610,999.512,-671.875,-805.176,890.625,-489.746,0
1579966036.614,999.512,-769.043,-731.934,-863.281,-346.191,0
1579966036.618,999.512,-722.656,-778.320,641.602,-356.445,0
1579966036.622,999.512,-576.172,-858.887,-169.922,-472.656,0
1579966036.626,999.512,-578.125,-765.137,521.973,-328.125,0
1579966036.630,999.512,-711.426,-658.203,-877.441,-204.102,0
1579966036.633,999.512,-742.676,-754.883,930.176,-457.520,0
1579966036.637,999.512,-583.008,-759.766,126.465,-210.938,0
1579966036.641,999.512,-529.785,-710.938,285.645,-145.020,0
1579966036.645,999.512,-688.965,-706.543,-953.613,-429.688,0
1579966036.649,999.512,-749.512,-730.469,-891.113,-444.336,0
1579966036.653,999.512,-638.672,-815.430,153.320,-505.371,0
1579966036.657,999.512,-505.371,-787.598,-154.785,-333.984,0
1579966036.661,999.512,-617.676,-690.918,932.129,-273.926,0
1579966036.665,999.512,-744.629,-682.617,-813.477,-375.977,0
1579966036.669,999.512,-677.246,-789.551,334.961,-542.969,0
1579966036.673,999.512,-510.742,-777.344,-301.270,-306.641,0
1579966036.676,999.512,-554.199,-603.027,764.648,53.711,0
1579966036.680,999.512,-719.238,-609.375,-835.449,-206.055,0
1579966036.684,999.512,-715.820,-748.047,652.832,-497.559,0
1579966036.688,999.512,-542.480,-839.844,-562.012,-537.109,0
1579966036.692,999.512,-520.996,-758.789,83.984,-384.766,0
1579966036.696,999.512,-697.266,-657.715,-860.352,-272.949,0
1579966036.700,999.512,-747.559,-728.516,974.121,-407.715,0
1579966036.704,999.512,-607.422,-840.332,-212.402,-523.438,0
1579966036.708,999.512,-531.738,-826.172,-102.539,-450.195,0
1579966036.712,999.512,-671.387,-694.824,-945.312,-281.250,0
1579966036.715,999.512,-746.094,-675.293,-866.699,-219.238,0
1579966036.719,999.512,-644.531,-763.672,287.109,-266.113,0
1579966036.723,999.512,-529.785,-791.016,-87.891,-272.461,0
1579966036.727,999.512,-636.719,-736.328,916.992,-313.965,0
1579966036.731,999.512,-719.727,-614.746,-814.941,41.504,0
1579966036.735,999.512,-649.902,-682.129,361.328,-17.090,0
1579966036.739,999.512,-514.160,-850.586,-670.410,-446.777,0
1579966036.743,999.512,-563.965,-779.785,392.090,-410.156,0
1579966036.747,999.512,-722.168,-670.898,-795.898,-229.980,0
1579966036.751,999.512,-707.031,-708.496,677.734,-234.863,0
1579966036.755,999.512,-538.086,-831.055,-721.680,-440.430,0
1579966036.758,999.512,-501.953,-776.367,-100.098,-356.934,0
1579966036.762,999.512,-673.340,-653.809,-895.508,-244.629,0
1579966036.766,999.512,-712.402,-628.418,-915.527,-96.680,0
1579966036.770,999.512,-569.824,-664.062,-82.520,-14.160,0
1579966036.774,999.512,-477.539,-707.520,-353.516,-177.246,0
1579966036.778,999.512,-616.699,-641.602,985.840,-216.309,0
1579966036.782,999.512,-733.887,-661.133,-839.844,-338.379,0
1579966036.786,999.512,-623.535,-755.859,51.758,-404.297,0
1579966036.790,999.512,-458.008,-788.574,-763.672,-375.488,0
1579966036.794,999.512,-553.711,-715.820,485.352,-370.605,0
1579966036.798,999.512,-716.797,-660.156,-765.137,-295.898,0
1579966036.801,999.512,-671.875,-747.559,375.000,-375.977,0
1579966036.805,999.512,-478.027,-797.363,-901.855,-354.492,0
1579966036.809,999.512,-495.117,-710.938,90.820,-269.531,0
1579966036.813,999.512,-668.945,-594.727,-776.367,-105.957,0
1579966036.817,999.512,-675.781,-641.602,627.930,-165.039,0
1579966036.821,999.512,-505.371,-786.133,-823.730,-461.426,0
1579966036.825,-997.559,-427.246,-648.438,-195.312,-90.820,0
1579966036.829,982.422,-598.633,-510.742,-842.773,48.828,0
1579966036.833,-972.168,-684.082,-605.469,883.301,-282.227,0
1579966036.837,942.383,-538.574,-733.398,-517.578,-450.195,0
1579966036.840,674.316,-413.086,-732.910,-685.547,-408.691,0
1579966036.844,837.891,-550.781,-593.262,851.562,-243.652,0
1579966036.848,-909.180,-694.336,-589.355,-972.656,-343.262,0
1579966036.852,784.668,-571.777,-694.824,-303.223,-440.918,0
1579966036.856,-645.996,-403.809,-741.211,-1000.000,-486.816,0
1579966036.860,-699.219,-479.980,-572.754,182.129,-163.574,0
1579966036.864,941.406,-636.230,-419.434,-779.297,148.438,0
1579966036.868,459.473,-601.562,-577.637,154.785,-241.211,0
1579966036.872,-926.270,-429.688,-719.238,-1000.000,-520.996,0
1579966036.876,-1000.000,-436.035,-649.414,-292.969,-444.336,0
1579966036.880,-171.875,-622.559,-524.414,-822.754,-276.367,0
1579966036.883,361.816,-645.020,-568.359,420.410,-349.121,0
1579966036.887,-813.477,-464.355,-698.730,-1000.000,-543.945,0
1579966036.891,-1000.000,-398.926,-647.949,-570.801,-396.973,0
1579966036.895,-93.262,-581.055,-555.664,912.598,-340.332,0
1579966036.899,-777.832,-681.641,-569.336,838.867,-362.793,0
1579966036.903,397.461,-531.738,-683.105,-626.953,-456.543,0
1579966036.907,-907.227,-404.785,-679.199,-875.488,-359.863,0
1579966036.911,200.195,-535.645,-568.359,452.637,-196.777,0
1579966036.915,-846.680,-709.961,-594.238,-852.539,-383.301,0
1579966036.919,922.363,-598.145,-612.793,11.719,-160.156,0
1579966036.923,715.332,-420.898,-651.367,-1000.000,-109.863,0
1579966036.926,874.023,-520.508,-671.875,19.531,-403.809,0
1579966036.930,-961.914,-716.797,-620.605,-759.277,-417.969,0
1579966036.934,982.910,-685.059,-680.176,286.133,-396.484,0
1579966036.938,-998.047,-483.398,-744.629,-1000.000,-355.957,0
1579966036.942,999.512,-490.723,-718.750,-264.648,-425.293,0
1579966036.946,999.512,-678.711,-612.793,-830.566,-309.082,0
1579966036.950,999.512,-718.262,-638.672,627.441,-299.316,0
1579966036.954,999.512,-526.367,-710.449,-891.113,-262.207,0
1579966036.958,999.512,-426.270,-620.605,-483.887,-1.465,0
1579966036.962,999.512,-620.605,-577.148,-978.027,-174.316,0
1579966036.965,999.512,-732.422,-645.020,772.461,-422.852,0
1579966036.969,999.512,-578.613,-754.883,-619.141,-495.605,0
1579966036.973,999.023,-424.316,-733.887,-895.508,-348.145,0
1579966036.977,997.070,-545.898,-630.859,433.105,-294.434,0
1579966036.981,980.469,-722.168,-615.234,-832.520,-396.973,0
1579966036.985,-929.688,-627.441,-705.566,-11.719,-466.309,0
1579966036.989,624.512,-435.059,-765.137,-1000.000,-485.352,0
1579966036.993,520.996,-492.676,-653.809,-43.457,-349.121,0
1579966036.997,-960.449,-680.176,-567.383,-767.090,-318.359,0
1579966037.001,999.512,-655.762,-601.562,391.113,-285.156,0
1579966037.005,-151.855,-463.867,-669.922,-1000.000,-312.012,0
1579966037.008,-1000.000,-439.453,-633.301,-371.094,-346.680,0
1579966037.012,38.086,-601.562,-444.824,-855.957,-6.836,0
1579966037.016,819.824,-653.320,-477.539,572.266,-115.234,0
1579966037.020,-583.496,-509.277,-677.734,-903.320,-552.734,0
1579966037.024,-1000.000,-409.180,-676.758,-830.566,-551.270,0
1579966037.028,-897.949,-552.246,-539.062,637.695,-405.273,0
1579966037.032,-907.715,-692.383,-496.094,905.273,-391.113,0
1579966037.036,-955.078,-564.941,-625.488,-505.859,-577.148,0
1579966037.040,-977.539,-392.578,-652.832,-1000.000,-575.195,0
1579966037.044,-964.355,-475.586,-549.316,82.031,-507.324,0
1579966037.047,-970.703,-639.160,-430.176,-800.781,-268.555,0
1579966037.051,-969.238,-567.383,-436.035,144.043,-118.652,0
1579966037.055,-969.238,-394.043,-574.219,-1000.000,-484.863,0
1579966037.059,-969.238,-425.293,-565.430,-292.969,-619.141,0
1579966037.063,-969.238,-610.352,-455.078,-825.684,-440.430,0
1579966037.067,-969.238,-614.746,-472.168,342.773,-385.742,0
1579966037.071,-969.238,-432.129,-595.703,-1000.000,-582.520,0
1579966037.075,-969.238,-382.324,-587.891,-621.094,-630.371,0
1579966037.079,-969.238,-562.500,-483.398,916.016,-568.848,0
1579966037.083,-969.238,-646.973,-506.836,510.254,-602.051,0
1579966037.087,-969.238,-466.797,-590.820,-973.633,-577.148,0
1579966037.090,-969.238,-360.352,-584.473,-913.574,-581.055,0
1579966037.094,-969.238,-501.953,-453.125,483.398,-392.090,0
1579966037.098,-969.238,-664.551,-425.293,955.566,-386.719,0
1579966037.102,-969.238,-558.594,-587.402,-459.961,-662.109,0
1579966037.106,-969.238,-354.004,-535.156,-1000.000,-338.867,0
1579966037.110,-969.238,-438.965,-416.504,144.043,-201.172,0
1579966037.114,-969.238,-666.016,-461.426,-850.586,-539.551,0
1579966037.118,-969.238,-610.352,-566.895,2.441,-686.035,0
1579966037.122,-969.238,-398.438,-602.051,-1000.000,-586.426,0
1579966037.126,-969.238,-403.320,-504.395,-337.402,-424.805,0
1579966037.130,-969.238,-618.164,-459.961,-876.953,-560.059,0
1579966037.133,-969.238,-645.996,-520.996,315.430,-621.582,0
1579966037.137,-969.238,-450.195,-620.605,-1000.000,-657.715,0
1579966037.141,-969.238,-369.629,-523.438,-583.008,-389.648,0
1579966037.145,-969.238,-523.438,-340.332,959.961,-57.617,0
1579966037.149,-969.238,-647.949,-432.617,580.078,-403.320,0
1579966037.153,-969.238,-504.395,-610.352,-854.980,-718.262,0
1579966037.157,-969.238,-374.023,-617.676,-1000.000,-700.684,0
1579966037.161,-969.238,-480.957,-484.375,156.250,-475.586,0
1579966037.165,-969.238,-656.250,-447.754,943.359,-483.398,0
1579966037.169,-969.238,-567.383,-580.566,-380.371,-664.062,0
1579966037.172,-969.238,-388.184,-629.395,-1000.000,-672.852,0
1579966037.176,-969.238,-452.637,-540.039,-139.648,-568.359,0
1579966037.180,-969.238,-641.602,-444.336,-840.820,-393.555,0
1579966037.184,-970.215,-615.234,-519.043,109.375,-475.586,0
1579966037.188,-959.473,-417.480,-598.633,-1000.000,-491.211,0
1579966037.192,-997.070,-416.504,-532.715,-409.668,-416.504,0
1579966037.196,-859.863,-627.930,-490.234,-975.098,-511.719,0
1579966037.200,-819.336,-656.250,-450.195,507.812,-230.469,0
1579966037.204,-920.898,-475.586,-536.621,-936.523,-293.945,0
1579966037.208,-1000.000,-415.039,-623.535,-788.574,-627.441,0
1579966037.212,-566.406,-583.008,-540.039,704.590,-553.223,0
1579966037.215,688.477,-701.660,-520.508,829.102,-500.000,0
1579966037.219,-127.930,-545.410,-607.910,-659.180,-515.625,0
1579966037.223,-1000.000,-416.504,-661.133,-1000.000,-606.445,0
1579966037.227,-267.090,-538.086,-569.336,254.883,-521.484,0
1579966037.231,-898.438,-712.402,-540.527,-832.031,-540.039,0
1579966037.235,813.965,-612.305,-580.078,18.066,-376.953,0
1579966037.239,-677.734,-405.273,-559.082,-1000.000,-116.211,0
1579966037.243,-115.234,-483.887,-559.570,-93.262,-361.328,0
1579966037.247,-866.211,-693.848,-559.082,-769.531,-512.695,0
1579966037.251,993.652,-682.129,-638.184,327.148,-575.195,0
1579966037.254,830.566,-479.004,-704.102,-1000.000,-532.715,0
1579966037.258,833.496,-461.426,-648.438,-309.082,-463.867,0
1579966037.262,-976.074,-658.691,-580.566,-866.211,-474.609,0
1579966037.266,995.605,-722.168,-615.234,729.980,-500.000,0
1579966037.270,996.582,-556.152,-725.098,-761.719,-589.844,0
1579966037.274,999.512,-454.590,-690.918,-593.750,-472.168,0
1579966037.278,999.512,-612.793,-585.449,814.453,-394.531,0
1579966037.282,999.512,-732.910,-557.129,-876.465,-308.105,0
1579966037.286,999.512,-616.211,-657.715,-166.016,-377.930,0
1579966037.290,999.512,-466.309,-750.000,-888.672,-591.309,0
1579966037.294,999.512,-540.039,-559.082,497.559,-150.879,0
1579966037.297,999.512,-708.496,-475.098,-755.371,-32.715,0
1579966037.301,999.512,-682.617,-680.176,179.688,-514.160,0
1579966037.305,999.512,-496.094,-782.715,-1000.000,-596.191,0
1579966037.309,999.512,-523.926,-680.664,21.484,-452.637,0
1579966037.313,999.512,-705.078,-570.312,-788.574,-284.668,0
1579966037.317,999.512,-718.262,-662.109,545.410,-444.824,0
1579966037.321,999.512,-530.762,-766.602,-928.711,-564.941,0
1579966037.325,999.512,-486.816,-725.098,-300.781,-511.719,0
1579966037.329,999.512,-645.996,-553.223,-864.746,-187.500,0
1579966037.333,999.512,-698.242,-493.652,886.230,24.902,0
1579966037.337,999.512,-567.871,-683.105,-599.121,-378.418,0
1579966037.340,999.512,-457.031,-747.070,-625.977,-544.434,0
1579966037.344,999.512,-602.051,-635.254,843.262,-466.797,0
1579966037.348,999.512,-732.422,-590.332,-850.098,-393.066,0
1579966037.352,999.512,-620.605,-687.988,-96.680,-465.820,0
1579966037.356,999.512,-446.289,-731.445,-916.992,-439.941,0
1579966037.360,999.512,-542.969,-636.230,390.137,-360.840,0
1579966037.364,999.512,-722.656,-596.191,-757.812,-427.734,0
1579966037.368,999.512,-676.758,-657.715,354.004,-450.195,0
1579966037.372,999.512,-486.816,-737.793,-1000.000,-495.117,0
1579966037.376,999.512,-489.746,-641.113,-11.719,-314.941,0
1579966037.379,999.512,-676.270,-537.109,-794.434,-212.891,0
1579966037.383,999.512,-711.914,-648.438,666.504,-500.000,0
1579966037.387,999.512,-510.254,-661.621,-755.859,-241.211,0
1579966037.391,999.512,-434.570,-599.121,-394.531,-95.215,0
1579966037.395,999.512,-633.789,-579.590,-963.379,-328.125,0
1579966037.399,999.512,-739.258,-622.559,995.117,-457.031,0
1579966037.403,999.512,-590.332,-726.562,-400.391,-513.672,0
1579966037.407,999.512,-444.336,-718.750,-675.293,-385.742,0
1579966037.411,999.512,-580.078,-616.211,751.465,-327.148,0
1579966037.415,999.512,-725.098,-574.707,-782.715,-272.949,0
1579966037.419,999.512,-645.996,-717.285,-0.488,-541.504,0
1579966037.422,999.512,-451.172,-718.750,-814.941,-334.473,0
1579966037.426,999.512,-512.695,-536.621,540.527,108.398,0
1579966037.430,999.512,-711.914,-548.828,-769.043,-185.547,0
1579966037.434,999.512,-695.312,-700.684,410.645,-513.672,0
1579966037.438,999.512,-505.371,-792.969,-985.840,-527.832,0
1579966037.442,999.512,-494.629,-702.637,-100.586,-381.836,0
1579966037.446,999.512,-685.059,-599.121,-803.223,-298.828,0
1579966037.450,999.512,-720.703,-674.805,693.848,-431.641,0
1579966037.454,999.512,-546.387,-780.762,-758.789,-496.582,0
1579966037.458,999.512,-477.051,-754.395,-348.633,-437.012,0
1579966037.462,999.512,-642.578,-620.117,-963.379,-282.715,0
1579966037.465,999.512,-748.047,-621.094,-890.137,-295.898,0
1579966037.469,999.512,-614.258,-715.332,-167.969,-298.828,0
1579966037.473,999.512,-461.426,-714.844,-595.215,-204.102,0
1579966037.477,999.512,-594.238,-625.000,802.246,-180.176,0
1579966037.481,999.512,-717.773,-521.484,-781.250,108.887,0
1579966037.485,999.512,-649.902,-629.883,219.238,-41.992,0
1579966037.489,999.512,-500.000,-800.293,-905.273,-457.031,0
1579966037.493,999.512,-557.617,-731.445,270.020,-423.340,0
1579966037.497,999.512,-730.957,-633.789,-779.297,-300.293,0
1579966037.501,999.512,-710.938,-681.641,586.426,-296.875,0
1579966037.504,999.512,-533.691,-797.363,-815.430,-431.152,0
1579966037.508,999.512,-504.883,-750.488,-115.234,-370.117,0
1579966037.512,999.512,-685.059,-655.762,-899.414,-306.641,0
1579966037.516,999.512,-723.633,-625.488,-937.500,-128.906,0
1579966037.520,999.512,-571.289,-648.438,-119.629,27.832,0
1579966037.524,999.512,-497.559,-721.191,-326.660,-229.980,0
1579966037.528,999.512,-639.648,-651.855,990.723,-247.559,0
1579966037.532,999.512,-738.770,-623.047,-839.355,-191.895,0
1579966037.536,999.512,-633.789,-738.770,-0.977,-342.285,0
1579966037.540,999.512,-473.633,-775.879,-676.270,-335.449,0
1579966037.544,999.512,-575.684,-691.895,655.762,-333.496,0
1579966037.547,999.512,-735.352,-638.672,-765.137,-315.430,0
1579966037.551,999.512,-681.152,-729.004,329.102,-422.852,0
1579966037.555,999.512,-487.305,-771.973,-872.559,-360.840,0
1579966037.559,999.512,-520.508,-687.500,181.641,-281.250,0
1579966037.563,999.512,-690.918,-574.707,-785.156,-119.141,0
1579966037.567,999.512,-685.547,-617.676,620.605,-166.504,0
1579966037.571,999.512,-522.949,-770.508,-762.207,-507.812,0
1579966037.575,999.512,-457.031,-633.789,-120.117,-116.211,0
1579966037.579,999.512,-626.465,-500.488,-836.914,23.438,0
1579966037.583,999.512,-718.262,-635.254,914.551,-403.809,0
1579966037.586,999.512,-557.617,-734.375,-527.832,-419.922,0
1579966037.590,999.512,-434.570,-709.473,-477.539,-305.176,0
1579966037.594,999.512,-585.449,-598.145,966.309,-232.910,0
1579966037.598,999.512,-718.750,-604.492,-834.473,-359.863,0
1579966037.602,999.512,-611.816,-706.055,-4.395,-468.262,0
1579966037.606,999.512,-435.059,-733.887,-817.871,-412.109,0
1579966037.610,999.512,-510.254,-583.984,533.203,-138.184,0
1579966037.614,990.234,-657.227,-452.637,-762.207,131.836,0
1579966037.618,-970.215,-634.766,-611.816,333.496,-265.137,0
1579966037.622,860.840,-463.867,-747.559,-1000.000,-549.805,0
1579966037.626,835.938,-471.680,-667.480,-112.305,-465.332,0
1579966037.629,952.148,-650.879,-548.828,-788.086,-319.824,0
1579966037.633,-840.820,-666.016,-594.238,633.789,-389.160,0
1579966037.637,321.777,-493.652,-715.332,-848.633,-546.387,0
1579966037.641,-743.652,-430.176,-670.898,-448.730,-461.426,0
1579966037.645,428.711,-593.262,-535.645,-980.469,-325.195,0
1579966037.649,-770.508,-667.480,-527.344,935.059,-316.895,0
1579966037.653,136.230,-527.832,-655.273,-492.188,-497.070,0
1579966037.657,-1000.000,-392.578,-632.324,-727.051,-360.840,0
1579966037.661,-481.445,-531.738,-507.812,709.961,-248.535,0
1579966037.665,948.242,-686.035,-535.156,-847.656,-452.148,0
1579966037.669,5.859,-555.176,-543.945,17.090,-224.121,0
1579966037.672,-1000.000,-371.582,-560.547,-1000.000,-207.520,0
1579966037.676,-962.402,-462.402,-565.430,73.242,-508.789,0
1579966037.680,-634.277,-660.645,-511.230,-851.074,-516.602,0
1579966037.684,-682.129,-597.656,-571.289,-7.812,-477.539,0
1579966037.688,-1000.000,-391.113,-621.094,-1000.000,-454.102,0
1579966037.692,-956.055,-400.391,-574.219,-332.520,-497.070,0
1579966037.696,-967.285,-594.238,-479.004,-852.539,-436.523,0
1579966037.700,-969.727,-633.301,-529.785,401.367,-561.035,0
1579966037.704,-969.238,-421.875,-570.801,-1000.000,-432.129,0
1579966037.708,-969.238,-317.871,-443.848,-680.176,-82.031,0
1579966037.711,-969.238,-511.719,-405.273,811.035,-316.406,0
1579966037.715,-969.238,-636.719,-476.074,606.934,-582.031,0
1579966037.719,-969.238,-477.051,-577.637,-818.848,-669.922,0
1579966037.723,-969.238,-327.637,-555.176,-1000.000,-572.266,0
1579966037.727,-969.238,-430.664,-439.453,124.023,-443.848,0
1579966037.731,-969.238,-611.328,-429.199,868.652,-559.570,0
1579966037.735,-969.238,-515.625,-526.367,-479.492,-675.781,0
1579966037.739,-969.238,-340.332,-568.848,-1000.000,-711.914,0
1579966037.743,-969.238,-374.023,-450.684,-306.152,-510.254,0
1579966037.747,-969.238,-562.988,-375.000,956.055,-477.539,0
1579966037.751,-969.238,-535.645,-418.945,-47.852,-437.500,0
1579966037.754,-969.238,-349.609,-486.816,-1000.000,-494.629,0
1579966037.758,-969.238,-333.008,-487.305,-838.867,-648.926,0
1579966037.762,-969.238,-473.145,-305.176,603.516,-185.059,0
1579966037.766,-969.238,-543.945,-322.754,281.738,-219.727,0
1579966037.770,-969.238,-407.715,-537.598,-1000.000,-710.938,0
1579966037.774,-969.238,-335.449,-537.598,-1000.000,-713.867,0
1579966037.778,-969.238,-456.055,-416.992,168.945,-518.555,0
1579966037.782,-969.238,-581.055,-396.973,476.562,-474.121,0
1579966037.786,-969.238,-474.121,-530.762,-876.953,-675.293,0
1579966037.790,-969.238,-349.121,-559.082,-1000.000,-691.406,0
1579966037.793,-969.238,-437.500,-469.727,-128.906,-586.426,0
1579966037.797,-969.238,-593.750,-376.465,865.234,-346.680,0
1579966037.801,-969.238,-511.230,-393.555,-287.598,-182.129,0
1579966037.805,-969.238,-375.000,-530.273,-1000.000,-537.109,0
1579966037.809,-969.238,-421.875,-528.809,-444.824,-649.902,0
1579966037.813,-969.238,-615.723,-455.566,983.887,-574.707,0
1579966037.817,-969.238,-617.676,-477.539,164.062,-472.168,0
1579966037.821,-969.238,-426.758,-559.082,-1000.000,-508.301,0
1579966037.825,-969.238,-407.227,-566.895,-692.383,-629.883,0
1579966037.829,-969.238,-588.867,-487.305,787.109,-547.363,0
1579966037.833,-976.074,-683.105,-521.484,484.863,-614.746,0
1579966037.836,-931.152,-506.836,-612.305,-1000.000,-602.051,0
1579966037.840,-1000.000,-403.809,-608.398,-912.598,-551.270,0
1579966037.844,-863.281,-549.316,-482.910,480.957,-371.094,0
1579966037.848,283.691,-704.102,-462.402,954.102,-366.699,0
1579966037.852,-24.414,-594.727,-633.789,-498.535,-662.109,0
1579966037.856,-1000.000,-403.809,-581.055,-1000.000,-304.199,0
1579966037.860,-402.344,-505.371,-461.914,254.883,-145.996,0
1579966037.864,958.496,-714.355,-518.555,-817.383,-521.973,0
1579966037.868,-956.055,-646.973,-633.301,62.988,-653.809,0
1579966037.872,-395.020,-457.031,-694.824,-1000.000,-623.535,0
1579966037.876,-329.590,-475.586,-582.031,-183.594,-368.652,0
1579966037.879,-942.383,-676.758,-518.066,-804.688,-373.047,0
1579966037.883,-937.988,-702.148,-604.492,446.777,-544.434,0
1579966037.887,743.652,-512.207,-717.285,-1000.000,-662.598,0
1579966037.891,638.184,-453.125,-622.559,-354.980,-372.070,0
1579966037.895,-988.281,-609.863,-436.523,-892.578,11.230,0
1579966037.899,-990.723,-715.332,-535.156,807.617,-323.242,0
1579966037.903,986.328,-580.078,-715.820,-635.254,-634.277,0
1579966037.907,-998.535,-448.730,-724.121,-797.852,-601.562,0
1579966037.911,999.512,-577.637,-586.426,637.695,-406.738,0
1579966037.915,999.512,-728.516,-547.363,-858.398,-384.277,0
1579966037.918,999.512,-632.812,-682.617,-115.723,-603.027,0
1579966037.922,999.512,-449.219,-730.469,-1000.000,-617.676,0
1579966037.926,999.512,-524.902,-630.859,170.410,-523.926,0
1579966037.930,999.512,-704.590,-541.504,-755.371,-412.598,0
1579966037.934,999.512,-658.691,-601.562,258.789,-415.527,0
1579966037.938,999.512,-455.566,-663.086,-1000.000,-397.949,0
1579966037.942,-998.047,-467.773,-581.055,-115.723,-287.109,0
1579966037.946,985.840,-671.875,-536.133,-832.031,-384.277,0
1579966037.950,-969.238,-684.570,-513.184,791.992,-202.637,0
1579966037.954,904.785,-507.812,-585.449,-698.730,-241.211,0
1579966037.958,810.547,-441.406,-667.480,-562.012,-571.289,0
1579966037.961,955.078,-603.027,-573.730,967.773,-500.977,0
1579966037.965,-926.270,-703.125,-555.176,968.750,-482.910,0
1579966037.969,812.012,-555.664,-638.672,-381.836,-509.277,0
1579966037.973,-229.492,-420.410,-676.270,-933.594,-577.637,0
1579966037.977,235.352,-541.504,-576.172,433.594,-501.465,0
1579966037.981,-793.945,-700.195,-541.016,-830.078,-521.973,0
1579966037.985,627.441,-590.332,-572.266,19.043,-374.023,0
1579966037.989,-849.609,-379.883,-540.039,-1000.000,-137.695,0
1579966037.993,-672.852,-450.195,-498.535,-140.137,-277.344,0
1579966037.997,916.016,-659.668,-485.840,-774.414,-425.781,0
1579966038.001,730.469,-635.254,-590.332,231.934,-618.164,0
1579966038.004,-650.879,-440.430,-650.879,-1000.000,-579.102,0
1579966038.008,-1000.000,-424.316,-580.078,-482.422,-485.840,0
1579966038.012,-20.020,-617.676,-507.324,-992.188,-524.414,0
1579966038.016,611.816,-666.504,-541.504,507.324,-581.543,0
1579966038.020,-785.645,-489.258,-646.484,-1000.000,-710.938,0
1579966038.024,-1000.000,-386.230,-593.750,-780.273,-564.941,0
1579966038.028,-836.914,-533.691,-461.914,697.266,-406.738,0
1579966038.032,-805.664,-666.992,-448.242,823.730,-421.387,0
1579966038.036,-963.379,-527.832,-547.363,-599.121,-520.996,0
1579966038.040,-979.004,-378.906,-613.770,-1000.000,-722.168,0
1579966038.043,-960.938,-451.172,-420.898,187.988,-287.598,0
1579966038.047,-970.703,-624.512,-345.215,920.410,-194.824,0
1579966038.051,-969.238,-549.805,-519.043,-441.406,-580.078,0
1579966038.055,-969.238,-375.488,-596.680,-1000.000,-711.914,0
1579966038.059,-969.238,-405.762,-514.160,-343.750,-637.695,0
1579966038.063,-969.238,-587.891,-406.738,-969.727,-491.699,0
1579966038.067,-969.238,-592.285,-492.676,61.523,-659.180,0
1579966038.071,-969.238,-401.367,-583.496,-1000.000,-753.906,0
1579966038.075,-969.238,-365.234,-532.715,-761.230,-717.285,0
1579966038.079,-969.238,-514.648,-375.977,701.172,-419.922,0
1579966038.083,-969.238,-582.031,-316.406,458.008,-219.238,0
1579966038.086,-969.238,-439.453,-483.398,-984.375,-603.027,0
1579966038.090,-969.238,-344.727,-538.574,-1000.000,-764.160,0
1579966038.094,-969.238,-464.355,-437.500,186.035,-637.207,0
1579966038.098,-969.238,-603.027,-394.531,652.832,-558.105,0
1579966038.102,-969.238,-481.934,-488.281,-755.859,-657.227,0
1579966038.106,-969.238,-338.867,-539.062,-1000.000,-768.066,0
1579966038.110,-969.238,-404.297,-411.621,-151.367,-519.043,0
1579966038.114,-969.238,-584.473,-366.211,812.988,-549.316,0
1579966038.118,-969.238,-521.484,-452.637,-412.109,-689.453,0
1579966038.122,-969.238,-344.727,-510.254,-1000.000,-728.516,0
1579966038.125,-969.238,-351.074,-412.598,-518.555,-560.547,0
1579966038.129,-969.238,-526.367,-315.430,721.680,-463.379,0
1579966038.133,-969.238,-557.617,-427.734,-7.812,-715.332,0
1579966038.137,-969.238,-348.633,-434.570,-1000.000,-487.305,0
1579966038.141,-969.238,-297.363,-361.816,-918.945,-371.094,0
1579966038.145,-969.238,-476.074,-372.070,194.824,-633.301,0
1579966038.149,-969.238,-564.453,-418.945,89.844,-694.824,0
1579966038.153,-969.238,-419.922,-501.953,-1000.000,-724.609,0
1579966038.157,-969.238,-324.707,-473.633,-1000.000,-658.691,0
1579966038.161,-969.238,-443.359,-403.320,2.441,-634.277,0
1579966038.165,-969.238,-584.473,-375.488,483.887,-553.223,0
1579966038.168,-969.238,-479.004,-462.891,-832.520,-620.605,0
1579966038.172,-969.238,-330.078,-468.750,-1000.000,-539.062,0
1579966038.176,-969.238,-386.719,-306.641,-115.234,-190.430,0
1579966038.180,-969.238,-599.121,-324.219,910.645,-445.801,0
1579966038.184,-969.238,-563.965,-482.422,-309.082,-715.820,0
1579966038.188,-969.238,-387.695,-563.477,-1000.000,-792.969,0
1579966038.192,-969.238,-383.789,-475.586,-570.801,-637.695,0
1579966038.196,-969.238,-565.430,-381.836,803.711,-513.184,0
1579966038.200,-969.238,-613.770,-461.426,153.809,-689.453,0
1579966038.204,-969.238,-434.082,-560.059,-1000.000,-780.762,0
1579966038.208,-969.238,-373.535,-530.273,-926.270,-727.539,0
1579966038.211,-969.238,-521.973,-406.738,456.055,-522.949,0
1579966038.215,-969.238,-641.602,-420.410,494.629,-549.316,0
1579966038.219,-969.238,-483.398,-512.207,-952.148,-567.383,0
1579966038.223,-969.238,-356.934,-507.812,-1000.000,-521.484,0
1579966038.227,-969.238,-479.980,-429.688,110.840,-475.586,0
1579966038.231,-969.238,-639.648,-326.660,-959.961,-219.727,0
1579966038.235,-969.238,-555.664,-431.152,-253.906,-331.543,0
1579966038.239,-969.238,-402.832,-569.824,-1000.000,-662.598,0
1579966038.243,-969.238,-444.824,-518.555,-349.121,-631.348,0
1579966038.247,-969.238,-637.695,-449.707,-937.012,-558.594,0
1579966038.250,-970.215,-629.395,-502.930,160.156,-560.059,0
1579966038.254,-962.402,-441.406,-612.793,-1000.000,-698.730,0
1579966038.258,-986.328,-424.805,-565.430,-540.527,-651.855,0
1579966038.262,-912.598,-614.258,-477.539,951.172,-581.543,0
1579966038.266,-877.441,-669.434,-463.867,526.367,-442.383,0
1579966038.270,-914.551,-467.773,-486.328,-976.562,-250.977,0
1579966038.274,-1000.000,-394.043,-540.527,-853.516,-464.355,0
1579966038.278,-603.516,-578.125,-517.578,582.520,-582.520,0
1579966038.282,664.551,-695.312,-495.117,820.312,-502.441,0
1579966038.286,-73.730,-541.992,-562.012,-591.797,-457.520,0
1579966038.290,-1000.000,-414.551,-614.258,-1000.000,-585.449,0
1579966038.293,-339.355,-535.156,-555.664,156.250,-606.934,0
1579966038.297,-950.195,-708.984,-511.230,-872.070,-568.359,0
1579966038.301,836.426,-622.559,-612.793,-87.891,-676.270,0
1579966038.305,-708.008,-435.547,-656.250,-1000.000,-639.648,0
1579966038.309,-328.613,-488.770,-573.730,-183.105,-550.293,0
1579966038.313,-967.285,-667.480,-473.145,-793.457,-399.902,0
1579966038.317,-861.328,-654.297,-534.668,301.270,-444.824,0
1579966038.321,332.031,-478.027,-687.012,-1000.000,-700.684,0
1579966038.325,-63.477,-441.895,-548.340,-297.852,-293.945,0
1579966038.329,960.449,-625.977,-422.363,-835.938,-139.160,0
1579966038.332,-938.965,-708.984,-565.430,588.379,-575.684,0
1579966038.336,908.203,-538.574,-698.730,-918.457,-719.238,0
1579966038.340,876.465,-425.781,-654.297,-685.059,-527.344,0
1579966038.344,993.652,-573.242,-521.484,805.176,-333.984,0
1579966038.348,-992.188,-722.168,-554.199,974.609,-503.906,0
1579966038.352,992.676,-598.633,-675.293,-375.977,-595.703,0
1579966038.356,-999.512,-435.059,-715.820,-1000.000,-614.258,0
1579966038.360,999.512,-510.742,-560.547,138.672,-330.078,0
1579966038.364,999.512,-675.293,-427.246,-809.570,-34.180,0
1579966038.368,999.512,-645.508,-597.168,71.289,-408.691,0
1579966038.372,999.512,-470.703,-741.211,-1000.000,-668.945,0
1579966038.375,999.512,-500.488,-666.504,-161.621,-587.891,0
1579966038.379,999.512,-683.594,-550.781,-788.574,-407.227,0
1579966038.383,999.512,-694.824,-606.445,412.109,-425.293,0
1579966038.387,999.512,-515.625,-735.840,-1000.000,-640.137,0
1579966038.391,999.512,-463.867,-691.406,-446.777,-607.422,0
1579966038.395,999.512,-646.484,-579.102,-969.238,-493.652,0
1579966038.399,999.512,-726.074,-562.988,834.961,-418.457,0
1579966038.403,999.512,-569.336,-676.270,-652.832,-520.020,0
1579966038.407,999.512,-437.500,-665.527,-737.305,-423.828,0
1579966038.411,999.512,-579.102,-542.480,759.277,-316.895,0
1579966038.415,999.512,-740.234,-579.102,-969.727,-551.758,0
1579966038.418,999.512,-591.309,-595.703,-280.273,-298.828,0
1579966038.422,999.512,-409.668,-606.445,-1000.000,-206.055,0
1579966038.426,999.512,-526.367,-614.258,124.023,-520.996,0
1579966038.430,999.512,-717.285,-564.941,-774.902,-536.621,0
1579966038.434,999.512,-661.621,-629.883,183.105,-538.574,0
1579966038.438,999.512,-454.102,-683.594,-1000.000,-502.930,0
1579966038.442,-1000.000,-471.191,-641.113,-224.609,-543.457,0
1579966038.446,997.559,-663.574,-549.316,-802.734,-503.418,0
1579966038.450,-996.582,-690.430,-583.008,504.883,-507.324,0
1579966038.454,989.746,-485.840,-637.207,-1000.000,-410.156,0
1579966038.457,973.145,-402.832,-523.926,-407.227,-105.957,0
1579966038.461,997.559,-606.445,-486.328,-924.316,-328.613,0
1579966038.465,-998.047,-712.402,-573.730,775.879,-594.238,0
1579966038.469,997.559,-557.617,-686.523,-621.582,-670.410,0
1579966038.473,986.816,-407.715,-667.969,-950.195,-538.086,0
1579966038.477,993.652,-526.855,-548.828,366.699,-415.527,0
1579966038.481,-998.047,-704.102,-541.992,-897.949,-559.570,0
1579966038.485,-996.582,-604.492,-644.043,-147.949,-613.281,0
1579966038.489,945.312,-421.875,-695.312,-1000.000,-619.141,0
1579966038.493,965.332,-487.793,-579.102,-10.254,-493.652,0
1579966038.497,-992.676,-679.688,-507.324,-771.484,-459.961,0
1579966038.500,-996.094,-645.020,-562.988,300.781,-444.336,0
1579966038.504,959.473,-448.242,-637.207,-1000.000,-477.051,0
1579966038.508,955.078,-451.660,-640.625,-359.863,-638.184,0
1579966038.512,-993.164,-612.305,-459.961,-859.863,-204.590,0
1579966038.516,997.559,-652.344,-456.543,527.832,-107.422,0
1579966038.520,999.023,-512.695,-674.316,-973.633,-618.164,0
1579966038.524,999.512,-427.246,-689.941,-712.891,-675.781,0
1579966038.528,999.512,-579.590,-560.059,809.082,-473.633,0
1579966038.532,999.512,-700.195,-530.762,839.355,-383.789,0
1579966038.536,999.512,-560.059,-663.086,-658.691,-582.031,0
1579966038.540,999.512,-411.133,-695.801,-1000.000,-605.957,0
1579966038.543,998.047,-532.227,-597.656,268.555,-539.551,0
1579966038.547,999.023,-691.895,-499.512,-793.945,-330.078,0
1579966038.551,-995.117,-597.656,-508.789,118.652,-145.996,0
1579966038.555,952.148,-428.711,-640.625,-1000.000,-457.520,0
1579966038.559,967.773,-481.445,-629.883,-147.949,-613.770,0
1579966038.563,985.352,-674.316,-548.340,-779.785,-565.918,0
1579966038.567,-938.965,-653.809,-588.867,298.828,-509.277,0
1579966038.571,744.629,-456.055,-666.016,-1000.000,-555.664,0
1579966038.575,606.934,-437.012,-614.746,-413.574,-537.598,0
1579966038.579,975.586,-621.094,-521.484,-903.809,-497.070,0
1579966038.582,-897.461,-687.500,-576.660,566.406,-596.191,0
1579966038.586,666.504,-508.789,-655.762,-927.246,-568.359,0
1579966038.590,102.539,-406.250,-641.602,-847.656,-540.527,0
1579966038.594,748.535,-547.852,-510.254,630.371,-352.539,0
1579966038.598,-885.254,-680.176,-485.352,942.871,-337.891,0
1579966038.602,858.887,-565.918,-654.785,-508.789,-676.758,0
1579966038.606,-509.277,-382.812,-592.773,-1000.000,-353.027,0
1579966038.610,-166.504,-483.887,-457.031,277.344,-169.434,0
1579966038.614,-854.492,-691.406,-509.277,-856.934,-560.059,0
1579966038.618,972.168,-617.188,-620.117,-24.902,-692.383,0
1579966038.622,-403.809,-424.316,-666.504,-1000.000,-619.629,0
1579966038.625,-490.234,-458.984,-572.266,-211.914,-449.219,0
1579966038.629,945.312,-646.973,-492.676,-812.988,-419.434,0
1579966038.633,-837.891,-640.625,-541.016,324.707,-458.008,0
1579966038.637,7.812,-465.332,-671.387,-1000.000,-644.043,0
1579966038.641,-925.293,-419.922,-582.520,-473.633,-395.996,0
1579966038.645,336.426,-582.031,-391.602,-928.223,-46.875,0
1579966038.649,-757.812,-664.062,-482.422,520.508,-333.008,0
1579966038.653,291.992,-513.184,-664.551,-938.965,-669.922,0
1579966038.657,-1000.000,-410.645,-661.133,-926.758,-650.391,0
1579966038.661,-140.625,-537.598,-513.672,466.309,-414.551,0
1579966038.664,-766.113,-685.059,-492.188,976.074,-447.754,0
1579966038.668,400.391,-573.730,-627.930,-391.602,-641.602,0
1579966038.672,-1000.000,-410.156,-664.062,-1000.000,-632.324,0
1579966038.676,-633.789,-496.094,-567.871,-27.344,-549.805,0
1579966038.680,937.012,-673.340,-479.004,-833.496,-447.266,0
1579966038.684,523.926,-613.281,-558.594,45.898,-540.039,0
1579966038.688,-901.367,-419.922,-616.699,-1000.000,-545.410,0
1579966038.692,-1000.000,-430.664,-514.160,-300.781,-351.562,0
1579966038.696,192.871,-630.859,-465.820,-859.375,-427.246,0
1579966038.700,503.418,-640.625,-456.543,508.789,-274.414,0
1579966038.704,-889.648,-460.938,-529.297,-974.609,-303.711,0
1579966038.707,-1000.000,-408.691,-599.121,-778.320,-589.844,0
1579966038.711,-425.293,-577.637,-513.672,734.863,-563.477,0
1579966038.715,284.180,-682.617,-507.324,690.918,-572.754,0
1579966038.719,-702.148,-517.090,-592.285,-756.348,-576.172,0
1579966038.723,-1000.000,-389.648,-618.652,-1000.000,-643.066,0
1579966038.727,-894.043,-500.000,-517.578,222.656,-563.477,0
1579966038.731,-727.051,-675.781,-488.770,961.426,-582.031,0
1579966038.735,-871.094,-564.453,-529.785,-342.773,-458.984,0
1579966038.739,-1000.000,-357.910,-486.816,-1000.000,-216.797,0
1579966038.743,-953.125,-435.059,-471.680,-209.961,-410.645,0
1579966038.747,-972.656,-643.555,-447.266,-911.133,-498.535,0
1579966038.750,-969.238,-612.793,-526.367,20.508,-588.867,0
1579966038.754,-969.238,-416.504,-610.352,-1000.000,-654.785,0
1579966038.758,-969.238,-398.438,-536.621,-556.152,-535.156,0
1579966038.762,-969.238,-595.703,-471.191,893.066,-578.125,0
1579966038.766,-969.238,-639.160,-517.090,191.406,-640.137,0
1579966038.770,-969.238,-455.078,-616.211,-1000.000,-696.777,0
1579966038.774,-969.238,-375.488,-558.594,-876.953,-585.449,0
1579966038.778,-969.238,-524.414,-447.266,484.375,-500.977,0
1579966038.782,-969.238,-647.949,-423.340,668.457,-438.477,0
1579966038.786,-969.238,-498.535,-513.184,-788.574,-495.605,0
1579966038.789,-969.238,-366.211,-588.867,-1000.000,-723.633,0
1579966038.793,-969.238,-442.383,-401.855,121.094,-282.227,0
1579966038.797,-969.238,-613.770,-332.031,879.883,-206.055,0
1579966038.801,-969.238,-554.688,-536.621,-475.586,-710.449,0
1579966038.805,-969.238,-375.977,-580.566,-1000.000,-705.566,0
1579966038.809,-969.238,-405.273,-479.004,-358.887,-546.387,0
1579966038.813,-969.238,-600.586,-408.691,978.027,-529.785,0
1579966038.817,-969.238,-602.539,-508.301,7.812,-696.777,0
1579966038.821,-969.238,-413.086,-602.051,-1000.000,-778.809,0
1579966038.825,-969.238,-389.648,-550.293,-703.613,-710.449,0
1579966038.829,-969.238,-549.805,-400.391,771.484,-401.855,0
1579966038.832,-969.238,-616.211,-346.680,472.168,-172.363,0
1579966038.836,-969.238,-476.074,-528.809,-967.285,-570.312,0
1579966038.840,-969.238,-390.137,-593.750,-1000.000,-786.133,0
1579966038.844,-969.238,-517.578,-489.746,166.992,-640.137,0
1579966038.848,-967.773,-669.434,-458.984,785.156,-581.055,0
1579966038.852,-967.773,-549.316,-563.477,-646.973,-675.781,0
1579966038.856,-969.727,-396.973,-619.629,-1000.000,-774.414,0
1579966038.860,-971.191,-482.422,-518.066,-39.551,-645.996,0
1579966038.864,-940.918,-664.551,-445.312,998.047,-543.457,0
1579966038.868,-952.637,-593.262,-513.672,-215.820,-565.430,0
1579966038.871,-974.609,-406.250,-578.125,-1000.000,-635.254,0
1579966038.875,-967.285,-432.617,-490.234,-278.809,-527.832,0
1579966038.879,-969.727,-620.605,-388.672,-979.004,-401.855,0
1579966038.883,-969.238,-622.070,-503.418,-26.367,-660.156,0
1579966038.887,-969.238,-409.668,-530.762,-1000.000,-496.582,0
1579966038.891,-969.238,-362.793,-450.195,-772.461,-347.168,0
1579966038.895,-969.238,-564.941,-454.102,657.227,-647.461,0
1579966038.899,-969.238,-661.133,-494.141,424.316,-698.730,0
1579966038.903,-969.238,-486.816,-579.102,-1000.000,-714.844,0
1579966038.907,-969.238,-371.094,-547.363,-1000.000,-639.160,0
1579966038.911,-969.238,-507.812,-464.844,240.723,-637.695,0
1579966038.914,-969.238,-666.992,-454.590,751.465,-699.707,0
1579966038.918,-969.238,-550.293,-564.453,-685.547,-792.969,0
1579966038.922,-969.238,-367.676,-541.504,-1000.000,-596.680,0
1579966038.926,-969.238,-429.688,-349.121,70.312,-208.984,0
1579966038.930,-969.238,-645.996,-359.863,-981.445,-479.004,0
1579966038.934,-969.238,-594.238,-525.879,-252.441,-801.270,0
1579966038.938,-969.238,-404.785,-596.191,-1000.000,-858.398,0
1579966038.942,-969.238,-402.344,-494.629,-483.887,-671.875,0
1579966038.946,-969.238,-587.402,-398.438,922.363,-581.543,0
1579966038.950,-969.238,-619.141,-482.910,137.695,-768.555,0
1579966038.954,-969.238,-434.570,-580.078,-1000.000,-833.008,0
1579966038.957,-969.238,-370.605,-535.156,-937.012,-741.699,0
1579966038.961,-969.238,-517.090,-405.273,445.801,-579.102,0
1579966038.965,-969.238,-626.953,-419.434,409.668,-665.039,0
1579966038.969,-969.238,-459.473,-498.047,-980.469,-636.719,0
1579966038.973,-969.238,-346.680,-484.863,-1000.000,-624.023,0
1579966038.977,-969.238,-451.172,-441.895,-140.137,-732.910,0
1579966038.981,-969.238,-583.984,-320.312,805.176,-353.027,0
1579966038.985,-969.238,-503.418,-384.277,-408.691,-393.066,0
1579966038.989,-969.238,-369.629,-540.039,-1000.000,-845.215,0
1579966038.993,-969.238,-413.574,-470.215,-395.508,-780.762,0
1579966038.996,-969.238,-572.266,-384.277,625.977,-654.297,0
1579966039.000,-969.238,-538.086,-438.477,-289.062,-645.020,0
1579966039.004,-969.238,-382.812,-535.156,-1000.000,-821.289,0
1579966039.008,-969.238,-370.605,-478.516,-757.812,-770.996,0
1579966039.012,-969.238,-535.645,-394.043,561.035,-702.148,0
1579966039.016,-969.238,-569.336,-383.301,147.949,-531.250,0
1579966039.020,-969.238,-378.906,-396.484,-1000.000,-307.129,0
1579966039.024,-969.238,-340.332,-440.918,-1000.000,-559.082,0
1579966039.028,-969.238,-497.070,-412.109,221.191,-682.129,0
1579966039.032,-969.238,-610.352,-424.316,352.051,-716.797,0
1579966039.036,-969.238,-462.402,-499.023,-961.914,-681.152,0
1579966039.039,-969.238,-341.797,-481.934,-1000.000,-605.469,0
1579966039.043,-969.238,-437.988,-419.434,-168.945,-644.531,0
1579966039.047,-969.238,-596.191,-402.832,575.195,-682.617,0
1579966039.051,-969.238,-520.020,-498.047,-645.020,-768.555,0
1579966039.055,-969.238,-361.816,-516.602,-1000.000,-714.355,0
1579966039.059,-969.238,-393.555,-433.594,-509.277,-611.328,0
1579966039.063,-969.238,-567.871,-351.074,726.562,-510.742,0
1579966039.067,-969.238,-565.918,-407.227,-73.242,-559.570,0
1579966039.071,-969.238,-400.879,-541.992,-1000.000,-804.199,0
1579966039.075,-969.238,-348.145,-404.785,-643.066,-416.992,0
1579966039.079,-969.238,-512.695,-271.973,759.766,-235.352,0
1579966039.082,-969.238,-599.121,-401.367,192.871,-618.164,0
1579966039.086,-969.238,-432.129,-537.598,-1000.000,-785.645,0
1579966039.090,-969.238,-352.051,-512.695,-1000.000,-735.352,0
1579966039.094,-969.238,-460.449,-363.770,162.598,-460.938,0
1579966039.098,-969.238,-588.379,-376.465,343.750,-565.430,0
1579966039.102,-969.238,-480.469,-508.789,-931.152,-748.535,0
1579966039.106,-969.238,-361.816,-534.180,-1000.000,-780.762,0
1579966039.110,-969.238,-426.758,-383.301,-105.957,-461.914,0
1579966039.114,-969.238,-570.312,-257.324,770.020,-147.461,0
1579966039.118,-969.238,-521.484,-421.387,-537.109,-518.066,0
1579966039.121,-969.238,-381.836,-558.105,-1000.000,-803.711,0
1579966039.125,-969.238,-401.367,-490.234,-589.844,-706.055,0
1579966039.129,-969.238,-572.754,-387.695,675.293,-546.387,0
1579966039.133,-969.238,-587.891,-443.359,-1.953,-580.566,0
1579966039.137,-969.238,-420.898,-567.871,-1000.000,-752.441,0
1579966039.141,-969.238,-381.348,-526.367,-876.953,-696.289,0
1579966039.145,-969.238,-537.598,-429.688,490.723,-607.910,0
1579966039.149,-969.238,-626.953,-435.547,374.023,-579.102,0
1579966039.153,-969.238,-462.891,-518.555,-1000.000,-562.012,0
1579966039.157,-969.238,-358.887,-493.164,-1000.000,-459.473,0
1579966039.161,-969.238,-496.094,-406.738,229.980,-432.617,0
1579966039.164,-969.238,-667.480,-456.543,666.504,-679.199,0
1579966039.168,-969.238,-516.602,-475.586,-730.957,-376.465,0
1579966039.172,-969.238,-356.445,-474.121,-1000.000,-282.227,0
1579966039.176,-969.238,-464.844,-494.141,-184.082,-608.398,0
1579966039.180,-969.238,-661.621,-463.867,965.332,-645.508,0
1579966039.184,-971.191,-612.305,-534.668,-191.406,-636.230,0
1579966039.188,-948.730,-419.434,-580.566,-1000.000,-566.406,0
1579966039.192,-1000.000,-439.453,-533.691,-475.098,-595.215,0
1579966039.196,-749.023,-638.184,-463.379,985.840,-584.961,0
1579966039.200,-632.324,-675.293,-528.809,239.746,-652.832,0
1579966039.203,-924.316,-463.379,-575.195,-1000.000,-474.121,0
1579966039.207,-1000.000,-385.254,-458.496,-722.656,-148.926,0
1579966039.211,-543.457,-572.754,-408.203,643.555,-266.602,0
1579966039.215,750.977,-689.941,-495.605,593.750,-555.176,0
1579966039.219,-83.984,-539.062,-638.184,-882.324,-735.352,0
1579966039.223,-1000.000,-417.969,-621.094,-981.445,-583.496,0
1579966039.227,-102.539,-547.852,-512.695,330.566,-477.539,0
1579966039.231,-890.625,-715.332,-520.020,-993.164,-629.883,0
1579966039.235,942.383,-609.375,-633.789,-302.246,-695.801,0
1579966039.239,289.551,-439.941,-689.941,-1000.000,-677.734,0
1579966039.243,577.637,-515.137,-577.148,5.859,-512.695,0
1579966039.246,-913.086,-701.660,-515.625,-856.934,-514.648,0
1579966039.250,970.215,-649.414,-584.961,49.316,-501.465,0
1579966039.254,998.535,-457.520,-651.855,-1000.000,-468.750,0
1579966039.258,-1000.000,-484.375,-649.414,-291.504,-621.094,0
1579966039.262,999.512,-653.320,-478.027,-829.590,-250.000,0
1579966039.266,999.512,-687.988,-492.676,483.887,-198.730,0
1579966039.270,999.512,-530.762,-683.105,-1000.000,-557.617,0
1579966039.274,999.512,-460.938,-690.430,-590.820,-595.215,0
1579966039.278,999.512,-632.324,-592.285,891.113,-540.527,0
1579966039.282,999.512,-744.141,-568.848,918.945,-475.586,0
1579966039.286,999.512,-612.793,-704.590,-524.902,-648.926,0
1579966039.289,999.512,-460.938,-725.586,-895.996,-615.234,0
1579966039.293,999.512,-580.078,-604.980,476.562,-495.605,0
1579966039.297,999.512,-735.840,-525.879,-776.367,-333.496,0
1579966039.301,999.512,-640.137,-550.781,190.430,-156.250,0
1579966039.305,999.512,-470.215,-676.758,-1000.000,-441.406,0
1579966039.309,999.512,-521.973,-662.598,-95.215,-612.305,0
1579966039.313,999.512,-715.332,-583.984,-757.812,-568.359,0
1579966039.317,999.512,-694.336,-624.512,346.191,-533.203,0
1579966039.321,999.512,-500.488,-709.473,-1000.000,-583.496,0
1579966039.325,999.512,-479.004,-680.176,-361.816,-619.141,0
1579966039.328,999.512,-651.367,-550.293,-875.000,-454.102,0
1579966039.332,999.512,-706.543,-589.844,602.539,-540.039,0
1579966039.336,999.512,-529.297,-692.871,-906.250,-608.887,0
1579966039.340,999.512,-425.781,-668.945,-717.285,-561.523,0
1579966039.344,999.512,-574.219,-531.250,782.227,-395.508,0
1579966039.348,999.512,-710.449,-515.137,956.055,-418.945,0
1579966039.352,999.512,-588.867,-681.641,-498.535,-726.074,0
1579966039.356,999.512,-396.973,-613.770,-908.691,-346.680,0
1579966039.360,999.512,-509.277,-472.168,490.723,-195.312,0
1579966039.364,999.512,-708.008,-530.273,-953.613,-591.797,0
1579966039.368,999.512,-621.582,-647.949,-159.668,-688.965,0
1579966039.371,999.512,-430.176,-689.453,-1000.000,-634.766,0
1579966039.375,-996.582,-466.309,-579.102,-103.027,-496.094,0
1579966039.379,960.938,-673.340,-522.949,-789.551,-611.328,0
1579966039.383,-901.855,-649.414,-576.660,226.074,-589.355,0
1579966039.387,638.672,-449.707,-650.391,-1000.000,-551.758,0
1579966039.391,333.984,-423.340,-573.730,-430.176,-421.875,0
1579966039.395,919.434,-581.055,-395.508,-911.133,-105.957,0
1579966039.399,-843.262,-662.109,-483.887,534.180,-419.922,0
1579966039.403,511.719,-511.230,-658.691,-921.387,-733.887,0
1579966039.407,-713.379,-409.180,-657.715,-949.707,-711.426,0
1579966039.410,183.594,-536.621,-522.461,435.059,-528.320,0
1579966039.414,-773.926,-674.316,-492.188,904.297,-535.645,0
1579966039.418,600.098,-559.570,-625.488,-484.375,-726.562,0
1579966039.422,-880.371,-398.926,-654.297,-1000.000,-698.242,0
1579966039.426,-375.000,-488.281,-556.641,-9.766,-625.000,0
1579966039.430,-850.586,-661.621,-472.656,-865.723,-557.617,0
1579966039.434,692.871,-594.727,-555.176,-20.020,-623.535,0
1579966039.438,-707.520,-406.250,-604.980,-1000.000,-559.082,0
1579966039.442,-1000.000,-413.086,-499.023,-391.113,-375.488,0
1579966039.446,410.156,-613.281,-460.938,-920.898,-527.832,0
1579966039.450,563.965,-629.883,-452.148,446.777,-363.770,0
1579966039.453,-863.281,-443.359,-519.531,-1000.000,-333.008,0
1579966039.457,-1000.000,-402.344,-581.543,-781.738,-666.504,0
1579966039.461,-485.840,-572.266,-492.676,718.262,-655.273,0
1579966039.465,-11.719,-667.969,-491.699,595.703,-638.672,0
1579966039.469,-859.863,-500.488,-572.754,-858.887,-619.629,0
1579966039.473,-1000.000,-379.883,-589.355,-1000.000,-687.012,0
1579966039.477,-927.246,-502.441,-485.352,252.441,-634.277,0
1579966039.481,-978.027,-658.203,-459.961,778.809,-666.504,0
1579966039.485,-969.238,-522.461,-505.371,-562.012,-521.484,0
1579966039.489,-969.238,-332.031,-449.219,-1000.000,-220.215,0
1579966039.493,-969.238,-408.691,-419.434,-218.750,-427.246,0
1579966039.496,-969.238,-622.070,-437.012,-986.816,-713.867,0
1579966039.500,-969.238,-571.777,-493.164,-112.305,-661.621,0
1579966039.504,-969.238,-364.258,-513.184,-1000.000,-509.766,0
1579966039.508,-969.238,-368.652,-466.309,-609.863,-559.570,0
1579966039.512,-969.238,-563.965,-416.016,818.848,-676.270,0
1579966039.516,-969.238,-603.027,-455.566,217.285,-722.656,0
1579966039.520,-969.238,-416.992,-547.363,-1000.000,-764.160,0
1579966039.524,-969.238,-337.891,-486.816,-921.875,-639.648,0
1579966039.528,-969.238,-482.422,-376.953,436.035,-574.219,0
1579966039.532,-969.238,-599.609,-358.887,556.152,-530.762,0
1579966039.535,-969.238,-452.637,-448.242,-883.301,-554.688,0
1579966039.539,-969.238,-334.961,-510.742,-1000.000,-768.066,0
1579966039.543,-969.238,-417.969,-318.359,102.051,-340.332,0
1579966039.547,-969.238,-580.566,-250.488,775.391,-258.301,0
1579966039.551,-969.238,-511.719,-457.520,-604.004,-727.539,0
1579966039.555,-969.238,-350.098,-530.273,-1000.000,-801.758,0
1579966039.559,-969.238,-378.418,-409.668,-325.195,-579.102,0
1579966039.563,-969.238,-556.641,-311.035,932.129,-477.051,0
1579966039.567,-969.238,-551.758,-424.805,-119.629,-708.008,0
1579966039.571,-969.238,-371.094,-516.113,-1000.000,-768.066,0
1579966039.575,-969.238,-349.121,-458.984,-779.297,-709.473,0
1579966039.578,-969.238,-493.652,-311.523,586.426,-426.758,0
1579966039.582,-969.238,-551.270,-264.160,405.273,-199.219,0
1579966039.586,-969.238,-408.691,-436.523,-1000.000,-551.758,0
1579966039.590,-969.238,-330.078,-491.211,-1000.000,-755.371,0
1579966039.594,-969.238,-462.891,-390.625,252.930,-661.133,0
1579966039.598,-969.238,-586.426,-363.281,487.793,-589.355,0
1579966039.602,-969.238,-458.008,-463.379,-837.891,-634.766,0
1579966039.606,-969.238,-336.426,-513.184,-1000.000,-748.047,0
1579966039.610,-969.238,-420.898,-416.016,-76.660,-655.762,0
1579966039.614,-969.238,-597.168,-372.559,786.133,-660.156,0
1579966039.618,-969.238,-511.719,-429.688,-549.316,-594.727,0
1579966039.621,-969.238,-337.402,-483.887,-1000.000,-624.512,0
1579966039.625,-969.238,-373.535,-397.949,-333.496,-519.531,0
1579966039.629,-969.238,-566.406,-311.035,993.652,-454.590,0
1579966039.633,-969.238,-581.543,-432.617,43.457,-714.355,0
1579966039.637,-969.238,-364.746,-437.012,-1000.000,-399.414,0
1579966039.641,-969.238,-320.312,-354.004,-771.484,-245.605,0
1579966039.645,-969.238,-525.391,-366.699,655.762,-611.328,0
1579966039.649,-969.238,-615.234,-421.387,371.094,-716.309,0
1579966039.653,-969.238,-440.430,-510.254,-1000.000,-682.617,0
1579966039.657,-969.238,-332.031,-473.633,-1000.000,-561.523,0
1579966039.660,-969.238,-470.703,-394.043,273.438,-590.332,0
1579966039.664,-969.238,-627.930,-395.996,722.168,-657.715,0
1579966039.668,-969.238,-509.277,-512.207,-717.285,-723.633,0
1579966039.672,-969.238,-335.938,-494.629,-1000.000,-485.352,0
1579966039.676,-969.238,-406.738,-314.941,34.668,-85.938,0
1579966039.680,-969.238,-633.301,-345.703,-924.316,-398.438,0
1579966039.684,-972.168,-598.145,-529.297,-143.555,-714.355,0
1579966039.688,-938.477,-408.691,-614.746,-1000.000,-706.543,0
1579966039.692,-1000.000,-427.734,-521.973,-310.547,-529.785,0
1579966039.696,-662.598,-630.859,-434.570,-879.395,-474.121,0
1579966039.700,-431.152,-668.457,-533.691,304.688,-649.902,0
1579966039.703,-934.570,-479.980,-639.160,-1000.000,-669.922,0
1579966039.707,-1000.000,-434.570,-608.887,-603.027,-621.582,0
1579966039.711,-76.660,-601.562,-487.305,869.141,-461.426,0
1579966039.715,-757.812,-690.918,-488.770,749.023,-458.008,0
1579966039.719,278.320,-536.133,-598.145,-741.699,-495.117,0
1579966039.723,-951.172,-415.527,-587.891,-864.258,-376.465,0
1579966039.727,280.273,-567.383,-537.109,520.508,-512.207,0
1579966039.731,-860.352,-693.848,-452.148,-901.855,-283.203,0
1579966039.735,954.590,-575.195,-507.324,-168.457,-181.152,0
1579966039.739,653.320,-439.941,-665.039,-1000.000,-584.961,0
1579966039.742,774.902,-527.344,-610.352,54.199,-623.535,0
1579966039.746,-946.289,-705.566,-530.762,-761.719,-551.270,0
1579966039.750,980.469,-657.227,-589.844,205.078,-516.602,0
1579966039.754,-999.023,-464.844,-696.777,-1000.000,-617.676,0
1579966039.758,999.512,-476.562,-645.996,-211.914,-598.145,0
1579966039.762,999.512,-671.875,-559.570,-853.027,-580.566,0
1579966039.766,999.512,-701.172,-558.594,713.379,-420.410,0
1579966039.770,999.512,-507.324,-577.637,-755.859,-139.160,0
1579966039.774,999.512,-448.242,-624.512,-523.438,-365.234,0
1579966039.778,999.512,-638.184,-601.562,971.191,-574.219,0
1579966039.782,999.512,-750.488,-616.699,982.910,-605.469,0
1579966039.785,999.512,-604.004,-711.426,-437.988,-573.242,0
1579966039.789,999.512,-453.613,-709.961,-788.086,-427.246,0
1579966039.793,999.512,-591.797,-621.582,638.672,-421.387,0
1579966039.797,999.512,-762.207,-611.816,-779.785,-534.668,0
1579966039.801,999.512,-688.477,-731.934,64.453,-632.324,0
1579966039.805,999.512,-499.023,-770.996,-978.516,-507.812,0
1579966039.809,999.512,-569.336,-683.105,241.699,-444.336,0
1579966039.813,999.512,-750.488,-596.680,-771.484,-333.984,0
1579966039.817,999.512,-735.840,-667.480,514.160,-375.000,0
1579966039.821,999.512,-570.312,-828.125,-895.996,-639.160,0
1579966039.825,999.512,-538.086,-689.453,-64.941,-225.586,0
1579966039.828,999.512,-716.309,-554.199,-832.520,-61.523,0
1579966039.832,999.512,-795.898,-706.055,881.348,-522.461,0
1579966039.836,999.512,-638.184,-839.844,-516.113,-643.066,0
1579966039.840,999.512,-538.086,-810.059,-360.840,-511.719,0
1579966039.844,999.512,-693.359,-679.688,-985.352,-391.113,0
1579966039.848,999.512,-798.340,-670.898,-826.660,-408.691,0
1579966039.852,999.512,-681.152,-770.996,5.371,-452.148,0
1579966039.856,999.512,-535.645,-836.914,-659.668,-562.500,0
1579966039.860,999.512,-622.559,-690.430,721.191,-317.383,0
1579966039.864,999.512,-746.094,-550.781,-759.766,19.043,0
1579966039.867,999.512,-699.219,-710.938,199.219,-330.078,0
1579966039.871,999.512,-535.156,-858.887,-946.777,-599.121,0
1579966039.875,999.512,-588.379,-778.320,226.074,-540.039,0
1579966039.879,999.512,-761.230,-666.016,-792.969,-402.344,0
1579966039.883,999.512,-758.301,-719.727,645.508,-435.059,0
1579966039.887,999.512,-590.332,-845.703,-768.066,-584.961,0
1579966039.891,999.512,-550.293,-799.805,-175.781,-524.414,0
1579966039.895,999.512,-728.027,-688.965,-860.352,-481.445,0
1579966039.899,999.512,-780.273,-685.547,950.684,-427.734,0
1579966039.903,999.512,-623.535,-785.156,-433.594,-484.863,0
1579966039.907,999.512,-498.047,-761.719,-472.168,-367.676,0
1579966039.910,999.512,-632.812,-611.328,954.102,-184.082,0
1579966039.914,999.512,-765.137,-626.953,-864.258,-350.098,0
1579966039.918,999.512,-648.438,-674.316,55.664,-230.469,0
1579966039.922,999.512,-469.238,-679.688,-825.684,-119.629,0
1579966039.926,999.512,-573.730,-663.574,442.383,-383.301,0
1579966039.930,999.512,-753.906,-634.277,-744.629,-491.699,0
1579966039.934,999.512,-686.035,-716.309,206.055,-537.109,0
1579966039.938,999.512,-478.516,-761.230,-1000.000,-459.961,0
1579966039.942,999.512,-505.371,-697.754,-92.773,-489.746,0
1579966039.946,999.512,-695.801,-609.863,-767.090,-479.980,0
1579966039.949,999.512,-706.055,-670.410,481.934,-554.688,0
1579966039.953,999.512,-494.629,-710.938,-1000.000,-394.043,0
1579966039.957,999.512,-424.805,-567.383,-269.043,-27.344,0
1579966039.961,999.512,-632.324,-525.391,-858.398,-296.387,0
1579966039.965,999.512,-708.984,-593.750,763.672,-495.117,0
1579966039.969,999.512,-541.504,-683.594,-635.742,-493.164,0
1579966039.973,999.512,-409.668,-684.570,-797.852,-471.191,0
1579966039.977,997.070,-546.875,-571.289,678.223,-408.691,0
1579966039.981,999.512,-705.078,-570.801,-997.559,-533.203,0
1579966039.985,-991.699,-583.008,-675.781,-380.371,-594.238,0
1579966039.989,912.109,-408.203,-714.844,-1000.000,-596.680,0
1579966039.992,929.199,-488.281,-586.914,55.664,-440.918,0
1579966039.996,969.727,-679.199,-514.648,-784.668,-432.129,0
1579966040.000,-850.586,-627.930,-580.566,204.590,-434.082,0
1579966040.004,10.254,-424.805,-623.535,-1000.000,-350.098,0
1579966040.008,-332.031,-445.312,-606.934,-343.750,-490.723,0
1579966040.012,968.262,-608.887,-450.684,-842.285,-204.590,0
1579966040.016,-828.613,-623.535,-461.914,407.715,-145.020,0
1579966040.020,102.539,-474.121,-667.969,-1000.000,-594.238,0
1579966040.024,-1000.000,-409.668,-630.371,-659.668,-514.648,0
1579966040.028,170.898,-571.777,-505.371,834.473,-382.324,0
1579966040.032,-762.695,-669.434,-511.719,740.723,-427.734,0
1579966040.035,191.406,-527.344,-643.555,-681.152,-613.770,0
1579966040.039,-1000.000,-395.508,-661.621,-1000.000,-608.398,0
1579966040.043,-395.020,-509.766,-558.105,83.984,-510.742,0
1579966040.047,-906.738,-665.527,-470.215,-835.449,-361.328,0
1579966040.051,156.738,-561.035,-475.586,15.625,-151.367,0
1579966040.055,-1000.000,-401.855,-593.750,-1000.000,-416.016,0
1579966040.059,-951.660,-468.750,-576.660,-147.949,-584.961,0
1579966040.063,414.062,-659.668,-508.789,-804.688,-572.266,0
1579966040.067,432.617,-623.535,-561.035,204.590,-543.457,0
1579966040.071,-961.426,-432.617,-630.859,-1000.000,-534.668,0
1579966040.074,-1000.000,-429.688,-600.098,-439.941,-595.703,0
1579966040.078,-177.734,-616.211,-499.512,-956.543,-534.668,0
1579966040.082,366.211,-661.621,-512.695,477.539,-495.605,0
1579966040.086,-816.406,-479.980,-598.633,-993.652,-493.652,0
1579966040.090,-1000.000,-394.043,-598.633,-800.781,-532.227,0
1579966040.094,-724.609,-549.805,-468.262,723.633,-371.094,0
1579966040.098,-255.859,-680.664,-449.219,770.996,-367.188,0
1579966040.102,-763.184,-547.363,-615.723,-780.273,-677.734,0
1579966040.106,-1000.000,-367.188,-548.340,-960.449,-326.172,0
1579966040.110,-935.547,-475.586,-402.344,398.438,-149.414,0
1579966040.114,-902.832,-685.059,-465.332,-934.570,-570.312,0
1579966040.117,-935.547,-594.727,-580.078,-184.570,-679.199,0
1579966040.121,-981.934,-394.043,-616.699,-1000.000,-614.258,0
1579966040.125,-963.867,-426.758,-505.371,-165.527,-456.055,0
1579966040.129,-970.703,-634.766,-449.707,-830.566,-555.176,0
1579966040.133,-969.238,-621.582,-518.555,165.527,-613.770,0
1579966040.137,-969.238,-417.480,-593.750,-1000.000,-603.516,0
1579966040.141,-969.238,-373.047,-499.512,-486.328,-420.898,0
1579966040.145,-969.238,-532.715,-313.965,-953.613,-79.102,0
1579966040.149,-969.238,-619.141,-406.738,395.508,-397.461,0
1579966040.153,-969.238,-461.426,-586.914,-1000.000,-734.375,0
1579966040.157,-969.238,-355.469,-567.871,-990.234,-686.523,0
1579966040.160,-969.238,-482.422,-427.246,369.141,-500.977,0
1579966040.164,-969.238,-626.465,-403.809,717.285,-521.973,0
1579966040.168,-969.238,-503.418,-535.156,-698.730,-711.426,0
1579966040.172,-969.238,-352.051,-557.129,-1000.000,-699.707,0
1579966040.176,-969.238,-421.875,-458.984,-176.758,-604.492,0
1579966040.180,-969.238,-593.262,-379.395,930.176,-521.484,0
1579966040.184,-969.238,-539.551,-458.496,-225.098,-595.703,0
1579966040.188,-969.238,-347.656,-502.930,-1000.000,-552.246,0
1579966040.192,-969.238,-363.770,-412.109,-453.125,-453.125,0
1579966040.196,-969.238,-562.988,-384.277,907.227,-610.840,0
1579966040.199,-969.238,-554.688,-357.422,162.598,-318.359,0
1579966040.203,-969.238,-365.234,-413.086,-1000.000,-283.203,0
1579966040.207,-969.238,-337.402,-477.051,-854.980,-655.273,0
1579966040.211,-969.238,-505.859,-396.484,572.266,-637.695,0
1579966040.215,-969.238,-587.402,-404.785,334.473,-604.004,0
1579966040.219,-969.238,-414.551,-489.258,-1000.000,-577.148,0
1579966040.223,-969.238,-324.219,-502.930,-1000.000,-659.180,0
1579966040.227,-969.238,-448.730,-408.203,150.879,-598.145,0
1579966040.231,-969.238,-609.375,-395.508,720.215,-636.719,0
1579966040.235,-969.238,-481.934,-446.777,-658.691,-495.605,0
1579966040.239,-969.238,-299.316,-391.602,-1000.000,-185.547,0
1579966040.242,-969.238,-384.277,-366.699,-260.254,-385.254,0
1579966040.246,-969.238,-597.168,-387.695,895.996,-645.996,0
1579966040.250,-969.238,-558.105,-480.957,-214.844,-715.332,0
1579966040.254,-969.238,-360.840,-518.555,-1000.000,-608.398,0
1579966040.258,-969.238,-355.957,-421.875,-597.656,-450.684,0
1579966040.262,-969.238,-553.711,-377.441,799.316,-579.590,0
1579966040.266,-969.238,-594.727,-438.965,172.852,-672.852,0
1579966040.270,-969.238,-414.062,-538.086,-1000.000,-708.008,0
1579966040.274,-969.238,-347.168,-481.934,-879.395,-576.172,0
1579966040.278,-969.238,-500.977,-376.465,490.723,-510.742,0
1579966040.281,-969.238,-614.258,-372.070,541.992,-475.586,0
1579966040.285,-969.238,-462.891,-471.680,-898.438,-500.488,0
1579966040.289,-969.238,-351.562,-538.086,-1000.000,-715.332,0
1579966040.293,-969.238,-430.176,-350.098,119.141,-283.691,0
1579966040.297,-969.238,-589.355,-285.645,774.414,-196.777,0
1579966040.301,-969.238,-522.949,-492.188,-603.027,-674.805,0
1579966040.305,-969.238,-363.281,-558.594,-1000.000,-737.305,0
1579966040.309,-969.238,-407.227,-461.914,-305.176,-594.727,0
1579966040.313,-969.238,-582.520,-357.422,975.098,-417.969,0
1579966040.317,-969.238,-572.754,-454.590,-57.617,-567.383,0
1579966040.321,-969.238,-397.949,-570.801,-1000.000,-708.496,0
1579966040.324,-969.238,-382.812,-516.113,-647.461,-654.297,0
1579966040.328,-969.238,-548.828,-372.559,831.543,-401.367,0
1579966040.332,-969.238,-593.262,-327.148,392.090,-140.625,0
1579966040.336,-969.238,-438.477,-494.141,-1000.000,-460.449,0
1579966040.340,-969.238,-374.023,-554.199,-969.727,-695.801,0
1579966040.344,-969.238,-518.555,-450.195,408.203,-593.750,0
1579966040.348,-969.238,-644.531,-408.691,660.156,-472.168,0
1579966040.352,-969.238,-508.789,-517.578,-784.180,-552.734,0
1579966040.356,-969.238,-376.953,-573.242,-1000.000,-688.477,0
1579966040.360,-969.238,-471.680,-471.680,10.742,-593.262,0
1579966040.364,-969.238,-652.344,-434.570,906.250,-620.605,0
1579966040.367,-969.238,-563.477,-507.324,-397.461,-592.773,0
1579966040.371,-969.238,-373.047,-538.086,-1000.000,-511.230,0
1579966040.375,-969.238,-410.645,-438.477,-258.301,-389.160,0
1579966040.379,-969.238,-611.816,-372.559,-938.965,-412.598,0
1579966040.383,-969.238,-617.188,-507.812,26.855,-684.082,0
1579966040.387,-969.238,-395.996,-513.184,-1000.000,-373.535,0
1579966040.391,-969.238,-354.004,-417.480,-725.586,-187.988,0
1579966040.395,-969.238,-567.383,-433.594,722.656,-563.965,0
1579966040.399,-969.238,-649.902,-494.141,345.215,-678.223,0
1579966040.403,-969.238,-469.238,-583.008,-1000.000,-652.832,0
1579966040.406,-969.238,-363.281,-542.969,-1000.000,-521.484,0
1579966040.410,-969.238,-497.559,-458.984,165.527,-529.785,0
1579966040.414,-969.238,-658.203,-465.332,697.266,-619.629,0
1579966040.418,-969.238,-543.457,-578.613,-758.789,-690.918,0
1579966040.422,-969.238,-373.535,-553.223,-1000.000,-467.285,0
1579966040.426,-969.238,-452.148,-367.676,136.719,-81.543,0
1579966040.430,-969.238,-658.203,-364.746,-987.793,-290.527,0
1579966040.434,-969.727,-603.516,-541.504,-245.605,-629.883,0
1579966040.438,-963.867,-421.875,-633.789,-1000.000,-707.520,0
1579966040.442,-985.840,-439.453,-531.250,-293.945,-527.832,0
1579966040.446,-900.391,-633.301,-440.918,-979.980,-470.215,0
1579966040.449,-881.836,-643.066,-538.574,-2.441,-629.395,0
1579966040.453,-939.453,-456.543,-635.254,-1000.000,-667.969,0
1579966040.457,-1000.000,-419.434,-592.285,-702.637,-626.953,0
1579966040.461,-712.891,-587.402,-464.355,766.602,-472.656,0
1579966040.465,-231.934,-686.035,-487.305,519.531,-530.762,0
1579966040.469,-770.996,-511.230,-585.938,-970.703,-518.555,0
1579966040.473,-1000.000,-389.648,-564.941,-991.699,-425.293,0
1579966040.477,-617.676,-540.039,-520.020,273.438,-575.684,0
1579966040.481,618.164,-677.246,-421.875,-933.594,-294.434,0
1579966040.485,-15.137,-562.988,-485.352,-216.797,-227.539,0
1579966040.488,-1000.000,-416.016,-616.211,-1000.000,-529.785,0
1579966040.492,-617.188,-494.141,-555.664,-102.539,-542.969,0
1579966040.496,809.082,-683.105,-501.953,-823.730,-562.500,0
1579966040.500,821.289,-622.559,-561.035,107.422,-534.668,0
1579966040.504,-724.609,-441.406,-654.785,-1000.000,-623.535,0
1579966040.508,-786.133,-457.031,-599.609,-405.762,-582.031,0
1579966040.512,648.926,-645.020,-517.090,-908.691,-573.730,0
1579966040.516,-843.750,-659.668,-517.578,430.664,-441.895,0
1579966040.520,-182.617,-458.008,-528.320,-1000.000,-155.273,0
1579966040.524,-881.836,-415.039,-561.523,-819.336,-358.398,0
1579966040.528,481.445,-595.703,-540.039,616.211,-566.406,0
1579966040.531,-791.992,-701.172,-559.570,687.988,-636.719,0
1579966040.535,562.012,-540.527,-645.020,-795.898,-584.961,0
1579966040.539,-343.750,-417.480,-644.531,-1000.000,-512.207,0
1579966040.543,499.512,-549.805,-568.848,284.180,-555.664,0
1579966040.547,-884.766,-701.172,-512.695,-957.520,-493.164,0
1579966040.551,979.004,-603.027,-627.441,-268.066,-603.027,0
1579966040.555,727.539,-429.199,-674.316,-1000.000,-553.223,0
1579966040.559,780.762,-496.582,-570.801,-41.016,-437.012,0
1579966040.563,-953.125,-678.711,-492.188,-799.316,-388.184,0
1579966040.567,984.863,-648.438,-563.965,176.758,-410.156,0
1579966040.571,-1000.000,-473.633,-713.379,-1000.000,-670.898,0
1579966040.574,999.512,-449.707,-575.684,-241.699,-307.617,0
1579966040.578,999.512,-637.207,-438.477,-793.457,-149.414,0
1579966040.582,999.512,-693.359,-594.238,341.797,-588.867,0
1579966040.586,999.512,-508.301,-724.121,-1000.000,-689.941,0
1579966040.590,999.512,-432.129,-684.570,-676.758,-589.844,0
1579966040.594,999.512,-589.844,-548.340,812.500,-437.500,0
1579966040.598,999.512,-719.727,-570.801,828.125,-581.055,0
1579966040.602,999.512,-574.219,-691.895,-639.160,-651.855,0
1579966040.606,999.512,-416.992,-679.199,-1000.000,-505.371,0
1579966040.610,999.512,-525.879,-534.668,321.777,-307.129,0
1579966040.613,999.512,-680.176,-433.594,-890.625,-107.910,0
1579966040.617,999.512,-610.840,-593.750,-133.301,-421.387,0
1579966040.621,999.512,-449.707,-730.957,-1000.000,-687.012,0
1579966040.625,999.512,-497.559,-649.902,-151.367,-623.535,0
1579966040.629,999.512,-686.035,-542.969,-804.199,-508.301,0
1579966040.633,999.512,-665.039,-603.516,212.891,-530.762,0
1579966040.637,999.512,-482.422,-725.098,-1000.000,-677.734,0
1579966040.641,999.512,-452.637,-669.434,-533.203,-600.586,0
1579966040.645,999.512,-631.836,-569.336,983.398,-559.082,0
1579966040.649,999.512,-708.008,-576.172,627.441,-543.945,0
1579966040.653,999.512,-535.645,-678.711,-932.129,-581.055,0
1579966040.656,999.512,-426.270,-652.832,-749.512,-467.773,0
1579966040.660,999.512,-570.801,-508.301,733.398,-282.715,0
1579966040.664,999.512,-716.797,-542.480,894.043,-492.188,0
1579966040.668,999.512,-567.871,-604.980,-480.469,-342.285,0
1579966040.672,999.512,-400.391,-604.004,-1000.000,-221.191,0
1579966040.676,999.512,-532.715,-607.910,120.117,-559.082,0
1579966040.680,999.512,-726.562,-581.055,-850.098,-637.695,0
1579966040.684,999.512,-648.926,-661.133,-28.320,-630.859,0
1579966040.688,999.512,-451.172,-706.543,-1000.000,-545.410,0
1579966040.692,999.512,-488.770,-645.508,-217.285,-569.336,0
1579966040.696,999.512,-686.523,-569.824,-804.199,-587.402,0
1579966040.699,999.512,-687.012,-637.207,257.324,-644.531,0
1579966040.703,999.512,-472.168,-684.570,-1000.000,-466.797,0
1579966040.707,999.512,-432.129,-549.316,-361.816,-119.141,0
1579966040.711,999.512,-643.066,-505.859,-892.578,-348.145,0
1579966040.715,999.512,-731.934,-613.281,583.008,-674.316,0
1579966040.719,999.512,-552.246,-703.125,-885.254,-613.281,0
1579966040.723,999.512,-419.922,-653.320,-859.375,-405.762,0
1579966040.727,999.512,-569.336,-563.965,561.523,-460.449,0
1579966040.731,999.512,-724.121,-579.102,926.270,-643.555,0
1579966040.735,999.512,-595.703,-683.105,-440.918,-681.152,0
1579966040.738,999.512,-426.270,-716.797,-1000.000,-663.086,0
1579966040.742,999.512,-500.977,-588.867,7.324,-512.695,0
1579966040.746,970.215,-688.477,-519.043,-844.238,-522.461,0
1579966040.750,-905.762,-625.488,-584.961,24.902,-524.902,0
1579966040.754,553.223,-434.570,-631.836,-1000.000,-453.613,0
1579966040.758,399.902,-457.520,-611.328,-427.246,-590.332,0
1579966040.762,987.305,-615.234,-454.102,-925.781,-295.410,0
1579966040.766,-849.609,-624.512,-459.961,276.367,-206.055,0
1579966040.770,144.531,-472.168,-641.113,-1000.000,-600.586,0
1579966040.774,-1000.000,-423.340,-637.695,-899.414,-657.715,0
1579966040.778,218.262,-562.012,-503.418,470.703,-460.449,0
1579966040.781,-798.340,-651.367,-486.328,493.652,-444.336,0
1579966040.785,-11.230,-516.113,-633.301,-921.387,-691.406,0
1579966040.789,-1000.000,-403.320,-641.113,-1000.000,-690.918,0
1579966040.793,-882.812,-503.418,-529.297,22.461,-608.398,0
1579966040.797,-804.688,-643.066,-442.383,745.605,-437.988,0
1579966040.801,-956.543,-516.113,-443.848,-549.805,-201.660,0
1579966040.805,-981.445,-371.094,-533.203,-1000.000,-486.816,0
1579966040.809,-960.938,-425.293,-512.207,-465.332,-670.898,0
1579966040.813,-971.191,-567.871,-444.336,270.996,-625.488,0
1579966040.817,-969.238,-515.625,-478.516,-650.879,-580.078,0
1579966040.820,-969.238,-365.234,-525.391,-1000.000,-632.812,0
1579966040.824,-969.238,-365.234,-481.934,-864.258,-699.219,0
1579966040.828,-969.238,-475.098,-389.648,-187.988,-604.492,0
1579966040.832,-969.238,-493.652,-418.457,-452.637,-640.137,0
1579966040.836,-969.238,-356.445,-462.402,-1000.000,-620.605,0
1579966040.840,-969.238,-316.895,-426.758,-1000.000,-647.461,0
1579966040.844,-969.238,-398.438,-303.223,-479.004,-464.355,0
1579966040.848,-969.238,-443.848,-282.715,-429.199,-421.387,0
1579966040.852,-969.238,-362.793,-432.617,-1000.000,-775.391,0
1579966040.856,-969.238,-274.414,-349.609,-979.492,-488.281,0
1579966040.860,-969.238,-302.734,-204.102,-904.785,-236.328,0
1579966040.863,-969.238,-382.812,-271.973,-872.559,-575.684,0
1579966040.867,-969.238,-349.609,-372.070,-972.168,-762.207,0
1579966040.871,-969.238,-284.180,-388.672,-972.168,-799.316,0
1579966040.875,-969.238,-291.016,-271.973,-965.332,-612.305,0
1579966040.879,-969.238,-348.633,-217.285,-969.727,-581.055,0
1579966040.883,-969.238,-334.961,-281.250,-968.750,-697.754,0
1579966040.887,-969.238,-270.996,-348.633,-969.727,-858.887,0
1579966040.891,-969.238,-246.094,-236.328,-969.238,-603.027,0
1579966040.895,-969.238,-270.020,-45.898,-959.473,-115.723,0
1579966040.899,-969.238,-300.781,-129.883,-965.332,-422.852,0
1579966040.903,-969.238,-264.160,-293.945,-970.703,-873.047,0
1579966040.906,-969.238,-236.328,-278.809,-968.262,-881.348,0
1579966040.910,-969.238,-270.996,-145.020,-969.238,-602.051,0
1579966040.914,-969.238,-295.410,-117.188,-969.238,-530.273,0
1579966040.918,-969.238,-260.254,-236.328,-969.238,-820.801,0
1579966040.922,-969.238,-212.891,-248.535,-969.238,-889.160,0
1579966040.926,-969.238,-239.746,-146.973,-969.238,-753.418,0
1579966040.930,-969.238,-273.438,-72.754,-969.238,-556.152,0
1579966040.934,-969.238,-243.164,-145.996,-969.238,-670.410,0
1579966040.938,-969.238,-178.223,-173.828,-969.238,-719.238,0
1579966040.942,-969.238,-186.523,-81.543,-969.238,-598.145,0
1579966040.945,-969.238,-258.301,-66.895,-969.238,-704.102,0
1579966040.949,-969.238,-220.215,-37.109,-969.238,-424.316,0
1579966040.953,-969.238,-146.484,-59.082,-969.238,-398.926,0
1579966040.957,-969.238,-169.434,-113.770,-969.238,-794.922,0
1579966040.961,-969.238,-228.027,-57.129,-969.238,-745.117,0
1579966040.965,-969.238,-237.793,-65.430,-969.238,-676.270,0
1579966040.969,-969.238,-175.781,-123.047,-969.238,-733.398,0
1579966040.973,-969.238,-153.320,-130.859,-969.238,-868.164,0
1579966040.977,-969.238,-197.266,-38.086,-969.238,-733.398,0
1579966040.981,-969.238,-224.609,-4.883,-969.238,-612.305,0
1579966040.985,-969.238,-167.969,-54.199,-969.238,-616.211,0
1579966040.988,-969.238,-97.656,-0.488,-969.238,-412.109,0
1579966040.992,-969.238,-147.949,30.762,-969.238,-545.410,0
1579966040.996,-969.238,-220.215,-0.488,-969.238,-720.703,0
1579966041.000,-969.238,-196.289,-78.125,-969.238,-811.523,0
1579966041.004,-969.238,-129.883,-114.258,-969.238,-852.539,0
1579966041.008,-969.238,-124.512,-10.742,-969.238,-649.414,0
1579966041.012,-969.238,-183.594,59.082,-969.238,-536.133,0
1579966041.016,-969.238,-194.824,-23.438,-969.238,-714.844,0
1579966041.020,-969.238,-139.648,-120.117,-969.238,-920.898,0
1579966041.024,-969.238,-116.211,-56.641,-969.238,-791.016,0
1579966041.027,-969.238,-170.898,36.621,-969.238,-626.465,0
1579966041.031,-969.238,-188.965,37.598,-969.238,-536.133,0
1579966041.035,-969.238,-137.207,-43.945,-969.238,-659.668,0
1579966041.039,-969.238,-126.953,-106.934,-969.238,-946.777,0
1579966041.043,-969.238,-143.555,66.406,-969.238,-447.266,0
1579966041.047,-969.238,-175.781,129.395,-969.238,-226.562,0
1579966041.051,-969.238,-176.758,-67.383,-969.238,-787.109,0
1579966041.055,-969.238,-134.766,-132.812,-969.238,-945.801,0
1579966041.059,-969.238,-156.250,-38.574,-969.238,-755.859,0
1579966041.063,-969.238,-205.078,32.227,-969.238,-556.641,0
1579966041.067,-969.238,-189.941,-39.062,-969.238,-642.578,0
1579966041.070,-969.238,-137.207,-114.746,-969.238,-797.363,0
1579966041.074,-969.238,-155.273,-85.938,-969.238,-840.820,0
1579966041.078,-969.238,-197.266,37.598,-969.238,-484.863,0
1579966041.082,-969.238,-176.758,80.078,-969.238,-176.758,0
1579966041.086,-969.238,-145.996,-73.242,-969.238,-605.957,0
1579966041.090,-969.238,-156.250,-130.859,-969.238,-882.812,0
1579966041.094,-969.238,-212.891,-45.410,-969.238,-716.309,0
1579966041.098,-969.238,-232.422,-29.785,-969.238,-576.660,0
1579966041.102,-969.238,-185.547,-123.047,-969.238,-691.895,0
1579966041.106,-969.238,-161.133,-165.527,-969.238,-857.422,0
1579966041.110,-969.238,-203.613,-75.684,-969.238,-712.402,0
1579966041.113,-969.238,-252.930,-54.199,-969.238,-636.719,0
1579966041.117,-969.238,-219.727,-120.605,-969.238,-660.156,0
1579966041.121,-969.238,-172.363,-167.480,-969.238,-749.023,0
1579966041.125,-969.238,-192.383,-86.426,-969.238,-583.496,0
1579966041.129,-969.238,-239.746,5.859,-969.238,-323.242,0
1579966041.133,-969.238,-244.629,-95.215,-969.238,-536.621,0
1579966041.137,-969.238,-176.270,-128.418,-969.238,-475.098,0
1579966041.141,-969.238,-173.828,-62.500,-969.238,-359.375,0
1579966041.145,-969.238,-268.555,-81.055,-969.238,-604.492,0
1579966041.149,-969.238,-289.062,-148.926,-969.238,-692.383,0
1579966041.152,-969.238,-231.934,-231.934,-969.238,-784.180,0
1579966041.156,-969.238,-206.543,-194.824,-969.238,-700.684,0
1579966041.160,-969.238,-269.531,-125.000,-969.238,-618.652,0
1579966041.164,-969.238,-310.059,-139.648,-969.238,-609.375,0
1579966041.168,-969.238,-268.555,-243.164,-969.238,-773.438,0
1579966041.172,-969.238,-212.402,-219.238,-969.238,-637.695,0
1579966041.176,-969.238,-224.121,-41.504,-969.238,-158.203,0
1579966041.180,-969.238,-298.340,-71.289,-969.238,-344.238,0
1579966041.184,-969.238,-290.039,-216.797,-969.238,-660.156,0
1579966041.188,-969.238,-233.887,-261.719,-969.238,-707.520,0
1579966041.192,-969.238,-249.023,-180.176,-969.238,-560.547,0
1579966041.195,-969.238,-313.477,-123.535,-969.238,-463.867,0
1579966041.199,-969.238,-323.242,-226.074,-969.238,-675.293,0
1579966041.203,-969.238,-267.090,-310.547,-969.238,-810.059,0
1579966041.207,-969.238,-264.648,-270.996,-969.238,-779.785,0
1579966041.211,-969.238,-315.918,-159.180,-969.238,-524.414,0
1579966041.215,-969.238,-332.520,-184.570,-969.238,-519.043,0
1579966041.219,-969.238,-272.461,-263.184,-969.238,-614.258,0
1579966041.223,-969.238,-243.652,-238.281,-969.238,-594.727,0
1579966041.227,-969.238,-316.895,-207.031,-969.238,-661.621,0
1579966041.231,-969.238,-327.148,-124.512,-969.238,-278.320,0
1579966041.235,-969.238,-274.902,-173.828,-969.238,-284.668,0
1579966041.238,-969.238,-269.531,-308.105,-969.238,-778.320,0
1579966041.242,-969.238,-301.270,-224.121,-969.238,-617.676,0
1579966041.246,-969.238,-350.586,-172.363,-969.238,-475.098,0
1579966041.250,-969.238,-326.660,-252.441,-969.238,-571.777,0
1579966041.254,-969.238,-278.809,-331.055,-969.238,-774.414,0
1579966041.258,-969.238,-295.898,-277.344,-969.238,-723.145,0
1579966041.262,-969.238,-354.980,-209.473,-969.238,-578.125,0
1579966041.266,-969.238,-338.867,-214.844,-969.238,-436.035,0
1579966041.270,-969.238,-254.395,-211.426,-969.238,-270.020,0
1579966041.274,-969.238,-269.531,-238.281,-969.238,-515.625,0
1579966041.277,-969.238,-350.098,-227.051,-969.238,-623.047,0
1579966041.281,-969.238,-371.582,-252.441,-969.238,-611.328,0
1579966041.285,-969.238,-315.918,-325.684,-969.238,-664.551,0
1579966041.289,-969.238,-282.227,-316.406,-969.238,-665.039,0
1579966041.293,-969.238,-339.844,-254.395,-969.238,-646.484,0
1579966041.297,-969.238,-381.836,-240.234,-969.727,-558.105,0
1579966041.301,-969.238,-335.938,-309.570,-966.797,-598.145,0
1579966041.305,-969.238,-285.645,-326.660,-973.145,-636.230,0
1579966041.309,-969.238,-321.289,-265.625,-962.402,-594.727,0
1579966041.313,-969.238,-369.141,-195.312,-936.523,-385.254,0
1579966041.317,-969.238,-352.051,-256.836,-958.008,-437.988,0
1579966041.320,-969.238,-314.941,-389.160,-984.863,-815.430,0
1579966041.324,-969.238,-296.875,-256.348,-941.406,-415.527,0
1579966041.328,-969.238,-354.980,-133.301,-876.465,-128.418,0
1579966041.332,-969.238,-395.508,-285.645,-957.031,-583.984,0
1579966041.336,-969.238,-338.867,-400.879,-976.074,-790.039,0
1579966041.340,-969.238,-317.383,-359.375,-974.121,-712.402,0
1579966041.344,-969.238,-368.652,-244.629,-899.414,-478.027,0
1579966041.348,-969.238,-406.738,-274.902,-910.645,-540.039,0
1579966041.352,-969.238,-360.352,-385.742,-959.961,-719.238,0
1579966041.356,-969.238,-323.242,-399.414,-1000.000,-772.949,0
1579966041.359,-969.238,-360.352,-258.789,-749.512,-442.383,0
1579966041.363,-969.238,-414.551,-185.547,-604.980,-209.961,0
1579966041.367,-969.238,-389.648,-337.402,-969.238,-567.383,0
1579966041.371,-969.238,-335.938,-416.992,-1000.000,-757.324,0
1579966041.375,-969.238,-363.281,-349.121,-913.086,-687.500,0
1579966041.379,-969.238,-423.340,-241.211,-686.035,-376.953,0
1579966041.383,-969.238,-397.461,-249.512,-860.352,-224.609,0
1579966041.387,-969.238,-347.168,-400.391,-1000.000,-654.297,0
1579966041.391,-969.238,-357.422,-391.602,-958.008,-710.449,0
1579966041.395,-969.238,-432.617,-312.012,-785.645,-547.852,0
1579966041.399,-969.238,-443.359,-325.684,-846.191,-467.773,0
1579966041.402,-969.238,-368.652,-401.367,-976.074,-551.270,0
1579966041.406,-969.238,-336.914,-383.789,-1000.000,-539.062,0
1579966041.410,-969.238,-421.387,-280.762,-520.508,-380.371,0
1579966041.414,-969.238,-496.582,-319.336,-433.105,-485.840,0
1579966041.418,-969.238,-385.742,-348.145,-986.328,-277.344,0
1579966041.422,-969.238,-324.219,-352.051,-1000.000,-300.293,0
1579966041.426,-969.238,-417.969,-374.512,-640.137,-607.422,0
1579966041.430,-969.238,-519.043,-368.652,-365.723,-601.074,0
1579966041.434,-969.238,-464.844,-442.383,-914.062,-624.023,0
1579966041.438,-969.238,-368.652,-474.609,-1000.000,-624.023,0
1579966041.442,-969.238,-398.438,-426.758,-778.320,-615.234,0
1579966041.445,-969.238,-524.902,-374.023,-133.789,-569.824,0
1579966041.449,-969.238,-527.832,-442.871,-583.984,-639.160,0
1579966041.453,-969.238,-391.602,-477.539,-1000.000,-521.973,0
1579966041.457,-969.238,-350.586,-343.262,-881.348,-143.555,0
1579966041.461,-969.238,-503.418,-317.871,-10.254,-323.242,0
1579966041.465,-969.238,-579.590,-431.641,-210.449,-633.301,0
1579966041.469,-969.238,-453.125,-540.039,-1000.000,-722.656,0
1579966041.473,-969.238,-378.906,-497.070,-1000.000,-585.938,0
1579966041.477,-969.238,-474.121,-375.977,-156.738,-407.227,0
1579966041.481,-969.238,-596.680,-413.574,70.801,-576.660,0
1579966041.484,-969.238,-496.582,-528.809,-949.219,-674.316,0
1579966041.488,-969.238,-395.020,-555.176,-1000.000,-701.660,0
1579966041.492,-969.238,-444.824,-436.035,-437.500,-499.023,0
1579966041.496,-969.238,-589.355,-389.648,321.777,-477.051,0
1579966041.500,-969.238,-539.062,-461.426,-594.727,-478.516,0
1579966041.504,-969.238,-395.508,-514.160,-1000.000,-489.258,0
1579966041.508,-969.238,-422.852,-509.277,-738.770,-648.926,0
1579966041.512,-969.238,-554.199,-349.121,568.359,-259.277,0
1579966041.516,-969.238,-578.125,-360.352,109.375,-192.871,0
1579966041.520,-969.238,-444.824,-559.570,-1000.000,-666.992,0
1579966041.524,-969.238,-397.949,-545.898,-984.863,-676.758,0
1579966041.527,-969.238,-532.227,-439.941,215.820,-539.062,0
1579966041.531,-969.238,-604.004,-420.898,201.660,-416.016,0
1579966041.535,-969.238,-467.285,-537.109,-1000.000,-556.152,0
1579966041.539,-969.238,-388.672,-566.895,-1000.000,-673.340,0
1579966041.543,-969.238,-485.352,-470.703,-132.324,-578.613,0
1579966041.547,-969.238,-616.211,-399.414,541.504,-396.484,0
1579966041.551,-969.238,-499.512,-406.738,-694.336,-139.160,0
1579966041.555,-969.238,-382.324,-506.836,-1000.000,-423.340,0
1579966041.559,-969.238,-456.543,-500.488,-437.012,-619.629,0
1579966041.563,-969.238,-611.328,-448.242,472.168,-592.285,0
1579966041.566,-969.238,-568.359,-501.953,-444.336,-542.969,0
1579966041.570,-969.238,-409.668,-562.988,-1000.000,-554.199,0
1579966041.574,-969.238,-416.016,-531.738,-738.281,-621.582,0
1579966041.578,-969.238,-574.219,-449.219,431.152,-562.988,0
1579966041.582,-969.238,-612.305,-500.000,-20.508,-616.211,0
1579966041.586,-969.238,-444.336,-568.848,-1000.000,-578.613,0
1579966041.590,-969.238,-382.812,-514.648,-993.164,-471.191,0
1579966041.594,-969.238,-523.926,-403.320,334.961,-359.863,0
1579966041.598,-969.238,-637.207,-400.879,418.945,-357.910,0
1579966041.602,-969.238,-507.812,-567.871,-966.309,-623.047,0
1579966041.606,-969.238,-369.629,-520.996,-1000.000,-361.816,0
1579966041.609,-969.238,-444.824,-369.629,-120.117,-95.703,0
1579966041.613,-969.238,-627.930,-429.199,541.016,-479.004,0
1579966041.617,-969.238,-555.176,-566.406,-723.145,-665.527,0
1579966041.621,-969.238,-405.762,-613.281,-1000.000,-660.645,0
1579966041.625,-969.238,-438.477,-500.977,-518.555,-472.168,0
1579966041.629,-969.238,-608.887,-456.055,405.762,-512.695,0
1579966041.633,-969.238,-599.121,-546.387,-286.621,-625.000,0
1579966041.637,-969.238,-438.965,-623.535,-1000.000,-685.059,0
1579966041.641,-969.238,-411.133,-517.090,-642.578,-434.570,0
1579966041.645,-969.238,-561.523,-335.449,682.617,-43.457,0
1579966041.649,-969.238,-622.559,-416.992,24.414,-266.113,0
1579966041.652,-969.238,-477.051,-607.422,-1000.000,-635.742,0
1579966041.656,-969.238,-415.039,-615.234,-1000.000,-675.293,0
1579966041.660,-969.238,-540.039,-487.305,245.117,-471.680,0
1579966041.664,-970.703,-664.551,-472.656,472.656,-473.145,0
1579966041.668,-962.402,-540.039,-613.770,-926.758,-655.762,0
1579966041.672,-965.332,-414.551,-637.207,-1000.000,-656.250,0
1579966041.676,-1000.000,-503.906,-541.992,-122.070,-575.195,0
1579966041.680,-615.723,-676.758,-473.145,871.582,-488.770,0
1579966041.684,-635.254,-608.887,-567.383,-391.113,-551.758,0
1579966041.688,-981.445,-426.758,-620.605,-1000.000,-512.207,0
1579966041.691,-1000.000,-456.055,-513.672,-367.188,-340.820,0
1579966041.695,153.809,-661.621,-495.605,998.535,-553.223,0
1579966041.699,557.617,-637.695,-502.930,144.043,-343.750,0
1579966041.703,-937.988,-443.359,-551.270,-1000.000,-212.402,0
1579966041.707,-997.559,-438.477,-578.125,-677.734,-444.824,0
1579966041.711,213.379,-620.605,-513.184,794.434,-496.582,0
1579966041.715,-755.859,-692.383,-565.918,408.203,-606.445,0
1579966041.719,192.871,-519.043,-653.809,-1000.000,-546.387,0
1579966041.723,-875.488,-439.941,-661.133,-1000.000,-573.242,0
1579966041.727,378.418,-570.312,-567.383,217.285,-536.133,0
1579966041.731,-832.520,-713.867,-556.641,815.918,-606.934,0
1579966041.734,866.211,-576.172,-619.629,-578.125,-477.539,0
1579966041.738,135.254,-406.250,-565.918,-1000.000,-114.746,0
1579966041.742,538.086,-512.695,-527.344,-75.195,-286.133,0
1579966041.746,-891.113,-711.914,-555.176,-943.848,-594.238,0
1579966041.750,963.379,-656.250,-656.250,-90.820,-671.387,0
1579966041.754,959.961,-459.961,-697.754,-1000.000,-552.246,0
1579966041.758,968.750,-484.863,-617.188,-338.379,-470.703,0
1579966041.762,-992.676,-674.316,-544.922,-887.207,-507.324,0
1579966041.766,996.582,-682.617,-585.938,296.875,-479.980,0
1579966041.770,-1000.000,-503.906,-716.797,-1000.000,-625.000,0
1579966041.774,999.512,-451.172,-660.645,-588.867,-518.066,0
1579966041.777,999.512,-626.465,-547.363,916.992,-458.984,0
1579966041.781,999.512,-701.660,-551.758,537.598,-427.734,0
1579966041.785,999.512,-531.250,-639.648,-929.199,-393.555,0
1579966041.789,999.512,-437.988,-704.102,-976.562,-614.746,0
1579966041.793,999.512,-546.387,-532.227,398.926,-261.719,0
1579966041.797,999.512,-690.918,-463.867,928.711,-142.578,0
1579966041.801,999.512,-609.375,-674.805,-455.078,-607.422,0
1579966041.805,999.512,-448.242,-742.188,-1000.000,-663.574,0
1579966041.809,999.512,-518.066,-632.812,-49.805,-543.945,0
1579966041.813,999.512,-703.613,-538.086,-848.633,-457.031,0
1579966041.816,999.512,-667.480,-645.020,28.320,-619.141,0
1579966041.820,999.512,-464.355,-714.355,-1000.000,-557.129,0
1579966041.824,999.512,-467.773,-623.047,-351.074,-424.316,0
1579966041.828,999.512,-653.320,-516.113,-886.230,-359.375,0
1579966041.832,999.512,-673.828,-491.211,479.004,-131.836,0
1579966041.836,999.512,-514.648,-649.902,-1000.000,-409.180,0
1579966041.840,999.512,-450.684,-698.730,-778.320,-634.277,0
1579966041.844,999.512,-611.816,-595.215,718.262,-587.402,0
1579966041.848,999.512,-717.773,-574.707,749.023,-533.691,0
1579966041.852,999.512,-560.547,-670.898,-720.215,-549.316,0
1579966041.856,999.512,-429.199,-709.473,-1000.000,-633.789,0
1579966041.859,999.512,-539.551,-604.004,229.004,-551.758,0
1579966041.863,999.512,-709.961,-570.312,993.652,-593.750,0
1579966041.867,999.512,-603.516,-642.578,-323.730,-563.477,0
1579966041.871,999.512,-424.316,-687.500,-1000.000,-534.180,0
1579966041.875,999.512,-490.723,-590.820,-74.707,-442.871,0
1579966041.879,999.512,-674.805,-480.469,-815.430,-303.711,0
1579966041.883,999.512,-653.809,-594.727,118.652,-506.348,0
1579966041.887,999.512,-444.824,-634.766,-1000.000,-332.520,0
1579966041.891,999.512,-420.898,-541.016,-502.441,-154.785,0
1579966041.895,999.512,-640.137,-551.758,-994.141,-535.156,0
1579966041.898,999.512,-685.547,-622.070,328.125,-646.973,0
1579966041.902,999.512,-500.977,-713.867,-1000.000,-625.488,0
1579966041.906,999.512,-424.805,-668.457,-840.332,-506.348,0
1579966041.910,999.512,-588.379,-576.660,570.312,-522.949,0
1579966041.914,999.512,-721.680,-582.031,749.512,-610.352,0
1579966041.918,999.512,-575.684,-691.895,-747.070,-663.086,0
1579966041.922,999.512,-416.504,-663.086,-1000.000,-445.312,0
1579966041.926,999.512,-507.324,-467.773,320.801,-63.965,0
1579966041.930,999.512,-699.219,-479.492,-959.473,-337.891,0
1579966041.934,999.512,-627.441,-666.016,-254.395,-695.312,0
1579966041.938,999.512,-437.012,-706.055,-1000.000,-589.355,0
1579966041.941,999.512,-468.750,-570.801,-173.828,-357.422,0
1579966041.945,999.512,-671.387,-513.672,-834.473,-456.543,0
1579966041.949,999.512,-666.504,-630.859,127.930,-660.645,0
1579966041.953,999.512,-471.191,-715.820,-1000.000,-666.016,0
1579966041.957,-997.070,-437.500,-657.227,-609.863,-614.746,0
1579966041.961,975.098,-608.887,-529.785,898.438,-482.422,0
1579966041.965,-948.730,-676.270,-555.176,430.664,-532.715,0
1579966041.969,856.445,-500.000,-647.461,-1000.000,-525.391,0
1579966041.973,612.793,-406.738,-605.957,-958.496,-386.719,0
1579966041.977,947.754,-551.758,-552.734,280.762,-534.668,0
1579966041.981,-957.520,-678.711,-473.633,964.355,-326.660,0
1579966041.984,973.145,-557.129,-534.668,-370.117,-244.141,0
1579966041.988,641.113,-427.734,-672.852,-1000.000,-621.582,0
1579966041.992,796.875,-514.160,-602.051,-32.715,-620.605,0
1579966041.996,-960.449,-680.664,-508.789,-889.160,-493.652,0
1579966042.000,-966.797,-610.840,-572.266,-29.785,-470.703,0
1579966042.004,711.914,-443.848,-684.570,-1000.000,-635.254,0
1579966042.008,674.805,-473.633,-623.047,-338.379,-600.586,0
1579966042.012,-975.098,-657.715,-535.156,-914.551,-586.914,0
1579966042.016,-952.148,-648.926,-551.270,176.270,-444.336,0
1579966042.020,751.953,-439.453,-560.059,-1000.000,-145.020,0
1579966042.023,674.805,-418.457,-576.172,-687.012,-349.121,0
1579966042.027,-977.539,-611.328,-561.035,812.012,-604.004,0
1579966042.031,-989.258,-701.660,-586.914,517.090,-641.113,0
1579966042.035,964.355,-524.414,-655.273,-978.027,-515.625,0
1579966042.039,932.617,-412.598,-648.438,-985.840,-484.375,0
1579966042.043,994.629,-558.105,-580.078,355.957,-585.938,0
1579966042.047,-994.629,-714.355,-557.617,903.809,-617.676,0
1579966042.051,996.582,-594.727,-664.062,-476.074,-657.715,0
1579966042.055,959.473,-414.551,-666.504,-1000.000,-496.582,0
1579966042.059,983.398,-496.094,-576.660,-60.059,-461.914,0
1579966042.063,-996.094,-682.129,-504.883,-844.238,-429.688,0
1579966042.066,-996.582,-630.859,-570.312,50.293,-424.316,0
1579966042.070,967.773,-454.102,-709.473,-1000.000,-670.898,0
