timestamps,TP9,AF7,AF8,TP10,Right AUX,Marker0
1579966184.243,-970.215,-623.535,-570.312,-13.184,-692.871,0
1579966184.247,-944.824,-427.246,-642.090,-1000.000,-693.848,0
1579966184.251,-1000.000,-460.449,-535.645,-100.098,-525.879,0
1579966184.255,-643.066,-655.762,-442.383,-799.316,-450.684,0
1579966184.259,-520.020,-662.598,-524.414,320.801,-556.641,0
1579966184.263,-944.336,-456.543,-578.125,-1000.000,-422.363,0
1579966184.267,-1000.000,-433.594,-559.570,-360.840,-509.766,0
1579966184.271,-368.652,-618.652,-458.008,-902.344,-425.293,0
1579966184.275,742.188,-670.898,-416.016,781.250,-190.918,0
1579966184.279,-257.324,-534.180,-596.191,-755.859,-545.898,0
1579966184.283,-1000.000,-442.871,-653.320,-691.406,-682.129,0
1579966184.286,-92.285,-596.191,-548.828,767.090,-604.980,0
1579966184.290,-834.473,-720.215,-508.789,-866.211,-550.781,0
1579966184.294,719.238,-605.469,-612.793,-138.184,-610.840,0
1579966184.298,-625.000,-454.102,-678.711,-933.105,-653.320,0
1579966184.302,39.062,-557.617,-583.008,374.023,-590.820,0
1579966184.306,-860.840,-721.680,-531.250,-779.785,-594.238,0
1579966184.310,972.656,-668.457,-571.289,476.074,-486.816,0
1579966184.314,880.371,-490.234,-643.555,-946.777,-484.863,0
1579966184.318,908.203,-498.047,-598.145,-106.934,-483.887,0
1579966184.322,-980.957,-683.594,-516.113,-807.129,-459.961,0
1579966184.325,993.652,-717.773,-601.074,736.328,-620.605,0
1579966184.329,999.512,-532.715,-625.488,-555.176,-364.258,0
1579966184.333,999.512,-482.910,-604.492,-169.922,-367.676,0
1579966184.337,999.512,-663.574,-578.613,-918.457,-589.355,0
1579966184.341,999.512,-742.676,-606.934,-968.750,-641.113,0
1579966184.345,999.512,-595.703,-696.777,-315.918,-604.492,0
1579966184.349,999.512,-462.402,-684.570,-537.598,-478.027,0
1579966184.353,999.512,-611.816,-613.281,866.699,-567.871,0
1579966184.357,999.512,-732.422,-552.734,-777.832,-418.945,0
1579966184.361,999.512,-652.344,-655.762,150.879,-513.184,0
1579966184.365,999.512,-491.211,-702.148,-609.863,-467.285,0
1579966184.368,999.512,-551.270,-539.551,692.871,-141.602,0
1579966184.372,999.512,-729.980,-547.363,-817.383,-400.879,0
1579966184.376,999.512,-708.008,-663.574,527.344,-572.754,0
1579966184.380,999.512,-534.668,-755.371,-742.188,-614.258,0
1579966184.384,999.512,-530.762,-690.918,12.207,-533.203,0
1579966184.388,999.512,-708.008,-590.820,-800.293,-467.773,0
1579966184.392,999.512,-748.535,-666.504,782.227,-615.234,0
1579966184.396,999.512,-579.102,-767.090,-649.902,-637.207,0
1579966184.400,999.512,-509.277,-725.098,-227.539,-526.367,0
1579966184.404,999.512,-667.969,-578.613,-912.109,-334.473,0
1579966184.407,999.512,-755.371,-591.309,-926.758,-377.441,0
1579966184.411,999.512,-644.043,-747.070,-180.664,-619.629,0
1579966184.415,999.512,-505.371,-780.762,-606.934,-622.070,0
1579966184.419,999.512,-630.371,-676.758,794.434,-549.316,0
1579966184.423,999.512,-743.164,-553.711,-790.527,-217.285,0
1579966184.427,999.512,-668.945,-662.598,185.059,-376.953,0
1579966184.431,999.512,-514.648,-802.246,-931.152,-636.719,0
1579966184.435,999.512,-565.918,-695.312,224.121,-479.980,0
1579966184.439,999.512,-740.723,-600.586,-765.137,-396.484,0
1579966184.443,999.512,-725.098,-680.664,516.113,-478.516,0
1579966184.447,999.512,-550.781,-805.176,-875.977,-639.160,0
1579966184.450,999.512,-525.879,-701.660,-61.523,-390.137,0
1579966184.454,999.512,-705.078,-599.121,-880.371,-354.004,0
1579966184.458,999.512,-755.371,-639.648,-993.652,-407.715,0
1579966184.462,999.512,-600.586,-681.152,-272.949,-244.141,0
1579966184.466,999.512,-522.461,-739.258,-420.410,-466.309,0
1579966184.470,999.512,-679.199,-683.594,988.770,-571.777,0
1579966184.474,999.512,-788.086,-678.711,-868.164,-585.449,0
1579966184.478,999.512,-670.410,-769.043,-104.492,-588.867,0
1579966184.482,999.512,-519.043,-794.922,-697.266,-536.621,0
1579966184.486,999.512,-635.742,-721.191,659.180,-577.637,0
1579966184.490,999.512,-781.738,-652.832,-762.207,-476.074,0
1579966184.493,999.512,-716.797,-731.934,298.828,-485.840,0
1579966184.497,999.512,-537.598,-783.691,-761.719,-429.199,0
1579966184.501,999.512,-583.008,-700.684,337.891,-370.117,0
1579966184.505,999.512,-770.020,-668.457,-771.973,-504.883,0
1579966184.509,999.512,-761.719,-751.953,533.691,-594.727,0
1579966184.513,999.512,-579.102,-851.562,-800.781,-624.023,0
1579966184.517,999.512,-541.016,-719.238,-7.324,-262.695,0
1579966184.521,999.512,-727.051,-625.488,-857.422,-270.508,0
1579966184.525,999.512,-800.293,-733.398,967.773,-589.355,0
1579966184.529,999.512,-653.320,-849.609,-375.000,-665.039,0
1579966184.532,999.512,-539.551,-819.336,-371.094,-513.672,0
1579966184.536,999.512,-690.918,-688.477,-993.164,-392.578,0
1579966184.540,999.512,-813.965,-712.402,-837.402,-544.922,0
1579966184.544,999.512,-706.543,-773.926,217.285,-474.609,0
1579966184.548,999.512,-555.176,-800.293,-502.930,-416.016,0
1579966184.552,999.512,-636.230,-695.312,666.992,-303.223,0
1579966184.556,999.512,-769.531,-586.914,-777.344,-89.844,0
1579966184.560,999.512,-744.141,-744.141,407.715,-469.727,0
1579966184.564,999.512,-579.590,-874.023,-825.684,-678.223,0
1579966184.568,999.512,-597.656,-795.410,123.047,-570.312,0
1579966184.572,999.512,-770.020,-681.152,-807.617,-440.430,0
1579966184.575,999.512,-787.598,-730.469,731.934,-514.160,0
1579966184.579,999.512,-621.094,-853.516,-676.758,-661.621,0
1579966184.583,999.512,-559.082,-817.383,-230.957,-602.051,0
1579966184.587,999.512,-729.004,-702.637,-899.414,-522.949,0
1579966184.591,999.512,-789.062,-669.434,-964.844,-374.023,0
1579966184.595,999.512,-650.391,-772.461,-277.344,-453.125,0
1579966184.599,999.512,-534.180,-823.730,-544.434,-575.195,0
1579966184.603,999.512,-672.363,-722.168,857.910,-542.480,0
1579966184.607,999.512,-794.434,-674.316,-803.223,-458.008,0
1579966184.611,999.512,-689.941,-687.500,280.762,-239.746,0
1579966184.614,999.512,-535.156,-770.508,-778.320,-388.672,0
1579966184.618,999.512,-612.305,-750.977,351.074,-584.473,0
1579966184.622,999.512,-785.645,-686.035,-750.000,-556.152,0
1579966184.626,999.512,-733.398,-742.676,370.117,-520.996,0
1579966184.630,999.512,-534.668,-802.246,-974.609,-490.723,0
1579966184.634,999.512,-555.664,-764.648,-71.289,-569.336,0
1579966184.638,999.512,-729.492,-622.559,-786.621,-333.496,0
1579966184.642,999.512,-758.789,-677.246,651.855,-426.758,0
1579966184.646,999.512,-576.660,-779.785,-832.520,-479.004,0
1579966184.650,999.512,-492.676,-667.969,-277.344,-158.203,0
1579966184.654,999.512,-696.289,-624.512,-873.047,-401.855,0
1579966184.657,999.512,-787.109,-687.988,881.836,-604.980,0
1579966184.661,999.512,-633.301,-796.875,-481.934,-679.199,0
1579966184.665,999.512,-479.492,-777.344,-814.941,-532.227,0
1579966184.669,999.512,-601.562,-647.949,632.324,-413.574,0
1579966184.673,999.512,-764.160,-646.484,-929.688,-563.965,0
1579966184.677,999.512,-653.320,-750.488,-170.898,-650.879,0
1579966184.681,999.512,-464.844,-797.363,-1000.000,-648.438,0
1579966184.685,999.512,-503.906,-648.926,-107.910,-376.465,0
1579966184.689,999.512,-697.754,-563.477,-883.301,-376.953,0
1579966184.693,999.512,-657.715,-687.988,-91.309,-628.418,0
1579966184.697,999.512,-473.145,-775.391,-1000.000,-707.520,0
1579966184.700,999.512,-443.848,-704.102,-861.328,-613.770,0
1579966184.704,999.512,-557.617,-516.602,218.262,-221.680,0
1579966184.708,999.512,-596.680,-562.012,-119.141,-358.887,0
1579966184.712,999.512,-465.820,-733.398,-1000.000,-735.840,0
1579966184.716,-991.211,-427.734,-709.961,-951.660,-762.695,0
1579966184.720,943.359,-478.027,-578.613,-846.191,-497.559,0
1579966184.724,-927.246,-493.652,-532.227,-875.977,-327.148,0
1579966184.728,745.117,-454.102,-660.645,-990.723,-667.480,0
1579966184.732,-797.363,-419.922,-646.973,-962.891,-644.043,0
1579966184.736,-361.328,-472.656,-553.223,-969.727,-533.691,0
1579966184.739,-799.805,-503.906,-513.672,-969.238,-428.223,0
1579966184.743,97.656,-446.777,-519.043,-969.238,-288.574,0
1579966184.747,-1000.000,-433.105,-636.230,-969.238,-727.539,0
1579966184.751,-993.652,-470.215,-615.723,-969.238,-813.477,0
1579966184.755,-605.469,-523.926,-546.875,-969.238,-644.043,0
1579966184.759,-598.145,-505.859,-582.031,-969.238,-641.113,0
1579966184.763,-1000.000,-444.336,-647.949,-969.238,-802.734,0
1579966184.767,-961.914,-448.730,-621.582,-969.238,-856.445,0
1579966184.771,-963.379,-504.395,-532.715,-969.238,-691.406,0
1579966184.775,-970.215,-514.160,-559.570,-969.238,-712.402,0
1579966184.779,-969.238,-439.453,-599.609,-969.238,-692.383,0
1579966184.782,-969.238,-407.227,-555.176,-969.238,-624.512,0
1579966184.786,-969.238,-472.168,-503.418,-969.238,-643.066,0
1579966184.790,-969.238,-515.625,-532.715,-969.238,-716.309,0
1579966184.794,-969.238,-470.215,-625.977,-969.238,-856.445,0
1579966184.798,-969.238,-403.809,-560.059,-969.238,-592.285,0
1579966184.802,-969.238,-451.660,-480.957,-969.238,-520.508,0
1579966184.806,-979.980,-532.227,-525.391,-969.727,-702.148,0
1579966184.810,-908.203,-519.531,-622.559,-965.332,-807.617,0
1579966184.814,-1000.000,-473.633,-670.410,-972.168,-818.359,0
1579966184.818,-606.934,-501.465,-594.238,-973.633,-612.305,0
1579966184.822,767.578,-589.355,-556.152,-876.465,-518.555,0
1579966184.825,-938.965,-596.191,-612.793,-849.121,-456.543,0
1579966184.829,945.801,-546.875,-720.703,-1000.000,-553.223,0
1579966184.833,-989.746,-600.098,-696.777,-288.574,-469.727,0
1579966184.837,999.512,-781.738,-562.012,-989.746,-138.184,0
1579966184.841,999.512,-900.879,-640.625,-913.086,-356.934,0
1579966184.845,999.512,-808.594,-832.520,109.863,-708.496,0
1579966184.849,999.512,-723.633,-855.957,83.984,-730.957,0
1579966184.853,999.512,-826.172,-721.191,-968.262,-510.254,0
1579966184.857,999.512,-897.461,-695.312,-890.137,-451.172,0
1579966184.861,999.512,-829.590,-814.453,551.270,-680.176,0
1579966184.864,999.512,-710.938,-855.469,139.160,-732.422,0
1579966184.868,999.512,-753.418,-755.859,863.770,-619.629,0
1579966184.872,999.512,-832.520,-637.207,-833.008,-339.844,0
1579966184.876,999.512,-782.227,-704.590,501.465,-421.875,0
1579966184.880,999.512,-626.465,-833.496,-538.086,-661.621,0
1579966184.884,999.512,-643.555,-773.438,344.727,-627.930,0
1579966184.888,999.512,-801.758,-679.199,-870.117,-521.973,0
1579966184.892,999.512,-800.293,-652.344,969.727,-274.414,0
1579966184.896,999.512,-675.293,-742.676,181.152,-367.188,0
1579966184.900,999.512,-651.855,-770.996,358.887,-529.785,0
1579966184.904,999.512,-793.945,-703.125,-913.574,-520.996,0
1579966184.907,999.512,-828.613,-709.473,-980.469,-445.801,0
1579966184.911,999.512,-753.906,-794.922,774.902,-524.414,0
1579966184.915,999.512,-719.727,-835.938,723.145,-664.551,0
1579966184.919,999.512,-770.020,-701.660,-973.145,-331.543,0
1579966184.923,999.512,-823.242,-688.965,998.535,-295.898,0
1579966184.927,999.512,-780.273,-770.996,993.164,-431.641,0
1579966184.931,999.512,-702.148,-731.445,-996.582,-269.531,0
1579966184.935,999.512,-746.582,-714.844,983.398,-408.691,0
1579966184.939,999.512,-811.523,-717.773,-972.656,-449.219,0
1579966184.943,999.512,-786.621,-788.086,940.430,-547.852,0
1579966184.946,999.512,-690.918,-834.961,698.242,-608.398,0
1579966184.950,999.512,-694.336,-774.902,895.996,-543.457,0
1579966184.954,999.512,-767.090,-689.941,-972.656,-387.207,0
1579966184.958,999.512,-774.414,-712.891,-965.332,-379.395,0
1579966184.962,999.512,-676.270,-842.285,378.418,-659.180,0
1579966184.966,999.512,-609.375,-773.926,425.293,-470.703,0
1579966184.970,999.512,-709.961,-654.785,-968.750,-284.180,0
1579966184.974,999.512,-773.438,-707.031,-872.559,-449.219,0
1579966184.978,999.512,-681.152,-827.148,273.438,-633.789,0
1579966184.982,999.512,-564.941,-851.562,-102.051,-639.648,0
1579966184.986,999.512,-632.812,-657.227,922.852,-219.727,0
1579966184.989,999.512,-752.441,-619.629,-810.547,-212.891,0
1579966184.993,999.512,-702.148,-787.598,300.781,-585.938,0
1579966184.997,999.512,-528.320,-860.352,-779.785,-615.723,0
1579966185.001,999.512,-573.730,-746.582,340.820,-430.664,0
1579966185.005,999.512,-742.188,-642.578,-785.156,-304.688,0
1579966185.009,999.512,-743.164,-745.605,594.727,-533.203,0
1579966185.013,999.512,-558.105,-810.547,-758.789,-487.793,0
1579966185.017,999.512,-534.668,-743.164,-97.656,-384.277,0
1579966185.021,999.512,-708.008,-616.211,-836.914,-204.102,0
1579966185.025,999.512,-747.559,-608.887,869.141,-85.938,0
1579966185.029,999.512,-617.188,-792.969,-548.828,-501.465,0
1579966185.032,999.512,-519.531,-824.219,-501.953,-564.941,0
1579966185.036,999.512,-677.734,-726.562,961.426,-509.766,0
1579966185.040,999.512,-796.875,-706.543,-901.855,-485.840,0
1579966185.044,999.512,-677.734,-810.547,-167.480,-575.684,0
1579966185.048,999.512,-520.508,-871.582,-854.004,-642.090,0
1579966185.052,999.512,-622.559,-767.090,431.152,-546.387,0
1579966185.056,999.512,-791.992,-712.402,-778.809,-513.672,0
1579966185.060,999.512,-736.328,-753.418,378.906,-422.852,0
1579966185.064,999.512,-550.781,-816.406,-953.613,-440.918,0
1579966185.068,999.512,-590.820,-790.527,39.551,-555.176,0
1579966185.071,999.512,-773.926,-691.895,-785.645,-442.383,0
1579966185.075,999.512,-776.367,-740.234,621.582,-429.199,0
1579966185.079,999.512,-581.055,-789.062,-804.199,-311.035,0
1579966185.083,999.512,-540.039,-761.719,-277.832,-348.145,0
1579966185.087,999.512,-744.141,-729.492,-880.859,-536.621,0
1579966185.091,999.512,-817.383,-759.277,905.273,-572.266,0
1579966185.095,999.512,-652.832,-845.703,-505.859,-579.590,0
1579966185.099,999.512,-530.762,-829.102,-610.352,-487.305,0
1579966185.103,999.512,-689.453,-749.512,854.492,-518.066,0
1579966185.107,999.512,-812.500,-690.430,-862.793,-389.160,0
1579966185.111,999.512,-699.707,-786.621,-187.988,-455.566,0
1579966185.114,999.512,-532.715,-825.684,-775.391,-414.551,0
1579966185.118,999.512,-618.164,-666.504,614.258,-125.977,0
1579966185.122,999.512,-809.570,-674.805,-770.508,-355.469,0
1579966185.126,999.512,-771.484,-824.707,261.719,-653.809,0
1579966185.130,999.512,-571.289,-884.277,-1000.000,-615.234,0
1579966185.134,999.512,-592.285,-792.969,-36.621,-477.051,0
1579966185.138,999.512,-787.598,-715.820,-797.852,-473.633,0
1579966185.142,999.512,-812.012,-791.504,666.504,-580.078,0
1579966185.146,999.512,-635.742,-895.020,-810.059,-650.391,0
1579966185.150,999.512,-575.684,-862.305,-319.336,-625.000,0
1579966185.153,999.512,-737.305,-704.590,-915.039,-356.445,0
1579966185.157,999.512,-825.684,-710.938,-988.770,-351.562,0
1579966185.161,999.512,-701.172,-871.094,-321.289,-604.004,0
1579966185.165,999.512,-569.824,-892.090,-630.371,-601.562,0
1579966185.169,999.512,-701.660,-775.391,751.465,-500.000,0
1579966185.173,999.512,-817.871,-659.668,-783.203,-192.383,0
1579966185.177,999.512,-742.188,-770.020,147.461,-347.656,0
1579966185.181,999.512,-597.168,-905.273,-771.484,-612.793,0
1579966185.185,999.512,-672.852,-814.941,483.887,-538.086,0
1579966185.189,999.512,-824.707,-699.707,-783.691,-320.312,0
1579966185.193,999.512,-799.316,-769.531,568.359,-380.371,0
1579966185.196,999.512,-642.578,-912.109,-635.254,-656.250,0
1579966185.200,999.512,-630.371,-803.223,164.551,-388.672,0
1579966185.204,999.512,-804.199,-708.984,-877.930,-327.148,0
1579966185.208,999.512,-832.031,-754.395,-974.609,-392.578,0
1579966185.212,999.512,-687.012,-784.180,53.223,-262.695,0
1579966185.216,999.512,-635.742,-836.426,-25.879,-490.723,0
1579966185.220,999.512,-772.949,-785.156,-938.965,-537.109,0
1579966185.224,999.512,-845.215,-784.180,-939.941,-485.840,0
1579966185.228,999.512,-721.680,-870.117,-92.285,-543.945,0
1579966185.232,999.512,-598.633,-890.137,-345.215,-560.547,0
1579966185.236,999.512,-720.215,-804.199,891.113,-515.137,0
1579966185.239,999.512,-841.797,-755.371,-807.617,-444.824,0
1579966185.243,999.512,-765.625,-827.148,323.242,-447.754,0
1579966185.247,999.512,-610.352,-856.934,-378.418,-351.562,0
1579966185.251,999.512,-674.805,-771.484,674.316,-289.062,0
1579966185.255,999.512,-826.172,-734.863,-843.262,-372.559,0
1579966185.259,999.512,-824.219,-833.008,736.816,-548.828,0
1579966185.263,999.512,-666.504,-929.199,-378.418,-634.277,0
1579966185.267,999.512,-615.723,-774.902,202.148,-201.172,0
1579966185.271,999.512,-779.297,-667.969,-865.723,-101.074,0
1579966185.275,999.512,-846.191,-803.223,-997.559,-492.188,0
1579966185.278,999.512,-723.633,-926.270,37.598,-621.094,0
1579966185.282,999.512,-640.137,-891.602,50.293,-477.539,0
1579966185.286,999.512,-764.160,-761.719,-959.961,-312.500,0
1579966185.290,999.512,-851.562,-793.945,-895.996,-445.312,0
1579966185.294,999.512,-762.207,-858.398,525.391,-416.504,0
1579966185.298,999.512,-668.945,-892.090,248.535,-454.590,0
1579966185.302,999.512,-736.816,-791.992,954.102,-282.715,0
1579966185.306,999.512,-808.105,-674.805,-879.883,83.984,0
1579966185.310,999.512,-788.574,-833.008,651.855,-328.125,0
1579966185.314,999.512,-684.570,-964.355,98.145,-610.352,0
1579966185.318,999.512,-713.379,-886.719,758.301,-505.371,0
1579966185.321,999.512,-819.824,-782.227,-899.414,-292.480,0
1579966185.325,999.512,-821.777,-842.773,913.574,-379.395,0
1579966185.329,999.512,-715.820,-965.332,311.035,-606.445,0
1579966185.333,999.512,-692.871,-930.664,567.383,-522.949,0
1579966185.337,999.512,-807.617,-826.660,-939.453,-349.609,0
1579966185.341,999.512,-820.312,-796.387,-953.125,-161.133,0
1579966185.345,999.512,-739.258,-887.207,632.812,-320.801,0
1579966185.349,999.512,-707.520,-930.664,540.039,-492.676,0
1579966185.353,999.512,-793.457,-842.285,-972.656,-364.258,0
1579966185.357,999.512,-844.238,-834.961,-960.449,-323.730,0
1579966185.361,999.512,-761.719,-842.773,836.426,-131.836,0
1579966185.364,999.512,-698.730,-870.117,743.164,-219.727,0
1579966185.368,999.512,-774.902,-865.234,995.117,-416.504,0
1579966185.372,999.512,-841.797,-836.914,-978.027,-284.668,0
1579966185.376,999.512,-808.105,-888.672,975.098,-288.574,0
1579966185.380,999.512,-719.238,-933.105,787.109,-363.281,0
1579966185.384,999.512,-737.793,-902.344,916.016,-401.855,0
1579966185.388,999.512,-807.617,-782.227,-962.402,-36.133,0
1579966185.392,999.512,-809.570,-841.797,979.004,-100.098,0
1579966185.396,999.512,-734.863,-935.547,901.367,-312.988,0
1579966185.400,999.512,-698.730,-824.707,964.355,-18.066,0
1579966185.403,999.512,-788.086,-795.898,-994.629,-87.891,0
1579966185.407,999.512,-823.730,-879.395,-975.586,-258.301,0
1579966185.411,999.512,-756.836,-957.520,846.680,-390.625,0
1579966185.415,999.512,-708.008,-957.031,814.453,-364.746,0
1579966185.419,999.512,-759.766,-848.145,-985.840,-101.074,0
1579966185.423,999.512,-806.152,-818.848,-982.910,-11.230,0
1579966185.427,999.512,-774.414,-926.758,934.082,-296.875,0
1579966185.431,999.512,-718.262,-986.328,876.465,-457.031,0
1579966185.435,999.512,-732.910,-879.395,998.535,-116.211,0
1579966185.439,999.512,-786.133,-776.367,-992.676,130.859,0
1579966185.443,999.512,-776.367,-878.418,990.234,-114.746,0
1579966185.446,999.512,-725.098,-979.004,972.168,-381.348,0
1579966185.450,999.512,-737.305,-947.266,993.164,-319.336,0
1579966185.454,999.512,-766.113,-774.902,-997.070,183.105,0
1579966185.458,999.512,-768.555,-804.688,997.559,109.375,0
1579966185.462,999.512,-734.863,-964.844,994.141,-335.449,0
1579966185.466,999.512,-719.727,-963.867,995.117,-353.027,0
1579966185.470,999.512,-763.672,-850.098,-996.094,-67.383,0
1579966185.474,999.512,-778.320,-816.406,989.746,60.059,0
1579966185.478,999.512,-732.422,-921.875,979.980,-208.008,0
1579966185.482,999.512,-686.523,-889.648,-997.070,-106.445,0
1579966185.485,999.512,-730.469,-802.734,987.305,44.434,0
1579966185.489,999.512,-765.137,-778.320,-974.121,145.996,0
1579966185.493,999.512,-702.637,-802.246,931.641,218.262,0
1579966185.497,999.512,-661.621,-910.156,825.684,-183.105,0
1579966185.501,999.512,-698.730,-889.160,994.141,-249.512,0
1579966185.505,999.512,-764.160,-828.613,-990.234,-78.613,0
1579966185.509,999.512,-743.652,-872.070,991.211,-86.914,0
1579966185.513,999.512,-677.734,-929.688,998.535,-219.727,0
1579966185.517,999.512,-688.965,-901.855,996.582,-247.559,0
1579966185.521,999.512,-738.281,-814.453,999.512,-27.344,0
1579966185.525,999.512,-742.676,-837.891,999.512,-33.203,0
1579966185.528,999.512,-677.246,-873.535,999.512,-69.336,0
1579966185.532,999.512,-652.344,-810.547,999.023,-13.184,0
1579966185.536,999.512,-700.195,-738.281,998.047,94.238,0
1579966185.540,999.512,-727.051,-769.043,-994.629,20.996,0
1579966185.544,999.512,-675.293,-862.305,969.238,-247.559,0
1579966185.548,999.512,-596.680,-789.551,971.680,-6.836,0
1579966185.552,999.512,-647.949,-683.594,989.258,122.559,0
1579966185.556,999.512,-721.680,-710.938,-967.285,-78.125,0
1579966185.560,999.512,-686.523,-805.176,903.809,-274.902,0
1579966185.564,999.512,-593.750,-826.660,761.230,-320.312,0
1579966185.568,999.512,-588.379,-730.957,974.121,-128.906,0
1579966185.571,999.512,-662.109,-691.895,-976.562,-118.164,0
1579966185.575,999.512,-636.719,-708.496,989.258,-66.895,0
1579966185.579,999.512,-551.270,-776.367,660.645,-204.590,0
1579966185.583,999.512,-545.410,-719.238,756.348,-166.992,0
1579966185.587,999.512,-615.234,-565.430,-946.289,210.938,0
1579966185.591,999.512,-657.715,-658.203,988.281,-37.598,0
1579966185.595,999.512,-555.176,-801.270,409.180,-320.801,0
1579966185.599,999.512,-495.605,-798.828,482.910,-375.000,0
1579966185.603,999.512,-585.938,-684.082,-997.559,-197.754,0
1579966185.607,999.512,-645.508,-663.086,-868.652,-104.004,0
1579966185.610,999.512,-595.703,-773.438,452.637,-367.188,0
1579966185.614,999.512,-493.652,-799.805,7.324,-408.203,0
1579966185.618,999.512,-573.730,-699.219,917.480,-282.227,0
1579966185.622,999.512,-670.410,-595.215,-875.488,-37.598,0
1579966185.626,999.512,-624.512,-653.320,692.871,-101.074,0
1579966185.630,999.512,-492.188,-772.461,-185.547,-362.793,0
1579966185.634,999.512,-518.555,-726.562,390.137,-346.191,0
1579966185.638,999.512,-673.340,-632.324,-878.906,-276.367,0
1579966185.642,999.512,-673.340,-593.262,958.496,-52.246,0
1579966185.646,999.512,-540.527,-697.754,-254.883,-185.059,0
1579966185.650,999.512,-488.281,-721.680,-109.375,-312.012,0
1579966185.653,999.512,-620.605,-610.840,-930.176,-176.758,0
1579966185.657,999.512,-691.406,-641.113,-891.602,-272.461,0
1579966185.661,999.512,-552.246,-735.840,-158.203,-342.773,0
1579966185.665,-1000.000,-421.875,-755.859,-559.082,-321.289,0
1579966185.669,994.141,-550.781,-606.934,884.766,-116.699,0
1579966185.673,-996.094,-687.012,-577.148,-850.586,-175.781,0
1579966185.677,-996.582,-575.195,-687.500,-34.668,-310.059,0
1579966185.681,878.418,-368.652,-674.316,-1000.000,-103.516,0
1579966185.685,907.227,-458.496,-643.066,219.238,-298.828,0
1579966185.689,-988.770,-648.926,-628.906,-778.809,-512.207,0
1579966185.692,-987.305,-584.961,-701.172,164.062,-565.918,0
1579966185.696,-182.129,-393.555,-745.117,-1000.000,-520.508,0
1579966185.700,-1000.000,-408.203,-659.668,-360.840,-456.543,0
1579966185.704,407.715,-609.375,-582.520,-858.398,-507.324,0
1579966185.708,457.520,-621.094,-610.840,319.336,-532.715,0
1579966185.712,-1000.000,-426.270,-683.594,-1000.000,-568.848,0
1579966185.716,-986.816,-354.492,-557.617,-545.898,-253.418,0
1579966185.720,-927.734,-541.992,-432.129,977.539,-194.824,0
1579966185.724,-979.492,-670.898,-533.691,562.012,-600.098,0
1579966185.728,-969.238,-507.812,-651.855,-877.930,-724.121,0
1579966185.732,-969.238,-368.164,-639.648,-1000.000,-683.594,0
1579966185.735,-969.238,-475.586,-494.141,266.113,-464.355,0
1579966185.739,-969.238,-649.414,-470.703,903.809,-525.391,0
1579966185.743,-969.238,-543.457,-578.613,-454.590,-707.520,0
1579966185.747,-969.238,-370.605,-613.770,-1000.000,-757.812,0
1579966185.751,-969.238,-416.504,-492.188,-225.098,-551.270,0
1579966185.755,-969.238,-602.539,-393.555,-953.613,-482.910,0
1579966185.759,-969.238,-574.219,-496.582,-43.945,-719.238,0
1579966185.763,-969.238,-354.004,-534.180,-1000.000,-640.625,0
1579966185.767,-969.238,-323.242,-443.848,-605.469,-502.930,0
1579966185.771,-969.238,-494.141,-328.125,881.348,-381.348,0
1579966185.775,-969.238,-552.734,-312.988,398.926,-308.594,0
1579966185.778,-969.238,-406.738,-475.098,-1000.000,-694.336,0
1579966185.782,-969.238,-326.660,-497.559,-981.934,-846.680,0
1579966185.786,-969.238,-452.637,-385.742,363.770,-706.543,0
1579966185.790,-969.238,-570.312,-360.840,651.855,-691.895,0
1579966185.794,-969.238,-424.805,-456.055,-783.203,-788.086,0
1579966185.798,-969.238,-276.367,-482.422,-1000.000,-837.402,0
1579966185.802,-969.238,-373.535,-365.723,32.227,-723.633,0
1579966185.806,-969.238,-552.246,-311.523,856.934,-711.426,0
1579966185.810,-969.238,-461.914,-343.262,-396.484,-642.090,0
1579966185.814,-969.238,-290.039,-360.840,-1000.000,-641.602,0
1579966185.817,-969.238,-331.543,-315.430,-362.793,-707.031,0
1579966185.821,-969.238,-513.672,-267.578,-991.699,-773.438,0
1579966185.825,-969.238,-477.539,-315.430,62.988,-777.344,0
1579966185.829,-969.238,-249.023,-300.293,-1000.000,-522.461,0
1579966185.833,-969.238,-227.539,-257.324,-728.516,-606.934,0
1579966185.837,-969.238,-426.270,-229.980,705.566,-783.691,0
1579966185.841,-969.238,-505.859,-256.836,327.637,-844.727,0
1579966185.845,-969.238,-321.289,-319.336,-1000.000,-879.883,0
1579966185.849,-969.238,-209.473,-270.020,-1000.000,-813.965,0
1579966185.853,-969.238,-330.078,-188.965,239.258,-823.730,0
1579966185.857,-969.238,-446.777,-141.602,667.969,-724.121,0
1579966185.860,-969.238,-317.383,-229.980,-772.461,-818.848,0
1579966185.864,-969.238,-169.922,-234.863,-1000.000,-819.824,0
1579966185.868,-969.238,-251.953,-60.547,57.129,-485.352,0
1579966185.872,-969.238,-455.078,-66.895,865.723,-698.730,0
1579966185.876,-969.238,-387.695,-202.148,-429.688,-917.969,0
1579966185.880,-969.238,-211.914,-270.996,-1000.000,-982.422,0
1579966185.884,-969.238,-220.703,-171.387,-467.773,-826.660,0
1579966185.888,-969.238,-401.855,-88.867,811.523,-765.625,0
1579966185.892,-969.238,-420.898,-187.500,-28.320,-959.473,0
1579966185.896,-969.238,-247.070,-268.066,-1000.000,-963.379,0
1579966185.900,-969.238,-218.262,-230.957,-923.828,-997.070,0
1579966185.903,-969.238,-347.168,-43.457,382.324,-595.703,0
1579966185.907,-969.238,-437.012,-41.016,333.984,-522.949,0
1579966185.911,-969.238,-311.523,-251.953,-1000.000,-943.359,0
1579966185.915,-969.238,-212.891,-273.926,-1000.000,-998.047,0
1579966185.919,-969.238,-313.477,-169.434,20.020,-868.164,0
1579966185.923,-969.238,-447.754,-128.418,537.598,-717.773,0
1579966185.927,-969.238,-357.422,-258.789,-740.234,-893.555,0
1579966185.931,-969.238,-225.586,-319.824,-1000.000,-990.723,0
1579966185.935,-969.238,-291.504,-239.746,-276.367,-905.273,0
1579966185.939,-969.238,-466.309,-171.875,827.637,-724.121,0
1579966185.942,-969.238,-416.016,-224.609,-271.484,-679.688,0
1579966185.946,-969.238,-244.141,-334.473,-1000.000,-868.652,0
1579966185.950,-969.238,-242.188,-245.605,-498.535,-643.555,0
1579966185.954,-969.238,-431.641,-169.922,899.414,-622.070,0
1579966185.958,-969.238,-459.961,-232.422,152.832,-700.195,0
1579966185.962,-969.238,-259.766,-253.906,-1000.000,-478.516,0
1579966185.966,-969.238,-233.887,-285.645,-907.715,-683.594,0
1579966185.970,-969.238,-416.016,-250.488,468.750,-795.410,0
1579966185.974,-969.238,-535.645,-270.508,468.262,-823.730,0
1579966185.978,-969.238,-379.395,-353.516,-959.473,-799.316,0
1579966185.982,-969.238,-261.230,-356.934,-1000.000,-780.762,0
1579966185.985,-969.238,-384.766,-291.992,121.582,-741.211,0
1579966185.989,-969.238,-560.059,-271.484,870.605,-746.582,0
1579966185.993,-969.238,-467.285,-370.117,-483.887,-826.660,0
1579966185.997,-969.238,-289.062,-365.723,-1000.000,-638.672,0
1579966186.001,-969.238,-356.934,-242.188,-128.418,-441.406,0
1579966186.005,-969.238,-571.289,-214.355,-858.887,-542.480,0
1579966186.009,-969.238,-551.270,-345.703,37.109,-766.602,0
1579966186.013,-969.238,-347.656,-443.848,-1000.000,-803.223,0
1579966186.017,-969.238,-325.684,-297.852,-255.859,-409.180,0
1579966186.021,-969.238,-524.414,-218.262,-836.426,-377.441,0
1579966186.024,-969.238,-586.426,-355.469,404.297,-701.660,0
1579966186.028,-969.238,-408.203,-469.238,-1000.000,-770.996,0
1579966186.032,-969.238,-326.660,-422.363,-664.551,-614.746,0
1579966186.036,-969.238,-491.699,-303.223,818.848,-438.965,0
1579966186.040,-969.238,-628.418,-350.098,857.910,-600.098,0
1579966186.044,-969.238,-465.820,-430.176,-556.152,-546.875,0
1579966186.048,-969.238,-305.176,-454.590,-1000.000,-556.152,0
1579966186.052,-969.238,-417.480,-359.863,306.641,-469.238,0
1579966186.056,-969.238,-571.777,-238.281,-916.992,-96.680,0
1579966186.060,-969.238,-517.090,-383.301,-117.676,-377.441,0
1579966186.064,-969.238,-366.211,-521.973,-1000.000,-671.387,0
1579966186.067,-969.238,-424.316,-453.125,-65.430,-601.562,0
1579966186.071,-969.238,-615.234,-359.375,-770.020,-481.445,0
1579966186.075,-969.238,-592.285,-432.129,247.559,-520.020,0
1579966186.079,-969.238,-395.996,-555.176,-1000.000,-674.316,0
1579966186.083,-969.238,-377.930,-501.953,-325.684,-608.887,0
1579966186.087,-969.238,-566.895,-386.230,-895.508,-437.988,0
1579966186.091,-969.238,-636.719,-380.371,755.371,-349.609,0
1579966186.095,-969.238,-475.098,-476.562,-738.281,-438.965,0
1579966186.099,-969.238,-374.023,-510.742,-702.637,-552.246,0
1579966186.103,-969.238,-523.926,-429.199,771.484,-499.512,0
1579966186.107,-969.238,-652.832,-424.805,-958.496,-511.719,0
1579966186.110,-969.238,-494.141,-453.125,-256.348,-334.961,0
1579966186.114,-969.238,-319.824,-470.703,-1000.000,-351.562,0
1579966186.118,-969.238,-434.082,-405.273,300.293,-396.484,0
1579966186.122,-969.238,-634.277,-374.512,-817.871,-429.688,0
1579966186.126,-969.238,-564.453,-465.332,7.324,-522.461,0
1579966186.130,-969.238,-345.215,-503.906,-1000.000,-479.492,0
1579966186.134,-969.238,-370.117,-459.961,-264.648,-542.480,0
1579966186.138,-969.238,-540.039,-325.684,-828.613,-328.125,0
1579966186.142,-969.238,-547.363,-389.160,311.035,-428.711,0
1579966186.146,-969.238,-359.375,-479.980,-1000.000,-520.508,0
1579966186.149,-969.238,-294.922,-335.938,-566.895,-221.191,0
1579966186.153,-969.238,-505.859,-296.387,946.289,-405.273,0
1579966186.157,-969.238,-589.844,-383.789,436.523,-614.746,0
1579966186.161,-969.238,-403.809,-479.980,-974.121,-699.707,0
1579966186.165,-969.238,-276.855,-446.777,-1000.000,-594.238,0
1579966186.169,-969.238,-396.484,-334.961,257.812,-489.258,0
1579966186.173,-969.238,-538.574,-313.477,630.371,-484.375,0
1579966186.177,-969.238,-417.969,-395.020,-745.117,-502.930,0
1579966186.181,-969.238,-289.551,-448.730,-1000.000,-657.715,0
1579966186.185,-969.238,-343.262,-313.965,-199.707,-408.203,0
1579966186.189,-969.238,-508.301,-238.770,763.184,-334.961,0
1579966186.192,-969.238,-459.961,-368.164,-435.547,-604.004,0
1579966186.196,-969.238,-295.410,-457.031,-1000.000,-740.234,0
1579966186.200,-969.238,-290.039,-381.348,-743.652,-625.977,0
1579966186.204,-969.238,-425.781,-206.055,484.375,-248.535,0
1579966186.208,-969.238,-461.914,-260.254,-33.691,-375.000,0
1579966186.212,-969.238,-315.430,-430.664,-1000.000,-731.934,0
1579966186.216,-969.238,-263.184,-404.297,-1000.000,-713.379,0
1579966186.220,-969.238,-367.676,-284.180,-112.793,-488.770,0
1579966186.224,-969.238,-435.547,-272.949,-68.359,-412.598,0
1579966186.228,-969.238,-331.543,-401.367,-1000.000,-675.293,0
1579966186.231,-969.238,-250.488,-363.770,-1000.000,-554.688,0
1579966186.235,-969.238,-328.125,-238.770,-361.816,-324.707,0
1579966186.239,-969.238,-428.223,-204.590,-19.043,-241.699,0
1579966186.243,-969.238,-327.637,-256.836,-908.691,-190.430,0
1579966186.247,-969.238,-243.652,-368.164,-1000.000,-553.223,0
1579966186.251,-969.238,-297.852,-345.215,-695.312,-619.141,0
1579966186.255,-969.238,-410.645,-285.156,-298.828,-500.488,0
1579966186.259,-969.238,-388.184,-326.660,-826.660,-526.855,0
1579966186.263,-969.238,-289.062,-386.230,-1000.000,-655.762,0
1579966186.267,-969.238,-296.875,-351.562,-949.219,-699.707,0
1579966186.271,-969.238,-379.395,-273.438,-579.590,-546.387,0
1579966186.274,-969.238,-392.090,-321.289,-658.203,-569.336,0
1579966186.278,-969.238,-282.715,-357.422,-1000.000,-562.988,0
1579966186.282,-969.238,-257.324,-304.688,-1000.000,-507.324,0
1579966186.286,-969.238,-370.117,-250.000,-594.238,-494.629,0
1579966186.290,-969.238,-427.734,-247.070,-583.008,-421.387,0
1579966186.294,-969.238,-349.609,-351.074,-989.258,-603.027,0
1579966186.298,-969.238,-266.113,-302.734,-1000.000,-418.945,0
1579966186.302,-969.238,-314.941,-210.938,-641.113,-263.672,0
1579966186.306,-969.238,-418.945,-266.113,-420.898,-499.512,0
1579966186.310,-969.238,-369.141,-365.234,-947.266,-649.414,0
1579966186.314,-969.238,-294.922,-386.719,-1000.000,-683.594,0
1579966186.317,-969.238,-329.102,-280.273,-808.594,-474.121,0
1579966186.321,-969.238,-443.848,-248.047,-442.383,-474.121,0
1579966186.325,-969.238,-416.016,-284.668,-789.551,-397.949,0
1579966186.329,-969.238,-311.035,-369.141,-1000.000,-548.340,0
1579966186.333,-969.238,-294.434,-331.543,-878.906,-513.184,0
1579966186.337,-969.238,-397.461,-177.246,-91.309,-97.656,0
1579966186.341,-969.238,-465.820,-281.250,-422.363,-352.539,0
1579966186.345,-969.238,-372.559,-444.336,-1000.000,-696.777,0
1579966186.349,-969.238,-333.984,-406.738,-1000.000,-594.727,0
1579966186.353,-969.238,-417.480,-300.781,-533.203,-346.680,0
1579966186.356,-969.238,-482.910,-330.566,-427.246,-383.789,0
1579966186.360,-969.238,-399.414,-468.262,-988.281,-624.512,0
1579966186.364,-969.238,-332.520,-498.047,-1000.000,-686.035,0
1579966186.368,-969.238,-385.742,-416.016,-712.402,-536.133,0
1579966186.372,-969.238,-475.586,-331.055,-436.035,-274.902,0
1579966186.376,-969.238,-445.801,-397.949,-926.758,-343.262,0
1579966186.380,-969.238,-382.812,-503.906,-1000.000,-620.117,0
1579966186.384,-969.238,-407.715,-455.566,-935.059,-583.984,0
1579966186.388,-969.238,-475.098,-397.461,-803.711,-425.781,0
1579966186.392,-969.238,-437.012,-378.906,-891.602,-191.406,0
1579966186.396,-969.238,-363.770,-468.262,-997.559,-385.742,0
1579966186.399,-969.238,-389.160,-509.766,-966.797,-605.469,0
1579966186.403,-969.238,-478.027,-427.246,-840.820,-453.613,0
1579966186.407,-969.238,-500.977,-414.551,-895.508,-290.527,0
1579966186.411,-969.238,-443.359,-505.371,-972.168,-402.344,0
1579966186.415,-969.238,-434.082,-561.523,-1000.000,-609.375,0
1579966186.419,-969.238,-491.699,-445.801,-666.504,-295.898,0
1579966186.423,-969.238,-562.012,-456.543,-554.199,-263.184,0
1579966186.427,-969.238,-502.441,-570.312,-978.027,-377.441,0
1579966186.431,-969.238,-430.664,-536.621,-1000.000,-193.848,0
1579966186.435,-969.238,-511.719,-525.879,-802.246,-294.434,0
1579966186.439,-969.238,-623.535,-560.547,-639.648,-340.332,0
1579966186.442,-973.145,-601.562,-655.273,-937.500,-454.590,0
1579966186.446,-912.598,-520.996,-708.008,-1000.000,-527.344,0
1579966186.450,-1000.000,-528.809,-647.461,-913.086,-386.719,0
1579966186.454,-425.781,-633.789,-608.887,-493.164,-340.332,0
1579966186.458,280.273,-642.578,-670.898,-710.938,-400.879,0
1579966186.462,-837.891,-554.199,-761.719,-1000.000,-541.992,0
1579966186.466,-854.980,-532.227,-692.871,-1000.000,-360.840,0
1579966186.470,604.492,-633.789,-578.613,-254.395,-101.074,0
1579966186.474,-917.969,-704.590,-659.180,-216.309,-289.062,0
1579966186.478,941.895,-618.652,-823.730,-1000.000,-522.949,0
1579966186.481,-993.164,-566.406,-873.535,-1000.000,-516.113,0
1579966186.485,999.512,-666.504,-709.473,86.914,14.160,0
1579966186.489,999.512,-845.703,-712.402,708.496,47.852,0
1579966186.493,999.512,-793.945,-933.105,-693.359,-422.363,0
1579966186.497,999.512,-666.992,-981.445,-1000.000,-470.215,0
1579966186.501,999.512,-727.051,-944.336,-254.395,-243.652,0
1579966186.505,999.512,-912.109,-890.625,-942.871,-97.168,0
1579966186.509,999.512,-896.484,-933.105,37.598,-269.531,0
1579966186.513,999.512,-693.848,-973.145,-1000.000,-210.449,0
1579966186.517,999.512,-691.406,-965.820,-447.754,-132.812,0
1579966186.521,999.512,-868.164,-862.793,-966.797,-33.203,0
1579966186.524,999.512,-894.531,-817.871,410.156,110.840,0
1579966186.528,999.512,-738.770,-944.824,-1000.000,-270.508,0
1579966186.532,999.512,-660.645,-985.840,-897.461,-433.594,0
1579966186.536,999.512,-805.176,-915.527,548.828,-287.109,0
1579966186.540,999.512,-900.391,-858.887,564.453,-219.238,0
1579966186.544,999.512,-741.699,-937.012,-870.117,-325.684,0
1579966186.548,999.512,-619.629,-977.051,-1000.000,-432.617,0
1579966186.552,999.512,-712.402,-877.441,65.430,-349.121,0
1579966186.556,999.512,-873.535,-806.152,842.285,-341.309,0
1579966186.560,999.512,-758.789,-833.008,-475.586,-230.957,0
1579966186.563,999.512,-582.031,-852.051,-1000.000,-266.602,0
1579966186.567,999.512,-619.629,-798.340,-437.500,-347.168,0
1579966186.571,999.512,-777.344,-725.586,698.730,-371.094,0
1579966186.575,999.512,-741.699,-785.645,-219.238,-495.117,0
1579966186.579,999.512,-533.203,-762.207,-1000.000,-240.234,0
1579966186.583,999.512,-509.766,-686.035,-839.844,-227.051,0
1579966186.587,999.512,-671.875,-662.598,210.938,-437.500,0
1579966186.591,999.512,-711.426,-693.848,-96.191,-486.328,0
1579966186.595,999.512,-549.316,-750.000,-1000.000,-511.719,0
1579966186.599,-994.629,-476.562,-686.523,-1000.000,-426.270,0
1579966186.603,972.168,-581.055,-612.305,-200.195,-462.402,0
1579966186.606,990.723,-651.367,-562.012,24.902,-353.516,0
1579966186.610,-953.125,-539.062,-650.879,-964.844,-505.859,0
1579966186.614,-310.059,-445.801,-659.180,-1000.000,-541.016,0
1579966186.618,-506.836,-493.652,-468.262,-454.590,-142.578,0
1579966186.622,-854.980,-607.910,-480.957,-131.348,-321.289,0
1579966186.626,207.031,-550.781,-623.047,-904.297,-595.703,0
1579966186.630,-1000.000,-451.660,-668.457,-1000.000,-719.238,0
1579966186.634,-938.965,-465.332,-565.430,-755.371,-574.707,0
1579966186.638,-944.336,-554.199,-457.031,-317.871,-333.984,0
1579966186.642,-975.586,-551.270,-520.020,-696.289,-438.965,0
1579966186.646,-969.238,-463.379,-630.859,-1000.000,-722.168,0
1579966186.649,-969.238,-452.148,-596.680,-988.770,-690.430,0
1579966186.653,-969.238,-555.176,-446.777,-211.914,-317.871,0
1579966186.657,-969.238,-600.586,-464.355,-342.773,-330.078,0
1579966186.661,-969.238,-497.559,-620.117,-1000.000,-659.180,0
1579966186.665,-969.238,-452.148,-627.441,-1000.000,-702.637,0
1579966186.669,-969.238,-536.621,-537.109,-397.461,-525.879,0
1579966186.673,-974.609,-618.164,-443.359,-9.766,-187.500,0
1579966186.677,-945.312,-546.387,-544.434,-888.184,-361.816,0
1579966186.681,-954.590,-472.168,-661.621,-1000.000,-685.059,0
1579966186.685,-1000.000,-529.297,-585.938,-534.180,-546.387,0
1579966186.688,229.492,-650.391,-522.949,192.383,-406.738,0
1579966186.692,455.566,-601.074,-593.750,-557.617,-431.152,0
1579966186.696,-1000.000,-479.004,-669.434,-1000.000,-523.926,0
1579966186.700,-544.434,-490.723,-582.520,-648.438,-302.734,0
1579966186.704,869.141,-660.645,-523.438,587.891,-279.297,0
1579966186.708,-917.969,-672.363,-585.449,-25.391,-337.891,0
1579966186.712,734.375,-495.605,-626.465,-1000.000,-181.152,0
1579966186.716,743.652,-485.352,-651.855,-903.809,-312.988,0
1579966186.720,-971.680,-652.344,-606.445,479.980,-366.699,0
1579966186.724,997.070,-754.395,-645.508,380.859,-412.109,0
1579966186.728,993.652,-600.586,-758.301,-995.117,-444.824,0
1579966186.731,-1000.000,-501.953,-761.230,-1000.000,-431.641,0
1579966186.735,999.512,-625.000,-691.895,37.598,-394.531,0
1579966186.739,999.512,-789.551,-677.734,808.594,-415.527,0
1579966186.743,999.512,-692.871,-794.922,-572.754,-498.047,0
1579966186.747,999.512,-524.414,-796.387,-1000.000,-278.320,0
1579966186.751,999.512,-603.516,-703.613,-120.117,-142.090,0
1579966186.755,999.512,-806.641,-673.828,-903.809,-221.680,0
1579966186.759,999.512,-776.855,-786.133,2.441,-331.543,0
1579966186.763,999.512,-593.750,-913.574,-1000.000,-449.219,0
1579966186.767,999.512,-595.703,-770.020,-188.965,-57.617,0
1579966186.770,999.512,-797.852,-684.082,-850.098,-16.113,0
1579966186.774,999.512,-836.426,-830.566,262.207,-347.168,0
1579966186.778,999.512,-657.715,-962.402,-1000.000,-413.086,0
1579966186.782,999.512,-600.586,-924.316,-545.898,-262.695,0
1579966186.786,999.512,-771.973,-797.852,947.266,-63.477,0
1579966186.790,999.512,-899.902,-844.238,835.449,-215.820,0
1579966186.794,999.512,-738.770,-939.941,-661.133,-153.809,0
1579966186.798,999.512,-609.863,-974.609,-860.840,-141.113,0
1579966186.802,999.512,-746.582,-877.441,519.043,-39.062,0
1579966186.806,999.512,-893.066,-777.832,-810.547,282.227,0
1579966186.810,999.512,-836.914,-912.598,-5.859,-70.312,0
1579966186.813,999.512,-674.316,-981.445,-1000.000,-230.957,0
1579966186.817,999.512,-751.953,-963.867,153.809,-137.695,0
1579966186.821,999.512,-938.477,-960.938,-770.508,-26.367,0
1579966186.825,999.512,-928.223,-963.379,456.543,-67.383,0
1579966186.829,999.512,-753.418,-970.703,-993.164,-249.023,0
1579966186.833,999.512,-745.605,-968.750,-156.738,-198.730,0
1579966186.837,999.512,-924.805,-969.238,-861.816,-115.234,0
1579966186.841,999.512,-989.746,-969.238,928.711,76.172,0
1579966186.845,999.512,-855.469,-969.238,-451.172,-14.648,0
1579966186.849,999.512,-740.723,-969.238,-501.465,-161.133,0
1579966186.853,999.512,-884.277,-969.238,930.176,-47.852,0
1579966186.856,999.512,-994.629,-969.238,-849.121,-63.477,0
1579966186.860,999.512,-908.691,-969.238,119.629,101.074,0
1579966186.864,999.512,-765.625,-969.238,-524.902,81.543,0
1579966186.868,999.512,-862.305,-969.238,680.176,-44.922,0
1579966186.872,999.512,-982.910,-969.238,-782.227,76.172,0
1579966186.876,999.512,-965.820,-969.238,385.742,-18.066,0
1579966186.880,999.512,-830.566,-969.238,-650.391,-48.828,0
1579966186.884,999.512,-841.309,-969.238,312.500,-77.637,0
1579966186.888,999.512,-969.238,-969.238,-793.457,189.941,0
1579966186.892,999.512,-987.305,-969.238,682.617,116.211,0
1579966186.895,999.512,-887.695,-969.238,-350.586,-1.953,0
1579966186.899,999.512,-832.031,-969.238,291.016,344.238,0
1579966186.903,999.512,-955.078,-969.238,-871.094,219.238,0
1579966186.907,999.512,-984.863,-969.238,939.941,2.930,0
1579966186.911,999.512,-934.570,-969.238,-143.555,-108.398,0
1579966186.915,999.512,-878.906,-969.238,-34.668,12.207,0
1579966186.919,999.512,-946.289,-969.238,-944.824,146.484,0
1579966186.923,999.512,-979.004,-969.238,-885.742,59.570,0
1579966186.927,999.512,-962.891,-969.238,391.113,38.574,0
1579966186.931,999.512,-922.852,-969.238,118.164,55.176,0
1579966186.935,999.512,-943.359,-969.238,973.633,248.047,0
1579966186.938,999.512,-975.586,-969.238,-912.109,387.207,0
1579966186.942,999.512,-966.797,-969.238,782.715,94.727,0
1579966186.946,999.512,-969.238,-969.238,371.582,-30.762,0
1579966186.950,999.512,-969.238,-969.238,838.379,83.496,0
1579966186.954,999.512,-969.238,-969.238,-937.500,557.617,0
1579966186.958,999.512,-969.238,-969.238,973.145,517.578,0
1579966186.962,999.512,-969.238,-969.238,881.836,36.133,0
1579966186.966,999.512,-969.238,-969.238,930.176,54.199,0
1579966186.970,999.512,-969.238,-969.238,-979.492,377.930,0
1579966186.974,999.512,-969.238,-969.238,990.723,491.699,0
1579966186.977,999.512,-969.238,-969.238,-999.023,196.289,0
1579966186.981,999.512,-969.238,-969.238,999.512,285.645,0
1579966186.985,999.512,-969.238,-969.238,999.512,586.914,0
1579966186.989,999.512,-969.238,-969.238,999.512,779.785,0
1579966186.993,999.512,-969.238,-969.238,999.512,826.172,0
1579966186.997,999.512,-969.238,-969.238,999.512,468.262,0
1579966187.001,999.512,-969.238,-969.238,999.512,428.223,0
1579966187.005,999.512,-969.238,-969.238,999.512,612.793,0
1579966187.009,999.512,-969.238,-969.238,999.512,613.770,0
1579966187.013,999.512,-969.238,-969.238,999.512,532.227,0
1579966187.017,999.512,-969.238,-969.238,999.512,557.129,0
1579966187.020,999.512,-969.238,-969.238,999.512,783.203,0
1579966187.024,999.512,-969.238,-969.238,999.512,789.062,0
1579966187.028,999.512,-969.238,-969.238,999.512,834.473,0
1579966187.032,999.512,-969.238,-969.238,999.512,947.754,0
1579966187.036,999.512,-969.238,-969.238,999.512,976.074,0
1579966187.040,999.512,-969.238,-969.238,999.512,-999.512,0
1579966187.044,999.512,-969.238,-969.238,999.512,989.258,0
1579966187.048,999.512,-969.238,-969.238,999.512,998.047,0
1579966187.052,999.512,-969.238,-969.238,999.512,-1000.000,0
1579966187.056,999.512,-969.238,-969.238,999.512,998.535,0
1579966187.060,999.512,-969.238,-969.238,999.512,999.512,0
1579966187.063,999.512,-969.238,-969.238,999.512,999.512,0
1579966187.067,999.512,-969.238,-969.238,999.512,999.512,0
1579966187.071,999.512,-969.238,-969.238,999.512,999.512,0
1579966187.075,999.512,-969.238,-969.238,999.512,999.512,0
1579966187.079,999.512,-969.238,-969.238,999.512,999.512,0
1579966187.083,999.512,-969.238,-969.238,999.512,999.512,0
1579966187.087,999.512,-969.238,-969.238,999.512,999.512,0
1579966187.091,999.512,-969.727,-969.238,999.512,999.512,0
1579966187.095,999.512,-966.797,-969.238,999.512,999.512,0
1579966187.099,999.512,-971.191,-969.238,999.512,999.512,0
1579966187.102,999.512,-945.801,-969.238,999.512,999.512,0
1579966187.106,-997.559,-863.281,-969.727,999.512,999.512,0
1579966187.110,987.793,-747.559,-963.867,999.512,999.512,0
1579966187.114,959.473,-650.391,-975.098,999.512,-1000.000,0
1579966187.118,-908.691,-629.395,-938.477,998.047,984.375,0
1579966187.122,43.457,-616.699,-771.484,-998.047,-980.957,0
1579966187.126,-1000.000,-548.828,-719.238,995.605,848.145,0
1579966187.130,-937.012,-472.656,-748.535,985.840,393.066,0
1579966187.134,-952.637,-462.891,-630.859,946.777,238.770,0
1579966187.138,-973.633,-490.234,-509.277,-950.684,242.188,0
1579966187.142,-969.238,-425.781,-426.270,847.168,354.492,0
1579966187.145,-969.238,-237.793,-455.078,-649.414,139.648,0
1579966187.149,-969.238,-154.297,-441.406,-518.555,-186.035,0
1579966187.153,-969.238,-315.918,-299.805,-862.793,-274.414,0
1579966187.157,-969.238,-334.961,-270.508,293.457,-365.234,0
1579966187.161,-969.238,-127.441,-286.621,-1000.000,-401.855,0
1579966187.165,-969.238,-39.062,-258.789,-1000.000,-591.797,0
1579966187.169,-969.238,-125.488,-110.352,-269.531,-486.328,0
1579966187.173,-969.238,-203.125,-73.730,-200.684,-540.039,0
1579966187.177,-969.238,-96.191,-152.344,-1000.000,-722.168,0
1579966187.181,-969.238,-1.953,-78.613,-969.238,-607.910,0
1579966187.185,-969.238,-66.895,-32.227,-946.289,-752.930,0
1579966187.188,-969.238,-136.719,-43.457,-963.379,-916.504,0
1579966187.192,-969.238,-118.164,-110.352,-969.238,-961.426,0
1579966187.196,-969.238,-57.129,-125.000,-969.727,-969.238,0
1579966187.200,-969.238,-70.801,-32.715,-968.750,-967.285,0
1579966187.204,-969.238,-139.160,22.949,-969.238,-969.238,0
1579966187.208,-969.238,-134.277,-23.438,-969.238,-969.238,0
1579966187.212,-969.238,-72.266,-91.797,-969.238,-969.727,0
1579966187.216,-969.238,-51.270,4.883,-969.238,-958.496,0
1579966187.220,-969.238,-95.703,141.113,-969.238,-960.449,0
1579966187.224,-969.238,-114.746,105.469,-969.238,-966.797,0
1579966187.227,-969.238,-68.359,-5.859,-969.238,-967.285,0
1579966187.231,-969.238,-41.504,7.812,-969.238,-983.887,0
1579966187.235,-969.238,-52.734,208.984,-969.238,-854.980,0
1579966187.239,-969.238,-85.449,239.746,-969.238,-875.977,0
1579966187.243,-969.238,-72.266,75.195,-969.238,-989.746,0
1579966187.247,-969.238,-27.832,44.922,-969.238,-963.867,0
1579966187.251,-969.238,-50.781,157.227,-969.238,-967.773,0
1579966187.255,-969.238,-100.586,227.539,-969.238,-965.332,0
1579966187.259,-969.238,-97.656,113.281,-969.238,-971.680,0
1579966187.263,-969.238,-43.457,72.754,-969.238,-956.543,0
1579966187.267,-969.238,-74.219,113.770,-969.238,-995.605,0
1579966187.270,-969.238,-149.902,154.297,-969.238,-899.902,0
1579966187.274,-969.238,-145.020,159.180,-968.750,-750.977,0
1579966187.278,-969.238,-131.348,5.859,-953.125,-932.129,0
1579966187.282,-969.238,-163.574,-78.613,-1000.000,-986.816,0
1579966187.286,-969.238,-266.602,-46.387,-696.777,-966.797,0
1579966187.290,-969.238,-327.637,-74.219,-626.953,-908.203,0
1579966187.294,-969.238,-284.668,-206.055,-945.312,-912.598,0
1579966187.298,-969.238,-263.672,-282.227,-1000.000,-989.746,0
1579966187.302,-969.238,-383.789,-229.980,-99.609,-885.742,0
1579966187.306,-969.238,-576.660,-247.070,880.859,-803.223,0
1579966187.309,-969.238,-502.441,-336.914,-426.270,-674.805,0
1579966187.313,-969.238,-346.191,-401.855,-1000.000,-622.559,0
1579966187.317,-969.238,-460.449,-396.484,14.160,-660.645,0
1579966187.321,-969.238,-675.293,-383.301,-772.461,-624.512,0
1579966187.325,-969.238,-682.129,-501.953,391.113,-695.312,0
1579966187.329,-969.238,-483.398,-532.715,-836.426,-391.113,0
1579966187.333,-969.238,-500.000,-463.379,161.621,-204.590,0
1579966187.337,-976.562,-715.332,-461.914,-863.770,-339.844,0
1579966187.341,-900.879,-787.109,-577.637,939.453,-496.582,0
1579966187.345,-1000.000,-673.340,-703.613,145.996,-543.457,0
1579966187.349,-355.469,-627.930,-674.805,365.234,-392.090,0
1579966187.352,991.699,-757.324,-605.469,-914.551,-280.273,0
1579966187.356,-986.816,-793.945,-616.211,992.676,-131.836,0
1579966187.360,958.984,-751.953,-727.539,929.688,-272.461,0
1579966187.364,-989.746,-724.121,-766.602,905.273,-319.824,0
1579966187.368,999.512,-760.254,-639.160,-993.652,104.980,0
1579966187.372,999.512,-839.355,-689.941,-999.512,24.414,0
1579966187.376,999.512,-840.332,-875.000,996.582,-307.129,0
1579966187.380,999.512,-803.711,-954.102,999.512,-395.996,0
1579966187.384,999.512,-832.031,-881.836,999.512,-119.629,0
1579966187.388,999.512,-903.809,-856.934,999.512,93.750,0
1579966187.392,999.512,-910.645,-952.148,999.512,65.918,0
1579966187.395,999.512,-865.234,-972.168,999.512,4.883,0
1579966187.399,999.512,-884.277,-969.727,999.512,-47.852,0
1579966187.403,999.512,-923.340,-951.660,999.512,328.613,0
1579966187.407,999.512,-920.898,-945.801,999.512,337.891,0
1579966187.411,999.512,-867.676,-966.797,999.512,-102.051,0
1579966187.415,999.512,-831.055,-974.121,999.512,-184.570,0
1579966187.419,999.512,-861.816,-957.031,999.512,5.371,0
1579966187.423,999.512,-847.168,-835.449,999.512,336.914,0
1579966187.427,999.512,-796.387,-875.977,999.023,78.613,0
1579966187.431,999.512,-776.855,-980.469,998.535,-333.984,0
1579966187.434,999.512,-804.688,-891.602,999.023,-163.574,0
1579966187.438,999.512,-830.566,-801.758,999.512,14.160,0
1579966187.442,999.512,-780.273,-843.262,999.023,-129.395,0
1579966187.446,999.512,-722.656,-898.926,-1000.000,-411.133,0
1579966187.450,999.512,-711.914,-768.555,996.094,-197.266,0
1579966187.454,999.512,-740.234,-654.297,982.910,-1.953,0
1579966187.458,999.512,-713.379,-663.086,-935.059,-109.375,0
1579966187.462,-991.699,-587.402,-658.691,613.281,-178.711,0
1579966187.466,959.473,-550.781,-646.484,506.348,-449.707,0
1579966187.470,-979.980,-627.441,-565.430,-912.598,-601.562,0
1579966187.474,937.012,-620.605,-539.062,838.867,-676.758,0
1579966187.477,-361.328,-434.570,-562.988,-505.371,-785.156,0
1579966187.481,-1000.000,-265.625,-498.535,-1000.000,-815.918,0
1579966187.485,-910.645,-372.559,-357.910,461.426,-880.859,0
1579966187.489,-972.656,-463.867,-281.738,437.012,-946.289,0
1579966187.493,-969.727,-280.762,-310.059,-968.262,-972.168,0
1579966187.497,-969.238,-107.422,-205.566,-991.211,-966.797,0
1579966187.501,-969.238,-98.145,-12.695,-928.223,-969.238,0
1579966187.505,-969.238,-125.488,61.523,-979.492,-969.238,0
1579966187.509,-969.238,-65.918,56.152,-969.238,-969.238,0
1579966187.513,-969.238,19.043,51.758,-969.238,-969.238,0
1579966187.516,-969.238,58.105,242.676,-969.238,-969.238,0
1579966187.520,-969.238,13.184,364.258,-969.238,-969.238,0
1579966187.524,-969.238,-30.762,225.098,-969.238,-969.238,0
1579966187.528,-969.238,-5.371,97.168,-969.238,-969.238,0
1579966187.532,-969.238,-10.254,121.582,-969.238,-969.238,0
1579966187.536,-969.238,-70.801,222.168,-969.238,-969.238,0
1579966187.540,-969.238,-110.840,169.434,-970.215,-970.703,0
1579966187.544,-969.238,-55.176,102.051,-964.844,-961.426,0
1579966187.548,-969.238,-34.668,93.750,-979.980,-985.840,0
1579966187.552,-969.238,-84.473,178.711,-937.500,-927.734,0
1579966187.556,-969.238,-103.516,268.555,-909.180,-849.121,0
1579966187.559,-969.238,-84.961,129.883,-971.680,-958.008,0
1579966187.563,-969.238,-44.922,52.734,-971.191,-978.516,0
1579966187.567,-969.238,-63.965,147.949,-966.797,-962.891,0
1579966187.571,-969.238,-107.422,213.379,-969.238,-970.703,0
1579966187.575,-969.238,-90.820,135.254,-969.238,-969.238,0
1579966187.579,-969.238,-40.039,47.852,-969.238,-969.238,0
1579966187.583,-969.238,-43.457,109.863,-969.238,-969.238,0
1579966187.587,-969.238,-101.074,188.477,-969.238,-969.238,0
1579966187.591,-969.238,-92.773,188.965,-969.238,-969.238,0
1579966187.595,-969.238,-35.645,121.582,-969.238,-969.238,0
1579966187.599,-969.238,-39.551,97.656,-969.238,-968.750,0
1579966187.602,-969.238,-99.121,167.480,-969.238,-969.238,0
1579966187.606,-969.238,-125.488,153.320,-969.238,-969.727,0
1579966187.610,-969.238,-54.199,137.207,-969.238,-960.449,0
1579966187.614,-969.238,-24.414,133.789,-969.238,-964.844,0
1579966187.618,-969.238,-98.145,142.578,-969.238,-970.703,0
1579966187.622,-969.238,-148.438,153.320,-969.238,-968.750,0
1579966187.626,-969.238,-107.422,101.074,-968.750,-967.773,0
1579966187.630,-969.238,-64.941,62.500,-969.727,-968.750,0
1579966187.634,-969.238,-118.652,71.777,-968.750,-978.516,0
1579966187.638,-969.238,-172.852,149.902,-963.867,-887.207,0
1579966187.641,-969.238,-180.176,56.641,-961.426,-919.922,0
1579966187.645,-969.238,-148.438,-58.105,-966.797,-953.125,0
1579966187.649,-969.238,-145.996,32.227,-1000.000,-734.863,0
1579966187.653,-969.238,-280.762,17.090,-651.855,-818.359,0
1579966187.657,-969.238,-356.445,-134.277,-687.500,-967.773,0
1579966187.661,-969.238,-306.152,-280.762,-979.004,-978.027,0
1579966187.665,-969.238,-291.992,-291.016,-1000.000,-886.719,0
1579966187.669,-969.238,-430.176,-244.141,-91.797,-795.898,0
1579966187.673,-969.238,-583.496,-326.660,238.281,-841.797,0
1579966187.677,-969.238,-502.930,-481.445,-939.941,-938.965,0
1579966187.681,-969.238,-414.551,-546.387,-1000.000,-936.035,0
1579966187.684,-969.238,-530.273,-452.148,44.434,-633.301,0
1579966187.688,-979.492,-731.934,-417.480,-924.805,-504.395,0
1579966187.692,-906.250,-684.570,-570.801,-142.090,-676.270,0
1579966187.696,-1000.000,-517.578,-692.871,-1000.000,-775.391,0
1579966187.700,-545.898,-563.965,-651.367,-285.645,-734.863,0
1579966187.704,816.895,-718.262,-486.816,-853.516,-349.121,0
1579966187.708,-932.129,-718.750,-539.551,313.477,-383.789,0
1579966187.712,876.465,-561.035,-742.676,-1000.000,-804.688,0
1579966187.716,917.969,-529.785,-712.402,-468.750,-782.227,0
1579966187.720,975.586,-700.195,-582.520,-956.543,-646.484,0
1579966187.724,-945.801,-757.324,-579.102,604.004,-633.301,0
1579966187.727,867.188,-590.820,-705.566,-891.113,-820.801,0
1579966187.731,157.715,-470.215,-653.320,-849.121,-688.965,0
1579966187.735,552.734,-608.887,-519.531,577.637,-621.582,0
1579966187.739,-785.645,-720.215,-489.746,896.484,-621.582,0
1579966187.743,127.930,-566.406,-515.137,-377.441,-466.309,0
1579966187.747,-1000.000,-431.641,-594.727,-1000.000,-745.605,0
1579966187.751,-949.707,-511.719,-551.758,-99.609,-856.934,0
1579966187.755,-535.645,-693.848,-485.352,987.793,-839.844,0
1579966187.759,-706.055,-615.234,-536.133,-255.859,-858.398,0
1579966187.763,-1000.000,-419.434,-578.613,-1000.000,-887.207,0
1579966187.766,-948.730,-430.176,-520.996,-543.457,-935.059,0
1579966187.770,-970.215,-606.445,-422.852,857.422,-865.234,0
1579966187.774,-969.238,-624.023,-453.613,167.480,-881.836,0
1579966187.778,-969.238,-422.363,-495.117,-1000.000,-821.289,0
1579966187.782,-969.238,-361.816,-430.664,-855.957,-737.305,0
1579966187.786,-969.238,-535.156,-369.141,538.086,-834.473,0
1579966187.790,-969.238,-635.254,-402.344,397.949,-933.105,0
1579966187.794,-969.238,-473.633,-508.789,-1000.000,-1000.000,0
1579966187.798,-969.238,-337.402,-408.203,-1000.000,-714.844,0
1579966187.802,-969.238,-456.055,-288.086,252.930,-630.859,0
1579966187.806,-969.238,-629.883,-349.609,680.664,-943.848,0
1579966187.809,-969.238,-514.648,-457.520,-699.219,-982.422,0
1579966187.813,-969.238,-353.027,-467.773,-1000.000,-937.012,0
1579966187.817,-969.238,-396.484,-346.191,-305.664,-859.863,0
1579966187.821,-969.238,-585.938,-316.406,853.516,-943.848,0
1579966187.825,-969.238,-544.434,-354.980,-113.770,-887.207,0
1579966187.829,-969.238,-360.352,-426.270,-1000.000,-929.199,0
1579966187.833,-969.238,-357.910,-371.582,-476.562,-881.348,0
1579966187.837,-969.238,-516.113,-201.172,989.746,-567.871,0
1579966187.841,-969.238,-569.824,-309.570,204.590,-816.895,0
1579966187.845,-969.238,-404.785,-479.004,-1000.000,-1000.000,0
1579966187.848,-969.238,-338.867,-446.777,-846.680,-964.355,0
1579966187.852,-969.238,-483.887,-319.824,529.785,-908.203,0
1579966187.856,-969.238,-591.309,-299.805,539.551,-862.793,0
1579966187.860,-969.238,-449.707,-431.641,-876.953,-948.242,0
1579966187.864,-969.238,-333.008,-469.727,-1000.000,-972.168,0
1579966187.868,-969.238,-451.172,-373.047,191.895,-979.980,0
1579966187.872,-969.238,-614.746,-294.434,989.258,-831.543,0
1579966187.876,-969.238,-517.578,-375.977,-369.629,-800.293,0
1579966187.880,-969.238,-351.074,-474.121,-1000.000,-968.262,0
1579966187.884,-969.238,-420.410,-407.227,-140.137,-930.664,0
1579966187.888,-969.238,-623.047,-351.562,-817.383,-916.992,0
1579966187.891,-969.238,-591.797,-347.168,312.012,-678.711,0
1579966187.895,-969.238,-399.414,-424.316,-1000.000,-669.922,0
1579966187.899,-969.238,-402.344,-459.473,-418.945,-899.414,0
1579966187.903,-969.238,-595.703,-385.742,-910.645,-871.094,0
1579966187.907,-974.121,-655.273,-416.016,577.148,-825.195,0
1579966187.911,-945.312,-474.121,-507.812,-941.895,-802.246,0
1579966187.915,-976.562,-393.555,-503.906,-633.789,-803.711,0
1579966187.919,-989.258,-558.594,-384.277,843.750,-596.680,0
1579966187.923,65.430,-700.195,-426.758,946.777,-676.270,0
1579966187.927,-127.930,-567.871,-561.035,-426.270,-749.512,0
1579966187.931,-922.363,-400.391,-519.531,-973.633,-420.898,0
1579966187.934,498.047,-539.551,-496.094,270.508,-518.555,0
1579966187.938,-884.766,-735.840,-549.805,-782.227,-726.562,0
1579966187.942,937.500,-679.688,-676.270,86.426,-805.664,0
1579966187.946,-995.117,-497.559,-741.211,-1000.000,-724.121,0
1579966187.950,999.512,-567.383,-668.457,144.531,-622.070,0
1579966187.954,999.512,-773.926,-640.137,-791.992,-649.414,0
1579966187.958,999.512,-791.504,-734.863,600.098,-691.406,0
1579966187.962,999.512,-625.977,-856.445,-792.969,-739.258,0
1579966187.966,999.512,-602.051,-778.320,-59.082,-501.465,0
1579966187.970,999.512,-787.598,-672.363,-863.770,-316.895,0
1579966187.973,999.512,-858.887,-749.023,-999.512,-451.660,0
1579966187.977,999.512,-738.770,-903.809,-207.031,-651.855,0
1579966187.981,999.512,-664.062,-943.848,-203.613,-686.523,0
1579966187.985,999.512,-785.645,-755.859,-943.359,-219.727,0
1579966187.989,999.512,-883.789,-752.930,-921.387,-176.758,0
1579966187.993,999.512,-816.895,-933.594,122.070,-615.723,0
1579966187.997,999.512,-695.801,-986.328,-187.012,-660.156,0
1579966188.001,999.512,-776.367,-907.715,877.441,-482.422,0
1579966188.005,999.512,-887.695,-811.035,-835.449,-332.520,0
1579966188.009,999.512,-856.445,-911.621,556.641,-555.664,0
1579966188.013,999.512,-699.219,-951.172,-216.797,-499.023,0
1579966188.016,999.512,-714.355,-850.098,606.445,-383.301,0
1579966188.020,999.512,-838.867,-759.277,-874.023,-282.715,0
1579966188.024,999.512,-820.312,-742.676,898.438,-137.695,0
1579966188.028,999.512,-681.641,-885.742,-349.609,-449.219,0
1579966188.032,999.512,-625.000,-880.859,-118.652,-516.602,0
1579966188.036,999.512,-776.855,-766.602,-894.531,-467.773,0
1579966188.040,999.512,-830.566,-767.090,-950.684,-481.934,0
1579966188.044,999.512,-687.012,-855.469,-244.141,-586.426,0
1579966188.048,999.512,-554.688,-876.465,-649.902,-647.461,0
1579966188.052,999.512,-676.270,-750.000,792.969,-544.434,0
1579966188.055,999.512,-809.082,-710.449,-795.898,-563.477,0
1579966188.059,999.512,-701.660,-753.418,107.910,-508.789,0
1579966188.063,999.512,-520.508,-773.926,-871.582,-441.895,0
1579966188.067,999.512,-603.027,-716.797,343.750,-493.164,0
1579966188.071,999.512,-787.109,-670.410,-744.629,-542.480,0
1579966188.075,999.512,-749.512,-767.578,291.992,-650.391,0
1579966188.079,999.512,-535.156,-766.113,-988.770,-338.867,0
1579966188.083,999.512,-559.570,-693.359,34.180,-287.109,0
1579966188.087,999.512,-774.902,-687.500,-822.266,-493.652,0
1579966188.091,999.512,-799.805,-727.051,765.625,-452.148,0
1579966188.095,999.512,-635.742,-845.215,-667.969,-511.719,0
1579966188.098,999.512,-580.078,-839.355,-235.840,-436.035,0
1579966188.102,999.512,-769.043,-773.438,-929.199,-433.594,0
1579966188.106,999.512,-848.145,-759.766,-904.297,-278.809,0
1579966188.110,999.512,-739.746,-873.047,-10.254,-350.098,0
1579966188.114,999.512,-644.043,-929.199,-246.094,-381.348,0
1579966188.118,999.512,-756.348,-770.996,981.445,-15.137,0
1579966188.122,999.512,-905.762,-827.637,-838.867,-184.570,0
1579966188.126,999.512,-862.305,-970.215,404.785,-499.512,0
1579966188.130,999.512,-745.605,-968.262,-97.656,-528.320,0
1579966188.134,999.512,-815.430,-966.309,846.680,-340.820,0
1579966188.138,999.512,-942.383,-969.727,-891.602,-200.195,0
1579966188.141,999.512,-947.754,-969.238,844.727,-409.180,0
1579966188.145,999.512,-834.961,-969.238,375.000,-439.941,0
1579966188.149,999.512,-830.566,-969.238,749.023,-327.148,0
1579966188.153,999.512,-936.035,-967.773,-937.988,-96.680,0
1579966188.157,999.512,-951.172,-968.262,-979.004,-81.543,0
1579966188.161,999.512,-879.883,-969.238,576.172,-457.031,0
1579966188.165,999.512,-841.797,-969.238,566.406,-516.113,0
1579966188.169,999.512,-932.129,-969.238,-973.145,-374.512,0
1579966188.173,999.512,-950.684,-969.238,-931.152,-14.160,0
1579966188.177,999.512,-880.859,-969.238,660.645,-173.828,0
1579966188.180,999.512,-836.914,-969.238,520.508,-549.316,0
1579966188.184,999.512,-893.555,-969.238,-998.535,-387.207,0
1579966188.188,999.512,-943.359,-969.727,-931.152,-236.328,0
1579966188.192,999.512,-888.672,-966.309,771.484,-290.527,0
1579966188.196,999.512,-800.293,-973.145,528.320,-455.078,0
1579966188.200,999.512,-817.871,-956.055,950.684,-288.574,0
1579966188.204,999.512,-893.555,-894.531,-969.727,-82.031,0
1579966188.208,999.512,-878.418,-906.250,993.652,-114.746,0
1579966188.212,999.512,-784.180,-934.082,771.973,-145.996,0
1579966188.216,999.512,-792.480,-961.426,819.824,-350.586,0
1579966188.220,999.512,-883.301,-948.242,-977.051,-378.418,0
1579966188.223,999.512,-895.996,-941.406,-954.590,-392.090,0
1579966188.227,999.512,-801.758,-970.703,601.074,-461.914,0
1579966188.231,999.512,-754.395,-972.656,556.641,-448.242,0
1579966188.235,999.512,-843.262,-956.543,-970.703,-350.586,0
1579966188.239,999.512,-895.020,-940.430,-940.430,-283.203,0
1579966188.243,999.512,-824.219,-965.332,597.168,-487.305,0
1579966188.247,999.512,-741.699,-977.051,547.363,-386.719,0
1579966188.251,999.512,-808.594,-912.598,-978.027,-213.867,0
1579966188.255,999.512,-886.230,-886.719,-958.496,-239.746,0
1579966188.259,999.512,-861.328,-951.660,876.953,-395.508,0
1579966188.263,999.512,-779.785,-987.305,691.406,-444.336,0
1579966188.266,999.512,-774.902,-896.484,976.562,-31.738,0
1579966188.270,999.512,-863.281,-842.773,-979.004,24.414,0
1579966188.274,999.512,-886.719,-948.730,991.699,-344.727,0
1579966188.278,999.512,-820.801,-973.145,919.922,-580.078,0
1579966188.282,999.512,-801.270,-969.238,934.570,-452.637,0
1579966188.286,999.512,-858.887,-942.383,-987.305,-152.832,0
1579966188.290,999.512,-880.859,-943.359,995.117,-257.812,0
1579966188.294,999.512,-813.477,-966.309,999.512,-323.242,0
1579966188.298,999.512,-787.598,-979.980,999.512,-364.258,0
1579966188.302,999.512,-829.102,-936.523,998.535,-166.992,0
1579966188.305,999.512,-834.961,-831.055,-999.023,172.852,0
1579966188.309,999.512,-812.012,-911.621,994.629,-245.117,0
1579966188.313,999.512,-779.785,-985.840,989.258,-593.262,0
1579966188.317,999.512,-800.293,-952.637,997.559,-395.508,0
1579966188.321,999.512,-826.172,-850.098,-997.070,-108.887,0
1579966188.325,999.512,-794.434,-875.488,994.141,-273.926,0
1579966188.329,999.512,-739.258,-958.496,972.168,-541.992,0
1579966188.333,999.512,-741.699,-873.047,993.164,-434.082,0
1579966188.337,999.512,-796.875,-785.645,-998.535,-290.527,0
1579966188.341,999.512,-773.926,-776.367,-992.676,-183.105,0
1579966188.345,999.512,-692.871,-826.660,926.270,-308.594,0
1579966188.348,999.512,-683.105,-823.242,939.941,-475.098,0
1579966188.352,999.512,-742.676,-735.840,-988.281,-357.422,0
1579966188.356,999.512,-758.301,-747.070,993.164,-355.957,0
1579966188.360,999.512,-668.457,-749.512,895.020,-230.957,0
1579966188.364,999.512,-624.023,-740.234,873.535,-283.691,0
1579966188.368,999.512,-691.406,-719.727,965.820,-381.836,0
1579966188.372,999.512,-738.770,-702.148,-907.715,-314.941,0
1579966188.376,999.512,-675.781,-774.902,682.617,-423.828,0
1579966188.380,999.512,-564.941,-779.297,399.414,-365.234,0
1579966188.384,999.512,-618.164,-717.773,943.848,-377.930,0
1579966188.387,999.512,-699.707,-634.766,-908.203,-181.152,0
1579966188.391,999.512,-679.688,-707.031,788.574,-272.949,0
1579966188.395,999.512,-555.176,-799.805,96.191,-440.430,0
1579966188.399,999.512,-535.645,-662.109,576.660,-114.258,0
1579966188.403,999.512,-682.129,-619.141,-902.832,-165.039,0
1579966188.407,999.512,-720.215,-718.262,982.422,-379.883,0
1579966188.411,999.512,-593.262,-837.402,-26.367,-562.988,0
1579966188.415,999.512,-528.320,-800.293,81.055,-437.500,0
1579966188.419,999.512,-664.062,-679.199,-944.824,-248.535,0
1579966188.423,999.512,-747.070,-715.332,-872.559,-371.094,0
1579966188.427,999.512,-651.367,-826.660,193.848,-517.090,0
1579966188.430,999.512,-534.668,-852.051,-156.738,-541.016,0
1579966188.434,999.512,-620.117,-687.012,937.012,-208.496,0
1579966188.438,999.512,-726.074,-609.863,-833.984,-7.324,0
1579966188.442,999.512,-690.430,-765.137,456.543,-363.770,0
1579966188.446,999.512,-551.758,-869.141,-364.258,-540.039,0
1579966188.450,999.512,-596.191,-791.016,571.289,-471.680,0
1579966188.454,999.512,-715.332,-627.441,-828.125,-54.688,0
1579966188.458,999.512,-706.543,-686.035,727.539,-119.629,0
1579966188.462,999.512,-576.172,-865.234,-403.320,-550.293,0
1579966188.466,999.512,-552.246,-818.848,110.352,-500.488,0
1579966188.470,999.512,-706.055,-690.430,-853.516,-307.617,0
1579966188.473,999.512,-729.004,-695.801,874.512,-269.043,0
1579966188.477,999.512,-583.496,-827.637,-370.117,-491.699,0
1579966188.481,999.512,-498.047,-777.344,-126.465,-343.262,0
1579966188.485,999.512,-648.926,-658.203,-957.031,-290.039,0
1579966188.489,999.512,-732.422,-658.203,-847.656,-316.406,0
1579966188.493,999.512,-609.375,-665.039,260.254,-92.773,0
1579966188.497,999.512,-481.445,-730.957,-426.270,-277.344,0
1579966188.501,999.512,-591.797,-708.008,736.816,-448.242,0
1579966188.505,999.512,-728.516,-665.527,-797.852,-418.457,0
1579966188.509,999.512,-669.434,-726.562,483.887,-428.223,0
1579966188.512,999.512,-495.117,-786.621,-675.293,-445.312,0
1579966188.516,999.512,-525.879,-731.934,215.820,-487.305,0
1579966188.520,999.512,-700.684,-642.090,-796.875,-409.180,0
1579966188.524,999.512,-703.613,-702.637,695.312,-496.094,0
1579966188.528,999.512,-522.461,-748.047,-556.152,-425.293,0
1579966188.532,999.512,-478.027,-693.848,-68.848,-328.613,0
1579966188.536,999.512,-656.738,-637.207,-880.371,-397.461,0
1579966188.540,999.512,-727.539,-673.828,968.750,-466.797,0
1579966188.544,999.512,-579.102,-795.410,-411.133,-604.980,0
1579966188.548,999.512,-453.613,-714.355,-327.637,-276.855,0
1579966188.552,999.512,-599.609,-572.266,-962.891,-98.633,0
1579966188.555,999.512,-729.492,-630.371,-859.375,-322.754,0
1579966188.559,999.512,-634.277,-781.738,-28.809,-528.320,0
1579966188.563,999.512,-458.984,-815.430,-787.109,-493.164,0
1579966188.567,999.512,-550.293,-685.547,584.961,-297.852,0
1579966188.571,999.512,-727.051,-658.691,-782.715,-370.117,0
1579966188.575,999.512,-678.223,-714.355,481.934,-356.934,0
1579966188.579,999.512,-500.977,-791.992,-834.961,-400.879,0
1579966188.583,999.512,-509.766,-735.840,9.766,-361.328,0
1579966188.587,999.512,-671.875,-562.988,-783.691,26.367,0
1579966188.591,999.512,-710.449,-671.875,626.953,-222.656,0
1579966188.594,999.512,-554.199,-849.121,-807.129,-567.383,0
1579966188.598,999.512,-505.371,-814.941,-251.953,-505.859,0
1579966188.602,999.512,-675.293,-675.293,-909.180,-298.340,0
1579966188.606,999.512,-756.836,-682.617,-954.102,-322.754,0
1579966188.610,999.512,-615.723,-798.828,-291.016,-456.055,0
1579966188.614,999.512,-487.305,-789.551,-479.004,-343.750,0
1579966188.618,999.512,-637.695,-695.801,915.039,-312.988,0
1579966188.622,999.512,-752.441,-642.090,-811.523,-163.574,0
1579966188.626,999.512,-674.805,-731.445,293.945,-250.977,0
1579966188.630,999.512,-529.785,-834.473,-614.746,-451.172,0
1579966188.634,999.512,-598.145,-766.602,539.062,-418.945,0
1579966188.637,999.512,-754.883,-707.520,-838.379,-380.859,0
1579966188.641,999.512,-716.309,-696.777,820.312,-129.883,0
1579966188.645,999.512,-571.289,-770.996,-184.082,-193.359,0
1579966188.649,999.512,-578.125,-800.293,187.500,-444.824,0
1579966188.653,999.512,-728.027,-716.309,-899.414,-355.957,0
1579966188.657,999.512,-752.930,-739.746,-971.680,-309.082,0
1579966188.661,999.512,-633.301,-819.824,250.000,-393.066,0
1579966188.665,999.512,-591.797,-822.754,290.527,-447.266,0
1579966188.669,999.512,-696.777,-681.641,-923.828,-122.070,0
1579966188.673,999.512,-743.652,-673.828,-978.516,-31.250,0
1579966188.677,999.512,-675.293,-779.297,778.320,-201.172,0
1579966188.680,999.512,-611.328,-727.051,786.133,-31.250,0
1579966188.684,999.512,-697.754,-686.035,-969.727,-91.797,0
1579966188.688,999.512,-767.090,-736.328,997.559,-216.309,0
1579966188.692,999.512,-729.492,-831.543,984.863,-354.492,0
1579966188.696,999.512,-671.387,-850.098,969.727,-354.004,0
1579966188.700,999.512,-700.195,-768.066,998.535,-172.852,0
1579966188.704,999.512,-766.113,-739.258,-999.023,-99.609,0
1579966188.708,999.512,-757.324,-812.500,998.047,-206.055,0
1579966188.712,999.512,-705.566,-888.672,999.512,-362.793,0
1579966188.716,999.512,-695.801,-791.992,999.512,-42.969,0
1579966188.719,999.512,-751.953,-695.801,999.512,257.812,0
1579966188.723,999.512,-778.320,-780.762,999.512,119.141,0
1579966188.727,999.512,-724.121,-875.488,999.512,-53.711,0
1579966188.731,999.512,-714.355,-873.047,999.512,-133.301,0
1579966188.735,999.512,-748.047,-721.680,999.512,330.566,0
1579966188.739,999.512,-774.902,-716.309,999.512,427.734,0
1579966188.743,999.512,-758.301,-893.555,999.512,-41.504,0
1579966188.747,999.512,-725.586,-921.875,999.512,-152.832,0
1579966188.751,999.512,-750.488,-810.059,999.512,115.234,0
1579966188.755,999.512,-783.203,-749.512,999.512,352.539,0
1579966188.759,999.512,-760.254,-858.887,999.512,72.754,0
1579966188.762,999.512,-691.406,-866.699,999.512,100.586,0
1579966188.766,999.512,-709.473,-782.715,999.512,232.422,0
1579966188.770,999.512,-761.719,-728.027,999.512,335.449,0
1579966188.774,999.512,-727.539,-712.402,999.512,552.246,0
1579966188.778,999.512,-689.941,-839.355,999.512,144.531,0
1579966188.782,999.512,-706.055,-858.398,999.512,-45.898,0
1579966188.786,999.512,-755.859,-749.023,999.512,297.363,0
1579966188.790,999.512,-763.184,-763.672,999.512,356.445,0
1579966188.794,999.512,-710.938,-870.605,999.512,93.750,0
1579966188.798,999.512,-691.895,-881.836,999.512,15.625,0
1579966188.802,999.512,-737.305,-786.621,999.512,254.395,0
1579966188.805,999.512,-770.508,-780.762,999.512,302.734,0
1579966188.809,999.512,-714.355,-826.660,999.512,283.203,0
1579966188.813,999.512,-664.062,-829.102,999.512,281.250,0
1579966188.817,999.512,-713.379,-796.387,999.512,268.555,0
1579966188.821,999.512,-771.484,-784.668,999.512,337.891,0
1579966188.825,999.512,-749.023,-873.535,999.512,194.336,0
1579966188.829,999.512,-668.457,-851.562,999.512,317.383,0
1579966188.833,999.512,-680.176,-776.855,999.512,421.387,0
1579966188.837,999.512,-764.648,-797.363,999.512,292.969,0
1579966188.841,999.512,-762.207,-860.840,999.512,248.047,0
1579966188.844,999.512,-691.406,-900.391,999.512,233.398,0
1579966188.848,999.512,-685.059,-854.492,999.512,290.527,0
1579966188.852,999.512,-758.301,-821.777,999.512,308.594,0
1579966188.856,999.512,-760.254,-809.570,999.512,490.234,0
1579966188.860,999.512,-706.055,-901.367,999.512,247.070,0
1579966188.864,999.512,-676.270,-904.297,999.512,144.531,0
1579966188.868,999.512,-696.289,-723.145,999.512,667.480,0
1579966188.872,999.512,-751.953,-756.348,999.512,546.875,0
1579966188.876,999.512,-728.027,-910.645,999.512,118.164,0
1579966188.880,999.512,-678.711,-937.500,999.512,-5.859,0
1579966188.884,999.512,-693.848,-822.754,999.512,238.770,0
1579966188.887,999.512,-736.328,-762.695,999.512,381.836,0
1579966188.891,999.512,-719.727,-857.422,999.512,150.391,0
1579966188.895,999.512,-658.691,-917.480,999.512,-61.523,0
1579966188.899,999.512,-656.738,-834.961,999.512,84.961,0
1579966188.903,999.512,-692.871,-698.730,999.512,530.273,0
1579966188.907,999.512,-690.918,-736.816,999.512,476.074,0
1579966188.911,999.512,-645.508,-869.141,999.512,60.547,0
1579966188.915,999.512,-635.742,-866.211,999.512,-22.461,0
1579966188.919,999.512,-685.547,-780.762,999.512,139.160,0
1579966188.923,999.512,-671.875,-700.684,999.512,477.051,0
1579966188.926,999.512,-622.070,-783.203,999.512,246.094,0
1579966188.930,999.512,-617.676,-874.512,999.512,-165.527,0
1579966188.934,999.512,-661.133,-792.969,999.512,2.441,0
1579966188.938,999.512,-695.312,-750.977,999.512,167.480,0
1579966188.942,999.512,-654.297,-811.523,999.512,98.145,0
1579966188.946,999.512,-616.211,-877.930,999.512,-143.066,0
1579966188.950,999.512,-625.488,-762.695,999.512,125.488,0
1579966188.954,999.512,-678.711,-710.449,999.512,264.160,0
1579966188.958,999.512,-668.457,-789.062,999.512,147.461,0
1579966188.962,999.512,-587.402,-775.391,999.512,289.062,0
1579966188.966,999.512,-615.723,-783.203,998.047,121.582,0
1579966188.969,999.512,-694.824,-777.832,-999.512,91.797,0
1579966188.973,999.512,-705.566,-822.266,999.512,83.008,0
1579966188.977,999.512,-638.672,-889.648,969.727,-22.949,0
1579966188.981,999.512,-626.465,-868.164,986.328,-2.441,0
1579966188.985,999.512,-700.684,-810.059,-995.605,99.609,0
1579966188.989,999.512,-729.004,-819.824,997.070,172.363,0
1579966188.993,999.512,-685.059,-920.898,-1000.000,-36.621,0
1579966188.997,999.512,-636.719,-888.184,999.023,81.543,0
1579966189.001,999.512,-675.293,-781.250,999.512,365.723,0
1579966189.005,999.512,-738.281,-812.012,999.512,293.457,0
1579966189.009,999.512,-719.727,-918.457,999.512,74.219,0
1579966189.012,999.512,-675.781,-991.211,999.512,-94.727,0
1579966189.016,999.512,-670.898,-856.445,999.512,332.520,0
1579966189.020,999.512,-723.145,-764.160,999.512,545.410,0
1579966189.024,999.512,-745.117,-905.273,999.512,151.855,0
1579966189.028,999.512,-693.359,-978.516,999.512,-89.844,0
1579966189.032,999.512,-682.129,-953.125,999.512,12.207,0
1579966189.036,999.512,-726.562,-846.680,999.512,344.727,0
1579966189.040,999.512,-740.234,-841.797,999.512,300.293,0
1579966189.044,999.512,-676.758,-909.180,999.512,174.805,0
1579966189.048,999.512,-650.879,-890.137,999.512,113.281,0
1579966189.051,999.512,-697.266,-794.922,999.512,272.461,0
1579966189.055,999.512,-705.566,-721.680,999.512,625.977,0
1579966189.059,999.512,-680.176,-859.375,999.512,204.102,0
1579966189.063,999.512,-655.762,-941.895,999.512,-149.902,0
1579966189.067,999.512,-683.105,-851.074,999.023,19.043,0
1579966189.071,999.512,-711.914,-777.832,-1000.000,204.102,0
1579966189.075,999.512,-668.945,-812.012,998.047,189.453,0
1579966189.079,999.512,-621.582,-885.742,992.676,-111.328,0
1579966189.083,999.512,-635.742,-833.496,989.746,-130.859,0
1579966189.087,999.512,-685.547,-753.906,-987.793,56.641,0
1579966189.091,999.512,-661.621,-746.094,983.398,147.949,0
1579966189.094,999.512,-575.195,-792.480,837.402,9.277,0
1579966189.098,999.512,-578.613,-791.504,941.895,-173.340,0
1579966189.102,999.512,-649.902,-709.961,998.047,-90.332,0
1579966189.106,999.512,-666.504,-727.539,-953.125,-125.488,0
1579966189.110,999.512,-568.848,-725.098,812.988,18.555,0
1579966189.114,-990.723,-512.207,-698.242,652.832,-17.578,0
1579966189.118,944.336,-593.262,-678.223,964.844,-232.422,0
1579966189.122,-936.523,-646.484,-657.227,-885.742,-206.543,0
1579966189.126,766.602,-574.219,-720.215,569.824,-289.062,0
1579966189.130,-702.637,-445.312,-725.586,-41.992,-270.996,0
1579966189.133,-809.082,-506.836,-622.070,664.062,-203.125,0
1579966189.137,732.422,-612.305,-524.902,-812.012,-50.781,0
1579966189.141,111.816,-574.707,-589.844,586.914,-206.543,0
1579966189.145,-1000.000,-404.785,-661.133,-626.953,-342.773,0
1579966189.149,-934.082,-384.277,-517.578,175.781,-60.059,0
1579966189.153,-951.172,-581.543,-464.355,-779.785,-237.793,0
1579966189.157,-973.633,-611.816,-584.961,637.695,-589.844,0
1579966189.161,-969.238,-425.781,-674.316,-831.543,-668.945,0
1579966189.165,-969.238,-339.844,-604.492,-412.109,-545.898,0
1579966189.169,-969.238,-512.695,-473.145,-911.133,-468.262,0
1579966189.173,-969.238,-615.234,-499.023,853.516,-585.449,0
1579966189.176,-969.238,-462.402,-603.027,-537.109,-692.383,0
1579966189.180,-969.238,-306.641,-602.539,-929.688,-699.219,0
1579966189.184,-969.238,-414.062,-431.641,544.922,-436.523,0
1579966189.188,-969.238,-576.172,-375.000,-987.305,-431.641,0
1579966189.192,-969.238,-471.191,-494.141,-316.895,-686.035,0
1579966189.196,-969.238,-290.527,-543.945,-1000.000,-791.504,0
1579966189.200,-969.238,-358.887,-469.727,-105.469,-786.621,0
1579966189.204,-969.238,-527.344,-307.617,-820.312,-454.590,0
1579966189.208,-969.238,-490.723,-360.840,118.164,-487.793,0
1579966189.212,-969.238,-322.754,-523.438,-1000.000,-859.375,0
1579966189.216,-969.238,-319.824,-476.074,-444.824,-855.469,0
1579966189.219,-969.238,-503.906,-365.234,-936.035,-718.750,0
1579966189.223,-969.238,-552.734,-376.465,427.246,-667.480,0
1579966189.227,-969.238,-382.324,-500.977,-1000.000,-851.562,0
1579966189.231,-969.238,-289.551,-443.359,-720.215,-700.195,0
1579966189.235,-969.238,-453.125,-331.055,722.168,-599.121,0
1579966189.239,-969.238,-581.543,-346.191,827.148,-664.062,0
1579966189.243,-969.238,-415.039,-370.117,-549.805,-488.770,0
1579966189.247,-969.238,-278.320,-432.129,-1000.000,-723.145,0
1579966189.251,-969.238,-396.484,-371.582,166.016,-737.305,0
1579966189.255,-969.238,-583.496,-340.332,998.047,-727.051,0
1579966189.258,-969.238,-489.746,-439.453,-308.594,-832.031,0
1579966189.262,-969.238,-305.664,-478.027,-1000.000,-844.727,0
1579966189.266,-969.238,-343.750,-416.992,-388.672,-816.406,0
1579966189.270,-969.238,-534.668,-345.703,-989.258,-799.805,0
1579966189.274,-969.238,-534.668,-417.480,121.582,-908.203,0
1579966189.278,-969.238,-326.172,-448.242,-1000.000,-775.879,0
1579966189.282,-969.238,-293.457,-375.977,-672.852,-668.457,0
1579966189.286,-969.238,-487.305,-325.684,791.504,-749.023,0
1579966189.290,-969.238,-557.617,-369.141,338.379,-867.188,0
1579966189.294,-969.238,-384.766,-480.957,-1000.000,-1000.000,0
1579966189.298,-969.238,-267.578,-366.211,-940.918,-690.918,0
1579966189.301,-969.238,-404.785,-245.605,394.531,-570.801,0
1579966189.305,-969.238,-539.062,-304.688,432.129,-820.801,0
1579966189.309,-969.238,-398.926,-398.926,-925.293,-870.605,0
1579966189.313,-969.238,-283.203,-430.176,-1000.000,-944.824,0
1579966189.317,-969.238,-350.586,-313.965,-291.504,-812.988,0
1579966189.321,-969.238,-506.836,-291.016,382.324,-870.605,0
1579966189.325,-969.238,-431.152,-342.773,-638.672,-861.328,0
1579966189.329,-969.238,-288.574,-395.508,-1000.000,-940.918,0
1579966189.333,-969.238,-300.781,-328.613,-624.512,-883.301,0
1579966189.337,-969.238,-437.012,-164.551,486.328,-526.855,0
1579966189.341,-969.238,-462.402,-270.508,-267.578,-781.738,0
1579966189.344,-969.238,-316.895,-426.270,-1000.000,-1000.000,0
1579966189.348,-969.238,-287.598,-380.859,-974.121,-967.773,0
1579966189.352,-969.238,-384.766,-258.789,-330.566,-883.789,0
1579966189.356,-969.238,-428.223,-271.484,-375.488,-874.023,0
1579966189.360,-969.238,-329.102,-398.926,-1000.000,-985.840,0
1579966189.364,-969.238,-274.414,-363.770,-1000.000,-944.824,0
1579966189.368,-969.238,-329.102,-246.582,-759.766,-863.281,0
1579966189.372,-969.238,-377.930,-210.449,-666.992,-762.695,0
1579966189.376,-969.238,-325.195,-299.805,-985.840,-850.586,0
1579966189.380,-969.238,-285.645,-377.441,-974.609,-981.934,0
1579966189.383,-969.238,-319.336,-296.387,-959.961,-960.938,0
1579966189.387,-969.238,-375.000,-256.348,-970.703,-982.910,0
1579966189.391,-969.238,-329.102,-248.535,-969.238,-827.148,0
1579966189.395,-969.238,-274.902,-295.898,-969.238,-845.703,0
1579966189.399,-969.238,-316.895,-319.336,-969.238,-993.652,0
1579966189.403,-969.238,-375.000,-253.906,-969.238,-963.867,0
1579966189.407,-969.238,-370.117,-290.527,-969.238,-965.332,0
1579966189.411,-969.238,-309.570,-356.445,-969.238,-964.844,0
1579966189.415,-969.238,-309.082,-349.121,-969.238,-977.539,0
1579966189.419,-969.238,-359.375,-232.422,-969.238,-843.750,0
1579966189.423,-969.238,-380.859,-233.887,-969.238,-805.664,0
1579966189.426,-969.238,-329.102,-323.730,-969.238,-927.246,0
1579966189.430,-969.238,-282.227,-275.391,-969.238,-817.871,0
1579966189.434,-969.238,-351.562,-251.465,-969.238,-877.441,0
1579966189.438,-969.238,-416.992,-309.082,-969.238,-990.234,0
1579966189.442,-969.238,-380.859,-403.809,-969.238,-961.914,0
1579966189.446,-969.238,-328.125,-420.898,-969.238,-964.844,0
1579966189.450,-969.238,-357.910,-335.449,-969.238,-966.797,0
1579966189.454,-969.238,-424.805,-314.453,-969.238,-969.727,0
1579966189.458,-969.238,-408.691,-383.789,-969.238,-962.891,0
1579966189.462,-969.238,-349.609,-440.430,-969.238,-985.840,0
1579966189.465,-969.238,-345.703,-348.145,-969.238,-893.066,0
1579966189.469,-969.238,-406.738,-270.508,-969.238,-841.797,0
1579966189.473,-969.238,-430.176,-360.840,-969.238,-954.590,0
1579966189.477,-969.238,-378.906,-466.797,-969.238,-974.121,0
1579966189.481,-969.238,-355.957,-425.293,-969.238,-976.562,0
1579966189.485,-969.238,-383.301,-237.305,-969.238,-612.793,0
1579966189.489,-969.238,-422.852,-259.277,-969.238,-657.227,0
1579966189.493,-969.238,-407.715,-447.266,-969.238,-1000.000,0
1579966189.497,-969.238,-373.535,-467.285,-969.238,-977.051,0
1579966189.501,-969.238,-408.691,-354.980,-969.238,-924.805,0
1579966189.505,-969.238,-449.219,-299.805,-969.238,-843.262,0
1579966189.508,-969.238,-430.664,-414.551,-968.750,-953.125,0
1579966189.512,-969.238,-370.605,-423.828,-969.727,-966.309,0
1579966189.516,-969.238,-395.508,-336.914,-968.750,-972.656,0
1579966189.520,-969.238,-456.543,-288.086,-967.773,-823.242,0
1579966189.524,-969.238,-417.969,-265.625,-954.590,-618.652,0
1579966189.528,-969.238,-379.395,-382.324,-974.609,-883.789,0
1579966189.532,-969.238,-394.531,-402.832,-990.234,-1000.000,0
1579966189.536,-969.238,-491.211,-311.523,-482.910,-958.984,0
1579966189.540,-969.238,-515.137,-302.734,-552.246,-884.766,0
1579966189.544,-969.238,-420.410,-392.090,-1000.000,-913.086,0
1579966189.548,-969.238,-385.254,-409.668,-1000.000,-983.398,0
1579966189.551,-969.238,-517.090,-300.781,252.930,-961.914,0
1579966189.555,-969.238,-665.527,-295.410,726.074,-979.004,0
1579966189.559,-969.238,-510.742,-344.727,-802.246,-908.203,0
1579966189.563,-969.238,-351.562,-343.262,-1000.000,-907.227,0
1579966189.567,-969.238,-481.445,-294.434,203.125,-974.609,0
1579966189.571,-969.238,-666.016,-260.742,-737.305,-959.961,0
1579966189.575,-969.238,-621.094,-360.840,225.098,-1000.000,0
1579966189.579,-969.238,-428.223,-334.961,-507.324,-769.531,0
1579966189.583,-969.238,-493.164,-235.840,788.086,-724.121,0
1579966189.587,-969.238,-667.969,-250.977,-916.992,-895.996,0
1579966189.590,-969.238,-662.598,-327.637,943.359,-911.133,0
1579966189.594,-969.238,-596.191,-395.508,-992.188,-970.215,0
1579966189.598,-969.238,-572.266,-306.641,-999.512,-817.871,0
1579966189.602,-969.238,-630.859,-238.281,993.164,-701.172,0
1579966189.606,-969.238,-628.418,-246.094,-983.887,-678.223,0
1579966189.610,-969.238,-541.992,-308.594,943.359,-870.605,0
1579966189.614,-969.238,-477.539,-283.203,896.973,-933.105,0
1579966189.618,-969.238,-467.285,-85.449,952.637,-549.805,0
1579966189.622,-969.238,-512.207,-101.562,-861.816,-726.074,0
1579966189.626,-969.238,-413.574,-256.836,94.727,-1000.000,0
1579966189.630,-969.238,-209.473,-272.461,-1000.000,-962.402,0
1579966189.633,-969.238,-262.695,-132.324,269.531,-923.340,0
1579966189.637,-969.238,-439.941,-60.059,-800.781,-926.758,0
1579966189.641,-969.238,-371.094,-164.551,48.340,-974.609,0
1579966189.645,-969.238,-167.969,-223.145,-1000.000,-959.961,0
1579966189.649,-969.238,-172.363,-146.484,-354.980,-997.559,0
1579966189.653,-969.238,-342.773,11.719,-876.465,-798.340,0
1579966189.657,-969.238,-364.746,-8.789,339.844,-749.512,0
1579966189.661,-969.238,-201.172,-174.316,-1000.000,-969.238,0
1579966189.665,-969.238,-156.738,-175.293,-602.051,-971.191,0
1579966189.669,-969.238,-335.938,-88.379,850.098,-979.004,0
1579966189.672,-969.238,-436.523,-42.969,866.211,-830.078,0
1579966189.676,-969.238,-297.852,-157.715,-652.344,-861.328,0
1579966189.680,-969.238,-200.195,-239.258,-691.895,-989.746,0
1579966189.684,-969.238,-350.098,-155.762,709.961,-969.238,0
1579966189.688,-969.238,-503.906,-129.883,-770.996,-950.684,0
1579966189.692,-969.238,-413.574,-212.891,65.918,-917.969,0
1579966189.696,-969.238,-244.629,-290.039,-912.109,-991.211,0
1579966189.700,-969.238,-320.312,-171.387,419.922,-812.988,0
1579966189.704,-969.238,-504.395,-123.535,-793.457,-748.535,0
1579966189.708,-969.238,-489.746,-230.469,568.848,-885.254,0
1579966189.712,-969.238,-282.715,-215.820,-654.297,-601.074,0
1579966189.715,-969.238,-289.551,-189.941,22.949,-643.066,0
1579966189.719,-969.238,-497.559,-199.219,-829.590,-867.676,0
1579966189.723,-969.238,-541.016,-272.949,822.754,-925.781,0
1579966189.727,-969.238,-374.512,-352.051,-543.457,-911.621,0
1579966189.731,-969.238,-298.828,-318.848,-230.469,-866.699,0
1579966189.735,-969.238,-476.562,-253.906,-934.082,-843.262,0
1579966189.739,-969.238,-577.637,-277.344,-908.691,-847.656,0
1579966189.743,-969.238,-492.188,-395.996,402.832,-958.984,0
1579966189.747,-969.238,-397.949,-350.586,316.406,-727.051,0
1579966189.751,-969.238,-488.770,-220.703,-959.961,-491.699,0
1579966189.755,-969.238,-588.379,-269.043,-948.730,-603.027,0
1579966189.758,-969.238,-562.012,-408.691,807.617,-838.379,0
1579966189.762,-969.238,-490.234,-475.098,645.508,-997.559,0
1579966189.766,-969.238,-504.883,-337.891,980.469,-638.672,0
1579966189.770,-969.238,-578.613,-257.324,-970.215,-357.422,0
1579966189.774,-969.238,-586.914,-381.348,969.727,-604.980,0
1579966189.778,-969.238,-520.020,-501.953,814.941,-877.930,0
1579966189.782,-969.238,-512.207,-449.219,926.758,-778.809,0
1579966189.786,-969.238,-583.008,-338.379,-980.957,-504.883,0
1579966189.790,-969.238,-606.445,-403.320,-984.863,-624.023,0
1579966189.794,-969.238,-527.344,-475.098,858.398,-702.148,0
1579966189.797,-969.238,-495.605,-450.195,846.680,-654.785,0
1579966189.801,-969.238,-560.547,-367.188,997.070,-505.371,0
1579966189.805,-969.238,-578.125,-296.387,-919.922,-198.730,0
1579966189.809,-966.797,-526.367,-447.266,612.793,-545.410,0
1579966189.813,-966.309,-474.609,-551.270,459.961,-858.398,0
1579966189.817,-988.281,-550.781,-463.867,-997.559,-701.660,0
1579966189.821,-837.402,-621.094,-404.297,-927.734,-476.074,0
1579966189.825,-805.176,-590.332,-496.094,779.297,-627.441,0
1579966189.829,-1000.000,-495.117,-570.312,465.332,-749.023,0
1579966189.833,-864.746,-525.879,-479.004,922.852,-528.809,0
1579966189.837,416.016,-637.695,-461.914,-972.168,-534.668,0
1579966189.840,-863.281,-594.727,-454.590,-972.656,-314.453,0
1579966189.844,108.887,-510.742,-509.277,673.340,-385.742,0
1579966189.848,186.523,-537.109,-583.008,641.602,-704.102,0
1579966189.852,-919.434,-626.953,-521.484,-975.098,-560.059,0
1579966189.856,990.723,-649.902,-549.805,-948.242,-525.879,0
1579966189.860,980.957,-578.125,-632.324,732.910,-583.008,0
1579966189.864,-997.070,-546.387,-642.090,654.297,-611.816,0
1579966189.868,999.512,-629.395,-573.730,-989.746,-496.094,0
1579966189.872,999.512,-684.570,-578.125,-941.406,-458.984,0
1579966189.876,999.512,-627.930,-674.805,746.582,-584.473,0
1579966189.880,999.512,-554.688,-686.035,634.277,-558.594,0
1579966189.883,999.512,-607.910,-603.516,989.258,-416.992,0
1579966189.887,999.512,-670.898,-550.781,-940.918,-213.379,0
1579966189.891,999.512,-647.949,-628.906,849.121,-346.680,0
1579966189.895,999.512,-554.688,-686.035,546.875,-461.426,0
1579966189.899,999.512,-556.152,-563.965,888.672,-172.852,0
1579966189.903,999.512,-666.504,-542.969,-943.848,-264.648,0
1579966189.907,999.512,-694.336,-666.504,965.332,-572.266,0
1579966189.911,999.512,-572.754,-768.555,141.602,-723.145,0
1579966189.915,999.512,-520.020,-703.613,296.387,-585.938,0
1579966189.919,999.512,-641.602,-581.055,-914.062,-400.391,0
1579966189.922,999.512,-696.289,-622.559,-978.027,-526.855,0
1579966189.926,999.512,-569.336,-724.121,-69.336,-624.512,0
1579966189.930,999.512,-470.703,-738.281,-114.258,-672.852,0
1579966189.934,999.512,-567.871,-536.133,986.816,-249.023,0
1579966189.938,999.512,-663.086,-473.145,-816.895,-105.957,0
1579966189.942,999.512,-612.305,-672.363,222.168,-620.605,0
1579966189.946,999.512,-450.195,-716.309,-620.605,-611.816,0
1579966189.950,999.512,-526.855,-620.605,621.094,-535.645,0
1579966189.954,999.512,-676.270,-542.969,-799.805,-448.730,0
1579966189.958,999.512,-649.414,-625.977,551.270,-568.359,0
1579966189.962,999.512,-477.051,-729.980,-824.707,-711.426,0
1579966189.965,999.512,-465.820,-661.133,-97.656,-628.906,0
1579966189.969,999.512,-644.043,-546.387,-816.895,-446.777,0
1579966189.973,999.512,-673.340,-568.848,828.613,-418.457,0
1579966189.977,999.512,-516.602,-702.637,-562.988,-651.855,0
1579966189.981,999.512,-440.430,-637.695,-190.430,-495.117,0
1579966189.985,999.512,-608.887,-519.531,-937.500,-393.066,0
1579966189.989,999.512,-697.754,-551.758,-857.910,-467.285,0
1579966189.993,999.512,-578.125,-581.055,181.152,-341.309,0
1579966189.997,999.512,-460.449,-644.043,-405.273,-507.812,0
1579966190.001,999.512,-575.684,-612.793,814.453,-615.723,0
1579966190.004,999.512,-702.148,-556.641,-790.039,-477.539,0
1579966190.008,999.512,-631.348,-637.207,349.121,-537.598,0
1579966190.012,999.512,-475.586,-712.402,-625.977,-645.996,0
1579966190.016,999.512,-537.109,-648.438,435.059,-617.188,0
1579966190.020,999.512,-700.195,-570.801,-788.086,-516.602,0
1579966190.024,999.512,-691.406,-659.668,595.703,-675.781,0
1579966190.028,999.512,-513.672,-668.457,-313.965,-496.582,0
1579966190.032,999.512,-506.836,-578.613,361.328,-327.637,0
1579966190.036,999.512,-687.012,-569.336,-856.445,-543.945,0
1579966190.040,999.512,-709.961,-625.000,801.758,-608.398,0
1579966190.044,999.512,-544.922,-733.887,-538.574,-729.004,0
1579966190.047,999.512,-460.938,-664.551,-208.008,-573.730,0
1579966190.051,999.512,-624.512,-549.316,-928.711,-507.324,0
1579966190.055,999.512,-723.633,-591.309,-879.883,-673.828,0
1579966190.059,999.512,-590.820,-674.805,-109.863,-696.289,0
1579966190.063,999.512,-421.875,-656.250,-649.414,-536.621,0
1579966190.067,999.512,-537.109,-546.387,762.207,-469.238,0
1579966190.071,999.512,-692.871,-531.250,-791.504,-600.586,0
1579966190.075,999.512,-620.605,-580.566,384.766,-583.008,0
1579966190.079,999.512,-439.941,-639.160,-847.168,-616.699,0
1579966190.083,999.512,-472.168,-571.777,140.625,-593.262,0
1579966190.087,999.512,-624.023,-404.785,-772.461,-245.117,0
1579966190.090,999.512,-632.812,-508.789,568.848,-500.977,0
1579966190.094,999.512,-469.238,-654.297,-871.582,-774.414,0
1579966190.098,-1000.000,-428.711,-611.328,-272.949,-718.262,0
1579966190.102,997.070,-602.051,-490.234,-880.859,-576.660,0
1579966190.106,-996.094,-674.316,-506.836,897.949,-603.027,0
1579966190.110,990.723,-526.367,-645.508,-537.109,-807.617,0
1579966190.114,963.867,-414.062,-642.578,-509.766,-781.250,0
1579966190.118,995.117,-561.035,-519.043,909.180,-616.699,0
1579966190.122,-997.070,-657.227,-416.992,-812.500,-283.203,0
1579966190.126,997.070,-559.570,-519.531,23.926,-395.020,0
1579966190.129,-1000.000,-421.387,-652.344,-838.379,-727.051,0
1579966190.133,999.512,-515.137,-569.336,481.934,-691.406,0
1579966190.137,999.512,-681.152,-513.672,-762.695,-640.137,0
1579966190.141,999.512,-630.859,-559.570,424.805,-560.059,0
1579966190.145,999.512,-450.684,-636.719,-918.457,-625.000,0
1579966190.149,999.512,-471.680,-606.445,18.066,-707.520,0
1579966190.153,999.512,-662.109,-529.297,-782.715,-659.668,0
1579966190.157,999.512,-662.598,-575.195,590.332,-649.414,0
1579966190.161,999.512,-476.074,-648.926,-826.660,-653.809,0
1579966190.165,999.512,-442.383,-630.371,-280.273,-690.918,0
1579966190.169,999.512,-608.887,-497.559,-893.555,-477.051,0
1579966190.172,999.512,-687.012,-507.812,969.238,-493.652,0
1579966190.176,999.512,-536.133,-623.535,-449.707,-593.750,0
1579966190.180,999.512,-402.832,-550.781,-421.875,-310.059,0
1579966190.184,999.512,-578.125,-490.234,975.586,-438.965,0
1579966190.188,999.512,-721.191,-547.852,-847.656,-681.152,0
1579966190.192,999.512,-616.211,-656.738,-17.090,-791.504,0
1579966190.196,999.512,-439.453,-673.828,-802.734,-666.992,0
1579966190.200,999.512,-528.809,-567.383,507.812,-521.973,0
1579966190.204,999.512,-704.102,-537.109,-770.508,-587.402,0
1579966190.208,999.512,-666.016,-629.395,385.742,-686.523,0
1579966190.211,999.512,-482.910,-714.355,-940.918,-730.469,0
1579966190.215,999.512,-480.469,-589.355,39.551,-447.754,0
1579966190.219,999.512,-664.551,-479.980,-801.758,-346.680,0
1579966190.223,999.512,-705.078,-591.797,732.422,-656.738,0
1579966190.227,999.512,-537.109,-712.891,-708.008,-747.559,0
1579966190.231,999.512,-469.238,-692.383,-335.938,-704.590,0
1579966190.235,999.512,-613.281,-495.605,-924.316,-302.246,0
1579966190.239,999.512,-702.637,-487.793,-967.773,-260.254,0
1579966190.243,999.512,-595.215,-696.777,-305.664,-718.262,0
1579966190.247,999.512,-456.543,-727.539,-656.250,-732.910,0
1579966190.251,999.512,-581.055,-601.074,764.160,-566.895,0
1579966190.254,999.512,-721.680,-541.992,-783.203,-476.074,0
1579966190.258,999.512,-642.090,-670.410,85.938,-668.945,0
1579966190.262,999.512,-454.102,-694.336,-865.723,-541.992,0
1579966190.266,999.512,-533.203,-604.004,404.297,-485.840,0
1579966190.270,999.512,-709.961,-559.570,-803.711,-495.605,0
1579966190.274,999.512,-667.969,-551.758,590.332,-270.996,0
1579966190.278,999.512,-511.719,-685.547,-796.387,-525.391,0
1579966190.282,999.512,-511.230,-706.543,-132.812,-680.664,0
1579966190.286,999.512,-696.777,-611.328,-819.336,-567.871,0
1579966190.290,999.512,-742.188,-632.324,861.816,-551.270,0
1579966190.294,999.512,-565.918,-711.914,-633.789,-530.273,0
1579966190.297,999.512,-486.816,-724.121,-388.184,-572.266,0
1579966190.301,999.512,-664.551,-639.160,-967.773,-542.969,0
1579966190.305,999.512,-768.066,-643.555,-895.020,-532.715,0
1579966190.309,999.512,-640.137,-681.641,38.086,-358.398,0
1579966190.313,999.512,-495.605,-682.129,-540.039,-251.465,0
1579966190.317,999.512,-634.277,-687.500,707.520,-541.504,0
1579966190.321,999.512,-791.016,-674.316,-778.320,-576.172,0
1579966190.325,999.512,-728.516,-771.973,303.223,-645.508,0
1579966190.329,999.512,-543.945,-814.941,-856.445,-546.387,0
1579966190.333,999.512,-585.449,-736.328,171.387,-499.512,0
1579966190.336,999.512,-768.066,-681.641,-789.551,-500.000,0
1579966190.340,999.512,-770.996,-756.348,653.320,-592.773,0
1579966190.344,999.512,-594.727,-847.656,-655.273,-642.090,0
1579966190.348,999.512,-565.918,-769.043,14.648,-466.797,0
1579966190.352,999.512,-741.699,-666.016,-873.535,-381.836,0
1579966190.356,999.512,-784.180,-676.758,-979.492,-325.684,0
1579966190.360,999.512,-653.809,-805.176,-264.648,-532.715,0
1579966190.364,999.512,-555.176,-817.871,-339.844,-517.090,0
1579966190.368,999.512,-669.922,-618.652,-981.934,-69.824,0
1579966190.372,999.512,-795.410,-650.391,-835.449,-254.883,0
1579966190.376,999.512,-717.285,-839.355,29.785,-635.254,0
1579966190.379,999.512,-558.594,-883.301,-663.574,-622.559,0
1579966190.383,999.512,-645.020,-747.559,695.801,-429.688,0
1579966190.387,999.512,-797.363,-680.176,-815.430,-353.516,0
1579966190.391,999.512,-752.930,-805.176,273.926,-567.871,0
1579966190.395,999.512,-574.707,-881.348,-814.941,-633.789,0
1579966190.399,999.512,-610.352,-813.477,197.266,-586.914,0
1579966190.403,999.512,-754.395,-635.254,-790.039,-139.160,0
1579966190.407,999.512,-750.977,-654.297,677.734,-86.426,0
1579966190.411,999.512,-604.492,-838.867,-747.559,-492.188,0
1579966190.415,999.512,-566.406,-826.172,-166.992,-501.465,0
1579966190.418,999.512,-747.070,-734.375,-884.766,-446.289,0
1579966190.422,999.512,-803.711,-727.539,-970.703,-353.027,0
1579966190.426,999.512,-670.898,-847.168,-271.973,-536.133,0
1579966190.430,999.512,-563.477,-875.977,-414.062,-604.492,0
1579966190.434,999.512,-704.102,-764.648,951.172,-482.910,0
1579966190.438,999.512,-813.477,-728.027,-809.082,-406.250,0
1579966190.442,999.512,-725.098,-805.176,264.160,-453.613,0
1579966190.446,999.512,-569.824,-876.953,-697.754,-563.965,0
1579966190.450,999.512,-632.324,-754.395,537.598,-347.168,0
1579966190.454,999.512,-793.457,-675.293,-786.133,-245.605,0
1579966190.458,999.512,-764.160,-778.320,587.891,-405.273,0
1579966190.461,999.512,-601.562,-776.855,-131.348,-185.547,0
1579966190.465,999.512,-626.465,-716.797,497.559,-207.031,0
1579966190.469,999.512,-779.785,-697.754,-876.953,-366.211,0
1579966190.473,999.512,-801.270,-777.344,862.305,-500.488,0
1579966190.477,999.512,-645.508,-859.863,-300.293,-534.668,0
1579966190.481,999.512,-584.473,-816.895,-0.488,-482.910,0
1579966190.485,999.512,-739.258,-726.074,-920.898,-491.699,0
1579966190.489,999.512,-803.711,-728.516,-904.785,-488.281,0
1579966190.493,999.512,-674.805,-846.680,-92.285,-663.574,0
1579966190.497,999.512,-532.715,-765.625,-234.863,-345.215,0
1579966190.501,999.512,-649.414,-616.211,-991.699,-128.418,0
1579966190.504,999.512,-779.785,-673.828,-829.102,-430.664,0
1579966190.508,999.512,-699.707,-785.645,241.699,-619.141,0
1579966190.512,999.512,-524.414,-831.543,-719.238,-621.094,0
1579966190.516,999.512,-567.871,-671.387,502.441,-342.773,0
1579966190.520,999.512,-736.328,-604.980,-783.691,-369.141,0
1579966190.524,999.512,-705.078,-697.266,536.133,-523.926,0
1579966190.528,999.512,-516.602,-756.836,-744.629,-521.973,0
1579966190.532,999.512,-514.160,-710.449,-17.090,-554.688,0
1579966190.536,999.512,-684.082,-591.797,-839.844,-417.969,0
1579966190.540,999.512,-727.539,-650.391,867.676,-550.781,0
1579966190.543,999.512,-547.852,-714.844,-494.629,-503.906,0
1579966190.547,999.512,-465.820,-680.664,-294.922,-467.773,0
1579966190.551,999.512,-636.230,-590.820,-940.918,-489.258,0
1579966190.555,999.512,-702.148,-507.812,-902.832,-178.711,0
1579966190.559,999.512,-589.355,-652.344,-172.363,-454.102,0
1579966190.563,999.512,-455.078,-743.652,-699.219,-675.781,0
1579966190.567,999.512,-568.848,-631.836,708.496,-579.590,0
1579966190.571,999.512,-709.961,-558.594,-777.344,-483.887,0
1579966190.575,999.512,-625.488,-637.695,163.574,-557.129,0
1579966190.579,999.512,-449.219,-724.121,-990.234,-730.957,0
1579966190.583,-997.559,-483.398,-600.098,175.781,-559.082,0
1579966190.586,967.773,-660.156,-507.324,-816.895,-487.793,0
1579966190.590,-916.504,-640.625,-514.648,701.660,-400.879,0
1579966190.594,686.523,-455.566,-566.406,-725.098,-385.254,0
1579966190.598,439.453,-437.012,-603.027,-308.594,-658.691,0
1579966190.602,972.656,-610.840,-515.137,-837.891,-647.949,0
1579966190.606,-906.738,-654.785,-541.016,738.281,-686.523,0
1579966190.610,16.113,-481.445,-607.422,-710.449,-679.688,0
1579966190.614,-1000.000,-381.836,-586.426,-690.430,-661.133,0
1579966190.618,-528.809,-543.945,-492.676,811.523,-665.527,0
1579966190.622,264.648,-667.480,-484.375,952.637,-696.777,0
1579966190.626,-617.676,-524.902,-574.219,-408.691,-721.680,0
1579966190.629,-1000.000,-354.004,-564.941,-1000.000,-617.676,0
1579966190.633,-918.457,-464.844,-479.980,260.742,-638.184,0
1579966190.637,-975.098,-640.137,-397.461,-815.918,-522.461,0
1579966190.641,-969.238,-559.570,-466.309,-49.316,-548.828,0
1579966190.645,-969.238,-368.652,-548.340,-1000.000,-674.316,0
1579966190.649,-969.238,-400.391,-399.902,24.414,-351.562,0
1579966190.653,-969.238,-616.211,-360.352,-766.602,-457.031,0
1579966190.657,-969.238,-626.953,-505.371,292.969,-793.457,0
1579966190.661,-969.238,-430.176,-603.027,-1000.000,-868.652,0
1579966190.665,-969.238,-385.254,-529.785,-404.785,-695.801,0
1579966190.668,-969.238,-574.219,-419.922,-906.738,-588.867,0
1579966190.672,-969.238,-662.598,-479.492,645.020,-735.840,0
1579966190.676,-969.238,-488.281,-584.961,-842.773,-791.504,0
1579966190.680,-969.238,-375.000,-589.844,-830.566,-814.941,0
1579966190.684,-969.238,-500.000,-406.250,639.648,-424.316,0
1579966190.688,-969.238,-646.973,-363.281,975.586,-353.027,0
1579966190.692,-968.262,-556.641,-564.941,-358.887,-783.203,0
1579966190.696,-956.543,-387.695,-626.465,-1000.000,-835.449,0
1579966190.700,-1000.000,-458.496,-497.070,-27.832,-623.047,0
1579966190.704,-729.980,-643.066,-391.602,-812.500,-436.035,0
1579966190.708,-690.430,-607.422,-524.414,61.035,-657.715,0
1579966190.711,-949.219,-420.898,-645.996,-1000.000,-868.652,0
1579966190.715,-1000.000,-443.359,-576.660,-270.020,-773.926,0
1579966190.719,-213.867,-641.602,-482.422,-839.844,-648.438,0
1579966190.723,290.527,-658.691,-515.137,420.410,-637.207,0
1579966190.727,-833.008,-471.680,-622.070,-1000.000,-745.117,0
1579966190.731,-1000.000,-414.551,-565.430,-488.281,-581.543,0
1579966190.735,-149.902,-599.609,-471.680,959.961,-513.672,0
1579966190.739,-871.582,-691.895,-507.812,861.816,-619.629,0
1579966190.743,-30.762,-520.508,-535.645,-491.211,-390.625,0
1579966190.747,-1000.000,-410.645,-589.844,-950.195,-531.250,0
1579966190.750,22.949,-561.523,-569.336,495.605,-712.891,0
1579966190.754,-854.980,-710.449,-542.969,984.863,-677.734,0
1579966190.758,869.629,-581.055,-611.816,-462.891,-607.910,0
1579966190.762,59.570,-422.363,-656.738,-1000.000,-614.258,0
1579966190.766,439.453,-525.879,-608.887,81.055,-680.664,0
1579966190.770,-898.926,-704.590,-544.922,-776.855,-620.117,0
1579966190.774,966.309,-670.898,-637.207,244.141,-692.383,0
1579966190.778,995.605,-461.426,-675.781,-1000.000,-540.527,0
1579966190.782,-999.512,-469.238,-588.867,-159.668,-393.555,0
1579966190.786,999.512,-682.129,-555.176,-804.199,-521.484,0
1579966190.790,999.512,-723.145,-627.930,619.141,-639.160,0
1579966190.793,999.512,-544.434,-749.512,-903.809,-770.020,0
1579966190.797,999.512,-457.031,-638.672,-321.777,-397.949,0
1579966190.801,999.512,-632.812,-511.230,-903.809,-258.789,0
1579966190.805,999.512,-754.395,-612.793,965.332,-610.840,0
1579966190.809,999.512,-614.746,-737.793,-368.164,-692.383,0
1579966190.813,999.512,-461.914,-744.629,-782.715,-620.605,0
1579966190.817,999.512,-579.102,-601.562,595.703,-378.906,0
1579966190.821,999.512,-747.559,-588.867,-774.414,-438.965,0
1579966190.825,999.512,-669.922,-671.387,202.148,-457.520,0
1579966190.829,999.512,-485.352,-725.586,-981.445,-448.730,0
1579966190.833,999.512,-542.969,-659.668,152.344,-463.867,0
1579966190.836,999.512,-704.102,-502.930,-757.324,-87.402,0
1579966190.840,999.512,-706.543,-620.605,458.984,-331.543,0
1579966190.844,999.512,-542.969,-793.457,-989.746,-692.871,0
1579966190.848,999.512,-522.461,-738.281,-179.199,-628.906,0
1579966190.852,999.512,-695.801,-606.934,-838.867,-413.086,0
1579966190.856,999.512,-738.281,-633.789,822.266,-396.484,0
1579966190.860,999.512,-583.008,-773.438,-625.488,-626.465,0
1579966190.864,999.512,-485.840,-757.324,-448.242,-563.477,0
1579966190.868,999.512,-648.926,-655.273,956.543,-523.926,0
1579966190.872,999.512,-734.375,-562.500,-831.543,-249.023,0
1579966190.875,999.512,-612.793,-615.723,14.160,-174.805,0
1579966190.879,999.512,-484.863,-747.070,-769.043,-530.762,0
1579966190.883,999.512,-588.379,-682.617,572.266,-550.781,0
1579966190.887,999.512,-747.070,-626.953,-744.629,-503.418,0
1579966190.891,999.512,-676.270,-694.336,232.422,-495.605,0
1579966190.895,999.512,-491.211,-769.043,-995.117,-550.293,0
1579966190.899,999.512,-538.086,-704.102,144.043,-542.480,0
1579966190.903,999.512,-720.215,-620.605,-797.852,-482.910,0
1579966190.907,999.512,-717.285,-667.969,646.484,-529.785,0
1579966190.911,999.512,-532.227,-732.910,-748.047,-510.742,0
1579966190.915,999.512,-498.047,-708.496,-207.031,-533.691,0
1579966190.918,999.512,-662.598,-568.359,-863.770,-302.734,0
1579966190.922,999.512,-726.562,-588.867,935.547,-350.098,0
1579966190.926,999.512,-575.195,-721.191,-459.473,-525.879,0
1579966190.930,999.512,-443.848,-624.512,-341.797,-172.363,0
1579966190.934,999.512,-610.352,-542.969,-979.492,-234.863,0
1579966190.938,999.512,-739.746,-599.121,-856.934,-474.609,0
1579966190.942,999.512,-633.789,-722.168,-41.016,-614.258,0
1579966190.946,999.512,-465.332,-742.676,-711.914,-550.781,0
1579966190.950,999.512,-561.035,-625.977,636.230,-455.078,0
1579966190.954,999.512,-726.562,-598.633,-775.879,-489.746,0
1579966190.957,999.512,-672.852,-686.035,365.723,-591.309,0
1579966190.961,999.512,-491.211,-772.461,-885.742,-687.988,0
1579966190.965,999.512,-486.816,-610.840,137.695,-284.180,0
1579966190.969,999.512,-660.645,-486.816,-800.293,-106.445,0
1579966190.973,999.512,-706.543,-637.695,728.027,-489.258,0
1579966190.977,999.512,-536.621,-759.277,-680.176,-642.090,0
1579966190.981,999.512,-476.562,-720.215,-230.957,-600.098,0
1579966190.985,999.512,-636.719,-567.383,-914.062,-366.699,0
1579966190.989,999.512,-708.984,-558.105,-920.898,-316.895,0
1579966190.993,999.512,-583.984,-686.523,-190.918,-496.582,0
1579966190.997,999.512,-466.797,-730.469,-519.531,-627.930,0
1579966191.000,999.512,-595.215,-614.746,887.207,-512.695,0
1579966191.004,999.512,-717.285,-553.711,-788.574,-378.906,0
1579966191.008,999.512,-623.535,-679.688,36.133,-592.285,0
1579966191.012,999.512,-442.871,-690.430,-739.746,-452.637,0
1579966191.016,999.512,-536.621,-589.355,596.191,-383.301,0
1579966191.020,999.512,-695.801,-546.387,-814.941,-437.988,0
1579966191.024,999.512,-643.066,-532.715,647.461,-222.656,0
1579966191.028,999.512,-482.910,-649.414,-687.500,-469.238,0
1579966191.032,-998.047,-483.887,-660.156,-35.645,-648.926,0
1579966191.036,986.816,-657.715,-562.988,-830.566,-578.613,0
1579966191.040,-972.168,-685.059,-578.125,891.602,-525.879,0
1579966191.043,918.945,-517.578,-671.875,-521.973,-598.633,0
1579966191.047,823.242,-433.594,-646.484,-331.055,-580.078,0
1579966191.051,944.336,-592.285,-515.625,-923.340,-417.480,0
1579966191.055,-894.531,-692.871,-563.965,-948.730,-617.188,0
1579966191.059,679.199,-547.363,-594.238,-96.680,-449.219,0
1579966191.063,-272.461,-405.273,-569.336,-608.398,-298.340,0
1579966191.067,414.551,-542.969,-555.664,649.902,-521.484,0
1579966191.071,-867.188,-685.547,-540.039,-775.391,-570.312,0
1579966191.075,917.969,-605.469,-639.160,130.371,-729.004,0
1579966191.079,-467.773,-416.016,-641.602,-914.551,-566.895,0
1579966191.082,-344.238,-488.770,-546.875,282.227,-466.797,0
1579966191.086,-915.527,-669.434,-518.066,-770.996,-593.262,0
1579966191.090,-976.562,-643.555,-598.145,488.281,-723.633,0
1579966191.094,-276.855,-461.426,-670.898,-907.715,-704.102,0
1579966191.098,-860.352,-450.684,-581.055,-64.453,-500.488,0
1579966191.102,559.570,-638.672,-501.953,-843.750,-522.461,0
1579966191.106,-844.727,-663.086,-513.184,882.324,-471.191,0
1579966191.110,-33.203,-501.465,-596.191,-512.207,-502.930,0
1579966191.114,-1000.000,-414.551,-594.727,-457.031,-532.715,0
1579966191.118,-188.965,-553.223,-419.434,-956.543,-195.312,0
1579966191.122,-805.664,-665.039,-455.078,993.652,-392.578,0
1579966191.125,250.488,-553.223,-641.113,-379.395,-759.766,0
1579966191.129,-1000.000,-407.227,-671.387,-827.148,-725.586,0
1579966191.133,-506.836,-519.043,-541.016,546.387,-560.547,0
1579966191.137,-965.820,-673.340,-483.887,-771.484,-521.484,0
1579966191.141,445.801,-603.516,-607.910,159.180,-730.469,0
1579966191.145,-1000.000,-416.016,-659.180,-1000.000,-693.359,0
1579966191.149,-963.867,-469.238,-565.430,97.168,-587.891,0
1579966191.153,440.430,-632.324,-413.086,-759.766,-276.367,0
1579966191.157,589.844,-610.840,-456.055,481.934,-263.184,0
1579966191.161,-821.777,-453.613,-639.648,-1000.000,-699.219,0
1579966191.165,-1000.000,-424.316,-585.449,-255.859,-632.812,0
1579966191.168,-200.684,-615.723,-487.305,-849.121,-536.621,0
1579966191.172,366.699,-667.969,-489.258,823.242,-493.164,0
1579966191.176,-790.039,-509.277,-592.773,-605.957,-617.676,0
1579966191.180,-1000.000,-397.949,-625.000,-753.906,-695.801,0
1579966191.184,-709.473,-545.410,-520.020,670.898,-622.070,0
1579966191.188,-68.848,-685.059,-494.629,-882.324,-587.402,0
1579966191.192,-627.930,-562.988,-574.707,-159.668,-590.820,0
1579966191.196,-1000.000,-397.949,-631.836,-998.047,-713.867,0
1579966191.200,-991.699,-484.863,-498.047,317.871,-455.566,0
1579966191.204,-294.922,-672.852,-439.941,-768.555,-419.922,0
1579966191.207,-296.875,-614.746,-556.641,140.625,-599.609,0
1579966191.211,-999.512,-387.695,-541.992,-1000.000,-311.035,0
1579966191.215,-1000.000,-433.594,-504.395,-117.676,-413.574,0
1579966191.219,-96.191,-651.855,-501.953,-809.570,-616.211,0
1579966191.223,287.109,-657.227,-547.363,478.516,-599.609,0
1579966191.227,-898.438,-466.797,-627.441,-1000.000,-609.375,0
1579966191.231,-1000.000,-414.062,-597.168,-439.941,-586.914,0
1579966191.235,-163.086,-606.445,-522.461,-921.387,-596.191,0
1579966191.239,-958.008,-680.176,-542.480,729.492,-617.188,0
1579966191.243,-103.027,-517.578,-663.574,-781.250,-729.004,0
1579966191.247,-1000.000,-393.066,-581.543,-538.086,-401.855,0
1579966191.250,-293.945,-546.387,-440.430,901.367,-205.078,0
1579966191.254,-843.750,-705.078,-517.578,-889.648,-547.363,0
1579966191.258,409.180,-592.285,-641.113,-109.863,-681.641,0
1579966191.262,-1000.000,-421.875,-685.059,-1000.000,-675.293,0
1579966191.266,-510.254,-504.883,-541.504,241.699,-431.641,0
1579966191.270,945.312,-687.012,-473.633,-747.559,-395.020,0
1579966191.274,975.098,-649.414,-609.863,262.207,-659.180,0
1579966191.278,-490.234,-457.031,-672.852,-1000.000,-583.984,0
1579966191.282,-629.395,-471.680,-570.312,-54.688,-376.465,0
1579966191.286,782.715,-661.621,-488.281,-806.152,-378.906,0
1579966191.289,-780.273,-685.059,-577.148,639.648,-594.727,0
1579966191.293,35.156,-500.488,-641.602,-821.289,-514.648,0
1579966191.297,-758.301,-431.641,-607.422,-524.902,-449.707,0
1579966191.301,600.586,-600.098,-525.391,949.707,-429.199,0
1579966191.305,-809.082,-673.828,-448.730,-961.426,-130.859,0
1579966191.309,641.113,-552.734,-601.074,-351.074,-455.566,0
1579966191.313,-327.637,-438.477,-698.242,-818.848,-697.266,0
1579966191.317,362.793,-560.547,-595.215,601.562,-574.707,0
1579966191.321,-871.582,-698.730,-535.645,-803.711,-499.512,0
1579966191.325,975.098,-603.516,-626.465,11.230,-547.852,0
1579966191.329,-101.074,-434.082,-709.473,-1000.000,-654.785,0
1579966191.332,5.859,-505.371,-618.164,119.141,-588.379,0
1579966191.336,-906.250,-674.805,-531.250,-795.410,-481.934,0
1579966191.340,-959.473,-631.348,-515.625,567.383,-247.070,0
1579966191.344,-247.070,-454.590,-588.867,-897.461,-322.754,0
1579966191.348,-612.305,-460.449,-625.488,-289.062,-584.961,0
1579966191.352,825.195,-647.461,-545.898,-815.430,-565.430,0
1579966191.356,-832.520,-672.363,-582.520,605.469,-600.586,0
1579966191.360,25.391,-483.398,-632.324,-865.723,-480.469,0
1579966191.364,-1000.000,-416.016,-608.398,-570.312,-484.375,0
1579966191.368,8.301,-595.215,-549.316,885.742,-579.590,0
1579966191.372,-789.062,-699.707,-527.832,-943.359,-548.828,0
1579966191.375,108.398,-558.594,-604.980,-291.016,-540.039,0
1579966191.379,-1000.000,-403.809,-625.488,-947.266,-539.062,0
1579966191.383,-643.066,-528.809,-545.410,403.809,-559.570,0
1579966191.387,814.453,-681.641,-461.914,-776.855,-419.922,0
1579966191.391,209.473,-598.633,-557.129,50.293,-552.734,0
1579966191.395,-1000.000,-418.457,-634.277,-1000.000,-625.488,0
1579966191.399,-1000.000,-447.754,-449.707,150.879,-192.871,0
1579966191.403,-36.621,-656.250,-417.969,-755.371,-343.750,0
1579966191.407,65.430,-650.879,-571.289,330.078,-739.258,0
1579966191.411,-1000.000,-451.660,-661.133,-1000.000,-798.340,0
1579966191.414,-1000.000,-405.762,-575.195,-350.098,-607.910,0
1579966191.418,-731.934,-594.238,-458.496,-869.629,-534.668,0
1579966191.422,-619.629,-676.758,-519.043,679.688,-687.988,0
1579966191.426,-980.469,-502.930,-625.488,-824.219,-765.137,0
1579966191.430,-979.004,-393.555,-609.375,-681.641,-751.953,0
1579966191.434,-956.543,-528.809,-434.570,783.691,-397.461,0
1579966191.438,-971.191,-668.457,-409.180,-966.797,-393.066,0
1579966191.442,-969.238,-563.965,-577.637,-313.477,-747.559,0
1579966191.446,-969.238,-392.090,-611.816,-982.910,-727.051,0
1579966191.450,-969.238,-498.047,-517.578,322.754,-693.359,0
1579966191.454,-969.238,-650.879,-375.977,-769.043,-354.980,0
1579966191.457,-969.238,-584.961,-439.941,153.320,-355.957,0
1579966191.461,-969.238,-416.992,-599.609,-1000.000,-741.699,0
1579966191.465,-969.238,-450.195,-532.715,-47.852,-728.027,0
1579966191.469,-969.238,-643.555,-437.500,-782.227,-614.258,0
1579966191.473,-969.238,-643.555,-476.562,464.844,-598.633,0
1579966191.477,-969.238,-457.031,-590.332,-1000.000,-753.418,0
1579966191.481,-969.238,-405.762,-505.859,-239.746,-558.105,0
1579966191.485,-969.238,-592.773,-398.438,-879.395,-490.723,0
1579966191.489,-969.238,-673.340,-448.730,919.922,-601.074,0
1579966191.493,-969.238,-490.723,-466.309,-463.379,-368.164,0
1579966191.496,-969.238,-374.512,-500.488,-619.141,-500.000,0
1579966191.500,-969.238,-542.480,-476.074,817.871,-668.457,0
1579966191.504,-969.238,-685.059,-464.844,-823.242,-683.105,0
1579966191.508,-969.238,-572.266,-541.992,-14.160,-673.828,0
1579966191.512,-969.238,-388.184,-547.363,-839.844,-576.172,0
1579966191.516,-969.238,-487.305,-483.398,453.613,-644.043,0
1579966191.520,-969.238,-668.457,-443.848,-764.160,-652.832,0
1579966191.524,-969.238,-634.766,-538.086,388.672,-775.879,0
1579966191.528,-969.238,-416.992,-529.297,-821.289,-522.949,0
1579966191.532,-969.238,-415.527,-400.879,121.582,-285.645,0
1579966191.536,-969.238,-630.859,-404.785,-822.754,-560.059,0
1579966191.539,-969.238,-667.480,-494.629,770.996,-731.934,0
1579966191.543,-969.238,-490.234,-592.773,-625.977,-803.223,0
1579966191.547,-969.238,-408.691,-500.977,-180.176,-563.477,0
1579966191.551,-969.238,-583.496,-393.066,-894.531,-497.559,0
1579966191.555,-969.238,-679.199,-458.496,-935.059,-675.293,0
1579966191.559,-969.238,-544.434,-566.895,-218.750,-773.926,0
1579966191.563,-969.238,-395.996,-562.500,-526.855,-724.121,0
1579966191.567,-969.238,-513.672,-423.340,883.301,-520.996,0
1579966191.571,-969.238,-648.438,-385.742,-798.828,-463.867,0
1579966191.575,-969.238,-563.965,-465.820,247.559,-528.809,0
1579966191.579,-969.238,-386.230,-515.625,-783.691,-585.449,0
1579966191.582,-969.238,-446.289,-440.918,385.254,-536.621,0
1579966191.586,-969.238,-599.609,-310.059,-794.922,-256.348,0
1579966191.590,-969.238,-572.266,-429.688,252.930,-495.117,0
1579966191.594,-969.238,-405.273,-592.285,-1000.000,-812.012,0
1579966191.598,-969.238,-398.926,-528.320,-196.777,-742.188,0
1579966191.602,-969.238,-584.961,-407.227,-788.086,-567.383,0
1579966191.606,-969.238,-618.652,-440.918,543.945,-569.336,0
1579966191.610,-969.238,-447.266,-573.730,-968.750,-759.766,0
1579966191.614,-969.238,-357.422,-548.340,-628.418,-704.590,0
1579966191.618,-969.238,-527.344,-448.730,841.797,-671.875,0
1579966191.621,-969.238,-631.836,-372.559,-1000.000,-403.320,0
1579966191.625,-969.238,-491.211,-448.730,-331.543,-400.391,0
1579966191.629,-969.238,-349.121,-539.062,-1000.000,-646.973,0
1579966191.633,-969.238,-458.984,-462.891,226.074,-646.484,0
1579966191.637,-969.238,-646.484,-447.266,-962.402,-715.820,0
1579966191.641,-969.238,-542.969,-499.512,-227.539,-604.980,0
1579966191.645,-969.238,-359.863,-551.270,-1000.000,-654.785,0
1579966191.649,-969.238,-413.574,-514.160,-273.926,-705.078,0
1579966191.653,-969.238,-613.281,-449.707,-928.223,-658.691,0
1579966191.657,-969.238,-591.309,-511.719,37.598,-681.641,0
1579966191.661,-969.238,-394.043,-572.266,-1000.000,-668.945,0
1579966191.664,-969.238,-366.699,-539.062,-788.086,-677.734,0
1579966191.668,-969.238,-535.645,-419.922,683.105,-460.449,0
1579966191.672,-969.238,-619.141,-455.078,337.891,-544.922,0
1579966191.676,-969.238,-447.754,-579.590,-1000.000,-718.750,0
1579966191.680,-969.238,-337.402,-478.027,-983.887,-381.836,0
1579966191.684,-969.238,-474.609,-389.648,262.695,-333.008,0
1579966191.688,-969.238,-619.629,-452.637,458.984,-558.594,0
1579966191.692,-969.238,-503.906,-594.727,-881.836,-778.809,0
1579966191.696,-969.238,-372.070,-600.586,-1000.000,-743.652,0
1579966191.700,-969.238,-452.148,-491.699,-228.027,-574.219,0
1579966191.704,-969.238,-616.699,-480.469,495.117,-637.207,0
1579966191.707,-969.238,-552.734,-572.266,-628.906,-726.562,0
1579966191.711,-969.238,-410.156,-641.113,-1000.000,-833.496,0
1579966191.715,-969.238,-418.945,-479.004,-356.934,-421.875,0
1579966191.719,-969.238,-604.492,-364.746,931.152,-253.906,0
1579966191.723,-972.168,-631.348,-528.320,-76.660,-661.621,0
1579966191.727,-953.613,-453.125,-643.555,-1000.000,-790.527,0
1579966191.731,-1000.000,-420.898,-604.004,-868.164,-745.117,0
1579966191.735,-874.512,-572.266,-457.520,500.000,-486.816,0
1579966191.739,-738.281,-665.039,-494.629,299.316,-585.449,0
1579966191.743,-920.410,-507.324,-628.418,-1000.000,-715.332,0
1579966191.746,-1000.000,-410.156,-603.027,-1000.000,-633.789,0
1579966191.750,-805.664,-538.086,-519.531,120.605,-551.270,0
1579966191.754,182.617,-676.758,-490.723,633.789,-502.930,0
1579966191.758,-201.172,-566.406,-619.141,-754.395,-692.871,0
1579966191.762,-1000.000,-413.574,-622.070,-1000.000,-596.680,0
1579966191.766,-870.605,-487.793,-512.207,-203.613,-439.941,0
1579966191.770,519.531,-671.875,-478.027,-985.352,-495.117,0
1579966191.774,281.250,-598.145,-491.211,-60.059,-350.098,0
1579966191.778,-1000.000,-436.035,-589.844,-1000.000,-543.457,0
1579966191.782,-1000.000,-452.637,-584.473,-625.488,-663.574,0
1579966191.786,221.680,-630.371,-517.578,785.645,-650.391,0
1579966191.789,670.898,-650.879,-554.199,183.105,-642.578,0
1579966191.793,-733.887,-471.680,-635.742,-1000.000,-685.059,0
1579966191.797,-1000.000,-434.082,-631.836,-886.719,-775.879,0
1579966191.801,-309.570,-578.125,-498.047,504.395,-534.180,0
1579966191.805,803.711,-674.316,-505.859,472.656,-565.918,0
1579966191.809,-279.297,-506.836,-565.430,-951.172,-514.648,0
1579966191.813,-1000.000,-392.090,-537.598,-1000.000,-410.645,0
