timestamps,TP9,AF7,AF8,TP10,Right AUX,Marker0
1579272272.736,35.645,48.340,53.223,19.531,11.230,0
1579272272.740,34.180,45.410,46.875,21.973,23.438,0
1579272272.744,35.156,45.898,49.805,26.855,26.855,0
1579272272.748,34.668,48.340,56.641,27.832,39.551,0
1579272272.752,27.344,41.016,53.711,20.020,51.758,0
1579272272.756,18.066,34.180,41.504,22.949,24.902,0
1579272272.760,15.625,41.016,41.016,28.809,2.930,0
1579272272.763,19.531,43.945,53.223,23.926,30.273,0
1579272272.767,22.949,42.969,52.246,21.973,92.773,0
1579272272.771,23.926,46.387,53.223,18.555,81.543,0
1579272272.775,21.973,43.945,53.711,13.672,37.109,0
1579272272.779,27.344,41.016,48.340,15.625,25.879,0
1579272272.776,27.344,41.992,48.340,15.625,-4.883,0
1579272272.780,22.949,41.992,41.504,16.113,30.273,0
1579272272.784,31.250,47.852,34.180,23.926,14.160,0
1579272272.788,32.715,45.410,41.504,22.949,63.477,0
1579272272.792,33.203,43.457,54.199,19.531,105.957,0
1579272272.796,32.227,41.504,51.758,16.602,38.574,0
1579272272.800,30.273,38.574,52.734,20.996,28.809,0
1579272272.803,33.691,43.457,58.594,32.715,46.387,0
1579272272.807,38.574,46.875,53.223,30.762,76.660,0
1579272272.811,36.621,48.828,53.711,24.414,39.062,0
1579272272.815,34.668,47.363,51.758,23.926,-37.109,0
1579272272.819,40.527,46.875,46.387,29.297,-66.406,0
1579272272.836,47.852,52.246,50.293,34.668,21.973,0
1579272272.840,36.621,42.969,56.152,20.508,46.387,0
1579272272.844,26.367,40.527,51.270,11.719,59.570,0
1579272272.848,35.645,47.852,44.434,23.438,62.012,0
1579272272.852,34.180,43.457,45.410,21.484,16.113,0
1579272272.856,35.156,41.016,46.387,17.578,44.922,0
1579272272.860,34.668,44.434,46.875,18.066,54.199,0
1579272272.863,26.855,43.457,50.781,22.461,21.484,0
1579272272.867,35.645,45.410,50.293,28.809,-3.418,0
1579272272.871,33.203,44.922,47.852,25.879,31.250,0
1579272272.875,24.414,42.969,53.711,19.531,46.875,0
1579272272.879,24.414,41.016,54.199,16.602,15.625,0
1579272272.876,21.973,42.969,44.434,20.996,2.441,0
1579272272.880,21.484,44.922,40.527,21.484,28.320,0
1579272272.884,22.949,43.945,48.828,14.648,19.531,0
1579272272.888,22.461,42.969,43.945,12.695,31.738,0
1579272272.892,23.926,42.480,35.156,20.020,33.203,0
1579272272.896,27.832,44.922,48.828,22.461,8.789,0
1579272272.900,26.855,44.434,54.199,17.578,33.203,0
1579272272.903,15.137,34.180,44.922,8.789,14.160,0
1579272272.907,11.230,32.715,43.457,13.184,-5.859,0
1579272272.911,18.555,41.016,37.598,18.066,49.316,0
1579272272.915,19.531,41.016,39.551,12.207,109.375,0
1579272272.919,22.461,41.016,55.664,15.625,70.801,0
1579272272.916,25.879,40.527,58.594,21.973,39.551,0
1579272272.920,26.367,35.156,46.875,22.461,105.469,0
1579272272.924,26.367,38.574,36.133,16.113,77.637,0
1579272272.928,31.738,50.781,50.293,19.531,70.312,0
1579272272.932,32.227,43.945,58.105,26.367,65.430,0
1579272272.936,28.809,36.621,48.828,24.902,64.453,0
1579272272.940,29.297,42.480,39.551,25.879,90.820,0
1579272272.943,30.273,43.457,41.504,26.367,66.406,0
1579272272.947,32.715,50.781,50.293,24.902,9.277,0
1579272272.951,32.715,49.316,47.852,28.809,-13.672,0
1579272272.955,28.809,43.945,50.293,29.785,62.012,0
1579272272.959,26.367,45.410,45.898,19.043,55.176,0
1579272272.976,32.715,49.805,50.781,24.902,-32.715,0
1579272272.980,26.855,45.898,53.223,27.832,9.766,0
1579272272.984,26.367,41.016,47.852,23.926,11.230,0
1579272272.988,33.691,43.457,56.641,20.996,-8.789,0
1579272272.992,25.391,43.945,50.293,14.648,8.789,0
1579272272.996,27.832,45.898,39.551,18.066,23.438,0
1579272273.000,28.809,44.922,42.480,20.996,81.055,0
1579272273.003,25.879,45.410,47.363,25.391,68.848,0
1579272273.007,27.832,45.898,47.363,20.508,67.871,0
1579272273.011,27.344,44.434,53.223,21.484,114.258,0
1579272273.015,24.902,41.992,56.152,24.902,62.012,0
1579272273.019,26.367,45.410,47.363,17.578,4.395,0
1579272273.016,27.832,50.781,46.387,19.043,27.832,0
1579272273.020,23.438,44.922,41.992,17.090,60.059,0
1579272273.024,28.809,43.457,44.922,21.484,70.312,0
1579272273.028,29.297,45.410,55.176,26.367,38.574,0
1579272273.032,26.855,45.898,58.105,24.902,49.316,0
1579272273.036,33.203,45.898,51.758,23.438,60.547,0
1579272273.040,38.086,44.434,50.781,28.809,66.406,0
1579272273.043,34.668,41.016,48.340,26.855,51.270,0
1579272273.047,34.180,32.715,47.363,20.508,-3.418,0
1579272273.051,40.039,33.691,50.781,27.344,13.672,0
1579272273.055,27.832,46.387,47.363,20.996,57.617,0
1579272273.059,9.277,49.316,49.805,3.418,76.172,0
1579272273.056,8.789,45.898,38.574,-2.441,69.336,0
1579272273.060,16.113,41.992,33.691,0.000,29.785,0
1579272273.064,18.555,44.434,48.340,6.836,46.387,0
1579272273.068,18.066,43.945,54.688,12.207,46.875,0
1579272273.072,21.484,42.969,53.711,15.137,-2.930,0
1579272273.076,20.020,37.598,43.945,10.254,-15.625,0
1579272273.080,17.090,33.691,40.039,4.883,22.949,0
1579272273.083,19.531,41.016,44.922,7.324,-8.789,0
1579272273.087,25.879,37.598,45.898,7.812,5.371,0
1579272273.091,28.320,36.133,49.316,4.883,88.379,0
1579272273.095,28.320,40.527,47.852,9.277,61.523,0
1579272273.099,24.902,40.039,33.691,16.113,1.953,0
1579272273.116,23.926,45.410,40.527,20.020,17.090,0
1579272273.120,27.832,48.828,52.246,19.043,21.484,0
1579272273.124,20.508,40.527,50.293,12.207,-3.906,0
1579272273.128,19.043,40.039,51.758,15.137,36.133,0
1579272273.132,19.043,37.598,42.969,18.555,78.125,0
1579272273.136,25.879,37.598,37.598,17.090,54.688,0
1579272273.140,30.762,40.527,40.039,11.230,20.020,0
1579272273.143,22.461,35.645,45.898,10.742,26.855,0
1579272273.147,21.973,41.016,41.992,17.578,-7.324,0
1579272273.151,23.926,41.992,36.133,20.996,-22.461,0
1579272273.155,26.367,41.992,49.316,21.484,20.020,0
1579272273.159,24.902,42.969,54.688,19.531,34.668,0
1579272273.156,18.555,33.691,40.039,15.625,0.488,0
1579272273.160,27.832,43.457,38.574,19.531,41.992,0
1579272273.164,31.738,43.457,48.828,19.531,58.105,0
1579272273.168,27.344,31.738,50.781,14.160,-14.160,0
1579272273.172,29.297,39.062,51.758,18.555,47.852,0
1579272273.176,24.902,40.527,47.363,22.949,90.332,0
1579272273.180,21.484,36.133,38.086,20.020,68.848,0
1579272273.183,30.762,41.504,39.062,22.461,86.426,0
1579272273.187,27.832,41.016,45.898,19.531,8.789,0
1579272273.191,15.625,35.156,51.270,14.160,-13.184,0
1579272273.195,19.043,35.156,53.711,14.160,33.691,0
1579272273.199,21.484,38.086,43.945,8.301,62.012,0
1579272273.196,24.414,43.945,40.527,10.254,62.500,0
1579272273.200,26.855,41.504,48.828,18.066,16.113,0
1579272273.204,26.367,38.574,51.758,20.508,-16.113,0
1579272273.208,29.297,42.969,48.340,19.531,17.090,0
1579272273.212,20.508,41.504,43.945,16.602,62.012,0
1579272273.216,22.949,43.945,38.086,18.555,52.246,0
1579272273.220,32.715,46.387,42.969,21.484,36.133,0
1579272273.223,21.973,41.504,56.152,12.695,-9.277,0
1579272273.227,18.555,36.133,52.734,7.324,-4.883,0
1579272273.231,24.414,40.039,38.574,17.090,-1.465,0
1579272273.235,31.250,45.898,39.062,24.414,19.531,0
1579272273.239,26.855,43.945,40.039,22.949,79.590,0
1579272273.256,32.715,47.852,43.945,25.391,20.020,0
1579272273.260,37.598,51.270,53.223,31.738,24.414,0
1579272273.264,24.902,44.434,40.039,29.297,92.773,0
1579272273.268,25.391,42.480,34.180,25.391,50.293,0
1579272273.272,27.344,38.086,47.363,24.902,29.297,0
1579272273.276,21.484,36.133,51.758,21.973,65.918,0
1579272273.280,25.391,46.875,49.316,20.508,53.711,0
1579272273.283,32.227,48.340,44.434,26.367,9.277,0
1579272273.287,25.391,47.852,43.457,26.855,23.438,0
1579272273.291,24.902,52.246,48.828,23.438,17.090,0
1579272273.295,24.414,46.875,41.016,21.484,53.223,0
1579272273.299,25.879,39.551,31.738,21.973,59.570,0
1579272273.296,26.367,35.156,46.387,19.531,61.035,0
1579272273.300,23.926,34.180,56.152,16.602,83.984,0
1579272273.304,31.738,36.621,52.734,21.484,58.594,0
1579272273.308,35.645,44.922,52.734,27.832,100.098,0
1579272273.312,31.250,45.410,56.641,23.926,98.145,0
1579272273.316,22.949,39.062,49.316,14.648,57.129,0
1579272273.320,29.297,47.363,45.898,22.461,63.477,0
1579272273.323,31.250,47.852,42.969,27.344,60.059,0
1579272273.327,26.367,37.598,41.504,15.625,43.457,0
1579272273.331,27.832,42.480,41.992,15.625,61.523,0
1579272273.335,24.902,44.922,34.668,19.043,44.434,0
1579272273.339,25.391,44.922,45.898,20.508,28.320,0
1579272273.356,25.391,50.781,55.664,25.391,28.320,0
1579272273.360,19.043,51.270,54.688,17.578,16.602,0
1579272273.364,19.531,45.898,53.711,12.207,-25.391,0
1579272273.368,25.391,49.316,51.758,23.438,-23.926,0
1579272273.372,18.555,44.922,45.898,21.973,27.832,0
1579272273.376,16.602,37.598,37.598,17.578,28.809,0
1579272273.380,22.461,41.016,32.715,19.531,2.930,0
1579272273.383,22.949,42.480,37.109,16.602,35.645,0
1579272273.387,26.367,40.527,42.480,21.484,50.293,0
1579272273.391,29.785,42.480,50.293,22.461,22.949,0
1579272273.395,20.996,46.387,53.711,15.137,39.062,0
1579272273.399,16.602,44.434,50.781,14.648,88.867,0
1579272273.396,27.344,41.016,55.664,21.484,69.824,0
1579272273.400,29.297,44.434,49.316,23.438,34.180,0
1579272273.404,24.414,42.969,35.156,14.648,34.668,0
1579272273.408,26.367,38.574,45.410,12.207,63.477,0
1579272273.412,27.832,39.551,40.527,12.695,84.473,0
1579272273.416,29.785,43.945,33.691,15.137,79.590,0
1579272273.420,27.344,46.875,44.434,15.625,76.172,0
1579272273.423,37.109,51.758,47.852,16.602,87.402,0
1579272273.427,36.133,52.734,47.852,21.484,50.293,0
1579272273.431,32.715,52.734,50.781,24.902,3.906,0
1579272273.435,41.992,49.316,56.641,25.879,40.527,0
1579272273.439,37.109,42.969,45.898,17.578,54.688,0
1579272273.436,27.832,42.969,46.875,21.484,27.344,0
1579272273.440,26.855,40.039,55.664,33.203,34.180,0
1579272273.444,32.227,41.504,52.734,34.668,39.551,0
1579272273.448,24.902,44.434,41.504,26.367,33.203,0
1579272273.452,20.020,45.898,41.992,24.902,53.711,0
1579272273.456,20.508,47.852,51.270,28.320,55.176,0
1579272273.460,23.926,48.828,52.734,29.785,63.965,0
1579272273.463,21.973,42.969,38.574,20.508,2.441,0
1579272273.467,20.996,40.039,37.109,18.066,-0.488,0
1579272273.471,29.297,45.898,52.734,24.902,68.359,0
1579272273.475,28.809,41.992,55.664,24.414,36.133,0
1579272273.479,31.250,38.086,54.688,23.926,18.555,0
1579272273.483,31.250,41.504,53.711,21.484,41.504,0
1579272273.487,29.785,44.922,46.875,23.438,63.477,0
1579272273.491,36.621,42.480,42.969,23.926,20.508,0
1579272273.495,44.434,51.270,45.898,25.879,26.367,0
1579272273.499,35.156,53.711,43.945,21.973,74.707,0
1579272273.503,24.902,35.645,47.852,16.113,121.582,0
1579272273.507,34.668,38.086,48.828,24.414,130.859,0
1579272273.510,34.668,46.875,47.852,23.438,88.867,0
1579272273.514,26.367,44.434,52.734,14.648,55.664,0
1579272273.518,24.414,47.852,52.246,16.113,61.035,0
1579272273.522,27.832,47.363,50.781,19.531,57.129,0
1579272273.526,38.086,51.270,53.711,27.344,39.062,0
1579272273.537,40.039,51.270,45.410,23.926,-30.762,0
1579272273.541,24.414,43.945,37.109,11.230,-70.312,0
1579272273.545,22.461,45.898,41.016,17.578,31.250,0
1579272273.549,26.367,41.992,46.875,22.461,55.664,0
1579272273.553,28.809,40.039,50.781,20.508,12.207,0
1579272273.557,34.180,44.922,54.199,18.066,-16.602,0
1579272273.561,30.762,45.410,51.758,22.949,-20.508,0
1579272273.564,28.809,43.457,47.852,28.320,16.602,0
1579272273.568,31.250,43.945,55.664,26.855,-1.953,0
1579272273.572,31.738,46.387,53.223,26.367,20.996,0
1579272273.576,25.391,44.922,36.621,21.973,65.430,0
1579272273.580,21.484,41.992,39.551,20.020,24.902,0
1579272273.576,22.949,39.551,50.781,22.949,29.785,0
1579272273.580,27.344,41.504,48.828,14.160,66.895,0
1579272273.584,29.785,42.969,41.504,13.672,55.176,0
1579272273.588,30.762,44.922,43.457,24.902,51.270,0
1579272273.592,33.203,47.363,40.039,30.273,62.012,0
1579272273.596,40.527,51.270,48.340,29.297,50.781,0
1579272273.600,31.738,43.945,43.945,20.020,52.246,0
1579272273.603,21.484,38.574,28.809,15.137,37.598,0
1579272273.607,25.391,41.016,42.480,15.625,24.414,0
1579272273.611,28.809,40.527,54.688,10.254,22.949,0
1579272273.615,27.832,44.922,50.293,9.766,58.594,0
1579272273.619,23.438,44.434,46.387,13.184,47.852,0
1579272273.636,30.273,45.898,50.781,19.531,27.344,0
1579272273.640,32.715,51.270,53.223,19.043,3.418,0
1579272273.644,35.156,53.223,55.664,22.949,-13.184,0
1579272273.648,39.062,53.711,50.293,29.785,39.551,0
1579272273.652,32.227,47.852,34.180,25.879,61.523,0
1579272273.656,29.297,43.945,30.762,23.438,114.746,0
1579272273.660,29.785,42.480,43.457,16.602,127.930,0
1579272273.663,35.645,43.457,49.805,18.555,37.598,0
1579272273.667,35.156,44.434,54.199,25.391,38.086,0
1579272273.671,30.762,45.410,57.617,23.438,71.777,0
1579272273.675,37.109,49.805,59.570,26.855,52.246,0
1579272273.679,32.715,47.363,59.570,26.367,39.062,0
1579272273.676,22.461,42.480,53.223,16.602,29.785,0
1579272273.680,26.855,48.340,44.434,20.508,-0.977,0
1579272273.684,28.320,47.852,32.715,20.508,46.875,0
1579272273.688,33.203,43.457,42.969,19.531,62.500,0
1579272273.692,32.227,39.551,57.617,22.949,-1.953,0
1579272273.696,30.762,46.875,53.223,30.762,30.273,0
1579272273.700,29.785,48.340,53.711,28.320,39.551,0
1579272273.703,25.879,43.945,54.688,19.531,54.688,0
1579272273.707,32.715,46.875,50.293,23.438,24.414,0
1579272273.711,26.855,44.434,45.898,20.508,26.855,0
1579272273.715,20.996,44.922,48.340,16.113,50.293,0
1579272273.719,22.461,40.039,46.875,12.207,41.016,0
1579272273.716,22.461,41.016,38.574,9.766,40.039,0
1579272273.720,18.555,42.480,33.203,13.672,24.902,0
1579272273.724,25.391,44.434,41.992,18.066,60.547,0
1579272273.728,25.879,45.898,46.387,10.742,38.574,0
1579272273.732,21.484,44.434,43.457,8.301,5.859,0
1579272273.736,25.879,48.340,58.594,16.602,12.695,0
1579272273.740,21.484,43.945,59.570,16.602,19.531,0
1579272273.743,14.648,37.109,47.363,12.207,-6.836,0
1579272273.747,24.902,41.016,47.363,15.625,26.367,0
1579272273.751,21.484,35.156,48.340,18.555,68.359,0
1579272273.755,17.090,34.668,46.875,20.996,82.031,0
1579272273.759,27.832,40.527,51.270,25.879,53.711,0
1579272273.776,27.344,39.551,45.410,20.996,56.152,0
1579272273.780,29.785,44.434,41.016,25.391,119.629,0
1579272273.784,33.203,41.992,51.758,30.273,79.590,0
1579272273.788,29.785,39.551,50.293,24.414,2.441,0
1579272273.792,35.645,43.945,44.434,25.391,13.184,0
1579272273.796,38.574,42.480,51.758,25.879,45.898,0
1579272273.800,29.785,39.551,50.293,24.414,58.105,0
1579272273.803,25.391,41.016,41.016,21.484,66.406,0
1579272273.807,25.879,44.434,41.016,16.113,36.621,0
1579272273.811,24.414,45.410,39.062,11.230,39.551,0
1579272273.815,31.738,49.316,51.270,18.066,22.949,0
1579272273.819,30.273,49.316,55.176,20.996,26.367,0
1579272273.816,20.996,45.410,43.457,15.137,75.195,0
1579272273.820,20.996,45.898,46.387,9.766,60.059,0
1579272273.824,20.996,41.016,46.387,8.301,19.531,0
1579272273.828,20.996,38.574,41.504,14.648,-54.688,0
1579272273.832,19.531,45.410,41.504,16.113,11.719,0
1579272273.836,23.926,48.828,43.945,15.137,77.148,0
1579272273.840,28.320,52.246,51.270,18.066,37.598,0
1579272273.843,21.973,45.410,51.758,17.578,-9.277,0
1579272273.847,19.531,45.898,40.527,17.090,13.672,0
1579272273.851,24.414,48.828,41.992,19.043,26.855,0
1579272273.855,27.344,48.828,55.664,23.926,-24.414,0
1579272273.859,28.809,47.852,61.523,28.809,-26.855,0
1579272273.857,34.180,43.945,57.617,29.785,36.621,0
1579272273.861,36.621,45.898,51.758,27.344,21.973,0
1579272273.865,34.180,45.410,47.852,23.438,11.230,0
1579272273.869,36.133,47.363,49.316,29.785,55.176,0
1579272273.873,26.367,41.992,46.387,29.297,42.480,0
1579272273.877,25.391,37.109,42.480,21.484,29.297,0
1579272273.881,30.273,38.574,41.016,19.043,61.035,0
1579272273.884,26.855,38.086,45.410,20.020,54.688,0
1579272273.888,27.344,38.086,54.199,23.438,33.691,0
1579272273.892,22.461,39.551,49.805,18.555,68.848,0
1579272273.896,22.461,41.016,42.969,15.137,16.113,0
1579272273.900,25.879,43.457,45.410,22.949,22.461,0
1579272273.916,25.879,44.922,49.316,26.855,63.965,0
1579272273.920,27.344,41.504,55.176,22.461,74.707,0
1579272273.924,26.855,41.504,52.734,17.578,52.246,0
1579272273.928,24.414,41.992,40.527,12.207,42.480,0
1579272273.932,32.715,41.504,35.156,16.113,83.984,0
1579272273.936,35.156,41.504,35.645,19.531,46.387,0
1579272273.940,37.598,43.945,47.363,19.043,43.457,0
1579272273.943,36.133,46.875,46.387,17.090,32.227,0
1579272273.947,31.250,46.387,49.805,25.391,0.488,0
1579272273.951,33.691,43.945,48.340,33.203,4.883,0
1579272273.955,28.809,34.668,35.156,23.438,36.133,0
1579272273.959,25.879,35.645,37.598,19.531,30.273,0
1579272273.956,30.273,43.457,31.250,23.438,-10.742,0
1579272273.960,33.691,41.016,39.551,29.297,56.641,0
1579272273.964,31.250,42.480,54.199,27.344,84.961,0
1579272273.968,26.367,44.922,42.969,13.672,58.105,0
1579272273.972,32.227,47.363,43.457,15.625,74.219,0
1579272273.976,32.227,48.828,47.363,22.949,86.914,0
1579272273.980,20.996,38.574,34.668,13.184,48.340,0
1579272273.983,20.508,35.156,38.086,9.277,-22.461,0
1579272273.987,23.438,33.203,33.203,11.230,-12.207,0
1579272273.991,21.973,32.715,28.320,14.648,40.039,0
1579272273.995,21.973,41.504,42.480,19.043,76.660,0
1579272273.999,26.367,46.387,49.316,17.578,58.105,0
1579272273.996,25.879,45.410,55.176,11.230,38.086,0
1579272274.000,27.344,43.945,47.363,15.137,30.273,0
1579272274.004,31.738,44.434,39.551,16.602,34.180,0
1579272274.008,34.668,49.805,41.992,15.625,48.828,0
1579272274.012,35.645,48.340,36.621,13.672,15.625,0
1579272274.016,32.715,45.898,42.480,13.672,-2.930,0
1579272274.020,31.738,44.434,44.434,20.996,8.301,0
1579272274.023,27.344,39.551,39.062,13.184,43.945,0
1579272274.027,46.875,46.875,48.340,20.996,78.125,0
1579272274.031,66.895,52.246,55.664,45.410,64.453,0
1579272274.035,41.992,42.480,48.828,34.180,77.148,0
1579272274.039,20.508,37.598,52.734,20.508,56.641,0
1579272274.056,15.625,33.203,57.617,16.602,21.484,0
1579272274.060,25.879,33.691,55.176,17.578,36.133,0
1579272274.064,29.785,34.180,60.547,28.809,12.695,0
1579272274.068,19.043,36.621,60.059,27.832,63.965,0
1579272274.072,24.414,38.574,56.152,28.809,64.941,0
1579272274.076,25.879,37.598,57.129,25.879,45.410,0
1579272274.080,25.879,37.598,52.734,29.297,69.336,0
1579272274.083,38.574,41.992,55.664,43.945,0.000,0
1579272274.087,35.156,41.016,60.547,39.062,-25.391,0
1579272274.091,27.344,33.691,66.895,29.785,6.348,0
1579272274.095,24.414,33.203,60.547,30.273,81.543,0
1579272274.099,25.391,33.691,55.664,32.715,64.941,0
1579272274.096,27.344,37.109,58.105,36.133,23.438,0
1579272274.100,24.414,38.574,55.176,35.156,99.121,0
1579272274.104,23.926,39.551,50.293,31.738,120.605,0
1579272274.108,36.621,46.875,43.945,37.109,44.922,0
1579272274.112,37.598,41.504,42.480,33.691,-12.207,0
1579272274.116,25.879,35.645,49.805,25.879,12.695,0
1579272274.120,27.344,42.480,55.664,27.832,7.812,0
1579272274.123,29.297,39.551,55.664,28.809,47.363,0
1579272274.127,26.855,32.715,52.734,26.367,68.848,0
1579272274.131,23.438,32.715,49.316,18.555,27.344,0
1579272274.135,29.785,35.645,49.805,12.207,33.203,0
1579272274.139,41.504,41.504,54.688,18.066,12.207,0
1579272274.136,33.203,39.062,51.270,19.043,22.949,0
1579272274.140,30.273,41.992,44.922,19.043,49.805,0
1579272274.144,32.227,41.992,40.039,16.602,8.301,0
1579272274.148,26.367,39.551,37.598,19.531,-55.176,0
1579272274.152,22.461,40.039,46.875,31.738,-20.996,0
1579272274.156,19.531,36.133,49.805,34.668,32.227,0
1579272274.160,17.090,36.621,50.293,29.785,76.660,0
1579272274.163,16.113,35.645,56.641,25.391,48.828,0
1579272274.167,23.926,35.645,53.223,26.855,-5.859,0
1579272274.171,31.738,42.480,50.781,31.738,5.371,0
1579272274.175,28.320,41.992,50.293,25.879,26.367,0
1579272274.179,23.438,38.086,43.945,16.113,12.207,0
1579272274.196,29.297,41.992,41.992,25.879,-6.348,0
1579272274.200,40.039,45.410,45.898,37.598,36.133,0
1579272274.204,39.062,43.945,51.270,33.203,-2.441,0
1579272274.208,27.832,38.086,49.316,21.973,-7.812,0
1579272274.212,26.855,39.551,51.758,20.020,53.711,0
1579272274.216,34.180,48.340,51.758,33.203,50.781,0
1579272274.220,35.645,49.316,56.152,33.691,35.156,0
1579272274.223,23.438,43.457,54.199,18.555,6.348,0
1579272274.227,19.531,41.504,48.828,17.578,30.762,0
1579272274.231,20.996,41.504,49.805,21.484,36.621,0
1579272274.235,23.926,41.992,46.875,23.926,37.598,0
1579272274.239,27.832,44.434,45.898,21.973,77.148,0
1579272274.236,27.344,44.434,53.711,19.043,-1.953,0
1579272274.240,28.320,42.969,46.387,18.555,-39.551,0
1579272274.244,33.691,50.781,44.434,26.367,50.293,0
1579272274.248,27.832,51.758,53.223,23.438,80.566,0
1579272274.252,18.555,41.504,45.898,8.301,50.781,0
1579272274.256,19.531,39.062,35.156,8.301,38.574,0
1579272274.260,21.484,32.715,37.598,14.160,7.324,0
1579272274.263,22.949,32.227,49.805,15.137,4.395,0
1579272274.267,25.879,43.945,53.711,18.555,44.434,0
1579272274.271,26.367,44.922,42.480,21.973,69.336,0
1579272274.275,32.227,45.898,45.898,29.785,50.781,0
1579272274.279,37.598,44.922,46.875,31.250,28.809,0
1579272274.276,30.762,38.086,38.086,19.531,17.578,0
1579272274.280,32.227,37.598,45.898,20.020,14.160,0
1579272274.284,31.738,36.133,44.434,24.902,7.324,0
1579272274.288,29.297,41.992,38.574,27.832,43.945,0
1579272274.292,35.645,45.410,43.457,28.809,36.621,0
1579272274.296,39.551,43.457,49.805,25.391,37.109,0
1579272274.300,36.621,44.922,49.805,29.297,100.586,0
1579272274.303,40.527,52.734,51.270,34.180,37.109,0
1579272274.307,38.574,53.223,50.293,23.438,-20.996,0
1579272274.311,26.367,41.016,42.969,11.719,27.344,0
1579272274.315,30.273,40.527,38.086,13.184,51.758,0
1579272274.319,36.621,43.945,41.992,20.996,47.852,0
1579272274.336,30.762,46.387,46.875,22.949,67.871,0
1579272274.340,27.832,44.434,42.480,17.090,80.078,0
1579272274.344,33.203,47.363,47.363,20.020,31.250,0
1579272274.348,41.992,51.270,53.711,24.414,-4.395,0
1579272274.352,36.621,50.293,60.547,26.367,39.551,0
1579272274.356,31.738,44.434,54.688,23.926,38.086,0
1579272274.360,32.715,40.039,40.039,16.113,58.105,0
1579272274.363,30.762,45.410,42.480,20.020,38.574,0
1579272274.367,27.344,45.898,47.852,24.414,-9.766,0
1579272274.371,26.855,45.898,39.062,19.531,-5.859,0
1579272274.375,24.902,52.734,38.574,16.113,15.137,0
1579272274.379,22.949,46.387,46.387,14.648,39.062,0
1579272274.377,32.227,41.016,54.199,20.020,38.086,0
1579272274.381,31.738,44.434,56.641,20.020,14.648,0
1579272274.385,29.297,41.992,43.945,13.672,46.875,0
1579272274.389,47.852,44.434,40.527,31.738,72.754,0
1579272274.393,48.340,42.969,46.387,41.016,85.938,0
1579272274.397,28.809,43.945,51.758,29.785,104.004,0
1579272274.401,17.578,44.922,55.176,19.043,61.035,0
1579272274.404,19.531,41.992,57.129,20.020,-6.836,0
1579272274.408,20.996,35.156,61.523,31.250,13.184,0
1579272274.412,20.020,27.832,56.641,29.785,57.129,0
1579272274.416,24.414,32.715,55.176,27.832,41.504,0
1579272274.420,17.578,33.203,64.453,25.879,66.895,0
1579272274.416,13.184,31.738,69.824,30.273,24.902,0
1579272274.420,18.066,31.250,73.242,33.691,-29.785,0
1579272274.424,22.461,33.203,62.012,29.297,30.762,0
1579272274.428,18.555,35.156,53.711,27.344,103.027,0
1579272274.432,20.508,36.133,56.152,29.297,89.355,0
1579272274.436,25.879,36.133,61.035,33.691,37.109,0
1579272274.440,22.949,32.715,58.105,35.156,61.523,0
1579272274.443,24.414,36.621,49.316,38.086,87.891,0
1579272274.447,25.879,40.039,49.805,33.203,66.895,0
1579272274.451,26.367,40.039,64.941,31.250,30.273,0
1579272274.455,28.320,40.039,63.477,30.762,7.324,0
1579272274.459,28.320,38.086,50.293,26.855,73.242,0
1579272274.476,30.273,41.504,58.105,32.227,62.988,0
1579272274.480,31.250,44.922,53.223,37.598,-33.203,0
1579272274.484,28.320,36.621,41.504,35.156,-11.719,0
1579272274.488,31.250,40.039,57.617,33.691,70.312,0
1579272274.492,33.691,46.387,61.035,31.250,35.156,0
1579272274.496,32.715,36.133,41.992,30.762,31.738,0
1579272274.500,31.738,34.668,46.875,34.180,52.734,0
1579272274.503,31.250,42.969,63.477,31.738,59.082,0
1579272274.507,32.227,42.969,58.105,24.902,36.621,0
1579272274.511,32.715,38.574,37.598,21.973,-8.789,0
1579272274.515,36.621,39.062,43.457,27.832,-8.789,0
1579272274.519,41.016,41.992,61.523,28.320,4.395,0
1579272274.516,34.180,40.527,55.664,21.484,2.930,0
1579272274.520,23.438,38.086,42.969,20.020,8.789,0
1579272274.524,26.855,45.410,44.922,24.902,34.668,0
1579272274.528,33.691,50.293,45.898,30.273,62.012,0
1579272274.532,39.551,44.434,45.898,29.785,79.590,0
1579272274.536,37.598,43.457,48.828,26.367,31.250,0
1579272274.540,30.273,46.387,50.293,31.250,34.180,0
1579272274.543,28.320,46.875,49.316,32.227,71.777,0
1579272274.547,35.645,54.199,56.152,35.645,70.312,0
1579272274.551,37.598,53.223,49.805,29.297,70.312,0
1579272274.555,37.109,45.410,37.109,24.414,55.176,0
1579272274.559,35.645,41.504,47.363,34.180,56.641,0
1579272274.557,34.180,42.480,46.387,30.762,63.477,0
1579272274.561,36.133,47.363,43.945,28.809,65.430,0
1579272274.565,31.250,44.922,55.176,27.832,24.414,0
1579272274.569,35.645,49.316,53.711,36.133,14.160,0
1579272274.573,40.039,53.223,50.293,39.551,21.973,0
1579272274.577,35.156,44.434,45.410,24.414,32.715,0
1579272274.581,38.086,44.922,40.527,26.855,79.590,0
1579272274.584,32.227,41.016,39.062,35.156,64.941,0
1579272274.588,26.367,34.180,32.715,29.785,25.879,0
1579272274.592,33.691,42.969,37.598,28.320,30.762,0
1579272274.596,37.109,46.387,51.270,29.785,33.203,0
1579272274.600,36.133,43.457,47.852,31.250,15.625,0
1579272274.616,42.969,51.270,45.410,34.668,48.340,0
1579272274.620,41.016,53.223,46.875,34.668,-20.020,0
1579272274.624,32.715,46.387,39.551,27.344,-18.555,0
1579272274.628,37.109,42.969,48.828,29.297,27.344,0
1579272274.632,35.645,43.457,53.223,34.180,46.387,0
1579272274.636,36.133,48.828,54.199,28.809,139.648,0
1579272274.640,36.621,50.293,56.152,18.555,101.562,0
1579272274.643,31.738,47.852,41.016,21.973,23.926,0
1579272274.647,32.715,48.340,28.320,28.809,51.758,0
1579272274.651,34.668,47.852,42.480,27.344,35.156,0
1579272274.655,27.344,44.922,58.594,15.625,57.617,0
1579272274.659,30.273,49.805,61.035,16.602,38.086,0
1579272274.656,32.715,45.410,56.152,25.391,40.527,0
1579272274.660,29.785,40.527,49.805,15.625,114.258,0
1579272274.664,24.902,48.340,42.969,12.207,41.992,0
1579272274.668,23.438,49.805,43.457,16.602,-14.160,0
1579272274.672,29.785,43.457,42.480,19.531,36.621,0
1579272274.676,36.621,45.410,48.340,26.855,78.613,0
1579272274.680,32.227,47.363,43.457,20.996,-18.066,0
1579272274.683,24.902,39.551,32.715,7.812,-14.648,0
1579272274.687,24.414,44.434,45.410,13.672,53.223,0
1579272274.691,26.855,49.316,47.852,18.066,42.969,0
1579272274.695,20.508,45.410,49.805,11.230,24.902,0
1579272274.699,20.020,44.922,55.664,8.789,54.199,0
1579272274.716,33.203,49.805,59.082,15.625,36.621,0
1579272274.720,27.832,45.410,48.828,17.090,15.625,0
1579272274.724,24.902,45.410,38.574,15.625,2.441,0
1579272274.728,29.785,51.758,45.410,17.090,3.906,0
1579272274.732,21.484,45.898,39.551,10.254,59.082,0
1579272274.736,19.531,43.945,36.621,9.277,60.059,0
1579272274.740,26.855,44.922,47.363,9.766,48.340,0
1579272274.743,20.020,43.945,49.805,7.812,0.488,0
1579272274.747,20.020,43.945,49.805,7.812,-41.992,0
1579272274.751,24.902,44.434,49.805,12.695,-8.301,0
1579272274.755,23.926,47.363,46.387,17.578,12.207,0
1579272274.759,26.367,49.316,45.410,18.555,2.441,0
1579272274.756,18.555,43.945,45.410,11.719,20.508,0
1579272274.760,18.555,40.039,45.410,10.254,-13.184,0
1579272274.764,22.461,39.551,37.598,16.602,33.691,0
1579272274.768,19.531,40.527,31.738,18.555,81.055,0
1579272274.772,22.949,43.945,41.504,16.113,78.613,0
1579272274.776,24.902,46.875,47.363,13.184,36.133,0
1579272274.780,27.344,43.945,47.852,17.090,2.930,0
1579272274.783,35.645,46.875,49.805,21.484,8.789,0
1579272274.787,34.180,48.340,47.363,15.625,31.250,0
1579272274.791,45.898,41.992,40.039,26.367,54.199,0
1579272274.795,49.316,43.457,49.805,40.527,-7.324,0
1579272274.799,23.438,43.457,57.129,26.855,-21.484,0
1579272274.796,7.812,39.551,56.152,10.742,37.598,0
1579272274.800,4.883,35.156,61.035,5.371,59.082,0
1579272274.804,8.301,32.227,64.941,12.695,30.273,0
1579272274.808,1.953,31.250,65.918,15.137,31.738,0
1579272274.812,-10.742,30.273,69.824,-1.953,10.254,0
1579272274.816,-0.488,32.227,75.684,0.977,-3.906,0
1579272274.820,-3.418,28.320,69.824,2.441,49.805,0
1579272274.823,-15.137,26.367,64.941,-5.371,47.852,0
1579272274.827,-12.207,28.809,71.289,-4.395,57.617,0
1579272274.831,-24.414,33.691,66.406,-24.414,91.309,0
1579272274.835,-29.297,35.156,70.801,-28.809,86.914,0
1579272274.839,-31.738,30.762,82.031,-21.973,87.402,0
1579272274.836,-34.180,31.250,79.590,-25.391,52.734,0
1579272274.840,-32.227,33.203,83.008,-27.344,61.523,0
1579272274.844,-42.480,37.109,90.820,-38.574,69.336,0
1579272274.848,-35.645,34.668,92.773,-37.109,49.805,0
1579272274.852,-34.668,23.926,82.031,-34.668,71.289,0
1579272274.856,-34.668,23.926,69.336,-36.133,56.152,0
1579272274.860,-29.297,32.227,65.918,-37.598,-19.043,0
1579272274.863,-28.809,33.203,67.383,-37.109,19.043,0
1579272274.867,-14.160,30.762,64.453,-27.832,56.152,0
1579272274.871,-10.742,37.598,65.918,-26.367,88.379,0
1579272274.875,-8.301,35.645,64.941,-22.461,54.688,0
1579272274.879,6.348,33.691,71.777,-2.441,14.160,0
1579272274.896,13.184,37.598,79.102,12.207,0.488,0
1579272274.900,4.883,25.391,57.129,10.254,71.289,0
1579272274.904,0.488,23.926,54.688,6.348,105.957,0
1579272274.908,9.277,28.320,65.430,10.742,57.129,0
1579272274.912,19.531,28.320,63.965,25.879,118.164,0
1579272274.916,34.180,34.668,60.059,40.527,55.176,0
1579272274.920,39.062,40.527,50.781,36.133,42.480,0
1579272274.923,43.457,41.016,43.945,26.367,64.453,0
1579272274.927,51.758,42.480,47.852,41.992,70.312,0
1579272274.931,47.852,45.410,53.223,51.758,55.664,0
1579272274.935,47.363,42.480,43.457,38.086,44.922,0
1579272274.939,50.781,39.062,37.598,36.621,21.484,0
1579272274.936,47.852,37.598,44.434,47.363,11.230,0
1579272274.940,47.852,36.133,53.223,51.758,4.883,0
1579272274.944,54.688,36.621,47.363,58.105,-29.785,0
1579272274.948,62.012,40.527,37.109,56.152,-10.254,0
1579272274.952,68.848,46.875,43.945,53.223,-34.668,0
1579272274.956,69.824,45.410,44.922,56.641,-2.930,0
1579272274.960,57.617,38.574,30.762,44.434,89.355,0
1579272274.963,51.758,41.504,32.715,37.598,75.684,0
1579272274.967,61.035,42.480,36.621,42.969,51.270,0
1579272274.971,59.570,41.016,38.086,46.875,82.031,0
1579272274.975,55.176,41.992,32.227,43.945,41.504,0
1579272274.979,60.059,43.945,23.926,42.480,3.906,0
1579272274.996,56.641,45.410,39.551,44.434,21.484,0
1579272275.000,50.293,41.992,48.340,41.992,11.719,0
1579272275.004,55.664,39.062,44.434,48.828,19.531,0
1579272275.008,54.199,35.645,40.039,49.316,36.621,0
1579272275.012,53.223,40.039,36.621,39.062,39.062,0
1579272275.016,48.340,45.410,40.039,47.363,-1.953,0
1579272275.020,43.945,41.992,37.598,60.059,17.090,0
1579272275.023,51.758,45.898,40.527,56.641,42.480,0
1579272275.027,51.270,43.945,36.133,47.852,43.457,0
1579272275.031,56.641,46.387,37.598,55.664,13.672,0
1579272275.035,61.523,48.828,48.828,64.941,-4.883,0
1579272275.039,52.734,41.992,45.898,56.641,35.156,0
1579272275.036,57.129,45.898,45.898,49.316,-2.930,0
1579272275.040,62.500,49.805,43.457,48.828,-11.230,0
1579272275.044,58.105,44.434,37.109,51.270,29.297,0
1579272275.048,56.641,41.992,39.062,49.805,22.461,0
1579272275.052,57.617,48.828,42.969,47.852,56.641,0
1579272275.056,58.594,49.805,44.922,47.852,92.773,0
1579272275.060,61.523,52.246,48.340,50.293,75.195,0
1579272275.063,59.570,54.688,45.898,50.293,30.762,0
1579272275.067,47.363,50.293,34.668,37.598,102.539,0
1579272275.071,45.410,52.246,30.762,28.809,117.676,0
1579272275.075,44.434,50.781,42.969,32.227,82.520,0
1579272275.079,38.574,49.316,47.852,37.109,80.566,0
1579272275.076,40.527,48.828,45.898,31.250,52.246,0
1579272275.080,45.410,46.875,47.852,27.832,34.180,0
1579272275.084,44.922,48.828,44.434,35.156,29.297,0
1579272275.088,42.969,51.270,44.922,39.551,68.359,0
1579272275.092,29.785,43.945,45.898,31.738,41.992,0
1579272275.096,26.855,40.039,46.875,21.484,37.109,0
1579272275.100,32.715,43.457,43.457,20.996,14.648,0
1579272275.103,34.668,47.852,36.621,28.320,-0.977,0
1579272275.107,36.621,44.922,41.992,30.273,56.152,0
1579272275.111,33.691,44.434,48.340,24.902,67.383,0
1579272275.115,35.156,49.316,48.828,26.855,42.480,0
1579272275.119,41.016,49.805,48.340,38.086,-9.277,0
1579272275.136,35.645,41.992,46.875,34.668,-10.254,0
1579272275.140,32.715,38.574,49.805,23.438,8.301,0
1579272275.144,36.133,46.387,49.805,21.484,21.484,0
1579272275.148,39.062,51.270,45.898,28.320,68.848,0
1579272275.152,39.551,47.852,41.504,31.738,51.270,0
1579272275.156,34.668,47.852,35.645,27.832,59.570,0
1579272275.160,36.621,47.852,40.527,24.414,110.840,0
1579272275.163,39.062,51.758,50.781,21.484,72.754,0
1579272275.167,38.086,53.711,53.711,24.902,45.410,0
1579272275.171,27.832,42.969,40.527,21.484,38.574,0
1579272275.175,19.531,43.945,37.598,13.184,32.715,0
1579272275.179,23.438,48.340,50.293,15.625,80.566,0
1579272275.176,24.414,45.898,52.734,21.484,69.824,0
1579272275.180,23.926,44.434,44.922,21.484,8.789,0
1579272275.184,27.832,45.898,37.109,18.555,58.105,0
1579272275.188,23.438,44.434,39.062,17.578,62.012,0
1579272275.192,18.066,41.504,50.781,19.531,2.441,0
1579272275.196,24.414,44.434,52.734,25.879,1.953,0
1579272275.200,21.484,43.945,46.875,20.996,-11.230,0
1579272275.203,12.695,41.016,45.898,10.742,29.785,0
1579272275.207,17.578,40.039,46.387,15.625,40.527,0
1579272275.211,23.438,39.551,42.969,26.855,12.695,0
1579272275.215,27.344,44.434,47.852,26.855,31.738,0
1579272275.219,24.902,43.945,51.270,17.090,40.527,0
1579272275.216,24.902,43.945,45.898,17.090,40.527,0
1579272275.220,26.367,46.387,44.922,23.926,33.691,0
1579272275.224,35.156,46.387,49.805,31.738,38.574,0
1579272275.228,29.785,42.969,43.945,25.879,81.055,0
1579272275.232,20.020,36.133,44.922,17.090,11.230,0
1579272275.236,25.879,37.598,52.734,24.902,-12.695,0
1579272275.240,26.855,39.551,50.293,26.855,79.102,0
1579272275.243,26.855,42.969,51.758,27.344,115.234,0
1579272275.247,26.367,43.945,54.688,20.508,54.199,0
1579272275.251,24.414,41.504,52.246,13.184,-28.809,0
1579272275.255,25.879,41.016,42.480,20.508,36.133,0
1579272275.259,34.180,48.828,38.086,23.438,54.688,0
1579272275.276,35.645,52.246,43.457,20.508,5.371,0
1579272275.280,26.855,43.945,47.852,13.184,42.969,0
1579272275.284,25.391,42.480,51.758,17.578,41.992,0
1579272275.288,24.414,38.574,50.293,20.020,-4.883,0
1579272275.292,20.020,36.621,47.852,17.090,-30.273,0
1579272275.296,25.879,28.809,55.664,26.367,20.996,0
1579272275.300,41.016,28.320,59.082,43.457,95.703,0
1579272275.303,32.715,44.922,46.875,25.391,61.523,0
1579272275.307,17.090,58.594,39.062,-0.977,24.414,0
1579272275.311,20.020,58.594,39.062,-0.977,33.691,0
1579272275.315,17.090,50.781,30.273,0.488,65.430,0
1579272275.319,7.324,51.270,25.391,-5.859,91.797,0
1579272275.317,4.883,50.781,36.621,-10.254,34.668,0
1579272275.321,1.465,55.176,34.668,-17.578,6.348,0
1579272275.325,-5.371,58.105,27.832,-24.414,0.488,0
1579272275.329,-6.836,55.664,31.250,-23.438,8.301,0
1579272275.333,-12.207,52.246,33.203,-30.762,16.113,0
1579272275.337,-19.043,47.363,29.785,-38.574,20.020,0
1579272275.341,-7.812,49.316,41.016,-29.297,64.941,0
1579272275.344,-7.324,53.223,46.875,-25.879,62.988,0
1579272275.348,-30.762,56.641,34.180,-45.410,20.996,0
1579272275.352,-40.039,57.129,34.668,-59.082,23.926,0
1579272275.356,-40.527,59.082,41.992,-67.383,80.078,0
1579272275.360,-48.828,68.359,43.945,-71.289,141.113,0
1579272275.356,-46.875,66.406,33.691,-69.336,105.957,0
1579272275.360,-48.340,65.430,27.832,-83.008,44.434,0
1579272275.364,-58.105,67.871,32.715,-89.355,46.875,0
1579272275.368,-59.082,57.129,29.785,-83.008,13.184,0
1579272275.372,-71.777,59.082,32.715,-94.238,33.691,0
1579272275.376,-73.242,67.871,35.645,-100.586,41.016,0
1579272275.380,-59.570,69.824,34.180,-93.750,34.180,0
1579272275.383,-63.965,70.312,25.879,-97.656,28.320,0
1579272275.387,-66.406,72.754,14.648,-97.168,-25.879,0
1579272275.391,-57.129,74.219,20.508,-90.820,3.906,0
1579272275.395,-55.664,74.707,34.668,-89.355,26.367,0
1579272275.399,-62.500,71.289,31.250,-89.844,0.488,0
1579272275.416,-59.082,65.430,17.578,-80.566,33.203,0
1579272275.420,-55.664,60.547,22.461,-78.125,38.086,0
1579272275.424,-47.852,61.035,32.227,-75.195,37.598,0
1579272275.428,-41.016,65.918,32.715,-66.895,67.871,0
1579272275.432,-35.156,59.082,33.691,-63.965,76.172,0
1579272275.436,-24.902,57.129,24.902,-55.664,42.480,0
1579272275.440,-22.949,68.359,24.414,-48.828,6.836,0
1579272275.443,-21.484,60.547,32.715,-49.316,26.855,0
1579272275.447,-14.648,48.828,33.691,-36.621,42.969,0
1579272275.451,-8.789,49.805,30.273,-24.902,49.316,0
1579272275.455,8.301,53.223,27.344,-14.648,22.461,0
1579272275.459,20.020,49.316,35.156,-3.906,-17.578,0
1579272275.456,18.066,47.363,31.738,1.465,63.965,0
1579272275.460,24.902,41.992,36.621,14.648,78.613,0
1579272275.464,34.668,41.992,35.156,23.438,-6.836,0
1579272275.468,40.527,47.852,25.879,22.461,23.926,0
1579272275.472,40.527,42.480,38.574,24.414,65.918,0
1579272275.476,42.969,37.109,41.504,29.785,36.133,0
1579272275.480,50.293,39.551,39.551,38.574,21.973,0
1579272275.483,56.641,41.992,39.062,38.574,27.832,0
1579272275.487,56.152,40.527,28.320,41.992,34.180,0
1579272275.491,62.988,36.621,27.344,54.688,49.316,0
1579272275.495,77.637,41.504,36.621,66.406,5.859,0
1579272275.499,80.078,50.293,43.457,67.871,19.043,0
1579272275.498,67.383,37.109,31.250,55.176,94.238,0
1579272275.502,68.848,29.785,27.344,54.199,57.129,0
1579272275.506,69.336,35.156,40.039,59.082,-6.348,0
1579272275.510,61.035,40.039,43.457,54.688,33.691,0
1579272275.514,63.477,40.527,39.551,53.223,46.875,0
1579272275.518,62.988,33.691,33.203,50.781,9.766,0
1579272275.522,60.547,38.086,31.250,55.664,18.555,0
1579272275.525,63.477,40.527,31.250,60.059,32.227,0
1579272275.529,64.453,31.250,30.273,50.293,49.316,0
1579272275.533,61.035,33.203,34.180,47.852,40.527,0
1579272275.537,60.547,34.180,39.551,55.176,29.297,0
1579272275.541,67.871,38.086,33.203,61.035,67.871,0
1579272275.556,66.406,42.480,36.621,57.617,81.055,0
1579272275.560,65.918,37.109,47.363,50.781,41.992,0
1579272275.564,60.059,32.715,48.340,49.805,13.184,0
1579272275.568,62.500,42.969,54.199,61.523,52.246,0
1579272275.572,63.965,44.922,42.969,54.199,34.668,0
1579272275.576,55.664,33.203,25.391,37.598,23.926,0
1579272275.580,56.152,33.691,33.203,41.016,42.969,0
1579272275.583,52.734,36.133,42.480,47.363,33.203,0
1579272275.587,54.688,35.156,42.969,45.898,63.965,0
1579272275.591,54.688,37.109,46.875,40.039,44.434,0
1579272275.595,47.852,41.504,46.387,42.969,8.789,0
1579272275.599,52.734,36.133,43.945,48.828,-10.254,0
1579272275.596,58.594,35.645,45.410,56.152,-2.930,0
1579272275.600,54.199,37.109,39.062,44.922,35.645,0
1579272275.604,48.828,35.156,38.574,36.621,-19.531,0
1579272275.608,52.246,39.551,36.133,48.340,10.254,0
1579272275.612,49.316,42.969,27.832,44.922,49.805,0
1579272275.616,49.316,42.969,21.973,35.156,-13.184,0
1579272275.620,53.711,44.922,36.621,36.621,15.137,0
1579272275.623,49.316,43.945,44.922,38.086,13.672,0
1579272275.627,50.293,47.363,41.016,40.039,4.883,0
1579272275.631,55.664,47.363,37.598,38.574,50.293,0
1579272275.635,50.781,36.621,43.457,30.762,39.062,0
1579272275.639,42.480,35.156,52.246,28.320,25.879,0
1579272275.636,43.945,37.598,44.434,32.227,7.812,0
1579272275.640,47.852,39.062,34.668,35.156,34.668,0
1579272275.644,46.387,39.551,41.016,31.738,34.668,0
1579272275.648,45.410,39.551,47.363,36.133,-1.953,0
1579272275.652,47.363,41.016,49.805,48.340,20.508,0
1579272275.656,40.039,42.969,51.270,45.410,57.617,0
1579272275.660,32.715,40.527,45.410,37.109,125.000,0
1579272275.663,32.715,40.039,40.527,38.574,73.730,0
1579272275.667,27.344,40.527,41.504,39.062,3.906,0
1579272275.671,24.414,38.086,47.852,35.645,76.172,0
1579272275.675,24.414,38.086,50.781,30.762,63.965,0
1579272275.679,25.879,39.062,47.852,23.438,5.859,0
1579272275.696,33.691,39.062,51.758,22.461,50.293,0
1579272275.700,38.574,43.945,49.805,29.785,84.473,0
1579272275.704,41.992,44.434,49.805,30.273,37.109,0
1579272275.708,34.668,38.086,47.852,17.090,-0.977,0
1579272275.712,32.227,30.273,37.598,20.020,27.832,0
1579272275.716,56.152,32.227,43.945,51.758,22.461,0
1579272275.720,48.340,47.363,51.758,41.504,23.438,0
1579272275.723,10.254,53.223,49.805,-5.859,60.059,0
1579272275.727,9.277,47.852,45.898,-10.254,30.273,0
1579272275.731,22.461,46.875,39.551,9.766,56.152,0
1579272275.735,29.297,53.711,43.945,16.602,73.730,0
1579272275.739,35.645,56.152,51.758,18.066,103.516,0
1579272275.737,34.668,44.434,35.645,14.160,116.699,0
1579272275.741,33.691,37.598,32.227,15.625,66.406,0
1579272275.745,32.715,50.781,47.363,22.461,67.871,0
1579272275.749,33.203,56.641,42.969,23.926,59.570,0
1579272275.753,32.227,49.805,38.086,18.555,20.020,0
1579272275.757,29.297,51.270,41.016,20.020,18.555,0
1579272275.761,36.621,54.199,43.945,28.320,-3.418,0
1579272275.764,40.039,49.316,46.387,21.973,23.438,0
1579272275.768,40.039,54.199,51.758,19.531,25.391,0
1579272275.772,46.387,59.570,50.293,27.832,-12.695,0
1579272275.776,44.922,55.664,39.062,28.809,0.488,0
1579272275.780,40.039,53.223,42.480,32.227,49.805,0
1579272275.776,39.551,52.734,45.410,30.762,44.922,0
1579272275.780,41.504,52.246,48.828,32.227,32.227,0
1579272275.784,43.945,49.805,53.711,36.621,95.215,0
1579272275.788,47.363,48.828,53.711,35.156,89.355,0
1579272275.792,50.781,50.293,50.293,37.109,-14.160,0
1579272275.796,53.711,50.293,49.805,37.598,21.484,0
1579272275.800,56.641,55.176,56.152,40.527,59.570,0
1579272275.803,48.340,49.805,59.082,38.086,46.387,0
1579272275.807,41.992,45.410,51.270,27.832,7.812,0
1579272275.811,47.852,47.363,50.293,27.832,-11.719,0
1579272275.815,45.410,47.363,51.270,31.738,32.227,0
1579272275.819,42.969,44.922,51.758,34.180,24.414,0
1579272275.836,42.480,41.504,46.387,29.785,55.176,0
1579272275.840,41.992,47.363,48.340,25.391,88.379,0
1579272275.844,40.039,47.852,52.734,23.926,-2.441,0
1579272275.848,46.875,55.664,49.805,35.156,-5.859,0
1579272275.852,51.758,59.570,47.852,40.527,46.387,0
1579272275.856,37.598,42.969,48.828,25.879,41.504,0
1579272275.860,35.156,41.992,59.570,24.902,26.367,0
1579272275.863,40.527,50.781,57.617,35.645,39.551,0
1579272275.867,41.504,50.781,53.223,36.133,75.195,0
1579272275.871,39.551,44.922,57.129,28.809,69.336,0
1579272275.875,34.180,44.434,55.664,24.414,113.770,0
1579272275.879,36.133,51.270,42.480,27.344,107.422,0
1579272275.876,39.062,48.828,37.109,28.320,53.711,0
1579272275.880,32.227,50.293,51.758,21.973,26.855,0
1579272275.884,26.855,58.594,62.012,27.832,19.043,0
1579272275.888,33.203,46.875,57.617,39.551,62.500,0
1579272275.892,43.945,44.434,46.387,40.527,103.027,0
1579272275.896,27.832,54.688,44.922,21.484,75.195,0
1579272275.900,23.926,54.688,46.387,8.301,27.832,0
1579272275.903,32.715,57.129,46.387,15.137,30.273,0
1579272275.907,27.832,57.617,49.805,22.949,25.391,0
1579272275.911,27.344,55.664,50.293,26.855,29.297,0
1579272275.915,32.715,57.129,49.805,24.414,41.016,0
1579272275.919,30.762,55.176,38.574,20.508,27.344,0
1579272275.916,34.668,51.758,39.551,29.297,36.133,0
1579272275.920,41.504,55.176,51.758,35.156,76.172,0
1579272275.924,31.738,51.758,46.875,23.438,38.574,0
1579272275.928,35.645,48.340,45.410,22.461,-20.508,0
1579272275.932,36.621,50.781,47.363,27.832,31.250,0
1579272275.936,31.738,44.922,45.410,29.785,36.133,0
1579272275.940,26.855,40.039,50.293,27.832,-1.953,0
1579272275.943,23.926,43.457,49.805,23.438,3.906,0
1579272275.947,33.691,45.898,44.922,26.855,46.875,0
1579272275.951,35.645,48.340,48.828,30.273,68.359,0
1579272275.955,37.109,54.199,60.059,32.715,29.785,0
1579272275.959,39.551,52.246,54.688,31.738,20.996,0
1579272275.976,27.344,43.457,43.457,27.344,25.879,0
1579272275.980,29.785,45.898,43.945,37.109,45.898,0
1579272275.984,37.109,49.805,51.758,41.016,44.434,0
1579272275.988,29.297,43.457,54.688,26.855,7.812,0
1579272275.992,32.227,40.039,48.828,24.902,27.344,0
1579272275.996,41.504,48.340,46.875,37.109,30.273,0
1579272276.000,41.992,56.641,52.246,36.621,50.293,0
1579272276.003,40.527,52.734,61.035,31.250,53.223,0
1579272276.007,43.945,55.664,62.012,34.180,63.965,0
1579272276.011,39.551,53.711,50.781,34.180,81.543,0
1579272276.015,32.227,39.062,46.875,29.785,68.359,0
1579272276.019,36.133,42.480,52.734,28.320,144.043,0
1579272276.017,41.016,53.223,41.992,26.367,95.215,0
1579272276.021,41.016,53.223,51.758,31.738,4.395,0
1579272276.025,34.668,47.363,58.105,31.250,15.137,0
1579272276.029,30.273,46.875,45.410,25.391,12.695,0
1579272276.033,33.203,51.758,48.828,24.414,41.504,0
1579272276.037,37.109,54.199,56.152,23.438,35.645,0
1579272276.041,38.574,55.664,60.547,29.785,15.137,0
1579272276.044,39.062,54.688,58.594,32.715,21.973,0
1579272276.048,32.715,49.805,43.457,17.090,32.227,0
1579272276.052,36.133,49.316,36.621,14.648,24.902,0
1579272276.056,55.664,52.734,42.969,35.156,3.418,0
1579272276.060,46.875,49.805,55.664,34.668,27.344,0
1579272276.056,15.137,38.574,55.176,5.371,53.223,0
1579272276.060,16.602,36.133,48.828,4.883,46.387,0
1579272276.064,24.414,35.645,58.105,16.602,47.852,0
1579272276.068,28.809,42.969,64.941,24.414,33.691,0
1579272276.072,32.715,52.734,62.988,28.809,17.090,0
1579272276.076,27.344,42.969,59.082,18.555,35.645,0
1579272276.080,29.297,37.598,49.805,16.602,37.109,0
1579272276.083,28.320,42.480,49.805,18.555,29.785,0
1579272276.087,26.367,44.922,63.477,19.531,49.805,0
1579272276.091,32.227,47.363,62.500,21.484,63.965,0
1579272276.095,34.180,47.852,53.223,18.066,61.523,0
1579272276.099,26.367,45.410,47.363,20.020,45.898,0
1579272276.117,21.973,41.504,53.223,22.949,47.852,0
1579272276.121,26.855,41.016,48.340,18.555,29.297,0
1579272276.125,33.691,45.898,39.062,20.020,22.949,0
1579272276.129,31.250,42.480,54.199,21.973,-7.324,0
1579272276.133,19.043,39.551,63.477,16.602,12.207,0
1579272276.137,20.996,46.875,61.035,15.625,29.297,0
1579272276.141,25.879,50.781,55.176,16.113,-0.488,0
1579272276.144,30.273,49.316,49.805,20.508,20.996,0
1579272276.148,31.250,48.828,46.387,24.902,71.289,0
1579272276.152,26.367,52.246,46.387,20.508,65.918,0
1579272276.156,27.832,50.293,48.340,18.555,40.039,0
1579272276.160,25.879,41.016,48.340,18.066,59.570,0
1579272276.156,31.738,46.387,45.898,27.832,55.664,0
1579272276.160,40.039,53.223,51.270,33.691,40.039,0
1579272276.164,33.203,46.387,52.734,19.531,5.859,0
1579272276.168,36.133,44.922,51.758,20.020,6.348,0
1579272276.172,41.992,45.898,59.570,30.762,76.660,0
1579272276.176,38.574,43.945,59.082,31.738,71.777,0
1579272276.180,40.527,52.734,54.199,26.367,39.551,0
1579272276.183,38.086,52.246,53.223,27.832,43.457,0
1579272276.187,33.691,42.480,39.551,29.785,28.809,0
1579272276.191,29.785,42.480,38.574,24.414,1.953,0
1579272276.195,24.902,47.852,59.570,21.484,14.648,0
1579272276.199,32.227,48.828,59.082,20.996,82.520,0
1579272276.196,26.855,42.969,46.875,21.973,43.457,0
1579272276.200,28.320,46.875,52.246,30.273,31.250,0
1579272276.204,37.109,49.316,55.176,28.809,54.199,0
1579272276.208,32.715,47.852,45.410,23.926,13.672,0
1579272276.212,30.273,47.852,48.340,21.973,23.926,0
1579272276.216,28.320,44.922,59.082,24.902,49.316,0
1579272276.220,27.832,46.875,51.758,28.320,49.805,0
1579272276.223,28.809,45.898,45.410,15.625,46.875,0
1579272276.227,32.227,48.340,49.805,14.160,8.789,0
1579272276.231,29.785,54.199,48.340,19.043,-3.418,0
1579272276.235,23.926,49.805,46.875,14.648,31.250,0
1579272276.239,27.344,49.805,46.387,13.672,15.137,0
1579272276.256,26.855,44.922,46.387,8.301,-3.906,0
1579272276.260,31.738,45.410,58.594,15.137,31.738,0
1579272276.264,35.156,48.828,64.941,21.484,88.867,0
1579272276.268,34.668,45.898,50.781,12.207,56.152,0
1579272276.272,33.203,46.387,45.410,5.859,27.344,0
1579272276.276,39.062,46.875,45.898,9.277,21.973,0
1579272276.280,52.246,49.316,41.992,26.855,-20.996,0
1579272276.283,37.109,46.387,48.340,23.438,47.852,0
1579272276.287,9.277,33.691,55.664,1.465,68.359,0
1579272276.291,9.277,33.691,61.523,2.441,5.371,0
1579272276.295,18.555,40.527,60.059,14.160,16.113,0
1579272276.299,27.832,41.504,58.105,19.043,55.664,0
1579272276.296,31.738,47.852,60.059,13.672,62.988,0
1579272276.300,29.785,46.387,56.152,10.742,34.180,0
1579272276.304,29.297,37.109,46.875,16.602,5.371,0
1579272276.308,31.250,42.480,42.480,18.066,68.359,0
1579272276.312,36.621,50.781,42.969,19.531,77.637,0
1579272276.316,40.527,53.223,47.852,24.414,56.641,0
1579272276.320,29.297,43.945,49.316,15.625,69.824,0
1579272276.323,22.461,34.180,49.805,10.742,90.820,0
1579272276.327,29.785,35.156,59.082,16.113,40.527,0
1579272276.331,33.691,45.898,55.664,14.160,52.734,0
1579272276.335,35.156,47.852,50.781,18.555,70.801,0
1579272276.339,32.715,44.434,46.875,27.832,5.859,0
1579272276.337,31.738,46.875,40.527,28.320,-39.551,0
1579272276.341,31.738,49.805,50.781,24.414,-21.973,0
1579272276.345,32.715,48.828,57.129,21.973,28.320,0
1579272276.349,42.480,54.199,65.430,35.645,41.992,0
1579272276.353,35.645,50.781,58.105,39.551,40.527,0
1579272276.357,28.809,41.016,44.434,29.297,-20.508,0
1579272276.361,40.039,44.434,55.664,32.227,5.371,0
1579272276.364,39.551,41.504,56.641,40.039,55.176,0
1579272276.368,39.062,44.922,53.223,47.363,18.555,0
1579272276.372,42.969,50.293,44.922,44.922,20.020,0
1579272276.376,40.039,46.875,35.645,36.621,26.855,0
1579272276.380,41.016,42.480,53.711,37.109,21.973,0
1579272276.396,44.922,41.504,70.312,35.645,62.500,0
1579272276.400,39.551,43.945,56.641,23.438,43.945,0
1579272276.404,45.898,50.781,53.711,26.855,3.418,0
1579272276.408,45.898,52.734,61.035,31.250,33.203,0
1579272276.412,48.340,49.316,49.805,32.227,71.289,0
1579272276.416,63.477,47.363,41.504,42.480,72.754,0
1579272276.420,48.828,47.363,52.246,33.203,64.941,0
1579272276.423,31.738,43.945,65.918,20.996,38.574,0
1579272276.427,27.344,37.109,66.895,26.855,6.348,0
1579272276.431,30.273,37.598,69.336,33.203,19.531,0
1579272276.435,28.320,34.668,64.941,23.438,63.965,0
1579272276.439,24.414,37.109,44.922,18.555,45.410,0
1579272276.436,25.879,41.016,51.270,28.809,35.156,0
1579272276.440,31.250,47.852,77.148,43.945,11.719,0
1579272276.444,20.996,42.480,74.707,41.016,-15.137,0
1579272276.448,18.066,31.738,62.012,26.367,-18.555,0
1579272276.452,27.344,40.527,58.105,29.297,23.926,0
1579272276.456,27.344,41.992,58.594,35.156,-2.441,0
1579272276.460,29.785,42.969,59.082,33.203,4.395,0
1579272276.463,34.180,51.270,62.988,30.273,99.609,0
1579272276.467,37.109,49.805,64.941,24.902,59.570,0
1579272276.471,36.621,43.945,50.293,16.602,12.695,0
1579272276.475,35.156,41.504,38.574,15.137,3.418,0
1579272276.479,34.668,44.434,49.805,17.090,40.039,0
1579272276.496,41.504,51.758,64.453,26.855,56.152,0
1579272276.500,40.527,47.852,62.988,29.297,35.645,0
1579272276.504,35.156,38.574,53.223,22.949,41.992,0
1579272276.508,33.203,47.363,56.152,24.902,54.199,0
1579272276.512,31.738,52.734,62.012,24.414,71.777,0
1579272276.516,34.668,47.852,67.871,27.344,57.129,0
1579272276.520,34.668,48.828,60.059,27.344,14.160,0
1579272276.523,31.738,48.828,39.062,17.090,37.598,0
1579272276.527,35.156,48.828,47.852,11.230,41.016,0
1579272276.531,35.156,51.270,59.082,12.207,46.387,0
1579272276.535,36.621,48.828,53.711,14.648,55.176,0
1579272276.539,40.039,52.246,61.035,20.508,20.996,0
1579272276.536,27.344,48.828,63.477,11.719,-23.926,0
1579272276.540,23.438,47.363,50.293,4.395,3.906,0
1579272276.544,35.645,52.246,52.246,14.160,20.020,0
1579272276.548,36.621,46.875,54.688,16.113,3.906,0
1579272276.552,32.715,44.434,53.223,11.719,45.898,0
1579272276.556,36.133,46.875,55.176,16.602,19.043,0
1579272276.560,38.086,49.316,46.875,23.438,43.945,0
1579272276.563,40.527,53.223,39.551,25.391,33.203,0
1579272276.567,44.922,55.664,52.246,24.414,15.137,0
1579272276.571,40.039,51.270,65.918,16.602,99.609,0
1579272276.575,37.109,54.688,64.453,16.602,80.566,0
1579272276.579,52.246,56.152,59.082,25.879,-9.766,0
1579272276.576,45.410,47.852,57.129,22.949,11.230,0
1579272276.580,36.621,47.363,52.734,20.020,68.359,0
1579272276.584,43.457,54.688,50.293,22.949,37.598,0
1579272276.588,39.551,51.758,48.340,23.438,32.227,0
1579272276.592,37.598,46.387,50.781,24.414,62.988,0
1579272276.596,35.645,48.340,62.500,20.020,49.316,0
1579272276.600,38.574,47.852,59.570,24.414,33.203,0
1579272276.603,42.969,44.434,48.828,32.715,56.641,0
1579272276.607,31.250,47.852,49.805,12.695,67.871,0
1579272276.611,29.297,55.176,56.641,-3.418,57.129,0
1579272276.615,38.086,60.059,55.664,4.883,57.617,0
1579272276.619,27.832,55.664,46.387,0.488,80.078,0
1579272276.616,19.531,49.805,47.363,-2.930,43.945,0
1579272276.620,23.438,46.875,51.758,-1.953,24.414,0
1579272276.624,26.367,50.293,41.016,-0.488,44.434,0
1579272276.628,21.973,52.734,39.062,0.000,38.086,0
1579272276.632,20.020,48.340,47.363,3.418,21.973,0
1579272276.636,24.414,51.758,43.945,5.859,32.715,0
1579272276.640,23.926,58.594,50.781,-0.977,-19.531,0
1579272276.643,22.949,51.758,56.152,0.488,-20.020,0
1579272276.647,30.273,50.781,55.664,9.277,22.461,0
1579272276.651,22.949,52.734,59.082,11.719,-33.691,0
1579272276.655,13.672,47.363,53.223,4.883,-16.602,0
1579272276.659,26.367,48.828,48.828,7.812,46.387,0
1579272276.677,31.738,52.734,38.086,19.531,81.543,0
1579272276.681,30.762,56.152,44.434,21.484,16.602,0
1579272276.685,33.203,57.129,49.805,15.625,-2.930,0
1579272276.689,30.273,54.199,39.062,7.812,-31.250,0
1579272276.693,25.879,49.805,44.922,10.254,-4.883,0
1579272276.697,30.273,48.340,51.270,19.531,42.969,0
1579272276.701,36.621,51.758,51.270,17.090,-34.180,0
1579272276.704,29.785,48.828,53.223,3.906,-12.695,0
1579272276.708,28.320,39.062,52.734,0.000,-12.695,0
1579272276.712,33.691,42.480,43.457,11.719,-2.441,0
1579272276.716,37.109,54.199,36.621,19.531,79.102,0
1579272276.720,40.039,58.594,47.363,17.090,62.012,0
1579272276.716,28.320,46.387,52.246,10.254,21.484,0
1579272276.720,33.691,53.711,58.594,19.531,24.414,0
1579272276.724,36.133,65.918,65.918,21.484,42.480,0
1579272276.728,35.645,70.312,74.219,14.648,56.152,0
1579272276.732,22.461,62.500,67.871,-4.395,36.133,0
1579272276.736,-5.859,49.805,47.852,-22.949,-15.137,0
1579272276.740,-3.418,58.594,51.758,-24.902,-24.414,0
1579272276.743,-9.766,61.035,59.082,-38.574,30.762,0
1579272276.747,-26.855,63.965,49.805,-59.570,74.707,0
1579272276.751,-53.711,62.988,41.992,-82.031,56.641,0
1579272276.755,-74.219,64.453,49.805,-94.238,4.395,0
1579272276.759,-79.590,69.824,52.246,-103.027,-12.207,0
1579272276.776,-89.844,72.754,43.457,-116.211,8.301,0
1579272276.780,-104.004,78.125,46.387,-129.395,5.371,0
1579272276.784,-116.699,78.125,53.223,-138.184,9.766,0
1579272276.788,-129.883,78.613,47.852,-149.414,-5.371,0
1579272276.792,-137.695,78.613,52.734,-158.203,-19.531,0
1579272276.796,-133.301,66.406,51.270,-155.273,46.387,0
1579272276.800,-120.117,69.336,38.574,-137.695,15.137,0
1579272276.803,-107.910,80.078,38.574,-124.023,-16.113,0
1579272276.807,-98.145,73.730,55.176,-119.141,29.785,0
1579272276.811,-79.102,65.430,66.895,-107.422,46.387,0
1579272276.815,-58.105,66.895,65.918,-88.379,24.414,0
1579272276.819,-51.758,65.430,62.988,-73.730,44.922,0
1579272276.816,-36.133,60.059,57.129,-60.059,91.309,0
1579272276.820,-3.418,60.547,60.059,-34.668,65.430,0
1579272276.824,3.906,55.176,62.012,-19.531,59.082,0
1579272276.828,7.324,50.781,56.641,0.488,7.324,0
1579272276.832,17.578,54.688,41.016,14.160,6.836,0
1579272276.836,24.414,53.223,43.457,13.672,36.133,0
1579272276.840,41.504,50.781,61.035,29.297,59.570,0
1579272276.843,52.246,47.852,54.199,40.527,50.781,0
1579272276.847,61.523,47.852,44.922,51.758,86.914,0
1579272276.851,70.312,52.734,39.062,57.617,133.789,0
1579272276.855,71.777,51.270,47.363,55.176,52.246,0
1579272276.859,73.730,48.340,51.758,62.988,-13.184,0
1579272276.856,80.078,49.316,47.852,73.242,-7.324,0
1579272276.860,82.031,51.758,42.480,75.684,-2.930,0
1579272276.864,77.637,39.551,31.250,65.918,-0.977,0
1579272276.868,76.660,35.156,34.180,66.406,26.855,0
1579272276.872,81.055,43.457,46.387,75.684,35.156,0
1579272276.876,81.055,43.457,45.410,73.242,17.578,0
1579272276.880,80.566,43.945,34.180,68.848,-23.438,0
1579272276.883,79.590,47.363,37.598,73.242,18.066,0
1579272276.887,78.613,43.457,45.410,77.637,43.457,0
1579272276.891,81.543,43.457,41.016,72.754,44.434,0
1579272276.895,83.984,47.363,47.363,72.266,0.000,0
1579272276.899,81.543,50.293,58.594,81.543,-9.766,0
1579272276.917,71.777,41.016,50.781,77.148,27.832,0
1579272276.921,67.871,36.621,40.527,70.312,5.371,0
1579272276.925,69.336,38.574,46.875,68.359,13.672,0
1579272276.929,67.871,39.551,41.016,66.895,47.852,0
1579272276.933,68.359,40.039,33.203,73.242,46.875,0
1579272276.937,66.406,35.156,39.062,73.242,3.906,0
1579272276.941,66.406,39.062,37.109,68.848,-14.160,0
1579272276.944,71.289,46.875,31.250,69.336,79.102,0
1579272276.948,71.777,45.410,37.109,69.336,140.137,0
1579272276.952,62.988,40.039,57.617,64.453,106.445,0
1579272276.956,57.129,41.016,53.711,59.082,53.223,0
1579272276.960,59.570,45.410,38.086,58.105,22.461,0
1579272276.956,69.336,55.176,43.457,67.383,51.758,0
1579272276.960,66.406,53.223,50.781,70.312,81.543,0
1579272276.964,56.152,41.992,48.340,62.500,33.691,0
1579272276.968,58.594,38.574,51.758,58.594,54.688,0
1579272276.972,64.453,41.504,44.922,67.871,79.102,0
1579272276.976,65.430,41.504,35.156,80.078,20.508,0
1579272276.980,63.965,37.598,52.246,80.566,9.277,0
1579272276.983,59.570,33.203,59.082,76.660,27.344,0
1579272276.987,59.570,39.551,54.199,78.613,53.711,0
1579272276.991,60.059,43.945,50.781,83.984,89.844,0
1579272276.995,61.035,38.086,52.246,83.984,89.844,0
1579272276.999,66.895,46.387,59.570,86.426,39.551,0
1579272276.996,63.477,47.363,53.711,81.543,21.484,0
1579272277.000,59.570,40.527,49.316,78.125,11.719,0
1579272277.004,58.105,40.527,56.152,81.543,31.250,0
1579272277.008,61.035,48.340,49.805,71.289,41.504,0
1579272277.012,72.754,45.898,41.992,66.406,17.578,0
1579272277.016,78.613,35.645,43.945,76.172,31.738,0
1579272277.020,63.477,39.551,42.480,69.336,32.227,0
1579272277.023,41.992,37.598,49.805,52.246,-9.277,0
1579272277.027,41.504,32.227,67.871,53.223,23.438,0
1579272277.031,42.480,29.297,73.242,57.129,13.672,0
1579272277.035,44.922,36.621,73.730,65.430,48.828,0
1579272277.039,45.410,35.645,67.383,66.895,76.172,0
1579272277.056,35.156,29.785,55.664,51.758,15.137,0
1579272277.060,37.598,34.668,62.500,49.316,49.316,0
1579272277.064,41.504,31.250,61.523,56.641,63.477,0
1579272277.068,38.574,29.785,56.152,64.453,45.898,0
1579272277.072,41.504,35.645,57.617,68.359,25.391,0
1579272277.076,49.316,37.109,46.387,66.895,14.648,0
1579272277.080,47.852,36.133,44.434,63.965,40.527,0
1579272277.083,46.875,41.992,60.547,66.406,27.344,0
1579272277.087,47.852,38.574,62.988,66.406,-4.395,0
1579272277.091,43.945,34.180,51.270,61.523,20.020,0
1579272277.095,47.363,38.086,48.340,66.895,81.543,0
1579272277.099,52.734,42.480,58.105,75.195,80.078,0
1579272277.099,44.922,37.598,57.129,65.918,59.082,0
1579272277.103,38.574,33.203,40.527,51.758,35.645,0
1579272277.107,38.086,41.504,38.086,58.594,20.996,0
1579272277.111,37.109,44.922,57.617,67.383,-1.465,0
1579272277.115,35.645,41.992,70.801,63.477,-2.930,0
1579272277.119,36.621,41.504,67.871,61.035,37.109,0
1579272277.123,38.086,46.387,54.688,58.105,-9.277,0
1579272277.126,39.551,50.781,53.711,60.059,-37.109,0
1579272277.130,39.551,50.781,56.152,61.035,-0.488,0
1579272277.134,34.668,52.734,55.176,52.734,67.383,0
1579272277.138,35.156,54.688,54.688,49.805,73.242,0
1579272277.142,33.691,51.758,31.250,42.969,7.812,0
1579272277.136,26.855,47.363,32.227,39.551,35.645,0
1579272277.140,25.391,42.969,57.617,41.016,66.895,0
1579272277.144,23.438,42.480,58.105,37.109,58.594,0
1579272277.148,17.090,44.922,52.246,36.621,42.969,0
1579272277.152,18.066,40.527,50.293,43.457,0.000,0
1579272277.156,20.020,39.551,55.176,42.480,19.531,0
1579272277.160,14.160,47.363,52.246,35.156,55.176,0
1579272277.163,17.090,44.922,30.273,28.809,62.500,0
1579272277.167,22.461,40.039,25.391,26.855,25.391,0
1579272277.171,23.926,38.574,52.246,27.832,-19.531,0
1579272277.175,18.555,37.598,62.988,18.555,-5.859,0
1579272277.179,11.230,37.598,53.711,12.695,69.336,0
1579272277.197,15.137,38.574,48.828,16.602,43.457,0
1579272277.201,18.066,37.109,47.852,19.531,-7.324,0
1579272277.205,17.090,38.086,46.875,16.113,30.762,0
1579272277.209,14.160,43.945,43.945,12.695,60.547,0
1579272277.213,11.230,47.363,44.922,18.555,35.156,0
1579272277.217,12.695,42.480,47.852,20.508,47.363,0
1579272277.221,12.207,38.086,45.898,17.578,42.480,0
1579272277.224,12.695,40.039,37.109,18.555,20.020,0
1579272277.228,20.996,47.852,41.504,26.367,49.805,0
1579272277.232,17.090,47.363,49.805,29.785,49.316,0
1579272277.236,13.672,47.852,51.758,27.832,71.289,0
1579272277.240,23.438,53.711,51.270,24.414,60.059,0
1579272277.237,27.344,49.316,46.875,23.926,41.504,0
1579272277.241,24.414,43.457,45.410,30.273,69.824,0
1579272277.245,21.973,42.969,44.922,33.203,56.152,0
1579272277.249,22.949,48.340,49.316,29.297,73.730,0
1579272277.253,27.344,49.316,46.387,26.367,21.973,0
1579272277.257,26.855,43.945,37.109,25.879,0.000,0
1579272277.261,24.902,42.480,41.992,27.832,46.875,0
1579272277.264,33.203,53.711,53.711,35.156,76.172,0
1579272277.268,35.645,53.711,55.664,37.598,68.848,0
1579272277.272,23.926,38.086,45.410,25.391,-2.441,0
1579272277.276,24.414,44.434,41.504,23.926,-23.926,0
1579272277.280,27.832,48.340,40.527,31.250,-10.254,0
1579272277.277,26.855,45.410,35.645,29.785,37.598,0
1579272277.281,27.344,46.875,35.645,26.367,99.609,0
1579272277.285,25.391,49.805,44.922,28.320,94.727,0
1579272277.289,26.367,47.852,51.758,33.691,112.305,0
1579272277.293,24.414,44.922,58.594,29.785,76.660,0
1579272277.297,26.367,48.828,56.152,30.273,90.332,0
1579272277.301,44.922,59.570,43.457,43.457,44.434,0
1579272277.304,56.152,59.570,52.246,54.199,20.020,0
1579272277.308,32.227,48.340,56.641,30.273,35.156,0
1579272277.312,18.555,44.922,51.270,9.277,74.707,0
1579272277.316,23.438,40.527,53.223,18.555,117.188,0
1579272277.320,20.020,37.598,51.758,16.113,19.531,0
1579272277.336,22.461,39.551,45.410,14.160,-23.926,0
1579272277.340,23.438,40.527,38.574,14.648,-3.418,0
1579272277.344,24.902,47.852,50.293,18.555,58.105,0
1579272277.348,23.438,45.898,55.664,26.855,89.355,0
1579272277.352,22.461,39.062,53.711,20.508,67.383,0
1579272277.356,23.926,47.852,53.223,18.066,40.527,0
1579272277.360,23.438,53.223,43.945,20.020,38.574,0
1579272277.363,21.973,52.734,53.223,25.391,71.777,0
1579272277.367,13.672,42.480,63.477,20.508,72.754,0
1579272277.371,13.184,37.109,55.176,11.719,34.180,0
1579272277.375,15.625,40.039,40.527,15.137,51.270,0
1579272277.379,16.602,41.504,40.039,20.020,77.637,0
1579272277.376,19.531,45.410,51.758,27.344,93.262,0
1579272277.380,20.508,41.992,56.152,29.297,65.430,0
1579272277.384,24.902,42.969,57.129,34.180,61.035,0
1579272277.388,20.020,45.898,51.270,36.621,81.543,0
1579272277.392,19.043,40.527,46.387,31.738,13.672,0
1579272277.396,22.461,33.203,43.457,27.344,-11.230,0
1579272277.400,19.043,39.062,33.691,24.414,8.301,0
1579272277.403,21.973,47.363,38.086,24.902,12.207,0
1579272277.407,19.531,39.551,43.945,26.367,17.578,0
1579272277.411,22.461,35.156,52.734,26.367,54.688,0
1579272277.415,24.902,37.598,63.477,27.344,50.293,0
1579272277.419,17.090,39.062,62.012,23.438,3.418,0
1579272277.416,19.531,40.039,64.453,23.926,15.137,0
1579272277.420,30.273,44.922,64.941,28.809,44.922,0
1579272277.424,22.461,46.387,53.223,20.508,33.691,0
1579272277.428,17.578,42.969,49.805,16.113,59.082,0
1579272277.432,22.949,42.480,49.316,23.438,43.457,0
1579272277.436,20.020,39.551,36.133,28.320,20.020,0
1579272277.440,24.902,43.457,42.480,31.738,28.320,0
1579272277.443,25.391,47.363,52.246,31.250,-31.738,0
1579272277.447,17.090,43.457,47.363,25.391,-33.691,0
1579272277.451,21.973,49.316,54.199,27.832,22.461,0
1579272277.455,21.973,48.828,58.105,30.273,28.809,0
1579272277.459,20.020,47.363,53.711,27.832,-16.602,0
1579272277.476,23.438,45.898,47.852,24.902,-10.742,0
1579272277.480,18.066,40.039,41.504,29.297,6.836,0
1579272277.484,16.602,41.016,36.133,29.297,-1.953,0
1579272277.488,17.090,43.457,29.785,25.879,49.316,0
1579272277.492,20.996,43.945,39.062,28.809,44.922,0
1579272277.496,26.367,48.340,60.547,29.785,23.438,0
1579272277.500,27.832,53.223,60.059,29.297,44.434,0
1579272277.503,30.273,57.129,59.082,33.203,8.301,0
1579272277.507,27.832,53.711,63.965,30.273,-15.625,0
1579272277.511,21.484,41.504,48.340,20.020,-5.371,0
1579272277.515,22.461,40.527,47.363,20.508,33.203,0
1579272277.519,21.973,45.898,44.922,18.066,45.410,0
1579272277.517,21.484,43.945,37.109,14.160,84.473,0
1579272277.521,25.391,44.922,47.852,17.090,72.754,0
1579272277.525,29.785,47.363,59.082,26.367,31.250,0
1579272277.529,17.578,45.898,60.547,23.438,80.078,0
1579272277.533,12.695,43.945,56.152,13.672,35.645,0
1579272277.537,19.043,41.504,54.199,17.090,-22.461,0
1579272277.541,23.438,41.992,54.688,24.414,98.633,0
1579272277.544,28.809,41.992,56.641,24.414,136.719,0
1579272277.548,20.996,36.133,45.898,12.695,31.250,0
1579272277.552,15.625,36.621,41.504,7.812,66.895,0
1579272277.556,13.672,38.574,37.109,11.719,54.688,0
1579272277.560,14.648,42.480,33.691,17.090,25.391,0
1579272277.556,18.066,47.852,40.039,13.672,64.453,0
1579272277.560,16.602,48.828,42.969,6.348,11.719,0
1579272277.564,17.578,51.270,48.340,8.789,-0.977,0
1579272277.568,17.090,45.898,50.293,8.789,55.176,0
1579272277.572,15.625,37.109,48.828,2.930,74.219,0
1579272277.576,22.461,37.598,51.758,6.348,70.801,0
1579272277.580,27.344,38.574,48.340,8.301,83.496,0
1579272277.583,27.344,41.992,48.828,15.137,117.188,0
1579272277.587,28.809,47.363,48.828,19.043,111.816,0
1579272277.591,20.996,41.504,37.109,6.348,47.363,0
1579272277.595,20.508,39.062,39.551,7.812,33.203,0
1579272277.599,27.832,41.992,42.969,17.090,16.113,0
1579272277.616,22.461,44.922,43.457,19.531,-24.414,0
1579272277.620,20.020,41.992,44.922,15.137,5.859,0
1579272277.624,24.414,38.086,48.828,12.207,44.434,0
1579272277.628,25.879,37.598,54.199,18.555,59.570,0
1579272277.632,36.621,34.668,55.176,31.738,67.383,0
1579272277.636,41.504,44.434,44.922,30.273,57.129,0
1579272277.640,28.809,55.176,39.551,5.371,15.137,0
1579272277.643,23.926,52.246,39.062,-2.441,12.207,0
1579272277.647,31.250,52.734,42.969,14.160,21.973,0
1579272277.651,25.879,45.898,43.457,16.113,20.508,0
1579272277.655,27.832,41.016,29.785,13.672,71.289,0
1579272277.659,36.133,42.969,30.762,21.973,111.328,0
1579272277.656,34.668,41.504,42.969,28.809,60.547,0
1579272277.660,34.180,44.434,48.828,32.227,62.500,0
1579272277.664,33.203,54.199,51.270,22.949,43.457,0
1579272277.668,30.273,55.664,45.410,20.020,34.668,0
1579272277.672,33.691,49.316,41.992,27.344,41.992,0
1579272277.676,38.574,49.805,46.387,29.297,34.180,0
1579272277.680,32.227,47.852,51.270,21.484,-10.254,0
1579272277.683,38.086,51.270,54.199,24.414,-28.320,0
1579272277.687,47.363,54.199,46.387,39.062,40.527,0
1579272277.691,36.621,45.410,39.062,26.367,49.316,0
1579272277.695,32.715,44.922,49.805,19.531,61.523,0
1579272277.699,28.809,48.828,53.711,26.855,46.387,0
1579272277.696,27.832,44.922,45.898,28.809,-5.371,0
1579272277.700,33.691,45.410,40.039,36.133,9.277,0
1579272277.704,33.203,43.457,50.781,33.203,59.570,0
1579272277.708,33.691,40.527,54.199,29.785,86.426,0
1579272277.712,37.109,43.945,48.340,36.133,44.922,0
1579272277.716,36.621,42.969,46.875,41.504,40.527,0
1579272277.720,40.527,42.480,47.852,41.992,60.059,0
1579272277.723,42.480,44.922,48.828,36.621,27.832,0
1579272277.727,35.645,43.457,50.293,33.203,4.395,0
1579272277.731,41.992,52.246,56.152,48.340,17.578,0
1579272277.735,44.434,51.270,52.734,50.293,33.203,0
1579272277.739,33.691,35.156,46.875,37.598,61.035,0
1579272277.756,37.598,38.574,46.875,37.109,-7.812,0
1579272277.760,39.062,46.875,51.758,39.062,4.395,0
1579272277.764,33.691,41.504,53.223,44.434,108.398,0
1579272277.768,42.969,43.457,53.223,42.969,62.500,0
1579272277.772,39.062,45.410,52.734,36.621,58.594,0
1579272277.776,32.715,43.945,43.945,37.109,44.434,0
1579272277.780,34.668,49.805,44.434,37.598,-19.043,0
1579272277.783,22.461,42.480,56.152,29.785,10.742,0
1579272277.787,24.902,41.504,61.523,29.785,40.527,0
1579272277.791,31.738,51.270,61.035,36.133,86.426,0
1579272277.795,19.043,46.387,49.805,24.902,15.137,0
1579272277.799,16.602,41.504,46.387,21.484,-34.180,0
1579272277.797,23.926,40.039,50.781,22.461,43.945,0
1579272277.801,27.344,44.434,51.758,20.996,45.410,0
1579272277.805,29.297,46.387,52.246,29.297,59.082,0
1579272277.809,30.273,47.363,42.969,30.273,62.500,0
1579272277.813,33.203,43.945,38.574,25.879,40.527,0
1579272277.817,31.738,40.527,55.664,24.414,3.418,0
1579272277.821,27.344,43.945,64.453,24.902,11.719,0
1579272277.824,21.973,44.434,59.082,25.391,94.727,0
1579272277.828,14.648,42.969,43.945,21.973,89.844,0
1579272277.832,19.531,48.340,47.852,20.508,40.527,0
1579272277.836,25.391,45.410,62.988,22.461,9.277,0
1579272277.840,20.996,38.086,58.105,21.484,27.832,0
1579272277.836,24.902,44.434,50.293,23.438,83.984,0
1579272277.840,31.738,50.781,49.805,24.414,46.387,0
1579272277.844,33.203,49.316,45.410,24.414,-6.348,0
1579272277.848,31.250,48.340,40.527,28.320,44.434,0
1579272277.852,30.273,47.852,45.898,28.320,58.594,0
1579272277.856,30.273,48.828,50.293,22.949,20.020,0
1579272277.860,25.391,49.316,52.246,19.531,44.434,0
1579272277.863,22.949,49.316,54.688,21.484,10.254,0
1579272277.867,28.809,45.898,50.781,26.855,-6.836,0
1579272277.871,36.621,42.480,55.664,29.785,9.277,0
1579272277.875,34.180,42.480,58.594,25.391,-33.691,0
1579272277.879,23.438,39.062,49.316,19.531,-32.227,0
1579272277.897,30.762,39.551,41.504,25.391,41.016,0
1579272277.901,30.273,41.016,27.344,27.832,39.062,0
1579272277.905,27.344,44.434,37.109,21.484,26.367,0
1579272277.909,31.250,46.875,54.688,19.531,23.926,0
1579272277.913,28.320,50.293,58.105,22.949,-0.488,0
1579272277.917,35.645,50.293,58.105,29.297,63.965,0
1579272277.921,48.828,56.152,54.199,37.109,64.453,0
1579272277.924,35.156,54.199,46.875,27.832,29.297,0
1579272277.928,15.625,43.457,53.223,15.137,21.973,0
1579272277.932,24.414,44.922,63.477,26.855,22.949,0
1579272277.936,36.621,51.758,64.941,34.180,53.223,0
1579272277.940,32.715,51.758,58.594,22.949,41.504,0
1579272277.936,31.738,48.828,48.340,24.414,19.531,0
1579272277.940,34.668,49.316,44.434,32.227,62.988,0
1579272277.944,33.691,45.898,53.223,30.273,40.039,0
1579272277.948,36.621,43.457,54.688,30.762,-13.184,0
1579272277.952,34.668,44.434,44.434,34.668,42.480,0
1579272277.956,35.156,41.016,49.805,37.598,104.980,0
1579272277.960,38.086,43.945,55.664,36.133,70.801,0
1579272277.963,34.180,51.758,58.594,32.227,21.973,0
1579272277.967,34.180,52.734,53.711,34.668,34.180,0
1579272277.971,35.156,49.316,44.434,31.738,68.359,0
1579272277.975,43.945,56.152,47.363,35.645,68.848,0
1579272277.979,40.527,59.082,53.711,32.227,61.035,0
1579272277.996,28.809,42.480,50.781,17.578,68.848,0
1579272278.000,31.738,37.109,52.734,23.438,54.199,0
1579272278.004,28.809,35.645,51.758,22.949,13.672,0
1579272278.008,25.879,42.480,47.363,17.090,-20.020,0
1579272278.012,28.320,56.641,52.246,17.578,-45.410,0
1579272278.016,29.785,53.223,51.758,20.020,-16.113,0
1579272278.020,32.227,48.828,48.828,21.973,68.848,0
1579272278.023,37.598,52.734,40.527,24.414,54.688,0
1579272278.027,37.598,49.805,35.645,26.855,74.219,0
1579272278.031,35.645,49.805,44.922,31.250,90.332,0
1579272278.035,37.598,49.316,59.082,34.180,29.297,0
1579272278.039,38.574,42.969,59.570,30.762,12.207,0
1579272278.036,38.086,40.527,58.594,28.320,-14.648,0
1579272278.040,38.574,45.898,62.500,32.715,2.441,0
1579272278.044,33.203,43.945,52.734,29.785,31.250,0
1579272278.048,30.762,41.992,49.805,27.832,20.508,0
1579272278.052,29.785,44.922,54.199,26.367,12.207,0
1579272278.056,32.227,41.992,50.781,26.367,54.199,0
1579272278.060,31.250,41.504,44.434,30.273,81.055,0
1579272278.063,29.785,46.875,40.039,35.156,79.102,0
1579272278.067,27.344,44.434,39.062,32.227,19.531,0
1579272278.071,21.973,42.480,47.852,24.902,-29.785,0
1579272278.075,28.320,47.852,56.152,24.902,34.180,0
1579272278.079,32.227,48.340,62.012,25.391,46.875,0
1579272278.076,32.227,52.734,68.359,24.414,63.965,0
1579272278.080,38.574,52.734,64.941,26.367,50.293,0
1579272278.084,34.180,43.945,57.129,30.273,20.020,0
1579272278.088,33.203,54.199,60.547,36.621,23.438,0
1579272278.092,30.762,58.105,63.477,30.762,30.762,0
1579272278.096,23.438,48.340,62.988,22.949,48.828,0
1579272278.100,13.672,48.828,59.082,15.625,22.461,0
1579272278.103,11.230,52.734,57.617,13.184,17.090,0
1579272278.107,10.742,54.688,61.035,5.859,44.922,0
1579272278.111,3.418,58.105,65.430,-7.812,43.457,0
1579272278.115,-7.812,62.500,62.012,-17.090,-1.465,0
1579272278.119,-30.762,57.617,57.129,-37.598,15.137,0
1579272278.136,-45.898,60.547,60.547,-48.340,18.066,0
1579272278.140,-69.824,66.406,58.594,-77.148,-3.418,0
1579272278.144,-87.891,73.242,54.688,-104.004,33.691,0
1579272278.148,-99.121,73.242,53.711,-108.887,111.816,0
1579272278.152,-123.047,65.430,45.898,-126.953,116.699,0
1579272278.156,-132.324,71.289,33.203,-135.254,56.152,0
1579272278.160,-127.441,74.707,46.387,-131.348,16.602,0
1579272278.163,-137.207,68.359,65.430,-138.672,-22.949,0
1579272278.167,-136.719,66.406,60.547,-135.254,48.828,0
1579272278.171,-125.977,70.801,58.105,-128.906,66.406,0
1579272278.175,-133.301,70.312,59.082,-135.254,3.906,0
1579272278.179,-121.582,70.801,57.129,-119.629,15.625,0
1579272278.177,-102.051,69.336,53.223,-100.586,38.574,0
1579272278.181,-102.051,63.477,52.734,-104.004,41.016,0
1579272278.185,-83.496,62.988,52.246,-86.914,26.367,0
1579272278.189,-69.824,62.012,50.781,-74.219,50.293,0
1579272278.193,-70.312,57.129,56.152,-78.613,31.250,0
1579272278.197,-48.828,55.664,61.523,-60.059,-13.672,0
1579272278.201,-36.621,57.129,56.152,-47.852,24.902,0
1579272278.204,-36.133,56.152,57.129,-47.852,91.797,0
1579272278.208,-17.090,57.617,58.594,-21.484,101.074,0
1579272278.212,-1.465,55.664,49.805,1.953,37.598,0
1579272278.216,-0.488,47.852,53.223,-5.859,70.312,0
1579272278.220,20.508,41.992,52.246,6.348,100.098,0
1579272278.217,34.180,46.387,57.617,22.949,97.168,0
1579272278.221,39.062,54.688,65.918,32.715,42.480,0
1579272278.225,52.734,44.434,48.828,45.898,-13.672,0
1579272278.229,54.688,37.109,46.387,44.434,54.199,0
1579272278.233,61.523,36.133,49.316,48.828,94.238,0
1579272278.237,73.242,34.668,43.457,61.523,22.949,0
1579272278.241,68.848,41.016,42.969,64.941,13.672,0
1579272278.244,71.777,46.387,40.527,64.941,19.531,0
1579272278.248,81.055,47.363,36.133,67.871,-39.062,0
1579272278.252,80.566,46.387,35.156,68.848,13.184,0
1579272278.256,84.473,50.781,39.062,70.801,48.340,0
1579272278.260,85.449,49.805,41.504,74.219,16.602,0
1579272278.276,82.031,46.875,39.551,72.754,30.273,0
1579272278.280,88.867,54.688,41.504,80.078,-8.789,0
1579272278.284,91.797,50.781,41.016,83.984,-4.883,0
1579272278.288,83.496,37.109,40.527,72.266,69.336,0
1579272278.292,86.914,39.551,45.898,71.289,43.457,0
1579272278.296,85.449,40.527,36.621,75.195,27.344,0
1579272278.300,72.266,38.086,31.250,78.613,31.250,0
1579272278.303,70.801,37.598,41.992,73.730,17.578,0
1579272278.307,76.172,39.062,49.316,69.336,30.762,0
1579272278.311,78.613,39.551,51.270,74.219,63.477,0
1579272278.315,76.660,39.551,46.875,77.637,106.445,0
1579272278.319,79.102,44.434,43.457,79.590,78.613,0
1579272278.316,82.520,42.969,47.363,74.219,96.680,0
1579272278.320,76.660,42.480,42.480,68.359,89.355,0
1579272278.324,76.660,43.457,40.039,71.289,41.016,0
1579272278.328,77.148,42.480,40.039,77.637,81.543,0
1579272278.332,76.172,43.457,38.574,74.219,20.996,0
1579272278.336,78.613,41.992,42.480,68.848,-17.090,0
1579272278.340,79.590,42.480,43.457,71.289,20.020,0
1579272278.343,80.566,43.457,44.434,71.289,49.316,0
1579272278.347,76.172,38.086,46.387,67.383,87.402,0
1579272278.351,71.777,37.598,48.828,65.430,112.793,0
1579272278.355,68.848,39.062,52.246,61.523,57.617,0
1579272278.359,69.336,40.527,48.340,67.383,16.602,0
1579272278.356,75.195,51.270,48.828,73.242,-14.648,0
1579272278.360,66.895,43.945,44.434,60.547,-20.508,0
1579272278.364,69.824,36.133,41.992,57.129,75.684,0
1579272278.368,70.801,41.504,40.039,61.035,61.523,0
1579272278.372,64.941,44.922,37.598,63.477,14.160,0
1579272278.376,62.012,39.551,53.711,61.523,35.156,0
1579272278.380,60.547,38.574,59.082,55.176,76.172,0
1579272278.383,58.594,37.598,51.270,55.176,82.031,0
1579272278.387,57.617,38.086,52.246,56.641,58.594,0
1579272278.391,58.105,40.039,50.293,52.246,55.176,0
1579272278.395,55.664,39.062,48.828,48.340,32.715,0
1579272278.399,59.082,43.457,56.641,52.246,-21.973,0
1579272278.416,54.199,43.945,41.992,53.223,32.715,0
1579272278.420,54.688,48.340,38.574,53.223,3.906,0
1579272278.424,58.105,50.781,59.570,53.711,-21.973,0
1579272278.428,45.410,41.992,55.664,41.016,23.438,0
1579272278.432,45.898,38.574,50.293,43.457,47.363,0
1579272278.436,48.828,43.457,49.805,50.293,22.949,0
1579272278.440,44.434,43.457,56.641,43.457,47.852,0
1579272278.443,47.852,36.621,61.035,41.016,64.453,0
1579272278.447,42.480,35.156,51.758,42.480,9.766,0
1579272278.451,36.133,37.598,46.875,43.457,31.250,0
1579272278.455,39.062,44.922,38.086,43.457,56.641,0
1579272278.459,43.945,43.457,41.016,39.551,29.785,0
1579272278.457,48.340,42.480,54.688,43.457,24.902,0
1579272278.461,47.852,47.852,60.059,48.340,86.426,0
1579272278.465,44.434,42.480,52.246,37.598,104.492,0
1579272278.469,46.387,36.133,45.898,28.320,46.387,0
1579272278.473,43.945,36.621,48.340,28.320,50.781,0
1579272278.477,44.922,40.039,48.828,37.109,18.066,0
1579272278.481,45.410,42.480,50.781,39.551,24.902,0
1579272278.484,32.715,40.527,44.434,32.227,55.176,0
1579272278.488,28.320,40.527,39.551,30.762,84.961,0
1579272278.492,28.320,41.992,44.922,35.156,93.750,0
1579272278.496,34.668,41.992,51.270,37.598,20.996,0
1579272278.500,37.598,43.945,62.500,39.551,-45.410,0
1579272278.496,26.855,35.645,64.941,34.180,23.926,0
1579272278.500,22.461,33.203,48.828,26.855,102.051,0
1579272278.504,24.414,42.969,39.551,28.809,37.109,0
1579272278.508,25.391,43.945,46.875,24.902,-15.625,0
1579272278.512,25.879,40.039,51.758,20.508,6.348,0
1579272278.516,28.320,41.504,40.527,24.902,43.945,0
1579272278.520,33.203,42.969,32.715,32.227,57.617,0
1579272278.523,34.180,36.133,45.898,33.691,83.496,0
1579272278.527,32.715,28.320,59.570,31.738,40.039,0
1579272278.531,39.551,32.715,55.664,41.992,0.488,0
1579272278.535,37.598,41.992,41.992,35.645,42.969,0
1579272278.539,30.273,55.176,43.945,19.531,52.246,0
1579272278.556,32.715,58.594,45.898,19.043,39.062,0
1579272278.560,31.738,48.828,33.691,13.672,32.227,0
1579272278.564,37.598,47.852,33.203,19.043,27.832,0
1579272278.568,41.504,44.922,37.109,25.879,33.203,0
1579272278.572,38.574,45.898,39.062,21.484,71.289,0
1579272278.576,37.109,49.805,40.527,23.926,99.121,0
1579272278.580,40.527,48.340,28.809,30.273,62.988,0
1579272278.583,39.062,50.293,33.691,29.785,48.340,0
1579272278.587,37.598,47.363,53.711,27.344,56.152,0
1579272278.591,43.457,47.363,51.758,24.902,29.297,0
1579272278.595,40.527,50.781,42.480,27.832,-4.883,0
1579272278.599,35.645,44.922,45.410,36.133,25.391,0
1579272278.596,39.551,41.992,43.945,37.598,60.547,0
1579272278.600,46.387,48.340,44.922,34.668,73.730,0
1579272278.604,42.969,51.758,42.969,35.645,54.688,0
1579272278.608,33.203,39.551,34.180,33.203,26.367,0
1579272278.612,28.809,35.645,41.992,31.250,99.121,0
1579272278.616,30.762,40.527,54.688,25.391,103.027,0
1579272278.620,38.086,45.410,57.617,26.855,2.441,0
1579272278.623,33.203,44.922,50.293,29.785,13.672,0
1579272278.627,31.738,39.551,42.480,27.344,-2.441,0
1579272278.631,35.156,42.969,36.621,25.391,10.742,0
1579272278.635,30.273,44.434,41.016,19.043,101.562,0
1579272278.639,34.180,41.504,49.805,22.461,57.129,0
1579272278.636,43.457,55.176,53.711,37.109,-3.418,0
1579272278.640,42.969,56.641,52.246,34.668,3.906,0
1579272278.644,34.180,42.969,50.293,27.344,-13.672,0
1579272278.648,37.598,39.551,58.594,32.227,-15.137,0
1579272278.652,41.016,41.016,57.129,33.203,34.180,0
1579272278.656,38.086,48.340,45.410,29.297,20.508,0
1579272278.660,38.086,52.246,38.086,24.902,7.812,0
1579272278.663,35.645,50.781,35.156,24.902,34.180,0
1579272278.667,30.762,51.758,37.109,26.855,15.137,0
1579272278.671,25.879,47.852,43.945,23.438,45.410,0
1579272278.675,30.762,48.828,58.105,23.438,58.105,0
1579272278.679,34.668,51.270,58.594,22.461,37.598,0
1579272278.696,25.391,41.992,43.457,15.625,45.410,0
1579272278.700,27.344,41.504,45.410,18.555,26.367,0
1579272278.704,30.273,42.480,53.223,18.555,-34.180,0
1579272278.708,30.273,43.457,45.898,13.184,-9.766,0
1579272278.712,33.203,47.852,43.457,18.555,29.785,0
1579272278.716,27.344,44.434,41.992,23.438,31.738,0
1579272278.720,22.949,39.551,41.504,20.996,63.477,0
1579272278.723,29.297,43.457,55.176,19.531,31.250,0
1579272278.727,42.480,46.875,54.688,28.809,51.758,0
1579272278.731,46.875,43.945,45.898,40.527,61.035,0
1579272278.735,32.715,44.922,45.898,37.598,27.832,0
1579272278.739,16.602,44.922,61.035,21.484,48.828,0
1579272278.736,10.742,33.203,59.570,13.184,70.312,0
1579272278.740,17.090,31.738,52.246,15.137,53.711,0
1579272278.744,12.695,36.621,59.570,10.254,55.176,0
1579272278.748,11.230,36.133,62.012,8.789,33.203,0
1579272278.752,20.508,36.133,56.641,12.695,21.973,0
1579272278.756,20.020,38.086,49.805,17.090,53.711,0
1579272278.760,19.043,38.574,49.316,19.043,74.219,0
1579272278.763,22.461,37.598,53.223,19.531,58.594,0
1579272278.767,22.949,42.480,56.152,21.973,56.641,0
1579272278.771,21.484,40.039,48.828,23.926,43.945,0
1579272278.775,18.066,30.762,41.992,23.438,4.883,0
1579272278.779,20.508,36.133,42.480,21.484,39.551,0
1579272278.776,26.367,42.969,53.223,19.531,49.316,0
1579272278.780,32.227,47.852,63.477,25.879,-0.488,0
1579272278.784,26.855,46.875,55.664,31.250,-48.828,0
1579272278.788,20.996,42.480,50.781,26.855,-36.621,0
1579272278.792,22.461,39.551,57.129,19.043,7.812,0
1579272278.796,23.438,37.598,56.152,16.602,19.531,0
1579272278.800,25.391,32.715,48.340,18.066,71.777,0
1579272278.803,34.180,43.457,58.105,27.832,76.660,0
1579272278.807,36.621,47.852,62.012,28.320,26.367,0
1579272278.811,27.344,38.086,46.875,18.555,34.180,0
1579272278.815,27.344,40.527,48.828,25.391,54.688,0
1579272278.819,31.738,45.898,54.199,32.227,-1.953,0
1579272278.836,26.855,46.875,50.293,28.809,-25.879,0
1579272278.840,26.367,40.527,54.688,20.508,47.852,0
1579272278.844,35.156,41.016,62.012,20.020,19.043,0
1579272278.848,32.227,41.504,61.523,24.414,32.227,0
1579272278.852,31.738,40.527,57.617,26.855,76.172,0
1579272278.856,37.598,43.945,55.664,29.297,79.102,0
1579272278.860,32.227,43.457,50.293,23.438,64.453,0
1579272278.863,32.227,42.480,48.340,23.926,29.785,0
1579272278.867,36.133,42.969,49.316,32.227,12.207,0
1579272278.871,34.668,41.992,43.457,30.762,-25.391,0
1579272278.875,34.180,42.969,35.156,27.832,-13.184,0
1579272278.879,32.227,44.922,43.945,27.832,41.016,0
1579272278.876,28.320,48.340,52.734,27.832,69.824,0
1579272278.880,27.832,45.898,55.176,24.414,77.637,0
1579272278.884,27.344,39.062,53.223,19.531,49.805,0
1579272278.888,20.996,39.062,41.992,23.926,23.926,0
1579272278.892,24.414,46.387,53.223,34.668,0.488,0
1579272278.896,25.879,50.781,61.523,31.250,-0.977,0
1579272278.900,16.602,41.016,45.410,17.090,18.555,0
1579272278.903,19.531,37.598,41.016,21.973,20.020,0
1579272278.907,25.391,41.016,46.387,27.832,27.344,0
1579272278.911,23.926,44.922,60.059,26.855,85.449,0
1579272278.915,21.973,48.828,58.105,24.414,64.941,0
1579272278.919,26.855,44.922,49.316,23.438,31.738,0
1579272278.916,28.320,46.387,50.293,27.832,13.672,0
1579272278.920,26.855,44.922,47.852,26.855,16.602,0
1579272278.924,31.250,46.875,51.758,26.855,39.062,0
1579272278.928,31.250,51.270,58.594,30.273,39.062,0
1579272278.932,30.762,44.922,45.410,28.809,60.059,0
1579272278.936,33.203,50.293,33.691,28.809,62.012,0
1579272278.940,31.738,49.805,41.992,28.320,37.598,0
1579272278.943,30.273,48.340,52.734,23.926,74.219,0
1579272278.947,29.785,49.316,46.875,19.043,92.773,0
1579272278.951,27.832,48.828,43.457,21.973,108.398,0
1579272278.955,26.855,50.781,46.875,24.414,85.449,0
1579272278.959,26.367,49.316,41.504,20.996,0.000,0
1579272278.976,25.879,46.387,41.016,20.020,-14.648,0
1579272278.980,24.414,40.527,47.852,20.508,48.828,0
1579272278.984,26.855,44.434,50.781,25.879,16.113,0
1579272278.988,31.738,54.688,46.875,32.227,-46.387,0
1579272278.992,26.367,47.852,42.969,25.879,26.855,0
1579272278.996,25.391,39.062,42.969,24.414,65.430,0
1579272279.000,33.203,47.852,48.828,27.344,49.316,0
1579272279.003,34.668,50.781,41.016,21.484,25.879,0
1579272279.007,27.344,41.992,30.762,17.090,20.508,0
1579272279.011,26.367,40.527,45.898,19.043,25.879,0
1579272279.015,22.949,40.039,56.152,17.090,89.844,0
1579272279.019,29.785,48.828,60.059,21.973,48.828,0
1579272279.016,28.320,49.805,52.734,19.531,0.488,0
1579272279.020,20.508,42.480,33.691,18.066,91.309,0
1579272279.024,24.902,43.457,39.062,25.391,135.742,0
1579272279.028,25.879,45.410,55.176,20.020,76.660,0
1579272279.032,28.320,46.387,56.641,14.648,28.809,0
1579272279.036,22.949,45.410,47.363,18.555,46.387,0
1579272279.040,18.066,48.340,47.852,24.414,42.969,0
1579272279.043,21.484,43.945,42.969,19.531,16.602,0
1579272279.047,27.344,40.039,40.039,15.625,29.785,0
1579272279.051,32.227,43.945,52.246,18.555,33.691,0
1579272279.055,30.273,46.875,46.875,22.949,42.480,0
1579272279.059,29.785,50.293,40.039,27.344,59.082,0
1579272279.056,30.762,47.363,50.781,27.344,80.566,0
1579272279.060,26.367,42.480,53.223,20.508,77.148,0
1579272279.064,24.902,47.363,53.711,18.066,69.824,0
1579272279.068,25.391,46.387,55.664,21.973,63.477,0
1579272279.072,22.949,39.062,53.711,21.484,10.254,0
1579272279.076,19.043,38.574,50.293,14.160,6.836,0
1579272279.080,24.414,43.945,48.340,15.137,30.762,0
1579272279.083,31.738,46.387,53.223,19.043,70.801,0
1579272279.087,22.461,37.598,58.594,11.719,68.359,0
1579272279.091,18.066,35.645,45.898,9.766,44.922,0
1579272279.095,27.344,46.387,43.457,17.090,12.695,0
1579272279.099,21.973,45.410,53.223,17.578,-10.254,0
1579272279.116,18.555,45.898,55.664,16.602,52.734,0
1579272279.120,25.879,43.945,61.035,14.160,49.805,0
1579272279.124,24.414,38.574,52.246,9.766,62.500,0
1579272279.128,25.879,45.410,53.711,9.766,76.660,0
1579272279.132,29.785,49.805,62.012,14.648,33.691,0
1579272279.136,32.227,53.223,47.852,14.160,32.715,0
1579272279.140,32.227,53.223,43.945,8.301,-6.348,0
1579272279.143,31.738,50.293,53.711,20.020,0.000,0
1579272279.147,27.832,50.293,43.457,31.738,73.730,0
1579272279.151,16.602,44.922,43.945,21.484,53.711,0
1579272279.155,15.137,40.527,56.152,13.184,-13.184,0
1579272279.159,21.973,43.945,49.316,16.602,-12.207,0
1579272279.156,22.949,47.363,41.016,19.531,-3.906,0
1579272279.160,22.461,42.480,46.387,14.648,2.930,0
1579272279.164,28.320,42.480,52.734,11.719,44.922,0
1579272279.168,32.715,48.340,53.711,20.996,52.246,0
1579272279.172,25.879,42.969,46.387,19.531,-5.371,0
1579272279.176,15.625,41.504,45.410,5.371,-3.418,0
1579272279.180,17.090,41.016,52.246,0.488,34.180,0
1579272279.183,15.137,35.645,53.223,-0.977,27.832,0
1579272279.187,12.207,40.527,41.504,6.836,-22.949,0
1579272279.191,21.973,41.504,39.551,16.602,-51.758,0
1579272279.195,27.344,42.480,50.293,19.043,-17.090,0
1579272279.199,27.832,50.293,60.059,21.973,-4.883,0
1579272279.196,27.832,49.805,58.594,22.461,-38.086,0
1579272279.200,27.832,47.852,53.711,23.926,-1.953,0
1579272279.204,22.949,44.434,51.270,21.973,119.141,0
1579272279.208,20.508,41.504,45.410,17.090,97.656,0
1579272279.212,32.715,48.340,51.270,24.414,25.879,0
1579272279.216,34.180,47.363,54.199,25.391,46.387,0
1579272279.220,26.855,42.480,49.316,18.555,71.289,0
1579272279.223,32.227,47.852,45.410,18.066,91.309,0
1579272279.227,34.668,54.199,48.340,21.484,64.453,0
1579272279.231,33.203,49.316,47.852,26.367,65.430,0
1579272279.235,34.180,45.410,40.527,25.391,96.191,0
1579272279.239,32.227,44.922,46.387,23.438,59.082,0
1579272279.256,36.133,51.758,59.082,31.250,19.043,0
1579272279.260,37.598,52.734,61.035,38.086,70.801,0
1579272279.264,25.879,43.457,51.758,29.785,46.875,0
1579272279.268,21.973,37.598,48.828,20.508,-15.625,0
1579272279.272,21.484,33.691,51.270,15.137,18.555,0
1579272279.276,21.973,41.504,50.293,19.043,64.453,0
1579272279.280,27.344,45.898,41.992,22.461,47.363,0
1579272279.283,30.273,42.480,30.273,23.438,9.766,0
1579272279.287,31.738,41.504,42.969,21.973,5.371,0
1579272279.291,27.832,39.062,55.664,21.973,17.090,0
1579272279.295,29.785,41.992,44.922,20.996,28.809,0
1579272279.299,35.156,50.293,52.246,24.902,16.113,0
1579272279.296,26.855,44.922,55.176,14.648,-28.809,0
1579272279.300,22.949,43.945,42.480,4.883,16.602,0
1579272279.304,23.926,48.340,48.828,13.184,63.965,0
1579272279.308,21.484,44.434,48.340,20.996,21.973,0
1579272279.312,27.344,43.945,40.039,20.996,11.230,0
1579272279.316,30.762,38.086,55.176,18.555,53.711,0
1579272279.320,30.762,38.574,54.688,25.879,67.383,0
1579272279.323,33.691,43.457,39.551,29.297,56.152,0
1579272279.327,33.691,43.945,45.410,23.438,72.754,0
1579272279.331,36.621,48.828,61.035,22.949,57.129,0
1579272279.335,39.062,48.340,60.547,26.855,21.484,0
1579272279.339,32.227,41.992,44.434,23.438,6.836,0
1579272279.336,28.320,43.945,41.992,24.414,20.508,0
1579272279.340,26.367,41.504,50.293,23.926,28.809,0
1579272279.344,28.320,39.062,49.805,18.555,-0.488,0
1579272279.348,30.273,41.504,46.387,24.414,-26.367,0
1579272279.352,36.133,43.945,47.363,35.645,9.766,0
1579272279.356,31.738,42.480,53.711,27.344,40.039,0
1579272279.360,28.320,44.434,51.758,24.414,41.504,0
1579272279.363,29.297,45.898,45.898,27.832,78.125,0
1579272279.367,22.461,38.086,43.457,16.602,11.230,0
1579272279.371,23.926,41.504,44.434,13.184,-2.930,0
1579272279.375,22.949,43.457,41.992,14.648,67.871,0
1579272279.379,28.809,43.945,39.551,17.090,99.609,0
1579272279.398,29.785,47.852,45.410,22.461,82.031,0
1579272279.402,23.438,45.898,47.363,23.926,21.973,0
1579272279.406,31.738,43.457,50.293,20.508,25.391,0
1579272279.410,38.086,45.410,52.246,24.902,36.133,0
1579272279.414,27.344,42.480,47.852,27.344,64.941,0
1579272279.418,29.297,44.434,45.410,30.762,84.961,0
1579272279.422,27.344,46.387,47.852,24.414,61.523,0
1579272279.425,22.949,42.969,45.898,15.137,13.672,0
1579272279.429,26.367,41.504,46.875,23.438,22.461,0
1579272279.433,23.438,39.551,50.781,21.973,50.293,0
1579272279.437,26.367,43.457,45.410,13.672,27.832,0
1579272279.441,25.879,46.875,42.969,8.789,6.348,0
1579272279.436,20.020,44.922,44.922,13.184,28.809,0
1579272279.440,21.973,36.621,48.828,28.320,10.254,0
1579272279.444,37.109,29.785,53.711,40.039,-3.906,0
1579272279.448,39.062,47.852,44.434,29.297,35.645,0
1579272279.452,16.602,61.035,34.668,6.836,40.527,0
1579272279.456,7.324,48.828,30.762,2.930,-7.324,0
1579272279.460,22.949,50.781,33.203,8.789,17.578,0
1579272279.463,24.902,56.152,32.227,2.930,46.875,0
1579272279.467,13.672,58.105,26.367,-6.348,52.246,0
1579272279.471,18.555,62.500,27.832,0.000,25.391,0
1579272279.475,25.391,57.617,26.855,8.789,64.453,0
1579272279.479,23.926,53.223,24.902,8.789,127.441,0
1579272279.476,25.879,51.758,23.438,14.160,74.707,0
1579272279.480,27.832,46.387,20.020,19.531,83.008,0
1579272279.484,39.062,50.781,35.645,26.855,69.824,0
1579272279.488,43.457,55.176,43.945,24.902,13.184,0
1579272279.492,41.016,50.781,40.527,24.414,11.230,0
1579272279.496,39.062,48.828,40.527,34.668,16.113,0
1579272279.500,39.551,52.246,36.621,38.086,1.953,0
1579272279.503,44.434,51.270,37.109,31.250,17.578,0
1579272279.507,39.062,47.363,44.434,24.902,73.730,0
1579272279.511,39.062,47.852,47.363,30.762,52.734,0
1579272279.515,39.062,50.293,44.434,34.668,-0.977,0
1579272279.519,40.039,51.758,36.621,33.691,31.250,0
1579272279.536,40.039,48.828,29.297,24.414,63.965,0
1579272279.540,41.016,49.805,44.434,24.902,28.320,0
1579272279.544,38.574,47.852,53.223,28.809,-1.465,0
1579272279.548,30.762,47.363,42.969,22.949,19.043,0
1579272279.552,34.668,50.293,45.898,22.949,36.621,0
1579272279.556,35.645,47.363,49.805,24.414,6.836,0
1579272279.560,32.715,41.016,38.086,23.926,25.879,0
1579272279.563,34.180,41.504,31.250,29.785,65.430,0
1579272279.567,30.762,45.898,39.062,27.344,30.762,0
1579272279.571,21.973,41.992,45.898,16.113,54.199,0
1579272279.575,28.320,47.852,61.035,22.949,69.824,0
1579272279.579,35.645,46.875,66.406,32.227,45.410,0
1579272279.576,19.531,33.691,50.293,24.902,35.645,0
1579272279.580,18.555,39.062,40.039,22.461,-41.992,0
1579272279.584,28.809,43.457,42.969,30.273,24.902,0
1579272279.588,38.574,44.922,48.828,36.621,110.352,0
1579272279.592,38.574,48.828,45.410,32.227,68.848,0
1579272279.596,36.133,50.781,39.551,30.273,-11.719,0
1579272279.600,38.574,51.758,36.621,32.227,42.969,0
1579272279.603,36.133,52.246,38.574,34.668,52.246,0
1579272279.607,42.480,54.688,47.852,37.109,12.207,0
1579272279.611,47.852,58.105,57.617,34.180,67.871,0
1579272279.615,37.598,51.758,52.734,23.926,20.020,0
1579272279.619,32.227,44.922,45.898,25.391,-0.488,0
1579272279.636,39.062,46.875,43.945,27.344,24.902,0
1579272279.640,40.527,45.898,41.992,20.996,31.250,0
1579272279.644,39.062,44.922,46.387,21.484,8.301,0
1579272279.648,40.039,45.898,53.223,27.832,19.531,0
1579272279.652,41.016,45.898,49.316,29.785,8.301,0
1579272279.656,41.992,50.293,35.156,29.297,-17.090,0
1579272279.660,46.387,56.641,41.504,29.297,54.199,0
1579272279.663,42.969,48.828,52.734,24.902,32.227,0
1579272279.667,29.785,38.574,46.387,19.043,-16.113,0
1579272279.671,29.785,41.992,49.316,20.020,-3.906,0
1579272279.675,33.691,43.945,50.293,18.555,17.578,0
1579272279.679,29.297,43.457,51.270,16.113,51.758,0
1579272279.676,24.902,42.969,50.293,23.438,87.402,0
1579272279.680,24.414,42.480,50.293,23.438,40.039,0
1579272279.684,23.438,41.504,47.363,14.160,31.250,0
1579272279.688,22.461,42.480,41.504,14.648,97.168,0
1579272279.692,31.738,48.340,41.016,25.391,70.312,0
1579272279.696,37.109,47.363,48.828,28.809,64.453,0
1579272279.700,29.785,41.016,49.316,20.508,36.133,0
1579272279.703,26.855,41.992,47.363,17.090,-1.953,0
1579272279.707,27.344,44.434,52.246,21.484,30.762,0
1579272279.711,27.832,47.852,53.223,24.414,38.574,0
1579272279.715,26.367,40.039,42.480,17.578,45.410,0
1579272279.719,28.809,33.691,40.039,15.625,0.488,0
1579272279.716,31.738,38.086,45.410,18.066,75.684,0
1579272279.720,30.762,39.551,39.062,20.996,83.008,0
1579272279.724,39.062,46.387,38.086,28.320,2.441,0
1579272279.728,32.227,48.828,37.109,23.926,46.387,0
1579272279.732,18.066,41.504,37.598,15.137,32.715,0
1579272279.736,22.461,42.969,45.898,20.996,37.598,0
1579272279.740,22.461,42.969,45.898,18.066,55.664,0
1579272279.743,23.438,41.016,47.363,12.207,93.262,0
1579272279.747,27.344,45.898,46.875,15.137,100.586,0
1579272279.751,26.855,47.852,41.992,14.648,25.879,0
1579272279.755,24.414,44.434,45.898,15.625,-0.977,0
1579272279.759,26.367,43.945,32.227,20.508,56.641,0
1579272279.776,36.133,44.922,36.621,30.762,59.570,0
1579272279.780,37.109,41.992,51.270,32.227,52.246,0
1579272279.784,24.902,47.852,48.340,16.113,52.734,0
1579272279.788,18.066,46.875,53.711,5.371,-12.207,0
1579272279.792,20.508,45.898,48.340,8.301,10.742,0
1579272279.796,22.949,49.805,46.875,13.672,49.316,0
1579272279.800,21.973,44.434,43.457,16.602,5.371,0
1579272279.803,21.484,42.969,37.109,17.090,35.645,0
1579272279.807,25.879,41.992,42.969,17.090,60.059,0
1579272279.811,30.273,40.527,45.898,15.137,25.391,0
1579272279.815,33.691,49.805,51.270,14.648,54.688,0
1579272279.819,35.156,55.664,47.852,15.625,44.922,0
1579272279.816,25.879,44.922,24.902,4.883,33.691,0
1579272279.820,24.414,41.504,29.785,3.906,46.387,0
1579272279.824,21.973,47.852,48.340,14.648,26.367,0
1579272279.828,17.578,52.246,48.340,18.555,29.297,0
1579272279.832,15.625,48.340,48.340,16.602,26.367,0
1579272279.836,14.648,45.898,48.828,14.160,11.230,0
1579272279.840,19.043,46.875,47.363,17.578,20.020,0
1579272279.843,22.949,47.363,44.434,22.461,53.223,0
1579272279.847,19.043,48.340,41.016,20.020,93.750,0
1579272279.851,23.438,49.805,34.180,18.555,50.781,0
1579272279.855,31.250,53.711,39.551,23.438,11.719,0
1579272279.859,28.320,46.387,55.664,19.531,37.598,0
1579272279.856,23.438,36.621,62.500,18.066,69.336,0
1579272279.860,21.973,40.039,57.129,18.066,79.590,0
1579272279.864,26.855,43.945,50.293,17.090,45.898,0
1579272279.868,28.320,43.945,50.781,26.367,-18.066,0
1579272279.872,29.297,46.387,49.805,31.250,28.320,0
1579272279.876,29.297,49.805,49.316,26.367,26.367,0
1579272279.880,25.391,49.316,53.223,21.973,-23.926,0
1579272279.883,31.738,52.734,54.688,30.273,6.836,0
1579272279.887,29.297,51.758,37.109,26.367,36.621,0
1579272279.891,18.066,46.875,34.180,9.766,79.102,0
1579272279.895,21.484,43.945,49.805,7.812,87.891,0
1579272279.899,20.508,41.504,49.805,10.254,23.926,0
1579272279.916,20.020,45.410,49.805,16.602,-46.875,0
1579272279.920,27.344,47.852,50.781,21.973,-46.875,0
1579272279.924,28.809,47.852,50.781,17.090,25.391,0
1579272279.928,30.273,47.852,46.875,15.625,40.527,0
1579272279.932,32.715,45.410,40.039,23.438,20.996,0
1579272279.936,39.062,47.852,44.434,33.691,62.988,0
1579272279.940,36.621,52.246,44.434,31.250,84.473,0
1579272279.943,24.902,42.969,42.480,20.508,81.543,0
1579272279.947,26.367,40.039,50.293,23.438,20.020,0
1579272279.951,27.344,43.945,53.223,30.273,-23.926,0
1579272279.955,33.203,41.992,54.688,33.203,-42.969,0
1579272279.959,35.156,41.504,57.617,29.297,-30.273,0
1579272279.956,30.762,42.480,51.758,27.344,13.672,0
1579272279.960,33.203,45.410,47.852,30.273,59.570,0
1579272279.964,32.715,49.805,46.387,28.809,35.156,0
1579272279.968,31.250,44.922,43.945,26.855,2.930,0
1579272279.972,34.180,45.898,41.504,29.297,50.293,0
1579272279.976,43.457,58.105,51.758,37.109,41.504,0
1579272279.980,34.180,52.246,59.082,23.926,18.066,0
1579272279.983,25.879,41.992,49.316,10.254,28.320,0
1579272279.987,28.320,46.387,44.922,13.672,68.359,0
1579272279.991,22.949,44.922,42.969,19.043,95.703,0
1579272279.995,20.508,41.016,35.156,19.531,22.949,0
1579272279.999,27.832,49.316,41.992,16.602,-48.340,0
1579272279.996,24.414,50.781,53.711,18.555,-25.391,0
1579272280.000,17.090,42.480,42.969,16.602,56.152,0
1579272280.004,22.461,46.875,44.922,20.996,70.801,0
1579272280.008,22.461,44.922,56.641,17.578,104.492,0
1579272280.012,20.996,37.598,45.410,9.277,114.746,0
1579272280.016,25.391,39.551,41.992,14.160,33.691,0
1579272280.020,26.855,42.480,49.316,19.531,37.109,0
1579272280.023,29.785,47.363,48.828,18.066,70.801,0
1579272280.027,37.598,49.805,45.898,20.508,60.059,0
1579272280.031,44.922,46.875,46.387,30.762,58.594,0
1579272280.035,31.738,49.316,42.480,31.250,86.426,0
1579272280.039,14.648,52.246,42.969,16.113,114.258,0
1579272280.056,12.207,50.293,48.828,11.230,143.555,0
1579272280.060,12.207,46.875,45.898,14.160,51.270,0
1579272280.064,15.625,44.434,50.293,18.555,-14.648,0
1579272280.068,19.043,42.480,49.805,25.879,20.020,0
1579272280.072,23.438,45.410,49.805,23.438,14.648,0
1579272280.076,24.414,46.875,50.781,20.508,10.254,0
1579272280.080,31.250,47.852,49.316,25.391,-6.348,0
1579272280.083,39.062,52.734,51.758,29.785,-6.836,0
1579272280.087,33.203,49.805,49.316,25.391,22.461,0
1579272280.091,34.180,50.293,46.387,23.926,53.711,0
1579272280.095,38.574,58.105,41.504,30.273,28.809,0
1579272280.099,33.203,57.617,51.758,29.297,12.695,0
1579272280.096,27.344,48.828,49.805,19.531,-2.930,0
1579272280.100,26.367,44.434,41.504,14.160,-51.270,0
1579272280.104,18.066,41.016,49.805,11.230,7.324,0
1579272280.108,19.043,43.457,54.199,13.184,69.824,0
1579272280.112,24.414,53.223,57.617,18.555,61.523,0
1579272280.116,25.391,48.828,56.152,16.602,37.109,3
1579272280.120,26.855,40.039,48.340,13.672,-9.766,0
1579272280.123,33.203,46.387,49.316,24.902,-4.395,0
1579272280.127,24.414,47.363,47.363,26.855,48.340,0
1579272280.131,24.414,50.293,42.969,27.832,89.355,0
1579272280.135,37.598,51.270,42.969,31.250,107.910,0
1579272280.139,31.250,41.504,43.457,26.855,100.098,0
1579272280.136,28.809,45.410,45.410,26.855,22.949,0
1579272280.140,36.621,49.805,47.852,29.297,21.973,0
1579272280.144,35.156,42.969,47.363,23.438,29.785,0
1579272280.148,29.785,43.945,48.828,21.484,79.102,0
1579272280.152,36.133,49.316,44.434,27.344,132.812,0
1579272280.156,36.621,50.293,41.992,25.879,82.520,0
1579272280.160,35.645,52.246,54.688,25.391,108.398,0
1579272280.163,43.945,54.199,56.152,26.855,88.379,0
1579272280.167,44.434,54.199,44.922,25.879,17.578,0
1579272280.171,34.668,46.875,41.504,24.902,-2.930,0
1579272280.175,32.715,46.875,44.922,24.414,36.621,0
1579272280.179,34.180,47.363,41.504,23.926,3.906,0
1579272280.196,36.133,51.758,48.828,29.785,16.602,0
1579272280.200,36.621,54.199,54.199,27.344,34.668,0
1579272280.204,39.062,46.875,37.598,23.926,-2.441,0
1579272280.208,37.598,45.410,39.551,25.879,31.738,0
1579272280.212,30.273,51.270,39.551,25.391,66.406,0
1579272280.216,34.180,57.129,43.945,30.762,75.684,0
1579272280.220,39.062,57.129,69.336,29.785,62.012,0
1579272280.223,26.367,46.387,62.012,13.672,59.082,0
1579272280.227,25.391,44.434,51.270,16.602,45.898,0
1579272280.231,30.762,47.852,51.758,23.926,5.859,0
1579272280.235,27.832,48.340,47.363,24.902,35.645,0
1579272280.239,26.367,51.270,41.016,24.414,65.918,0
1579272280.236,32.715,51.270,42.480,25.391,43.945,0
1579272280.240,36.133,50.781,50.781,31.738,-16.113,0
1579272280.244,30.273,52.246,56.152,31.738,-3.418,0
1579272280.248,20.996,45.410,51.758,24.902,52.246,0
1579272280.252,23.926,45.410,54.199,28.320,81.543,0
1579272280.256,30.273,49.316,54.688,33.691,59.570,0
1579272280.260,24.414,41.504,39.551,27.832,0.000,0
1579272280.263,19.043,36.133,41.992,20.996,20.996,0
1579272280.267,23.438,35.645,56.152,17.090,25.879,0
1579272280.271,24.902,41.016,56.641,19.043,41.992,0
1579272280.275,23.438,40.527,45.898,20.508,85.938,0
1579272280.279,25.879,40.039,48.828,19.531,70.312,0
1579272280.276,26.367,48.828,58.105,18.066,33.203,0
1579272280.280,27.344,47.363,52.734,17.578,14.648,0
1579272280.284,23.926,38.574,49.316,17.090,53.711,0
1579272280.288,33.691,48.828,58.594,28.809,6.836,0
1579272280.292,30.273,50.293,54.688,27.832,51.270,0
1579272280.296,15.625,37.598,48.340,13.672,90.332,0
1579272280.300,20.508,36.621,44.922,18.555,67.871,0
1579272280.303,24.414,39.062,43.457,22.949,67.383,0
1579272280.307,23.926,43.457,38.086,20.996,62.500,0
1579272280.311,25.391,47.852,41.504,23.438,96.191,0
1579272280.315,24.902,46.387,58.105,29.297,72.266,0
1579272280.319,20.996,42.969,54.199,28.320,31.250,0
1579272280.336,30.273,51.270,43.457,25.391,22.461,0
1579272280.340,32.227,55.664,46.387,25.879,52.734,0
1579272280.344,21.484,45.898,42.480,21.973,83.008,0
1579272280.348,19.531,36.133,49.805,21.973,83.496,0
1579272280.352,15.625,33.691,62.012,16.602,52.734,0
1579272280.356,16.602,42.480,51.758,7.324,40.527,0
1579272280.360,20.020,44.434,43.457,3.418,37.598,0
1579272280.363,20.020,44.434,46.875,9.277,56.641,0
1579272280.367,15.137,44.922,51.270,11.719,57.129,0
1579272280.371,13.672,38.086,56.641,10.254,36.133,0
1579272280.375,21.973,43.945,56.152,14.160,65.430,0
1579272280.379,13.672,45.410,47.363,14.160,71.777,0
1579272280.380,17.578,43.457,48.828,17.090,22.461,0
1579272280.384,24.414,44.434,50.781,14.648,15.137,0
1579272280.388,18.066,43.457,38.086,6.348,6.836,0
1579272280.392,27.832,46.875,46.387,12.695,2.441,0
1579272280.396,30.273,48.828,54.688,20.508,6.348,0
1579272280.400,27.344,49.805,44.922,16.602,20.020,0
1579272280.404,28.809,45.410,47.852,14.648,39.062,0
1579272280.407,29.297,39.551,52.246,18.555,22.461,0
1579272280.411,34.668,47.363,53.711,27.344,41.504,0
1579272280.415,36.133,48.828,42.969,26.367,76.172,0
1579272280.419,30.762,42.969,28.320,16.113,19.531,0
1579272280.423,31.250,46.387,43.457,19.043,-13.184,0
1579272280.416,29.785,45.410,55.176,24.414,78.125,0
1579272280.420,27.344,40.039,53.711,26.855,112.305,0
1579272280.424,25.879,36.133,52.734,19.531,22.461,0
1579272280.428,23.438,36.133,46.387,16.602,11.230,0
1579272280.432,23.926,37.598,43.945,21.484,23.438,0
1579272280.436,24.902,42.480,44.922,22.949,-6.348,0
1579272280.440,22.461,46.875,52.246,20.508,35.645,0
1579272280.443,18.066,41.992,51.758,13.184,23.926,0
1579272280.447,20.020,42.969,40.039,17.090,51.270,0
1579272280.451,19.043,45.898,43.457,19.531,43.457,0
1579272280.455,24.902,42.480,48.828,15.625,2.930,0
1579272280.459,34.180,39.551,47.852,18.066,-13.672,0
1579272280.476,19.043,39.062,43.457,12.695,22.461,0
1579272280.480,11.719,38.086,47.852,6.348,48.828,0
1579272280.484,22.461,39.551,57.617,12.207,30.273,0
1579272280.488,32.227,44.434,51.270,19.043,47.852,0
1579272280.492,30.762,40.527,45.898,17.090,107.422,0
1579272280.496,22.461,35.645,41.504,17.578,104.004,0
1579272280.500,26.367,35.156,35.645,21.973,70.801,0
1579272280.503,32.227,41.016,30.762,19.531,30.273,0
1579272280.507,36.621,47.363,37.109,23.438,26.855,0
1579272280.511,37.109,45.898,49.316,27.832,34.180,0
1579272280.515,32.715,44.922,48.828,23.926,-47.852,0
1579272280.519,34.668,42.969,36.133,19.531,-13.184,0
1579272280.516,41.504,44.434,41.016,14.648,0.000,0
1579272280.520,40.039,49.316,59.570,20.508,13.184,0
1579272280.524,28.320,41.016,48.828,20.020,131.836,0
1579272280.528,28.320,38.574,41.992,12.207,109.863,0
1579272280.532,28.809,45.898,48.340,14.160,47.363,0
1579272280.536,24.414,43.945,39.551,20.020,77.637,0
1579272280.540,28.809,45.410,34.668,28.320,86.426,0
1579272280.543,29.785,46.387,45.410,29.297,88.867,0
1579272280.547,19.531,45.898,53.711,26.855,26.855,0
1579272280.551,16.602,46.875,49.805,25.391,66.895,0
1579272280.555,16.602,39.551,43.457,21.484,40.527,0
1579272280.559,19.531,41.992,44.434,28.320,-29.297,0
1579272280.557,14.648,41.016,51.270,22.461,14.160,0
1579272280.561,10.254,34.180,43.457,10.254,9.766,0
1579272280.565,18.555,41.016,43.945,13.184,-7.324,0
1579272280.569,20.508,41.992,44.434,14.648,22.949,0
1579272280.573,19.531,39.062,34.668,11.230,81.543,0
1579272280.577,19.531,39.062,44.922,6.836,53.223,0
1579272280.581,20.996,39.062,52.246,15.137,-5.371,0
1579272280.584,21.973,42.969,54.199,20.996,27.832,0
1579272280.588,20.020,41.992,52.734,11.719,15.625,0
1579272280.592,28.320,47.363,51.758,18.066,10.254,0
1579272280.596,25.391,45.898,40.527,20.020,66.895,0
1579272280.600,17.578,35.156,33.691,15.137,62.012,0
1579272280.616,19.531,32.715,40.039,12.207,92.285,0
1579272280.620,24.414,37.109,46.875,9.277,101.074,0
1579272280.624,21.973,40.039,43.457,4.395,46.387,0
1579272280.628,21.973,35.156,41.992,10.742,28.809,0
1579272280.632,27.832,38.574,48.340,21.973,37.598,0
1579272280.636,28.809,42.480,53.711,20.996,94.727,0
1579272280.640,31.738,48.340,60.059,21.484,70.312,0
1579272280.643,38.574,50.781,55.664,27.344,22.949,0
1579272280.647,30.273,44.434,45.410,28.320,20.020,0
1579272280.651,24.414,41.016,45.898,21.973,30.273,0
1579272280.655,29.785,39.062,43.457,18.555,12.207,0
1579272280.659,26.855,41.016,41.992,20.508,26.855,0
1579272280.656,21.484,43.457,38.086,22.461,55.664,0
1579272280.660,24.902,47.852,45.410,27.832,36.621,0
1579272280.664,27.832,45.410,52.734,23.438,23.438,0
1579272280.668,31.738,41.016,49.805,22.949,44.922,0
1579272280.672,32.715,46.875,55.664,33.203,47.852,0
1579272280.676,26.855,45.898,46.387,24.902,52.246,0
1579272280.680,24.902,40.527,38.574,11.719,25.391,0
1579272280.683,20.996,37.109,44.434,10.254,57.129,0
1579272280.687,21.973,44.434,47.852,16.602,89.844,0
1579272280.691,25.391,43.945,51.270,20.020,47.363,0
1579272280.695,30.762,42.480,34.668,19.043,37.109,0
1579272280.699,32.227,46.387,37.109,20.020,50.293,0
1579272280.697,28.809,46.387,55.176,20.996,49.805,0
1579272280.701,29.297,48.828,49.805,24.902,46.875,0
1579272280.705,30.273,49.316,51.270,21.973,71.777,0
1579272280.709,27.832,45.410,40.039,7.812,59.082,0
1579272280.713,29.297,44.922,32.227,10.742,39.551,0
1579272280.717,28.809,41.992,41.992,20.020,-19.043,0
1579272280.721,25.879,41.016,49.805,22.949,-62.012,0
1579272280.724,28.320,44.922,53.223,23.926,12.207,0
1579272280.728,30.762,50.293,54.688,21.484,76.660,0
1579272280.732,35.645,48.340,48.828,24.414,42.969,0
1579272280.736,37.598,45.410,41.504,27.344,56.152,0
1579272280.740,30.273,47.363,50.781,23.926,32.227,0
1579272280.758,31.250,49.316,50.293,26.367,51.758,0
1579272280.762,36.133,44.434,47.363,29.785,83.496,0
1579272280.766,29.297,34.668,50.293,23.926,62.988,0
1579272280.770,27.344,37.109,53.223,21.973,-18.555,0
1579272280.774,27.832,40.039,54.199,25.391,-30.273,0
1579272280.778,28.320,41.504,43.945,27.832,58.105,0
1579272280.782,22.949,41.992,43.945,24.902,49.805,0
1579272280.785,22.949,45.898,56.152,26.367,80.078,0
1579272280.789,28.809,46.387,56.152,28.320,96.680,0
1579272280.793,36.621,50.293,50.293,33.691,8.301,0
1579272280.797,38.574,54.688,45.410,35.645,17.578,0
1579272280.801,28.320,46.387,45.410,21.484,42.480,0
1579272280.796,29.785,44.434,47.852,15.137,15.625,0
1579272280.800,30.273,46.387,51.758,21.484,-1.465,0
1579272280.804,34.668,50.293,47.363,30.273,15.137,0
1579272280.808,31.250,50.781,35.645,30.762,15.137,0
1579272280.812,23.926,44.922,33.691,20.508,47.363,0
1579272280.816,32.227,46.387,42.480,21.484,62.500,0
1579272280.820,35.156,47.852,53.223,26.855,19.043,0
1579272280.823,32.715,49.805,53.711,28.809,-6.348,0
1579272280.827,34.180,48.340,46.387,30.762,20.996,0
1579272280.831,29.297,42.480,45.410,18.555,70.801,0
1579272280.835,23.926,41.504,50.293,10.742,17.578,0
1579272280.839,24.902,41.992,45.898,19.531,22.461,0
1579272280.836,26.367,40.527,41.504,20.020,30.762,0
1579272280.840,30.273,37.109,43.945,17.578,10.254,0
1579272280.844,38.574,42.969,49.316,22.949,40.527,0
1579272280.848,36.133,49.805,49.805,27.344,20.996,0
1579272280.852,27.832,47.363,44.434,21.484,-13.672,0
1579272280.856,35.645,52.246,47.363,20.020,30.273,0
1579272280.860,41.504,57.617,41.016,25.391,94.238,0
1579272280.863,33.691,47.852,33.691,18.066,84.473,0
1579272280.867,26.367,43.945,36.133,16.602,76.172,0
1579272280.871,27.344,45.410,38.574,21.484,60.547,0
1579272280.875,31.738,45.410,52.734,22.949,70.312,0
1579272280.879,29.785,45.898,58.105,26.855,55.664,0
1579272280.898,32.715,44.434,60.059,25.879,38.086,0
1579272280.902,29.785,40.039,55.176,24.902,42.969,0
1579272280.906,32.715,44.434,52.246,28.320,75.684,0
1579272280.910,39.551,50.293,50.293,24.902,90.820,0
1579272280.914,27.344,43.945,44.434,21.973,46.875,0
1579272280.918,28.320,42.969,53.223,22.949,8.301,0
1579272280.922,30.762,42.969,41.992,18.555,6.348,0
1579272280.925,26.855,44.922,33.691,22.461,57.129,0
1579272280.929,26.855,45.410,53.711,29.785,68.848,0
1579272280.933,29.297,43.945,61.035,28.809,13.184,0
1579272280.937,31.250,45.898,55.176,23.438,15.625,0
1579272280.941,28.809,41.992,52.734,23.438,37.109,0
1579272280.937,32.715,42.969,55.176,31.738,38.086,0
1579272280.941,36.621,44.434,50.293,31.250,84.473,0
1579272280.945,36.621,37.109,40.527,24.414,76.660,0
1579272280.949,31.250,39.551,34.180,20.996,57.617,0
1579272280.953,34.180,44.922,36.133,24.414,69.824,0
1579272280.957,39.551,46.875,52.734,29.297,53.711,0
1579272280.961,31.250,43.457,61.035,26.855,58.105,0
1579272280.964,34.668,42.969,52.246,25.879,32.227,0
1579272280.968,33.691,43.945,47.363,24.414,-6.348,0
1579272280.972,24.414,41.016,49.805,22.949,56.152,0
1579272280.976,29.785,43.945,51.270,23.438,62.500,0
1579272280.980,32.227,49.316,52.734,22.949,33.203,0
1579272280.976,27.832,42.480,39.551,17.578,51.758,0
1579272280.980,25.879,36.133,32.715,12.695,0.000,0
1579272280.984,28.809,43.457,40.527,15.625,-32.227,0
1579272280.988,32.227,49.316,51.758,16.113,52.734,0
1579272280.992,27.344,45.410,60.547,14.648,65.918,0
1579272280.996,26.367,42.480,57.129,17.578,-19.531,0
1579272281.000,24.414,42.480,47.852,16.113,-12.695,0
1579272281.003,26.855,43.945,49.805,17.578,34.180,0
1579272281.007,36.621,50.781,54.688,20.996,54.688,0
1579272281.011,27.344,47.363,41.504,15.137,34.180,0
1579272281.015,18.555,40.527,37.598,14.648,17.090,0
1579272281.019,21.484,39.551,42.480,19.043,79.590,0
1579272281.036,26.855,41.016,42.480,16.602,31.738,0
1579272281.040,34.668,46.387,47.852,18.555,-27.832,0
1579272281.044,34.180,47.363,56.152,27.832,-22.461,0
1579272281.048,27.832,42.480,55.664,23.438,53.711,0
1579272281.052,28.320,39.551,55.664,15.625,101.562,0
1579272281.056,30.273,40.039,53.223,18.066,42.480,0
1579272281.060,33.691,45.410,56.641,23.926,19.531,0
1579272281.063,35.645,47.363,48.828,27.344,23.926,0
1579272281.067,26.367,42.969,20.508,18.555,26.367,0
1579272281.071,20.996,43.457,32.227,13.184,-31.250,0
1579272281.075,23.926,41.504,60.059,20.020,13.672,0
1579272281.079,25.879,43.457,60.547,26.367,9.277,0
1579272281.076,24.902,44.922,49.805,23.438,19.531,0
1579272281.080,31.738,45.410,40.039,18.555,75.684,0
1579272281.084,34.668,42.969,42.969,22.461,19.043,0
1579272281.088,37.109,44.434,54.199,32.227,41.992,0
1579272281.092,33.203,44.922,56.152,26.367,27.832,0
1579272281.096,21.484,39.551,44.922,15.137,13.184,0
1579272281.100,27.344,41.016,41.504,15.625,41.992,0
1579272281.103,24.414,38.574,50.293,18.555,85.449,0
1579272281.107,22.461,38.086,48.828,22.461,80.566,0
1579272281.111,28.809,43.945,44.922,18.555,-9.277,0
1579272281.115,23.438,46.875,46.875,15.625,-8.301,0
1579272281.119,22.461,46.387,48.340,18.066,47.363,0
1579272281.136,26.855,44.922,54.688,22.949,66.895,0
1579272281.140,29.297,52.246,60.547,28.809,93.750,0
1579272281.144,28.320,54.199,50.293,24.902,63.965,0
1579272281.148,25.879,44.434,39.062,20.996,19.531,0
1579272281.152,30.762,42.969,48.340,22.949,14.160,0
1579272281.156,32.715,48.340,54.199,21.973,-27.832,3
1579272281.160,26.367,45.898,44.922,20.020,-34.668,0
1579272281.163,25.879,41.016,45.410,20.508,42.480,0
1579272281.167,31.250,44.434,50.781,27.344,64.453,0
1579272281.171,30.762,47.363,51.758,27.832,31.250,0
1579272281.175,35.156,51.270,51.270,26.855,48.828,0
1579272281.179,37.109,49.805,47.363,26.855,34.668,0
1579272281.176,31.738,47.363,46.875,24.414,17.578,0
1579272281.180,27.344,50.293,38.574,25.391,16.602,0
1579272281.184,27.832,45.410,30.273,20.508,36.621,0
1579272281.188,24.414,39.551,41.016,18.066,57.617,0
1579272281.192,28.809,43.457,48.340,26.367,26.855,0
1579272281.196,38.086,46.875,48.340,24.414,66.895,0
1579272281.200,32.227,48.340,55.664,20.508,90.332,0
1579272281.203,26.855,49.316,55.176,23.926,67.871,0
1579272281.207,26.367,45.410,47.852,22.461,30.273,0
1579272281.211,28.320,43.457,40.527,22.461,37.598,0
1579272281.215,28.320,41.016,42.480,19.043,26.367,0
1579272281.219,22.949,41.016,43.945,15.137,28.809,0
1579272281.216,17.578,38.086,37.109,14.648,66.406,0
1579272281.220,22.461,39.551,41.016,19.043,55.664,0
1579272281.224,20.508,42.480,44.922,21.484,43.457,0
1579272281.228,21.484,39.551,45.410,18.066,-1.953,0
1579272281.232,25.879,39.551,42.480,19.043,-40.527,0
1579272281.236,20.020,38.086,47.363,21.973,-23.926,0
1579272281.240,23.438,37.598,55.176,23.926,33.203,0
1579272281.243,19.531,37.598,46.387,14.160,17.578,0
1579272281.247,13.672,41.016,41.504,7.324,8.301,0
1579272281.251,19.531,44.922,41.992,11.719,11.719,0
1579272281.255,25.879,42.969,35.645,13.184,35.156,0
1579272281.259,32.715,42.969,44.434,12.695,44.922,0
1579272281.276,32.715,43.457,46.387,7.812,15.625,0
1579272281.280,27.832,39.551,42.969,11.230,-4.883,0
1579272281.284,31.250,37.109,45.898,18.066,8.789,0
1579272281.288,37.598,41.992,42.480,18.555,79.590,0
1579272281.292,37.109,49.805,50.781,20.996,74.219,0
1579272281.296,28.320,45.410,54.199,21.973,8.789,0
1579272281.300,22.949,38.574,54.199,25.391,29.297,0
1579272281.303,20.508,40.039,52.734,21.484,59.082,0
1579272281.307,19.531,39.551,42.480,18.555,39.062,0
1579272281.311,18.555,39.551,39.062,21.484,-20.996,0
1579272281.315,19.043,42.969,44.434,29.297,18.066,0
1579272281.319,24.414,45.410,41.016,30.273,41.016,0
1579272281.317,24.902,44.922,30.762,21.973,44.922,0
1579272281.321,19.531,43.945,43.945,16.602,60.059,0
1579272281.325,26.855,49.805,62.012,27.344,47.852,0
1579272281.329,30.273,47.852,56.641,31.250,53.223,0
1579272281.333,25.879,39.551,47.852,20.020,78.125,0
1579272281.337,29.297,41.016,49.316,20.996,104.492,0
1579272281.341,28.320,45.410,43.945,25.391,69.336,0
1579272281.344,25.391,43.945,36.133,27.832,62.988,0
1579272281.348,35.645,41.992,41.992,31.250,66.406,0
1579272281.352,39.062,40.527,49.316,29.297,34.668,0
1579272281.356,30.762,41.504,47.363,27.832,54.199,0
1579272281.360,36.621,48.828,46.387,33.691,115.723,0
1579272281.356,40.039,49.316,44.434,31.250,71.777,0
1579272281.360,26.855,40.039,46.875,18.555,61.035,0
1579272281.364,27.344,37.109,54.688,17.578,83.984,0
1579272281.368,35.156,41.992,50.781,23.438,47.363,0
1579272281.372,30.762,42.969,40.527,22.949,20.996,0
1579272281.376,25.879,41.016,41.504,20.020,6.836,0
1579272281.380,28.809,46.387,46.387,19.043,62.500,0
1579272281.383,26.855,45.410,42.480,16.113,38.574,0
1579272281.387,33.203,48.340,52.734,21.484,12.207,0
1579272281.391,30.762,50.293,53.223,17.578,-4.883,0
1579272281.395,19.531,42.480,47.363,11.719,8.789,0
1579272281.399,20.508,43.457,48.828,17.578,59.082,0
1579272281.416,23.438,45.898,46.875,22.461,18.066,0
1579272281.420,24.902,43.945,48.828,22.461,-12.207,0
1579272281.424,22.949,43.945,48.828,10.254,61.523,0
1579272281.428,23.926,47.852,45.410,11.230,128.906,0
1579272281.432,26.367,46.387,37.598,21.973,72.754,0
1579272281.436,20.508,41.992,42.480,20.508,-4.883,0
1579272281.440,23.926,49.316,51.758,21.973,32.227,0
1579272281.443,27.832,54.199,45.898,19.531,100.098,0
1579272281.447,20.020,41.992,46.387,11.719,92.773,0
1579272281.451,15.625,37.109,55.176,12.207,54.199,0
1579272281.455,19.531,44.434,52.734,14.160,32.715,0
1579272281.459,22.461,48.340,50.781,15.137,62.500,0
1579272281.456,20.508,46.875,52.734,18.066,57.617,0
1579272281.460,27.832,51.270,45.410,26.367,7.812,0
1579272281.464,29.785,52.246,35.156,24.902,4.395,0
1579272281.468,25.391,46.387,44.922,11.719,-3.418,0
1579272281.472,28.809,46.387,55.664,13.184,30.762,0
1579272281.476,37.109,48.340,45.410,24.414,20.508,0
1579272281.480,27.344,43.945,38.574,17.090,6.836,0
1579272281.483,27.344,43.457,52.734,11.230,73.730,0
1579272281.487,31.738,41.992,58.594,19.531,74.707,0
1579272281.491,27.832,40.527,53.711,23.438,69.824,0
1579272281.495,31.738,42.969,49.316,24.902,64.941,0
1579272281.499,36.133,48.340,43.945,28.320,110.840,0
1579272281.496,38.574,46.875,40.039,28.320,63.477,0
1579272281.500,38.086,48.828,43.457,34.668,100.586,0
1579272281.504,35.156,53.223,50.781,38.574,129.883,0
1579272281.508,39.062,49.316,42.969,33.203,73.242,0
1579272281.512,42.969,48.828,43.457,33.203,65.430,0
1579272281.516,33.691,44.922,56.641,28.320,54.199,0
1579272281.520,28.320,41.992,56.641,25.391,12.207,0
1579272281.523,35.156,41.992,52.734,27.832,-6.348,0
1579272281.527,35.156,43.457,48.828,20.996,9.277,0
1579272281.531,30.762,47.363,46.387,21.484,-36.133,0
1579272281.535,35.156,49.316,39.551,31.738,-12.695,0
1579272281.539,42.480,51.758,35.156,36.621,39.551,0
1579272281.556,39.551,50.293,47.852,28.809,57.617,0
1579272281.560,37.109,47.852,51.270,27.344,39.062,0
1579272281.564,41.504,49.316,47.852,36.621,11.719,0
